Fp1,AF3,F7,F3,FC1,FC5,T7,C3,CP1,CP5,P7,P3,Pz,PO3,O1,Oz,O2,PO4,P4,P8,CP6,CP2,C4,T8,FC6,FC2,F4,F8,AF4,Fp2,Fz,Cz
1.6457692208569998,1.63831092477191,1.5586044980782636,1.6610383915247935,1.6804898318222565,1.6398920449173504,1.6698669182295103,1.7222706716507117,1.7260704605359865,1.7193974826465517,1.6113292949028994,1.746743899326444,1.7359803540520198,1.7285981418827165,1.6261818398766426,1.6080274066194034,1.6480394683084214,1.7228413314890867,1.7428525542251507,1.6525805757548082,1.6990049165160392,1.7531441317262038,1.7295203730621256,1.5767031078728528,1.5627694122731135,1.6931392123744338,1.5974205830856014,1.534958276205086,1.570521257048807,1.6183939509846799,1.692719837945857,1.7430190173209816
1.6616895664832079,1.6887478559542928,1.5829240730597303,1.6613177371406773,1.7116503614128478,1.6650284553315118,1.7452682756299542,1.7213269672423883,1.7497765405170078,1.7951050387800174,1.6591392413531267,1.802160083953552,1.7741318980063745,1.7698899257356113,1.648967931288623,1.640151196481591,1.6994795942278624,1.7548715740288927,1.7527928826169135,1.6815585959094657,1.708350234836252,1.7275830187124785,1.7139025752380912,1.5920374020811572,1.5848057469883738,1.7003755669211653,1.6005988218091918,1.5654375951782185,1.616421530043967,1.6660377856877173,1.709747292631458,1.6924730641389247
1.5982037424553384,1.6084896791233567,1.5091804394347565,1.6208620702530305,1.644035707706201,1.6122026172291193,1.6835298242881707,1.695866529566915,1.7242568044861462,1.7371313981067185,1.5623565657997531,1.7861546867955118,1.7727634874841502,1.7569068461441997,1.6219414547268256,1.6176698407976853,1.678755110329536,1.7155714270707234,1.6920553767960909,1.6516991626650546,1.6044776906024025,1.6411996140502951,1.5599552254309053,1.5049959840352054,1.502158415798079,1.635216495253518,1.5549330144680014,1.4755090150849226,1.5096074594230589,1.5878504481689135,1.6475114715893175,1.6573944640566538
1.6617186868181453,1.6527381944797057,1.5948513510411935,1.6422199124871841,1.658075274808046,1.65536763995951,1.7090534632743162,1.7386035197277723,1.736302131410649,1.7597834679867297,1.6160797535651579,1.7643494224749259,1.7921539392141594,1.7734227071225501,1.6735456370177832,1.674046556827289,1.73242425496849,1.775281175336431,1.749576567719204,1.6983384322163602,1.6745404199634175,1.681863076677682,1.6408181234121364,1.5873850852294336,1.5522770368982526,1.6480168994955835,1.5905886200302526,1.5764704124746451,1.612903377829356,1.6733527104270072,1.6618467967511374,1.6545520218308434
1.6008867448221802,1.5922932462268016,1.5713838219778937,1.6133648573262775,1.6200387635233957,1.6086934330921778,1.6377466661834612,1.6729903249149911,1.7278794139898537,1.7159902342777056,1.576769894208666,1.7561732722249306,1.76447613866751,1.762474154631073,1.6366708352587238,1.6173327591587687,1.7100408146663832,1.717458061738206,1.7015803392952211,1.68520879408766,1.6489028465576148,1.6561060805761991,1.6291068922809193,1.536813268551045,1.5342877184057264,1.6011060056969033,1.5360741015542738,1.5137235718746718,1.5229134778668527,1.5978276701165242,1.6070249168330522,1.6335848181093569
1.6230570754619484,1.6358493171591586,1.5591763990300522,1.6236938983094142,1.6556381520760317,1.6022197411639214,1.6766007425777507,1.7256543686956034,1.729518200033328,1.7775684248007046,1.5995380641646102,1.7766026624534266,1.7531045163291612,1.7568654164440596,1.6071244508481355,1.5924379550064731,1.6939308292944826,1.7337616159063989,1.731732880534419,1.6818345576306433,1.685381532099661,1.696785199870658,1.6831026590585823,1.5671904788683533,1.5598812971114182,1.6334213209761397,1.5593772270165134,1.5044676788020097,1.5739546733707663,1.6175576323652823,1.646821369822082,1.6695241287559328
1.6147093866194369,1.6065926101146195,1.5674830560571231,1.604042004849601,1.613291778920209,1.6012757828389756,1.6733474342217807,1.731090739249382,1.6971813453933065,1.755742556588855,1.595773941871622,1.7762504474973404,1.739355479374882,1.7284907635156015,1.5628808237414087,1.5522713232063565,1.6887934936081679,1.6963114328079472,1.6962248969571843,1.700334615165063,1.6436950752950934,1.627478502553986,1.6155717162098904,1.5332582527170113,1.5498475765100201,1.5912403548400331,1.523859237102925,1.4974227632180246,1.5405742810083531,1.6024172898597084,1.6026948309990117,1.6642071880657654
1.5987473775788792,1.6113418076829515,1.5528945736175799,1.6083573103833386,1.6475924629633434,1.5947953047795655,1.644163141294643,1.7461509384811165,1.7316133597823367,1.7563126634946635,1.5697441008818,1.7579461282758766,1.7581302785276787,1.7202802731271811,1.5628128576186218,1.5826821532838047,1.6774382696960601,1.732218946297363,1.7372650947313222,1.7207778904979616,1.6861912859722448,1.7144652028051341,1.6873132195045888,1.5925941205490706,1.5702664904531713,1.6365134131987082,1.5815287867074173,1.4794198499436768,1.5331431027142552,1.6062383854707254,1.6351560798369575,1.6851455982009513
1.5710666256822843,1.5844176741094886,1.541896646764993,1.569505648476911,1.623277036707415,1.6029217110941365,1.6379064773730692,1.7064975583734643,1.7104003366711538,1.7550840637964047,1.6274273299730029,1.7681287118549185,1.7722199996512642,1.7591707937863923,1.6559574298167732,1.6545246973943528,1.7403139010315107,1.749113276055299,1.7234513483291427,1.7295560880429266,1.657829789600852,1.6865061901625533,1.6304819846269674,1.557384760124427,1.5162203376245869,1.5866007796636212,1.5265772261467736,1.4355400588586458,1.5003796948488428,1.5581440913143914,1.5863741220940828,1.6815438167175614
1.5791907394392768,1.6111536779333704,1.5476064838112866,1.576122671193537,1.6366917286085017,1.594127742398322,1.658597911941018,1.6915009258170948,1.7170000023848178,1.7533751528856858,1.65591836498821,1.768669258747089,1.7521081176877065,1.7656597158122025,1.6905548502419898,1.6964763470309712,1.7645662188704516,1.7721731518477926,1.7557671250491174,1.7471836628126969,1.7141104487547656,1.7211279878836137,1.6856089073792393,1.5634918247611198,1.552762528215289,1.6054447584585558,1.5078632255013789,1.449991275622774,1.5538036155292392,1.5745151866845473,1.6057363785705439,1.6653808050034444
1.6108382533017453,1.6162165753249382,1.592185915497383,1.5902152403770162,1.6435693944315708,1.5958288926349902,1.643757778687298,1.6582199124258183,1.6783436889349965,1.7195414382872274,1.6157240348181632,1.720453690780181,1.706815471719355,1.6987483205739133,1.6280593649866875,1.641959165934588,1.7150684936738372,1.7484582966642246,1.7451838975495162,1.7302784561079312,1.7097853858433318,1.7182309944282932,1.6844523946955796,1.5779638992527851,1.569990440402086,1.6004025201397583,1.5200269575538217,1.4488387379384209,1.5513359007790735,1.5780075433039353,1.6179574191098254,1.6745421256417503
1.5330164117859506,1.522595238645193,1.5188079820955784,1.527471352369925,1.582606632160546,1.5604225769172655,1.6138268520723844,1.6684827180761859,1.6320628258839636,1.686844199600474,1.586028527656973,1.6625502413376176,1.6736464739476415,1.6408785551664575,1.5660346333359625,1.6063077439695705,1.6634221685202997,1.7428635572782487,1.775141143227219,1.7230555257596123,1.734200298259395,1.7682375330913065,1.7190829279025732,1.6006624600403103,1.5394143504031206,1.5497841813162636,1.4736136766554482,1.429293030668152,1.4980642728456388,1.5120023048202607,1.5313976357757662,1.6980353274724367
1.5568709365104259,1.5540037454342923,1.5872205631885807,1.5626832876262702,1.6000067899575068,1.611995618733537,1.6308764412164782,1.623460393083541,1.6322068738727942,1.7024912308072346,1.6136748250857382,1.7005009254338552,1.673671158854053,1.6562211357086525,1.6032993453484647,1.6205390467007106,1.6489544988702527,1.7110505231587796,1.7287869579916075,1.690570239991948,1.6890299131910205,1.7341098497867418,1.6775098310360674,1.6035729493720388,1.552458721866628,1.5372020163517686,1.4837451534958803,1.443377366287034,1.494576813008083,1.5188859496404756,1.5418844389003656,1.7054487407868164
1.5649965979672307,1.571210469650595,1.5743151441991383,1.5484729340632157,1.589730323406461,1.6018798233395724,1.617169011867557,1.6393401548346467,1.6104619547864587,1.7149483311857643,1.6401607642457228,1.7192477477527581,1.682747303359805,1.693367254504446,1.6269504693818375,1.6428698558825112,1.6427077043079814,1.6857108050732617,1.7027771944807242,1.6401130622064468,1.6451546704709048,1.694221274548624,1.6488032805814832,1.5271834397322568,1.514191785113223,1.6002495090179156,1.4876490799952324,1.4660091907598682,1.5065978994932094,1.532934170615414,1.5928840754494502,1.6910663843570368
1.542190424206042,1.5598729595964143,1.5312198724163548,1.5367017014778748,1.5988960161304033,1.566105152581289,1.6124633316458026,1.6180220426671614,1.6158234731945946,1.662236630280016,1.6130915173366336,1.6779054484662013,1.6679800642700209,1.6545230866707643,1.6346934219724503,1.6390236275986696,1.706906892519321,1.7356836894337888,1.7406250292213001,1.7122383220756998,1.6909065209140903,1.718586827791159,1.642776307238339,1.5479525317976268,1.5389355138296577,1.568230478202482,1.503400161166898,1.4310566341171345,1.5204571759938956,1.5362009657595643,1.5847467524025147,1.6732524767362837
1.4986960717781472,1.4994352361234158,1.5260729593165299,1.524529197301435,1.560250049811169,1.5227015347834347,1.601659279537751,1.6255351761734123,1.613100494256522,1.678047380967422,1.628072601622572,1.7036816380556945,1.6861574314378156,1.6657755699386192,1.6047458119045557,1.6039487303425708,1.63483496875294,1.69854080819587,1.7198733329305236,1.667756730140737,1.6585516542808256,1.723736644232396,1.6492410569603209,1.5250208734091946,1.504441152603806,1.5630466310320088,1.4642510682474577,1.4515657988823951,1.4874839752787439,1.4992667212376252,1.5409711742772054,1.671329194830344
1.5489217542795342,1.5646956097620344,1.5501757004885606,1.5589070152625295,1.5854874114340822,1.5554369510147499,1.6011545085990813,1.6463181428389244,1.6066836060897927,1.6596646032087492,1.6004273825440742,1.7053185498814913,1.7014049079371862,1.6827603969694522,1.6138385840551757,1.6266415121325453,1.6657711012955694,1.7251510035195976,1.7425135727298733,1.6754869281910554,1.6758811865592222,1.7504603596128112,1.6611393642645387,1.552464408693788,1.5473129426839738,1.5870202108935607,1.4967386185497218,1.4876361486158423,1.5414869647037552,1.559286084470423,1.5682831187678077,1.6871401085335838
1.5559332523386056,1.575810155193881,1.5393509519681556,1.5842247375646799,1.6437143222857853,1.5191403288435676,1.6062995827737772,1.611045659267456,1.6527330682913075,1.6955498883670148,1.6240679493635035,1.7338628563573626,1.6981562243610302,1.7044663819781243,1.6310245311925908,1.6181115446718424,1.6111110976942271,1.6909917958235012,1.715360661376353,1.6277009254239703,1.6608919014918389,1.7327724889913536,1.6714993412142196,1.5327385062111032,1.5493541772572472,1.6018197849180864,1.510963043012753,1.529182328047289,1.5797572366214836,1.6017692090339641,1.6040366419762255,1.6877813990188557
1.5209398203529296,1.5459139140515763,1.4999200436553073,1.5528035104805873,1.6488999033134888,1.487969010070872,1.634880252456071,1.6174685556573447,1.6785000940397627,1.721664934922794,1.661309621639923,1.7475571207168692,1.7076160896722103,1.7243772581285435,1.6518556421299648,1.6147052265078279,1.6234931187173482,1.7089133364423643,1.7326466974092893,1.6205368792540085,1.658310435216198,1.7286553973765033,1.6701012563634823,1.5198658432145953,1.5220529047073739,1.602408951062866,1.5281372227884975,1.5616771311512752,1.5675934447122468,1.6060094193787966,1.6201612021420657,1.676061920126881
1.5811251516256117,1.5973519833996348,1.5500155024184734,1.6155209348030053,1.6431828800024442,1.534288275311091,1.6370358574413404,1.6341369335075682,1.71982267143233,1.7265654937916837,1.6252435044948228,1.7482942942511224,1.715135660581163,1.7117883075876903,1.5916713324647216,1.5370606408178817,1.5912755870005857,1.6985036348058888,1.7227175042217238,1.643677073953856,1.666699227320717,1.7212695320880897,1.6717460661816532,1.4846747958773046,1.5338684159665688,1.6050263579215243,1.558450558853854,1.521301626107404,1.5927621797678662,1.6333476266836906,1.6420290725426034,1.6366611960009798
1.5502612669154938,1.5665186763096655,1.5116660567611246,1.5501584256084615,1.6563430339451626,1.470255620064559,1.6375065003854554,1.6358328112442873,1.767421094844914,1.7674621931393477,1.6687447671661422,1.8114638558672402,1.7683325446426266,1.7904338819960013,1.6753601937232565,1.6275303521296687,1.667298337627874,1.7692035175848264,1.781205397576662,1.700535490814249,1.728266057246855,1.777727558990803,1.7374776105748104,1.5608223286359726,1.5470520849713802,1.6040342553947189,1.5429936926685424,1.5364783491932938,1.5793222124448068,1.6235959033868181,1.627039303081908,1.6205842712300358
1.5816639049367502,1.605325408832098,1.5170566269838992,1.571598128450147,1.6443449098817884,1.5077201582235278,1.5884799838831059,1.6586174691388735,1.761556562289957,1.7230040656372294,1.566535827347591,1.7844743840618567,1.725361290640465,1.7349520292606286,1.580724328930402,1.5325567462835519,1.5621219435837206,1.6779620043937062,1.6946456792033984,1.5902898659375493,1.6426061552207047,1.6983573194270616,1.6702287526208686,1.4573793110391393,1.5263089165695591,1.6403304643901224,1.583854334154074,1.5502004963288256,1.6122888409952232,1.6466436344290352,1.670317279786557,1.6045226094023333
1.5407968201739328,1.5612611583907503,1.4964571344786497,1.5455160804483992,1.6543468679218345,1.533524553452004,1.660409710273802,1.6793800663609624,1.7577034683411266,1.7565271341496227,1.62750106988384,1.791994111692328,1.7207291925003076,1.7495289634814701,1.6310512142628162,1.5842626518668397,1.6125333352519795,1.723811117897272,1.737343512035933,1.6586151184280513,1.6989293949101503,1.7272895594820061,1.7190225158310728,1.562054586663368,1.5844930776850303,1.6566589242562684,1.576869019166523,1.5412692985429255,1.6048466796585497,1.6197454680424994,1.6523572274481482,1.651272962427511
1.5537709535701254,1.575604640334807,1.5207250148386744,1.5898943286848621,1.6767552142153022,1.5385469121310535,1.6793282476003417,1.682636192100546,1.749999274767171,1.771825820094598,1.711822398781664,1.7908874028834185,1.7136703874229973,1.7550221287776204,1.677945230496428,1.5970925504435156,1.6364985994730963,1.7142229764858843,1.7278310887978305,1.6506979154440506,1.689401197738158,1.7279126229024213,1.7165188685868351,1.500803692313246,1.5649191652557217,1.6524264359203842,1.6024368278259191,1.5128657224643676,1.61552265496354,1.634173313569929,1.661134595880907,1.656783395180919
1.6024378033363103,1.6261057873935416,1.5263117297618496,1.6182344701371922,1.7185406513252368,1.5577021204612522,1.723144274045666,1.6824030503208773,1.7841538445114324,1.8108364891534439,1.7357137830608353,1.830781875628791,1.7522293346689994,1.7942290338902258,1.703775391521807,1.6370749534368165,1.6604805982422797,1.758790710804317,1.7741482729156075,1.7082102203913403,1.737974889500076,1.7633951107227133,1.7576245166524644,1.5422618920856563,1.5853744627362043,1.6670664775998127,1.5879210893294984,1.5361673885928153,1.6273519213161436,1.6466228577639075,1.7013796560567147,1.662960512484652
1.5589751492750878,1.5920464191706738,1.4862669771223453,1.5651276328161878,1.6707619161158513,1.5239637317424668,1.6760019302191929,1.6828861004365974,1.780822158752272,1.7786874218683746,1.671758728193805,1.7985226888089079,1.755512892314273,1.7436913371002591,1.6205772684338144,1.5854435787551404,1.6465856096422988,1.7530696975561828,1.7683483019447515,1.6745710046923363,1.7424221728506935,1.7541948056726513,1.742548407122835,1.4891603491844976,1.5484643357633916,1.6499000822162022,1.5993841770147241,1.5182477240730052,1.6065007156034579,1.6309753905517534,1.6657585027257833,1.6272658453987332
1.536167105994163,1.5378406355361158,1.5303723643507996,1.548910886827023,1.6311350010069634,1.588182421866506,1.7318392178998023,1.6553138144264772,1.784228970872323,1.7829433553807736,1.717664388205359,1.7956126755840478,1.7741160994533327,1.75085775497555,1.663153096527447,1.6352177694912142,1.71386896511569,1.7783391983279868,1.7898198516347044,1.7334377608702989,1.7707561133136152,1.779039559289574,1.7612607454529812,1.5826813227444203,1.5366796338055044,1.624124818923723,1.557324342397858,1.5092053681593778,1.5542119156806167,1.5862534921056581,1.6323328099255827,1.6284472144353301
1.5686345052332922,1.5522059348210075,1.555183546002542,1.5609512013916937,1.6496855503345522,1.5623773594771422,1.7269416099118078,1.6819558289618206,1.7891568811797967,1.794031816768058,1.7200517471763246,1.7961203297707218,1.7664394388197444,1.7508769904516344,1.680500056317595,1.6702331136622317,1.731332427371258,1.777316145211733,1.7835772218001995,1.7332906533854378,1.7690660816431454,1.7778665241720624,1.7686550669583772,1.555415574908906,1.5668598435965588,1.6431646771965527,1.5585373037523866,1.474111347331897,1.574462568158672,1.5776319342096845,1.6399685819576342,1.6390450869452324
1.5645029263348325,1.5410492075827829,1.550628440374651,1.588721991368547,1.69430446648543,1.5491155550812115,1.702352609037882,1.647661055509954,1.7481118090881214,1.7668823039414843,1.7273060044519846,1.7935507997706317,1.7570475586578993,1.766149973511982,1.6781305973029554,1.6660574513836703,1.706611245945307,1.7796961780016236,1.7845645023025867,1.710985539404743,1.7587464829348591,1.7386489102922096,1.7596753533831375,1.5724166166763793,1.5736359334235306,1.6115507881417426,1.5263088545735188,1.4538594548316592,1.5343314170728166,1.5541917098205744,1.6184070869603717,1.619197290843862
1.588280248560999,1.5679781334673215,1.580960314884144,1.5690437694420494,1.617818646794989,1.610898860079374,1.7070263647264845,1.636996427953969,1.7238059852437757,1.7360392698514466,1.6976406288903962,1.7443722000280963,1.7386359957194488,1.7268153245552809,1.671403335270886,1.6692053630789236,1.7249403544890425,1.771000284551697,1.7623570233392754,1.6752913789632207,1.748558371118779,1.7287882469898783,1.7320222584996934,1.545202359603506,1.562920141227339,1.6164881023924864,1.5394166102779934,1.4911367449272612,1.552270483091961,1.5780971132084622,1.6174600895630311,1.585052028893539
1.5598620146336306,1.5228120971292942,1.5658858302396157,1.5230578491047255,1.5770814522226608,1.58556456503262,1.7243435398092228,1.6098009506856181,1.7495235614533395,1.757052032534417,1.6988585270998389,1.762576182069094,1.7662096051964453,1.7303197599079398,1.6457756050152552,1.6390618119413254,1.7292618183935269,1.7781473350293429,1.7799264292577366,1.7294171727189493,1.773400264587359,1.7300019984281816,1.7583643067193098,1.5924265585176578,1.6016137442019875,1.6545377827625407,1.536241934857257,1.5283398678361588,1.569548985490396,1.5712948035217467,1.5923134922385473,1.6251774403219517
1.5535278639381302,1.555371864262321,1.6255185325116448,1.5765662681609318,1.5953132660909581,1.6616739792579545,1.7875475497035052,1.6811275029792794,1.7786753048904402,1.8128024457079632,1.7725748323776958,1.8145497378503426,1.7965211282998244,1.784303223639219,1.7237044494245108,1.7273150537796391,1.7901162398686636,1.8332597655469014,1.813569716916489,1.764599230653856,1.795839127995497,1.7564992774568287,1.7239158438256645,1.5988997097188449,1.5539342408803125,1.6031063264761813,1.4956226691942973,1.4975606366252776,1.5027717630352826,1.5562598033046444,1.5883148927304318,1.611444778183249
1.5466930798597398,1.5182430072917847,1.6260228343113328,1.566060032574828,1.6069824400822068,1.6197606551713695,1.776690720516953,1.6602775298330958,1.743615983061017,1.8065027651847478,1.7680553822577136,1.7969683479248464,1.7677900510881923,1.7677617187502548,1.7022444767071108,1.6903369670306345,1.7417154994237802,1.7789955609043742,1.7736351178732628,1.7248416001852127,1.739767154386523,1.7203981375214434,1.690087962376001,1.6056437854678294,1.5262515186880645,1.5453035836786462,1.4588554913746243,1.5267715548377787,1.4728751615182196,1.560840759401175,1.5628500911752847,1.5724266860169072
1.5317733859053286,1.5212418362356055,1.578126465055757,1.5188562626614128,1.5402317353361519,1.5732583059189882,1.6951441338207494,1.6222005716799803,1.7170331292503547,1.7489070421674968,1.7127056134584793,1.7599378318917844,1.7441993339746866,1.7656428117137373,1.7022554131211742,1.721455334389866,1.767823653750538,1.8038996040056183,1.7809705037302666,1.7694125259244695,1.8013035977384686,1.712286561009373,1.7071391738719741,1.657243967233662,1.5599225069322302,1.539743473022683,1.472898239196464,1.5337054870816214,1.4790874867982913,1.5464443555573162,1.5130867505082903,1.5593705747898536
1.543743184287349,1.5219443956422989,1.6098757882766515,1.5617633813703053,1.5378814697180183,1.6237850366772058,1.6882307736831992,1.6533679356995237,1.7497743882569978,1.7395763712783263,1.6790639784273016,1.7492548162681125,1.769130610831795,1.752431698156566,1.6488793846454628,1.648760968557893,1.7240554734895024,1.7673680441137412,1.7551036445160175,1.6999983117459687,1.7415835438465872,1.7107911662310502,1.6815802932242383,1.5904732786736429,1.545314330514187,1.5563380205243498,1.5000761654615284,1.4821635392655235,1.4892384507847756,1.5460480094830054,1.5360727618982706,1.6039052684811634
1.5752083633032667,1.5601826648514487,1.6275635114501812,1.5844240454868794,1.53083459532901,1.6382521421984546,1.709505016774383,1.6161287288637838,1.7408319660167761,1.75635209264338,1.7148297919465163,1.7660214009357016,1.7841775866984355,1.7836121242094487,1.703331895872504,1.733210061615909,1.759480248794464,1.8053950548554218,1.7773229444108742,1.7120231784942637,1.7418439763046836,1.7090957165436602,1.6688773459532222,1.5962537913307069,1.5784761698802063,1.5855106769617962,1.5081428040060139,1.5367752004015474,1.5157183004398074,1.599725526435908,1.5562289437419141,1.5762679093688206
1.5922200776086417,1.574115200506794,1.7029801082122413,1.6013026538210846,1.5078612928064337,1.6869776217224843,1.7784701777035352,1.6782497288738056,1.7532383073883715,1.7732960359925682,1.701982338031851,1.7862035688189664,1.8115943175661935,1.8170031962894153,1.7341002585165144,1.739357486303193,1.7266229012742282,1.8039449385787625,1.7850548541562359,1.736749475556185,1.7538880057482067,1.7558984149453651,1.6741257565274144,1.598481763370624,1.5498531396433577,1.6062654000838832,1.535000343488047,1.4985213007412561,1.485829666849884,1.5841596157754116,1.5511698918270689,1.652181257619288
1.5436059530572492,1.5552014677190766,1.623319066806995,1.528082139875465,1.5051066956947567,1.6236274306420322,1.708738108683885,1.6109930353468587,1.640925801222192,1.7215062213265968,1.6518599023059075,1.7081357834940043,1.7555897513274696,1.7509657658915374,1.682857344832259,1.7109344354162639,1.6902908066798963,1.758891342155243,1.7456430584994567,1.691210830826234,1.719037174994348,1.6910803851447058,1.6338522998300635,1.6026810071049309,1.5427017263424097,1.5773329933224987,1.5038342574758818,1.5242287776770602,1.4873957083193958,1.5751758137612635,1.5292711360742,1.6349915607410657
1.5658561819767725,1.5530078376386576,1.6549691223779839,1.5406353703498545,1.5164686418476085,1.6600666206877852,1.6985673112596837,1.6526857856403214,1.6823753393874052,1.6950773112373316,1.5857656690281714,1.702387599730044,1.7540654357603955,1.7587579032397187,1.6899108235234916,1.6886849349530892,1.7327195374591642,1.7687563559253614,1.7523339769181072,1.7117736384527906,1.727930221496763,1.7073603562340838,1.6454086163286141,1.6070448068352474,1.5726664617870034,1.5888322990793096,1.5565432297856072,1.5561644702930824,1.5212141485847024,1.5846710992589064,1.5435032447464678,1.6264581995675267
1.5723317221277158,1.5561825364843422,1.581180296165808,1.5725164380332324,1.5979318824543278,1.6230319753323499,1.6619625029387828,1.6072463025777888,1.6595553855575,1.6783696402737958,1.6580890452278991,1.6889608703520294,1.744300085948272,1.7422633680213278,1.6700817401050392,1.669159833149199,1.6858354015510628,1.7456462366784289,1.734817055908767,1.7131997742075429,1.7200294833280585,1.7034214277658875,1.6576235079276185,1.5861406911679503,1.5782636533447676,1.604307498848593,1.5501533330021804,1.5354330461764496,1.512067848968859,1.5988939412331435,1.5811094255613924,1.647292415509728
1.6176766591195877,1.6092265763312255,1.6650819141159807,1.5967408692163398,1.5881428258381827,1.6880763964447782,1.728056588792912,1.68673176561677,1.7137143185939365,1.736756878541365,1.7138174148304235,1.7111182501509512,1.7349167537968397,1.7524929786656993,1.6964603463167067,1.6791573242314464,1.7130096254026135,1.7549418875973564,1.7333116118088558,1.6992034105200604,1.6939467638331651,1.7153137370468459,1.6359510889366609,1.5624094685692866,1.535002739907074,1.632434839536558,1.5707643909463795,1.508223612999387,1.5278508600883947,1.5996541386616365,1.6096216695840486,1.6733246479278943
1.5947141420716864,1.5781685534184242,1.6318113545449966,1.545497504958714,1.5923008548667665,1.6245352709417005,1.677703694525271,1.6576207093134903,1.6661811982643067,1.714679542113961,1.6900957493313669,1.7317365235754971,1.7325488068793033,1.7724837099344808,1.696069777500395,1.6554870870110956,1.656091430801885,1.7167399115203843,1.6968029257959767,1.684996306146667,1.7064458837486212,1.6933310598095612,1.6843626021957874,1.5609891154662348,1.5450689977401972,1.6742597150923932,1.591558218222365,1.5182328810498316,1.5182595872901856,1.594915855410475,1.6197851389879143,1.7016301295997607
1.6059552816920522,1.6000379916188812,1.6911460278363486,1.5637154904296582,1.6115366787344318,1.6691572933354317,1.7298571374694383,1.6141571108907637,1.667635728964315,1.7087974230087435,1.6837316747170474,1.7006399687712723,1.744154579034236,1.72504630325427,1.6238917594283027,1.5984557398932668,1.6423721957539839,1.7172055080828827,1.7076834108696939,1.6333056598457516,1.6510399043334727,1.6849373740807347,1.6761102941151567,1.48491838747275,1.5698898254839817,1.6468297343683909,1.5912715420433852,1.5420174856720548,1.5596954984930234,1.6529801233854484,1.6218800088590817,1.624772795063611
1.6301463870453112,1.6238201881592407,1.7059967714936122,1.6049490970981992,1.6353425098438399,1.746677447025519,1.7549561309741615,1.667903404211789,1.6466990887708604,1.7127449045706808,1.6684293510625035,1.689391280830996,1.735160915169079,1.6971607046240833,1.6126438485588717,1.5928965664394554,1.609843452500325,1.6728432664411892,1.7024438470254797,1.6274438302767997,1.679586154670501,1.7329717165940703,1.6820524418273672,1.535689737324037,1.5360094589209192,1.6240078867650083,1.58924410724309,1.5644545370124434,1.5612714030538337,1.6652395411370926,1.6073255218675733,1.6659893214233297
1.6535618230407934,1.6352669607177104,1.7286113506188037,1.6375407907605681,1.6395123508343354,1.7882876527841074,1.8056110067458413,1.7036815260293163,1.6108723402204195,1.7651322106265142,1.7487424126110154,1.6632974730640004,1.6766228452133611,1.6864933472209442,1.6364442491596591,1.5881843053746887,1.5949812376480406,1.647809821181468,1.682355866005606,1.6174436502959144,1.6713472477966869,1.7170014596408576,1.7009123467412253,1.5360192616280615,1.5767208350121897,1.6607198678543587,1.598912751401562,1.570106081834123,1.5587591936237166,1.645048907047933,1.6196061411898308,1.6967137532414414
1.6620679584174527,1.642452153782629,1.750559947060624,1.6444881269908016,1.6364857064642082,1.8178414331366517,1.8398753297102401,1.7629063040507298,1.6577637516914723,1.8441061132266345,1.791618685147441,1.7397965083869473,1.653067268766812,1.7209408408126374,1.6751644289175234,1.6230208118125946,1.6360344018162696,1.6438810638895436,1.6551421344182236,1.6517448881788475,1.6510629307585702,1.7005896800287945,1.677515442275869,1.578616677328857,1.5822436297598257,1.669957232052712,1.6282442364746172,1.6037249992983857,1.5928314061906161,1.6780514433441973,1.6462289751861738,1.7328720786779297
1.692043755616222,1.6614390875989926,1.685148089411296,1.686089420150444,1.676198353190606,1.7610837193690996,1.7387404432420785,1.6891900045750396,1.6936857966920422,1.7511889533824578,1.7448681464769802,1.7162613906677544,1.7239850824544267,1.750411681203614,1.6923382337092872,1.6577826341298547,1.6594021381725843,1.7092880944287907,1.6925277940029388,1.6469563698111616,1.6270552118663746,1.6958356884456853,1.6578721433142785,1.6096737987652858,1.587156671656877,1.6611933498961602,1.627641897123416,1.6563772919011397,1.630251343966641,1.6964563370204664,1.6758367589812027,1.663582699755661
1.698643809287622,1.6851149361362507,1.7814536449442935,1.680405170573578,1.6703311907584242,1.8467049998399625,1.850856251806089,1.7381893178194143,1.73727050454816,1.828192131264882,1.8209802560201263,1.7781631877126123,1.7311160023843768,1.780647632121316,1.717821112738661,1.685671850179947,1.6570816560975652,1.7121692142836022,1.72749179967401,1.676932554884347,1.6970441248428474,1.7528956125492325,1.6999012660803365,1.6124700646773646,1.5929704977998134,1.6398188844370305,1.6341268313896173,1.6116584424726403,1.5847664952625375,1.6931625658149614,1.673438223487505,1.7139582023733118
1.6702655727747604,1.6534950948715312,1.70355143054818,1.5989154776784116,1.6726410683458806,1.7788821355039102,1.8248597547238725,1.697211313210453,1.6973540186629967,1.8144995366268946,1.8146838645784642,1.7607560770493316,1.7465342065643488,1.7717120751058704,1.7086735706812477,1.6789239543554932,1.6311427877153604,1.708940814231548,1.7237423417975388,1.6811769411461652,1.6813192867044393,1.738966010391876,1.6778668696915773,1.638220124392213,1.584149446784987,1.6482446675234952,1.608257685432597,1.5982950123705393,1.5683057107189358,1.6734274180194242,1.668406803539005,1.6578882840513256
1.6991456924335977,1.6840177265517335,1.7426026181049554,1.5978423206538017,1.621600626650391,1.7840903000211912,1.8726292876002448,1.728713018620673,1.6853199209175227,1.8402128869784868,1.8432639094260739,1.7730002367661075,1.7216625141440725,1.7747567526973886,1.7428299807809384,1.714492203650452,1.7384083191677941,1.7680150092576477,1.7668474959420053,1.7747325538578498,1.7647028155082314,1.760686620589115,1.7423729284394167,1.7306204631441324,1.6322081178940056,1.7198210852062885,1.6700323233875343,1.6861867730706703,1.6186931254568113,1.7128868346615778,1.7049164861782558,1.7161586294583655
1.6842609026257542,1.6787409004022902,1.6928062861511857,1.611097889669592,1.6417838761824834,1.740368954905954,1.7513255132240115,1.6722386083816416,1.6707595339960681,1.74078667169463,1.717249982981335,1.712421218994051,1.7183477677932948,1.7161769475858004,1.7004172534737345,1.7336362382877717,1.7665088619691234,1.7944293826861057,1.7908415638182196,1.8147813773242518,1.7791295634093607,1.7742241478396021,1.7211457782182167,1.7553237002498352,1.6269493139831235,1.6710280543783067,1.6274930371222587,1.7050811237081303,1.6131124393852143,1.7078370193218337,1.6890684079565663,1.6817296972872788
1.7339027209979025,1.724734772481355,1.7599723086587848,1.6657241769935458,1.699096025401462,1.773461563341576,1.8018344389956016,1.6980117316177485,1.7302104559270854,1.7613531183323878,1.772125452673674,1.7563418576828036,1.8008290369193427,1.780165787335515,1.7414947015915825,1.7374782179262225,1.7584407645376572,1.8240963976608706,1.839944589332994,1.805901461707764,1.8037395547982797,1.8367139706289446,1.7543537825633275,1.7697881155244353,1.6107010698808018,1.6405622931031216,1.5996817475918965,1.6506860712482956,1.6161592621500804,1.702192263102975,1.687750772690382,1.7178714331212248
1.6959034781452986,1.6785022271574195,1.688619433451091,1.6229800064603555,1.6745560224615827,1.7239506365748654,1.763817426582972,1.694928678846211,1.7338661023160913,1.7693328588810129,1.7586347506144373,1.778495709240699,1.8096350514561501,1.795873689391988,1.7624838013946953,1.7638901142789511,1.7831754481484168,1.8373314488724695,1.8461118283768232,1.796616526541259,1.8149594315883815,1.8278277838864094,1.765614454681694,1.7786747532297797,1.635354858885663,1.646104743933182,1.5977282319195951,1.7024652033002934,1.614628753620786,1.7051344805489113,1.677857895523052,1.7156755634497254
1.7444996850108216,1.7425923442990572,1.6956014056556965,1.6569406919814953,1.7044465485471165,1.6826133358144209,1.7783933640330418,1.702901668826237,1.7639057615441684,1.8210086262689225,1.8257551903480551,1.8308953828098053,1.793562864248764,1.8181166204605446,1.7762027855517795,1.7456085679065267,1.7652082180651194,1.7888642736922225,1.7888116738522601,1.7570981177910265,1.7480116998579125,1.7648557381863315,1.697486899986349,1.7319849206147744,1.6214048508898378,1.6799562898039075,1.6291489652971862,1.6744841744190524,1.6390447042858436,1.7336737040661219,1.7326518642734592,1.6837638583003784
1.6800591681114843,1.6735867681956944,1.6241364319959433,1.5764486022749848,1.6758152731516331,1.5836238883718405,1.7077071193570166,1.6799132975259894,1.761853078738209,1.775013140423347,1.7528766690861133,1.7917433019163198,1.7833857086545581,1.762358181902082,1.7486723100669292,1.7729352454287028,1.8102040373885737,1.8293537476845074,1.8338407516475992,1.8097227792776593,1.8106055258966094,1.8388396182999338,1.784608065476155,1.7544735652609786,1.648575516673326,1.721138536146798,1.6562923124060145,1.6940865772539588,1.643561459846461,1.721304238093309,1.7089057578726956,1.7514091282138462
1.737967364616562,1.7442211625879498,1.6759462946627277,1.6694759167101445,1.7344529593213824,1.6200239081403822,1.6856210402703526,1.6755799213732183,1.804142327927769,1.7892404657878407,1.7896023478218062,1.8191936636056583,1.8412147984220661,1.831776162291304,1.7864323145327394,1.7808172154788002,1.8175151388213204,1.863505663877687,1.8785048994697044,1.8502379254959338,1.8441662380409076,1.8644473818253595,1.7952921492748186,1.8173653435478772,1.6782761762660559,1.7484135832148289,1.6847122004975854,1.6958113949372422,1.6486194797969878,1.7471904822868805,1.7415541553180733,1.7293361815952568
1.693011157787223,1.7003981421007563,1.6385251593353867,1.6416781689929334,1.7605133759870883,1.5787228329031415,1.6291002719077172,1.6471723595060517,1.827079823863831,1.7732036560433229,1.7723815605671867,1.8657156943399185,1.8893154767548632,1.8622169129226969,1.790911827128292,1.7854646704759605,1.8203632295151058,1.8930739068701858,1.9174741209871033,1.8480012951653046,1.8720062905227384,1.9088826841898052,1.8398932602065796,1.8078756223476848,1.637570751596915,1.7109095257143512,1.6447251784513706,1.6630386298469493,1.5908383337063825,1.7013492527725003,1.716703903013291,1.7512892371907494
1.7613358500859866,1.7528816910330411,1.6706808976817233,1.6603833867955062,1.7770859592579906,1.5792313261808604,1.6644503453033497,1.7073414890424026,1.832317763565295,1.7988042537191662,1.7632140634635736,1.8662854914605278,1.8598006133379215,1.842506430997737,1.7452846097307666,1.7256126680382877,1.7757410817846677,1.8428492715167784,1.8492848402986357,1.7967210772807556,1.8019885022465574,1.823499821746235,1.7436788088029234,1.7441070811029122,1.6129772009309968,1.7381774451685208,1.6852209851375441,1.6994320430130492,1.676488526197559,1.7686018651520345,1.7691529946458113,1.7007288214122167
1.7004194281641192,1.6825880667250488,1.631350578822746,1.6429718268075657,1.7448404160012176,1.5973035026404558,1.6280596826953442,1.6587771572459975,1.78988705188599,1.7401668208895704,1.6990816500272332,1.823252798397861,1.842771173442073,1.7979452431317566,1.7271091553645537,1.7621217116189478,1.8046158551351252,1.8404429525687647,1.8397122322277775,1.8048928642320932,1.7938226118727805,1.8309821285516101,1.74441380327924,1.7166036279358592,1.5846866870592342,1.6900317231991062,1.6256628818802938,1.6553917642734775,1.6421470239775795,1.7148307906008864,1.7159187461148846,1.645690269681382
1.6770818304390003,1.664055402112571,1.6450836243979976,1.6084057924250732,1.6881910682499908,1.633103128489289,1.6773923522540564,1.6901161079161926,1.767018118108695,1.7501844539511406,1.7329740540744383,1.784319838088967,1.7919913458925942,1.7981150673374917,1.7429425094774393,1.7526679250808508,1.7782121039455179,1.820989688646659,1.8236546594641851,1.7679957948427887,1.7974365373763324,1.8076405694325886,1.7499712648613752,1.7207215597641574,1.6005377138611667,1.663079070084243,1.616959850223873,1.656203266752802,1.6224297845197215,1.69509888175341,1.684502004091285,1.6369911480459003
1.6746069743852692,1.64540398349621,1.6304338752329237,1.627269028747759,1.718274585393644,1.6197688306926474,1.6343855701270606,1.6195460962362156,1.7967285600093534,1.7309090951879236,1.7022275577012356,1.8027137753802085,1.839114306813172,1.8204600022226332,1.7506185979844349,1.7822921832020246,1.7925661279514937,1.8513668251780895,1.8563715640278593,1.7878951855697236,1.793430076011128,1.832109614325552,1.7437375045506536,1.6755481660289544,1.587836696644132,1.6818092960918003,1.6351761783145558,1.623744097610989,1.61874713386207,1.6876049497518695,1.6906134736431149,1.62664324378568
1.67919009212097,1.664682132748295,1.6455839144518158,1.644914667642334,1.7453372807856555,1.613001756887939,1.6602542099948536,1.6650690222676996,1.815661590474686,1.773304932140262,1.7487944333384824,1.8361836752761993,1.8397404125566272,1.8281087592327367,1.7511182733737825,1.7646647215793179,1.7508088316569723,1.8082980120207492,1.806827842711541,1.7331469101074606,1.743267414868888,1.7591204374546234,1.6797830133785439,1.6602296617708332,1.5693067628437563,1.6775653871414011,1.6274442602508716,1.6226960370778334,1.594905365433547,1.6807023498775295,1.7004953835253416,1.6055797041275184
1.6956271979399915,1.6843158801953648,1.667501178958698,1.6580443831476879,1.7666324945938534,1.6334050733893255,1.6714954791194945,1.6429316795466191,1.850665779762434,1.7346190109407613,1.6885028302063991,1.8288622054119565,1.8374835176730224,1.803445733315746,1.7082718591589423,1.7235346323255962,1.716656770411689,1.776755703573886,1.755465580826298,1.691614880443732,1.6540672579615872,1.7113737038596752,1.6204472412785806,1.5445912479726212,1.5301191537978927,1.674735384166373,1.6398564834417464,1.5964733675732905,1.6231110750645361,1.6785401397329611,1.7157117637538357,1.6136827559353386
1.558208796150914,1.5555214048575223,1.5888170095103185,1.5496225116363598,1.646253194290216,1.6115378914396215,1.653075869862145,1.6419330607962543,1.7615376740103952,1.6840313580611228,1.6466861081203674,1.7651262942126085,1.7817638017298054,1.7577174102357067,1.6856183099996478,1.7109944863289754,1.695941783617252,1.7285875478249462,1.690053698592809,1.6355360651773099,1.6173971976758454,1.6429368150257952,1.5903109484814428,1.5306747917051582,1.462759220086803,1.560397005868312,1.5012470089728494,1.4893000624755024,1.4950359072376898,1.5378066936476191,1.5842882049732918,1.5752354107168651
1.582037467021161,1.5886826783531411,1.5806846627399267,1.6467550200081418,1.6466724555531982,1.6139587555172072,1.6239249606551256,1.60574025501657,1.7191274583709806,1.6451728791256852,1.6466085382421596,1.7453572432070246,1.7113769847876965,1.752210002005763,1.6881295162693033,1.680420015750114,1.6742768867334366,1.6817711108460447,1.649533022876109,1.6311923021351633,1.6250173836381483,1.6145542997816558,1.6467876136740909,1.554253694596578,1.4927606145603785,1.6217464619915047,1.5595323969144703,1.483748849038842,1.5297277335057993,1.5654903467975883,1.6330329924597329,1.5621818732977686
1.5748988770275725,1.584548885104439,1.5822197183200857,1.6637389311167958,1.6250767856173427,1.5892223522361317,1.5870078350346837,1.6057055017814525,1.7222858027124461,1.6369459437948306,1.6344409961420614,1.7444882542597502,1.8032103642037236,1.7637974830797525,1.7266243078060193,1.764837006117022,1.743368293360501,1.7591041621610743,1.732602237388995,1.6695436781296658,1.6724536845628781,1.7197718354829024,1.63865836479046,1.5536152249990918,1.4830149157507557,1.5499414769291229,1.4913532935392058,1.4779487667877476,1.5104236188719458,1.5234119000189927,1.5801976209819502,1.5907399036897178
1.5723924085964525,1.5745422658743566,1.6245076308946245,1.6858710918994042,1.6077066138193092,1.6411736538800683,1.718727988683106,1.6436643309786803,1.6854414350811977,1.6942481478801483,1.737236786328811,1.7399641025428652,1.7642661661341608,1.7701954216082674,1.7514399301642751,1.7506519932270217,1.7302843803516177,1.7447663278092045,1.7171236870372275,1.6709211642045083,1.6694731966111584,1.6858414630646228,1.6671108688420584,1.5848897646043278,1.536807144196394,1.6034555233747703,1.5135519388162562,1.5211687786669428,1.5033088554388694,1.5453020407508296,1.578079753129992,1.614526479478825
1.5416601180510607,1.5500680543369103,1.609069984710127,1.6087496793506928,1.6226239638910427,1.5835556449397457,1.7050830577959797,1.6476903632510864,1.7848244551287369,1.7361566952061238,1.7249725054433216,1.7882145389600155,1.7848549873738386,1.7869131219864784,1.7499951888326772,1.754035284502486,1.733080791066538,1.7342386465279058,1.7004180029522553,1.6363927613611369,1.6447518023901777,1.670444252663698,1.6243881991259135,1.569753778364686,1.5257577797045938,1.5502218588722998,1.4904770005442056,1.570803624187974,1.5339887603341429,1.5868484873205722,1.5742649579187482,1.5503243190431728
1.5750415696562579,1.5912931634672263,1.6421931268795742,1.6255842950252437,1.6653302854692058,1.6479718211578511,1.7395152632904602,1.7110251466135356,1.7112388789428783,1.7330971052691773,1.7164842682005208,1.7740643608236186,1.717196260900063,1.7699930213489676,1.705857988990011,1.7095458797927188,1.6975833540999943,1.7014838482787902,1.6645221560240397,1.6185095557366194,1.623461208711019,1.6217948414880339,1.611808547881123,1.5933825303390203,1.548782308418182,1.5551414221352375,1.562371804369073,1.5881476741323872,1.5291057910230708,1.6070057540103788,1.5992491255303183,1.5745874020613457
1.6078863975183015,1.625718517899272,1.6861705797031328,1.6835807573026196,1.715805350173338,1.6930317257813594,1.833482958252031,1.7282311608195677,1.6753884758962672,1.8075328065801515,1.794834939760057,1.7835486361691641,1.694876836092701,1.7631976681910275,1.752937150730141,1.759296493457736,1.7165803943271092,1.713494480482516,1.7097510757888945,1.6638293135527706,1.6873712525227107,1.6558133974141576,1.6614876169033026,1.6375523750688938,1.5632173429956258,1.6197362859983913,1.5442348392067209,1.5504163670802653,1.5259712662312273,1.5920844094293318,1.6483271209174832,1.6051659056864402
1.6077639182862742,1.6413679673449442,1.6365597231161595,1.693054147381962,1.6939510400261082,1.6561786482635255,1.7452598587769461,1.6560698354323162,1.6486915085701432,1.732316154300206,1.732471682050763,1.7453344639320008,1.7415140032607395,1.756083993678703,1.7202497338507583,1.7448455640939924,1.7359012810199406,1.7671095785442381,1.7660641318565544,1.7218922565101649,1.7431155662994937,1.7310407883952492,1.7039623792317962,1.6979208980994513,1.5913600042979303,1.62111431950659,1.5657999059540904,1.571249385578256,1.558631195396484,1.636315805828499,1.6429097825323382,1.6363962833609458
1.5765375480355657,1.5999200893148817,1.6863613538957736,1.6430330900998362,1.6106328814193271,1.6424137636088183,1.7766696208348889,1.6426654387121618,1.622177785953267,1.7251788069288923,1.764623162343792,1.7556419980526952,1.7136355939098225,1.7616324310434943,1.7375687803432471,1.7425396645293036,1.7287672046884246,1.7379365538985445,1.7225081910397302,1.70372596241514,1.7303295821168747,1.702583873150345,1.7074166973535247,1.6762789761726888,1.5525660518477138,1.5948548213533718,1.5399507175371658,1.5662759330985991,1.492703198161227,1.5827169133825123,1.5627996357476668,1.6164338533315643
1.5759380945085741,1.6233700614471627,1.6418890667198698,1.6786283589169824,1.695377058211571,1.6345064193177057,1.6724608285084681,1.6312796316899811,1.6747181978689403,1.6611113448503896,1.6729578484095327,1.7524959242260278,1.7648588753143402,1.7798120229982857,1.704406121447742,1.7101070210866443,1.7234586707497406,1.7501252630379431,1.72845534294264,1.6866471863937313,1.7125776159241874,1.701589131195463,1.6842200669261496,1.680254036603229,1.5330195411746623,1.5999827030840943,1.5364379537201325,1.5714738124516978,1.5487028223408712,1.6437804617385823,1.6527513688293753,1.5592727703516789
1.5679814678477149,1.5913491834514997,1.6910909204844138,1.6634098450263224,1.6556327388231653,1.7248555881451129,1.8121292754069094,1.71344467385808,1.6112617344622189,1.7615147546375443,1.7876583299871764,1.7724463784867113,1.7072920974833856,1.794166966592392,1.7230993900719613,1.738420204011211,1.7110563280942417,1.7138673369266533,1.69541135577548,1.6808694383103082,1.7065422113782498,1.672712493514167,1.6972310035244467,1.666557414893726,1.5530770935246794,1.6061017176729664,1.5249842165932306,1.54639249024634,1.507419230143869,1.5776106621553103,1.5844683929674679,1.5995121696336
1.6543441107273849,1.7038348764931452,1.6656175431820182,1.7092559687058615,1.7584677376735522,1.6878753931696107,1.7636615505682849,1.6895360433912672,1.7258852997902436,1.7660123527146367,1.7122211760334787,1.7726596631344864,1.7647420645057017,1.7730189695076541,1.7202841514964953,1.7277723990636584,1.711635759235611,1.7476965475628785,1.734789530208849,1.6642256086399496,1.7097698758337914,1.7081155841537137,1.7084630762010955,1.6612640237641354,1.5620676068243875,1.6847475849394247,1.6044749919197872,1.584430152546309,1.6057245606822337,1.7007766825837594,1.7490376817358684,1.653130756669992
1.6302656649238525,1.6716451860879067,1.6548016683586129,1.6593928862386846,1.6785701276267728,1.6577890457066713,1.7158841825461366,1.635266121949103,1.662655272337465,1.7067580209203175,1.698033836414754,1.7353166080943794,1.6815187434761103,1.725810126836398,1.6653903180258076,1.663888637718433,1.6579471564579216,1.701163498023474,1.7073916920571561,1.6561625761543977,1.7290914419418009,1.6834848464910872,1.7111574520861834,1.6517416869539987,1.5488080498131749,1.6453802963813242,1.518096158450901,1.6036349607604645,1.5875369736175045,1.649637293849302,1.6489530098346574,1.6286177809618505
1.6189076240765585,1.6677664616710763,1.590380114896057,1.697033489950183,1.7222626143831967,1.5538297746107603,1.6166919708253618,1.5871007589139416,1.7343319057727449,1.703513450419662,1.6891819141369848,1.7990981040572704,1.732139020270749,1.7869082445795292,1.6974062347553804,1.6908865130543005,1.7087411710090916,1.750525512352377,1.7265550919494088,1.6929178605758712,1.744394490440365,1.6636594237422844,1.6944829116835194,1.6768884128368355,1.5520650508594076,1.6083757321685805,1.533207424703217,1.5641289419449778,1.5922094315442386,1.6443747230429926,1.6662221448189012,1.5995412095113033
1.642925744102255,1.6690756427914115,1.6317032778638223,1.7108046894139226,1.7182374737903428,1.6645629376185362,1.6114826902504245,1.611749057652087,1.7164490780025796,1.6799295547600703,1.7041012532292767,1.8024699184380453,1.7507316846368517,1.8172465664870021,1.703554432519523,1.7108003965980054,1.7089223248405452,1.7510675948163323,1.7351355942618016,1.6964371758198724,1.7437568195357773,1.6914321793475462,1.729893786109833,1.662091953064012,1.552529520820441,1.6593867682331749,1.5444300934460031,1.552165877231786,1.6157680397211953,1.6950871350790462,1.6787634601585268,1.6385540356926385
1.6337847123630997,1.6584057482213703,1.677624195843011,1.685300739281562,1.7167141468164604,1.6838076464378557,1.6570254191231595,1.5580403972626222,1.7530475357622968,1.7313330748813154,1.7136017522607765,1.8370155769606487,1.7893632238283064,1.816216053359921,1.7065032172178507,1.7250002715493677,1.7479520256239314,1.7759792886889751,1.7602559795230897,1.71401561068668,1.7358052966655986,1.7122108479380993,1.7079592125241414,1.637029657583954,1.530891856693258,1.6304069391204896,1.5085278167740843,1.5316498619218837,1.5771904057993404,1.6516075656894091,1.6743413350867502,1.5997666996104416
1.6523110244989265,1.681228756756314,1.6474245008114186,1.6620224611378374,1.6562840041939781,1.691189354327516,1.583592016946,1.5595210933397403,1.730775715674602,1.682769350234318,1.7046430622954194,1.818417962484028,1.7978487305953865,1.8271277086041866,1.706323182743149,1.7296159107467415,1.7209141680469822,1.7874504119489227,1.7502511857781193,1.703414645164874,1.7378210232503228,1.704606259535781,1.7118684408308562,1.6701414293449774,1.5476282183218586,1.6603625959897517,1.5443326479712318,1.5659144601379764,1.5733795820125114,1.6267815375202936,1.672559420189126,1.6410944259180087
1.6748205666599405,1.70004703571312,1.716248127139216,1.671843544638934,1.6677971491961199,1.692101175566712,1.6280853685247876,1.5965227940875448,1.8088570034942506,1.7349340945867582,1.729771940451251,1.8613237528499949,1.8020995927544385,1.833445099316235,1.7292892661643504,1.7056070902731604,1.738234798801878,1.794403386567836,1.785517508653484,1.7119734720895043,1.7527116089200616,1.7224390021778775,1.7164221061837663,1.5933487375795299,1.5643137490133878,1.6278345489227175,1.534911350040956,1.5485772150157324,1.589222011160333,1.648747962290067,1.6642687112240846,1.6247631748991136
1.6450157078152692,1.6544621696422608,1.6815713440180973,1.61795877405709,1.593036924114417,1.6747368614505775,1.6407132102920017,1.526040141534319,1.7401806476334503,1.6719730243146755,1.7022966597313007,1.7799432882086426,1.7947172815378272,1.7913183141894082,1.7158540366717634,1.732706012560566,1.735723802868792,1.796232207893055,1.7968396568329508,1.721879185326012,1.7785697176570918,1.7377188919355147,1.7508506206687189,1.6863289894582116,1.6058981700556805,1.5913976859990784,1.5040176544700132,1.549603536997375,1.5759905639085354,1.6379271559403266,1.607333311276792,1.6336021744330187
1.684319738218624,1.665740626793286,1.7723874893698304,1.6620478602360917,1.6545655079958226,1.7510796968777629,1.7189468348819903,1.6225565207275672,1.7588161391338089,1.6460163497838518,1.6425756005446928,1.759296072253294,1.8132696602209903,1.7640117047007668,1.6739102039986862,1.7016483438300283,1.7111419268718642,1.8010653939846029,1.8159899816689615,1.7456876996304078,1.778540101974305,1.780828500154003,1.7607455879989151,1.6917899824272518,1.652603926671157,1.6645848212618124,1.5582987536062374,1.5677530227757037,1.6507341159982316,1.71633504297413,1.6369075819049614,1.6957681826742548
1.6780716494063654,1.6357190825013916,1.76436909040652,1.6356839922063986,1.6554216300479345,1.65536682729994,1.6285678328152993,1.5653378160200226,1.7229509223418926,1.6072767815958537,1.6312319557322488,1.7780933768600238,1.8151676514824455,1.8010181971327073,1.6959324290863727,1.7049556309950733,1.7186841225570197,1.7985708899927544,1.787753348165283,1.7096865497634277,1.7352588375596363,1.7305249942688077,1.705248779314387,1.651348717302648,1.5894208837808514,1.6016758930430528,1.5218906899309699,1.5730503424228326,1.5569594762448196,1.6700439984569266,1.5864909143612085,1.5960736755985026
1.6584801703327294,1.6130795872853254,1.7838362095935543,1.6028925080907055,1.5924237332992213,1.725555477921027,1.6815313667442255,1.5852462429679557,1.7092952838119528,1.6592246006175153,1.6629489299238907,1.7334662521104591,1.7962247812195387,1.7427917337989536,1.6266772615921774,1.6317788391451702,1.6465812864725593,1.7883996822372081,1.795196380867838,1.7080108249988943,1.763244345505939,1.7673750006834592,1.7232820201123327,1.6449671315435295,1.5842478037671377,1.6243701149216447,1.5109179726359652,1.5663774756714388,1.574368057282548,1.6590176327568056,1.6090165960140188,1.6419544701245135
1.7209327073910858,1.6330301575492068,1.7784431699047396,1.6170256703885735,1.6108822161769127,1.6813128536369153,1.6918934221949364,1.5788684549311385,1.698514880239379,1.6559198325359674,1.6901055190033665,1.7377319518891823,1.7928486868227174,1.7611388474407457,1.6727574026727419,1.6831404059600075,1.7291698826139175,1.7980039588746206,1.7950044125957698,1.7154714861735607,1.7139530210485832,1.7363630270189325,1.6863610735236887,1.607964302206244,1.5178035938594518,1.6177676759964195,1.542492260575102,1.5651418221561795,1.5624471174117733,1.6747583821989787,1.6464405928645303,1.6376701649046046
1.6370670246565406,1.5249736788529595,1.7386327333731453,1.5672687434158472,1.54682049333698,1.7180433873213554,1.6848722142371675,1.62487587525622,1.6466818845278244,1.5832866309543425,1.5910045276861273,1.6427246724591509,1.8064027938727634,1.6772114073848599,1.6281086529367916,1.6794597118153258,1.6909482853146671,1.8076745475167333,1.8322299677142617,1.7686708317282267,1.7731588309517945,1.825043827510083,1.7333662153116505,1.688456988480351,1.5988222278981643,1.6371683183617216,1.5655743688930899,1.617638023593243,1.573592736077421,1.6533515462205859,1.591576313033746,1.6893148830420943
1.6721784809949418,1.5971507725666436,1.784575895411745,1.6009307932114976,1.50761992225033,1.7286931387260143,1.6893641958762242,1.602853095058951,1.6168366039160358,1.5286764938076862,1.5491819954117352,1.6065783423021456,1.756798728435625,1.6518346828234738,1.622095918978588,1.6807037471677404,1.730447170988002,1.7847406023101517,1.8083808319930443,1.7622623753198745,1.7294704797660447,1.782756034672271,1.7104230733811092,1.6507386469657308,1.5772170661221798,1.577341010328083,1.5170801375548753,1.5926247636765751,1.5225555827790718,1.626838784766892,1.511698766635651,1.663754279316781
1.532690678889916,1.4730159979167936,1.6831763240426578,1.5174547534323102,1.4892222177260066,1.6482242065985706,1.5999367734368968,1.5623677646767544,1.5002962353483105,1.4756173873570961,1.4560014918485231,1.4453469003049295,1.6080241008728624,1.521892066542624,1.5227659384702437,1.5672032842902301,1.5800622263060524,1.6335082017237736,1.6799963261740145,1.5769716630419814,1.6412451366881096,1.695668816019651,1.658786983978878,1.5818411079856876,1.515448139944116,1.5179238230404557,1.4652888399761443,1.5253818159289587,1.4642501987532919,1.497548670958256,1.3885808421583083,1.6198032786405838
1.6061807007535738,1.5221611793766048,1.6995887131089333,1.520559929328873,1.490287804113974,1.624846780348049,1.6005892905069559,1.4945094893794304,1.5433928305053848,1.4616555952408652,1.4502850110245302,1.448837829080311,1.5648612048659827,1.5052931177029047,1.475092513592424,1.521402605663724,1.5620148780424834,1.613490804733662,1.6607505102510516,1.576598853726346,1.6097126683083518,1.6477747516659527,1.625392015444828,1.552218385912179,1.5037422393310986,1.505955656158915,1.430073247843223,1.5021681793261552,1.4539400305038281,1.5340810646609375,1.4765850183497675,1.5893965459544606
1.5921279820371181,1.5003812135432075,1.6102277551716424,1.521212189316853,1.493177518788294,1.573968887200909,1.5349971779027072,1.4633333652580651,1.4737439820969922,1.4425204959942552,1.466333068995046,1.4591922921176503,1.5682253344593744,1.5180053390892156,1.51482930486019,1.5545000961440456,1.5828379381856044,1.6147765218542824,1.6479568643726477,1.5856296990752796,1.6017064080875092,1.6233365255451029,1.560656694210761,1.5434504154785993,1.4527973943420323,1.4586250810254895,1.4035298155745684,1.5359501194156668,1.515106138929354,1.5643783049964275,1.4880595322143861,1.5702886193078145
1.6062676578319781,1.5094893477995557,1.6361081096008736,1.520512794445039,1.5083154046597294,1.5389517341444225,1.5082223486547035,1.4782436825842795,1.5034799930115628,1.4418526662857554,1.5050278049039116,1.5072324813806681,1.5576109470742225,1.5545310531125842,1.557452717987476,1.6015132440148823,1.6086433414898362,1.6277722440446882,1.6332257425582424,1.6169531027199302,1.5764290896169266,1.5944612540841763,1.5302727720539662,1.5459993693439242,1.4457175931107764,1.4476364807090245,1.3889063240569863,1.529146667097542,1.4819621842199522,1.5395705011277006,1.4743215273996282,1.5025920192798252
1.5499736851207138,1.4521965346932204,1.5381459113774756,1.4991044572865533,1.5688633257076217,1.5022525543727145,1.4820765720993059,1.4570970607070357,1.4736962123258237,1.4301214519743444,1.4473550068640928,1.4571842950812992,1.5079212820224337,1.481004316009793,1.4836199690706704,1.5074807438504896,1.551337672032481,1.561382093119917,1.580044912914618,1.6033024811938674,1.5666954194586145,1.58757099427468,1.529537949204547,1.5169029414053177,1.432149158381813,1.4932637723589721,1.4119650744406929,1.5157169451484924,1.4916385442471674,1.5454734201692777,1.529465235294022,1.54777157745525
1.5510821743956218,1.4816848948749093,1.5031861641946203,1.459314931343839,1.4881708737774808,1.4818546777289978,1.5015653255267545,1.4970025639026667,1.500191569546829,1.4599828418877152,1.4544556196431853,1.4644612398372896,1.5275716607120686,1.4875386712363743,1.465826269430796,1.490430315288356,1.575415841449963,1.5880464614295557,1.5804118372874398,1.598566279999702,1.5801810854037321,1.5695593338076286,1.5508586921590661,1.5351343405469617,1.475610559238697,1.4749585143016675,1.463466378303449,1.54453696006278,1.4834742421309564,1.5368887644620608,1.4872062709688496,1.5084768302009055
1.5176024448593775,1.4839688720349362,1.5022036221574762,1.4487837434279962,1.46141620950656,1.4967511577664523,1.4977657905453103,1.53478692213352,1.574953586455462,1.4969176813289713,1.469752155090265,1.5212969852583504,1.5716288314895341,1.5430591495764432,1.5165593596247222,1.5001955052085636,1.6008795501463697,1.5720293718562897,1.5856935520742472,1.5621757598807404,1.5424659214055572,1.5787101216852815,1.5360739762708469,1.4756699255386223,1.4629359485904465,1.46369415188959,1.4033050881740585,1.5025971097617234,1.4690737930807558,1.5390168612568946,1.4817502639270352,1.5240553842274316
1.5547408583701685,1.5058736563146724,1.47658924151395,1.4805802787152953,1.5113812006047658,1.465326263432444,1.4612743077200254,1.4869407727538497,1.4659378472271258,1.4563683036689181,1.4330306838522713,1.4733792765104714,1.5150392095892296,1.5095948349185038,1.473933854705761,1.4838601585936206,1.5544304163651275,1.5614848988448327,1.56349578851628,1.550965540136137,1.5710074649002612,1.5301171403350977,1.5444699069449674,1.527685608647525,1.4998206135704524,1.4919773208674165,1.4614379623571754,1.518002215278285,1.5039280270004427,1.564760502543815,1.5314213479335772,1.472236133656698
1.5110487913667179,1.4744645698180172,1.4571481038273033,1.4450328061353996,1.4682945992491891,1.4625841473198087,1.4517449983677704,1.4922293635382147,1.4772719404263306,1.4751828659737034,1.4646810974544333,1.5039782405085445,1.5471341987266296,1.5433698797768731,1.5283158345603274,1.5193416781562068,1.6056195956701396,1.595487001306174,1.5667229577236204,1.5772021947217414,1.5565220694762072,1.5198710643704185,1.5051924465726985,1.4988216908005987,1.4732819190113624,1.4431343530052396,1.4060152701283932,1.4609440837500913,1.4553483942985879,1.4958918245566983,1.4644002246818966,1.5099595462023088
1.5058838276414475,1.4535547533584947,1.4808145811280855,1.3980894138674511,1.445291291521706,1.477938268931932,1.5164156329008787,1.5524403656485086,1.549827316921385,1.534810020807312,1.492258740806072,1.547979806722543,1.570166354706238,1.5808534394660196,1.5325578884040285,1.5629540095905066,1.6273997755045626,1.6382903825559871,1.628091658898424,1.6385700084599386,1.6449379425983452,1.590333838949111,1.6114003402562813,1.5871324192829799,1.5492847340392562,1.5072041713383648,1.4765482015444218,1.5228053832330124,1.4810813174284507,1.543628539027719,1.4876992552367851,1.567783397649178
1.5327613731633696,1.5163972833986252,1.5120974279516735,1.4350144519568004,1.467381605384676,1.5115232561480025,1.536239537570778,1.5828047862188201,1.598505692221815,1.606081521561183,1.552111353062499,1.575723199838821,1.6627553726674562,1.611358947251365,1.562875914737175,1.5981554310241326,1.682166854261701,1.705447389222008,1.7105875425541421,1.723460869920778,1.7084440485359267,1.6902259128167059,1.6824255189922355,1.593160799784572,1.5639134996031956,1.5036882578489483,1.4928078886165788,1.5890213691575268,1.4546711244314665,1.5474328275657945,1.503586322484751,1.518830106877209
1.4986224340346461,1.4695245542419055,1.4645100086139213,1.4064434562783397,1.4398548163337952,1.499525040248245,1.5647330038560543,1.5710678661433863,1.5686523450309389,1.6042147678160141,1.571511819633952,1.5971130636840816,1.662360811420007,1.634697378559063,1.5798598237286403,1.6044360111490754,1.6690912602846513,1.7181918871313089,1.7162806822689833,1.712306753546699,1.7105725259732152,1.677146249157431,1.6661861159461302,1.6143661438832466,1.5540652844690315,1.4801404010596386,1.487637607081202,1.5456496011065022,1.452856530434941,1.530337546821041,1.482295011240458,1.5091319517319313
1.4673862471792671,1.4616834666189469,1.476407916383422,1.4465168657880763,1.4636408558446639,1.5329781990717894,1.5880698704623084,1.5951895956202087,1.5968557324062644,1.6398377495921854,1.614681827443456,1.626656696605679,1.6910672825931106,1.654936952548064,1.618331924112537,1.6178149189658135,1.723881720360512,1.7636002997392917,1.762157337705295,1.7616447059343623,1.7346684062520201,1.6990493965459061,1.6690499531962473,1.5985106010275705,1.5157956543560736,1.4890051895736707,1.4459723267192748,1.5073385944082534,1.4219668805679349,1.4654770443753469,1.4634146194285105,1.465002005554579
1.4601239299172748,1.4738698963444865,1.467183968455659,1.4527758851540915,1.479082071002422,1.4691420205375603,1.5932671287404518,1.6052234603238986,1.6538531638950462,1.677897129714034,1.6446210875196001,1.680082790563509,1.7291211442845522,1.7044994397759938,1.6643105444071256,1.6442811690427575,1.7358863326211422,1.7722631799436448,1.761055685279161,1.737707340605081,1.734173533297856,1.7266688136917103,1.67186483837922,1.5905750457716945,1.5052719581099785,1.5357879891601223,1.508221278688012,1.4698952471673568,1.4563613444539925,1.4757609570999233,1.5066224160563393,1.5389163032476323
1.4732599506453432,1.4923018689844012,1.4718176918721748,1.4756194195302361,1.4957199913339374,1.4606234593226115,1.5348956288884845,1.601775363357424,1.647074140088617,1.6336471111331035,1.6033970585012114,1.6396222795545707,1.6890849143262108,1.6699548526404295,1.625132598506932,1.5860861873823773,1.646017555176589,1.7380252716058648,1.740242777941157,1.6579210243181108,1.681811257115146,1.7007016732684739,1.6674964128942698,1.5611447784988315,1.5015766317330617,1.5235377220770803,1.5238803488232,1.4225029611022075,1.4601677046768362,1.4941737140914493,1.5283663153133054,1.4901682589468357
1.5320641248033862,1.5374562595617431,1.5103715069967618,1.5270982733643412,1.552273770206859,1.5025631467284288,1.5726416717416603,1.564158249207774,1.6376188051334357,1.6383300919719261,1.6990427517376316,1.6691112537574315,1.7204057968376216,1.7439362265688718,1.7655729231692217,1.744829595146249,1.7587818238205117,1.7807543347555934,1.744235861748131,1.7209911459467824,1.693549877250856,1.6995102792376393,1.6646831510828386,1.5929685509191964,1.5401821661732367,1.5563114700422134,1.535564639115881,1.4737730466841898,1.516721214307277,1.541144050484187,1.5610413720325775,1.5471457689104142
1.507751451191923,1.5026527241844954,1.5001875893933534,1.5096329709041298,1.534202341217267,1.5134273051608536,1.5855495113560472,1.6038361497411768,1.6390836277751586,1.611352229954076,1.6490373674726253,1.6278584278883244,1.6942868293116602,1.6947918878518504,1.7298865111850674,1.702547782151209,1.7226702073698086,1.7525967020747668,1.720133169611319,1.7207243050686463,1.685191464014879,1.6707594035571884,1.6350753655908778,1.6098780337783272,1.5096746327693429,1.541411042015518,1.5254128712847943,1.4392595100143366,1.4795903121446894,1.522488979251807,1.5424532864951974,1.5683161048994234
1.5155921046178198,1.5112238271128682,1.4918569251258484,1.509572527422577,1.5553447038802928,1.5315684378515735,1.6244834063181282,1.6640294734307957,1.6752883536024357,1.7039293627418215,1.700312813043981,1.706979264573573,1.7428115530864952,1.7221438307093582,1.681650568560285,1.6729316580976537,1.7315226745723662,1.781605107232978,1.7596966094290796,1.7192252507255257,1.6999781566527243,1.6973392709317467,1.6666034375019836,1.588557019731983,1.5106940649334497,1.5656398623072543,1.537948477194001,1.4797645861926656,1.5335656419700683,1.5473194320849117,1.5590898591346396,1.5602073516891808
1.5353706006608734,1.5308745315386714,1.5051387526546323,1.5119905031453074,1.575969044463636,1.5156925939500057,1.66500647057328,1.7093863268070977,1.7179746772007671,1.7254578817325865,1.70183676312307,1.7576839207227888,1.7428176553319863,1.748745740369048,1.7003278058858886,1.676677819075997,1.6772017433748097,1.7254238945332658,1.7457207293429353,1.647687103723774,1.662555857452448,1.7465644458196448,1.647813759553037,1.5310283925676982,1.5020030542311564,1.5801373040908222,1.5484662688744306,1.445448297164745,1.512030611611393,1.5422152613515647,1.5837278075149337,1.616606108154986
1.5849100089214758,1.5804873132206407,1.5137260811314803,1.573041181309807,1.6173416559181248,1.5235437097852713,1.595168947891021,1.6429641675147084,1.6304190012077993,1.6777515634803373,1.7029423625127902,1.7016981514223526,1.6664073933007437,1.7083531187192795,1.6794758693900729,1.6447356407412261,1.6691625615236148,1.693867320487906,1.7043738784658964,1.5977933505504294,1.645629891394933,1.7029823273299425,1.6652317941264343,1.5264483151400436,1.5589281548280491,1.6417587639271913,1.6155617895909056,1.451404505459045,1.57293312032747,1.59697719139395,1.6556472965088527,1.6156050721752682
1.5502295670403847,1.5473094756266141,1.4965204617184016,1.5505227147070533,1.6323649928768813,1.5604392688117197,1.6456616225152632,1.6832500879912573,1.6877678160812526,1.7068888913090956,1.7079237748134841,1.7265506449543697,1.7007464491212534,1.7606019486087083,1.7324533647010136,1.696157397549142,1.7212781687960947,1.7032054284761111,1.658639332376075,1.638302409838987,1.5982294751194712,1.6592257831158392,1.580487140143113,1.5010748350017995,1.4905834446871409,1.6166339343735252,1.5438906593399677,1.368058428968144,1.5492393244748954,1.5572409945913441,1.6246911660271524,1.6424340675399647
1.5664670318840996,1.561189374294678,1.5302036664268002,1.5731016865889824,1.6110946601718659,1.5538302655391623,1.6294699431452695,1.65128579871288,1.693953670196468,1.6992010446866779,1.7271346771086762,1.756180544284195,1.7365165744102837,1.759403905145682,1.7371788415249738,1.684723878187723,1.6904183322371988,1.723536633967402,1.7124513745071226,1.6593445560746216,1.6714224224429581,1.6794934110676105,1.617930005681577,1.5636992487056969,1.5284471146231169,1.5768865371682637,1.5516240119674043,1.4225247139387176,1.5500814210373919,1.5550979312080806,1.6000021113311529,1.5777688106690277
1.534403131668597,1.5443272845340885,1.5124948958064681,1.5401586140655341,1.6509663931199021,1.5570938360981526,1.6907764263536451,1.7331157314671466,1.7459841297473668,1.7743271623733516,1.7525326811782171,1.804434368393884,1.7327262288701344,1.8062452641463835,1.7547555288766254,1.6956223671989097,1.6694646752149462,1.6874157512192114,1.6605310112510479,1.6217672644864787,1.5996211379920433,1.612028574167391,1.5767630517690967,1.5104486942648694,1.4751391889678103,1.6253930467614022,1.5637708825369416,1.3544892269270117,1.508746204090056,1.5381045826741118,1.6270436819807044,1.631639733833558
1.5780056203378592,1.5760756183881375,1.5536873050513218,1.568274207501858,1.5978125957891816,1.6107924656739652,1.7008115192385627,1.6751122259916034,1.6857573234678336,1.7462099862825236,1.7669288161609409,1.7766597117533753,1.6683230739893173,1.7761047612998335,1.7411065521833073,1.6730796432310109,1.6190436968893736,1.5909756457012805,1.5833845686749917,1.5570047661392528,1.5765427432618135,1.591429471739461,1.607130991731749,1.5265178748069925,1.5587251593127076,1.6094209628629288,1.559033850407547,1.420033494872828,1.523873080390238,1.5617183085922977,1.6098720079060644,1.666636035380687
1.6143636528962066,1.617130087890428,1.5261150617551467,1.6193109437579374,1.7027706873419268,1.6131379138945077,1.6785751883342983,1.7018352475314142,1.6817513878337143,1.739910427203071,1.7391555581198337,1.7396347177299467,1.640540625422444,1.746832321504128,1.7074264826063033,1.6209234199629752,1.5955184056835459,1.5482249332774949,1.5499376409047863,1.483859595046,1.5203929842858532,1.5799250870694679,1.5869509301895446,1.4356164779094438,1.5516995196155536,1.6959237623351406,1.6051385017201059,1.430084838064822,1.5632334283176565,1.6084364010637837,1.7187002083570233,1.7139442024668667
1.5921228177705546,1.582384013315246,1.557746304796288,1.5691365675917768,1.6475439113241543,1.6264751208630805,1.6904834536886206,1.684051523404728,1.6892850768477259,1.7422548010374042,1.7337671863032638,1.7436734682542927,1.6825689199139298,1.7555054477990053,1.7094390292912267,1.6522813568175703,1.6066618906758925,1.6115485249712198,1.6000056355400893,1.5488635587997674,1.574003440446293,1.605882121164505,1.555670992768397,1.5197118475515765,1.5183838782639274,1.6164438308179654,1.5309951255032914,1.4827770961909055,1.5572742305506457,1.5791732805967817,1.6441027553304721,1.6829000514616916
1.5823540665052265,1.5918672732103814,1.5367060865455826,1.583191756611563,1.6646883578222185,1.5852010261216771,1.6650718881480449,1.6987902286430259,1.6898725915558,1.742730535435711,1.7162466566775783,1.739402735596394,1.6317511335653865,1.7266062825158865,1.6731009423922092,1.5858936351892308,1.5456380891779942,1.5460522007178064,1.5657461565604327,1.5220681114372503,1.5244266516028522,1.5469176208919049,1.5487134427061473,1.488603233013307,1.55507875231834,1.62956254273909,1.572546047970356,1.4441975581796864,1.5577117491637391,1.5822702622930143,1.6619116533376943,1.619990480277888
1.6060503144735816,1.61495866426271,1.5676859383743442,1.5735286429271549,1.6647875298031998,1.6140662746290249,1.6865885143770887,1.7352995924024535,1.7378293965007758,1.7774429537836742,1.7657231858963958,1.794958633605203,1.6869455734197478,1.792070926294082,1.7553536125052212,1.6742893763353575,1.5895014660703592,1.589414165908609,1.6194815273893146,1.579838858159238,1.611386043534583,1.6003329110833957,1.6277570452303476,1.5890750970923355,1.6347505835097647,1.6879868581089406,1.6217607042529296,1.4903902988191706,1.5748355864090708,1.615456004320697,1.687144673222973,1.6868257782682368
1.5780031922039544,1.6005731329883481,1.5444269344436679,1.5982022969633902,1.681918373272971,1.5958231001805585,1.6278441344604877,1.6874316837697165,1.685064055981892,1.7125131965335094,1.6794873856692685,1.7039007412611284,1.594680247336245,1.6995358827504297,1.6901473784923466,1.58012954789833,1.4977990085102657,1.5137366168690845,1.540404090106546,1.5233281577499753,1.5505715443540182,1.5323858954960952,1.5691093515972443,1.5528582830590212,1.5642628806035184,1.60641166197371,1.5586220125567753,1.470410669096182,1.5546895494392658,1.5823840301548757,1.6593217766985449,1.597641492937165
1.592106179687811,1.6135860087324008,1.5849419412851362,1.5715886676072401,1.6646012202705145,1.6538064568844946,1.6558051656494646,1.681831811696638,1.6675501315573975,1.7189353001287784,1.7408175277721138,1.7219347979152018,1.6730464356419716,1.7528182968109518,1.7523266365550687,1.622015667745613,1.5807218554790146,1.6290519280691476,1.66208512786987,1.6678275129024427,1.67314020185126,1.627104831977318,1.634124484904887,1.6296525093317582,1.6010661191667188,1.6646561556090733,1.5997920631958846,1.4919295698137065,1.5536626632115047,1.6014472112957645,1.6826127319980997,1.6351455939289092
1.5841076302868795,1.5933678022026434,1.552612533108557,1.5517142435409645,1.6500861227580637,1.576097194835495,1.6030533628727202,1.6214231462984008,1.6163504667490236,1.6748523014268117,1.715699019125247,1.6939060920710252,1.6572760813507323,1.7350231281814603,1.730132912901054,1.651337981619628,1.6226452153979534,1.6650726042451194,1.6851205424718423,1.662027900737343,1.6589818163643975,1.6099200583666626,1.6345008214396937,1.6334795136927613,1.6193866588363441,1.656653254088791,1.602820868437914,1.501121526733993,1.5599430591390058,1.5970860339020658,1.6804057364124334,1.6186967581243072
1.627285899543773,1.6111362725468648,1.568232253399456,1.559165518097986,1.6305211016445451,1.603173415430809,1.613262919646686,1.648464926024741,1.6265431751795796,1.6824713657747348,1.6623795497546932,1.6911952552330805,1.6158387489478212,1.6939922843139092,1.6631445823935798,1.6122282282575284,1.5847460625184304,1.6390753204934732,1.6561511577770796,1.6234754465844814,1.6508491878052411,1.610827956911938,1.6256563207234567,1.5929849853269358,1.5893408452588087,1.6557100903653514,1.5803578866692765,1.5250532320231687,1.5952013498954716,1.6176750390668047,1.683844090761362,1.6845111990026493
1.589234994042365,1.5930306249398578,1.5351183555610695,1.5457296632419986,1.6556449970220468,1.5567913817797632,1.5909627999671332,1.6291567932142241,1.6099235468533666,1.6546654323340826,1.6521839454544611,1.657222476218408,1.6147206083856682,1.6718053977699752,1.7063839966198069,1.6662293728656798,1.5881036699530937,1.648243423440971,1.6919990553929258,1.6437705256049087,1.6765071044549966,1.6800038194739353,1.6661088906985864,1.6218639815781877,1.6352281559715183,1.6810484004799873,1.6235002501484326,1.5691153589250537,1.6160060796010107,1.6468939111696093,1.6899065572977368,1.7238937804050205
1.607762339879859,1.5999632325260857,1.5538444016267554,1.5654998139404894,1.6833588648071593,1.570740344168986,1.5579067476588289,1.633485505925737,1.6560030238662038,1.6290494331592649,1.6278542480133533,1.6547815900332496,1.6884346109257196,1.6905767522424464,1.697770082156276,1.6445356917518883,1.5947346866328818,1.711481604451592,1.7089865798258193,1.6374091436493199,1.6621621811437277,1.6748149360070517,1.6126416530377097,1.5941821924762283,1.5847158761212847,1.6126481234179497,1.56965029717025,1.5615926193497967,1.5881276528033992,1.628123225294601,1.6742977579674463,1.6031065868041572
1.6160181066190362,1.620787032129745,1.6147694652668116,1.6190768851944783,1.6816945265595444,1.629278089725967,1.639536855841299,1.6067029176656336,1.6504073679719509,1.6577789968000047,1.7177655688698645,1.7021519791136528,1.7442461446903736,1.741356125077268,1.7451314538761458,1.6807749270726735,1.6845831640388993,1.7794242919651246,1.7705911887879815,1.7474834669642993,1.7400674739970552,1.7054531254512626,1.655915528595387,1.691069052211586,1.5941209720946734,1.6396888876618294,1.5512460638377985,1.556201820559646,1.6009052219869522,1.6241096719974313,1.668852784482823,1.6347979392732594
1.489862806495444,1.4866023270049322,1.5019834038532915,1.4811269847818864,1.59140012468531,1.5209074959693327,1.540912716850223,1.5765940665952056,1.611107431600624,1.6055580020704265,1.634669260822658,1.6526980910177413,1.6920284450305554,1.6743318272185261,1.6719699134939296,1.665257037717158,1.6514668043436573,1.7639319091658374,1.736575965938669,1.6964893536405439,1.6950407237872627,1.6552774342096523,1.6396658344304693,1.6246513298069214,1.6008522674478625,1.5871092930935145,1.4904705296005212,1.5029825533900305,1.493736470798688,1.530414759395846,1.5633247679011733,1.6016973425000383
1.528918572196711,1.550610147301044,1.5515976275859766,1.5537149541342552,1.604649213955644,1.5897038973568907,1.6351001778277308,1.6037206923375875,1.6809550041910852,1.6720220618294532,1.6937416671435024,1.7125170009613602,1.7534469220499465,1.7131937061161113,1.6997970145210792,1.6797814461508398,1.647724646470939,1.7529208110739993,1.7260572125458797,1.6833175266146303,1.6753928467888821,1.6765202483352815,1.6345276200301428,1.6072240490269893,1.5158535497631207,1.6223333272930003,1.5400074264249748,1.4561343979183818,1.503395437847657,1.5342257499519938,1.6156849242091094,1.6061486970120051
1.5090627493390825,1.5072868774875499,1.499049622122798,1.538407870679993,1.5958701087190772,1.4845353743387768,1.546509941943342,1.519339407093984,1.6140610288901722,1.5817593466254274,1.6216596062878774,1.6179575308403709,1.6758890010631105,1.6685903060926284,1.6645877999544765,1.6716381080517217,1.6447271805082802,1.7171743484779582,1.6856282469419865,1.6490387457283966,1.6669502379530312,1.6393518667802605,1.6342067899409567,1.5798140476068685,1.49058396139313,1.5683129015776753,1.4801023878456387,1.4368831478347703,1.471149114478309,1.5089714408297923,1.5699582228456024,1.5771402042483322
1.544543655579682,1.545183112278676,1.5420946988493875,1.5683618675368105,1.6166629692143997,1.5706868407628347,1.5830334595509163,1.547512787926688,1.5943082548117662,1.591801584967433,1.5964635934306555,1.6066377204511297,1.7193255627470392,1.6320590342510124,1.6156014202167548,1.5804931092072532,1.6202234225295584,1.7300248926123933,1.7171430121827838,1.679937691436087,1.668187547537886,1.6603860378478923,1.5956825250331372,1.5948005357923094,1.5058079124044044,1.5621913540313614,1.4802664995418393,1.465339544082481,1.4887535210590004,1.5304326341736774,1.5838471051643646,1.5866040040969545
1.618702500308,1.6118975886948332,1.6271695080512594,1.6575963483332286,1.6608219952497598,1.6281433916180377,1.623415518945659,1.506372373411027,1.5827105229974987,1.5695788226471568,1.5796313162382098,1.5902917168978274,1.6795514818759962,1.6068742431903245,1.57948610206108,1.632496088634376,1.621407287825312,1.6950277512792273,1.6654627864826757,1.6342498098774128,1.6409480427275964,1.6118076275563509,1.6124243591058298,1.6219132425112444,1.5310418557108996,1.619692371336177,1.5204615243147974,1.5071334057054633,1.564066249702889,1.5951064499876182,1.6145126094959115,1.578630325051573
1.5623168193983552,1.5732186483551671,1.6275238741394256,1.608754604905968,1.612095463899816,1.6486647114572015,1.6433640021893454,1.579406565549129,1.619598055860648,1.6206540569809325,1.564913725553122,1.6043895060082582,1.7002677115169824,1.5989828001797401,1.5766105489508833,1.6271610104631495,1.6212308116975407,1.6858948773821463,1.6317934711057418,1.6252858463893014,1.5723241537424877,1.5827613325011336,1.572354860769455,1.5456049636232139,1.477418301976896,1.58991272320049,1.4640036905838478,1.461003649916205,1.465174751123283,1.5443584048706254,1.5849800098264775,1.5671252053345577
1.5548890191493876,1.565150990847612,1.5742857152467828,1.5709952053506304,1.60412923779705,1.5951032691076423,1.6313732869139446,1.530674685369638,1.594492005595307,1.6065529714907025,1.597743943683368,1.6103010968004294,1.6762925435561782,1.6098647319467327,1.5844928746423919,1.6470479749390963,1.6290653219535995,1.650117761041061,1.6061681886823769,1.6045936760571797,1.5795644322504176,1.5729572159785956,1.5777064722270486,1.570699214984284,1.4576670943355954,1.572777612088749,1.5032803675310076,1.4216969498298824,1.4254910874071034,1.528084136310569,1.5813895353010414,1.4996623018163537
1.5527532508740536,1.576417936817037,1.566168112111672,1.597424670442494,1.615963549962036,1.5922557862935611,1.611141702496113,1.4932489465187917,1.5859870273698164,1.5717210975483347,1.5619528035493664,1.5704965794633254,1.652459184465853,1.5450342889493713,1.482087457169557,1.5077679999398585,1.5649875487121652,1.6278894188682806,1.5924980620168556,1.6065778392664802,1.5971295688277343,1.5503859237897075,1.5658109525429744,1.6044034235195503,1.481532512128187,1.5928899209234777,1.465691615433052,1.4190043238128416,1.4465420719711244,1.5385794001574142,1.5951096563744673,1.5194887392638086
1.5305829143543057,1.535242247378944,1.528921188673861,1.5512073934233492,1.5765092422404217,1.5507245581590305,1.5654665837882247,1.4383672826657645,1.490341919091486,1.5140124102835781,1.5239767544086085,1.4806462652914012,1.5947473620927703,1.4816936588446568,1.4684008290572839,1.4970426263740408,1.5514116099615054,1.6121425934269706,1.6030262379544673,1.6345602245163033,1.6152660668069987,1.5518373380264814,1.5663184502992038,1.6361762211600195,1.519004232183163,1.5431059622657979,1.4938615889714224,1.440207415004914,1.412788745950892,1.505026841004078,1.5466875815969972,1.4666253665229605
1.5612160223062892,1.563231765359382,1.5533716294027078,1.5774061761982123,1.5950715340269122,1.6071034057586095,1.6381168179007688,1.5443520992162967,1.5126112387489803,1.6241173831870273,1.5766095773574338,1.5576869434226404,1.5540691899459376,1.5278000747180176,1.49843610176283,1.4784531715147846,1.5064586382491316,1.5312620661939422,1.5077709498269682,1.528874219350915,1.5339744836288882,1.50129247281011,1.530409341275448,1.5630691128208556,1.450846622098594,1.557978008865178,1.4682575362750763,1.445028804622198,1.4308172998947566,1.5094416380783646,1.5689421311611111,1.464124363140605
1.5313186198344662,1.5526813495507823,1.5793542456329552,1.5423905098598558,1.5412302466237433,1.5864501203121852,1.6082460881992895,1.5595897020781249,1.5166224330623634,1.6004738303239134,1.5375708490003674,1.5224076255935983,1.5318441720753369,1.496355202532536,1.487331995412597,1.5117996758876013,1.5245579839411691,1.4909794242047982,1.4695736568443178,1.5254722400633383,1.514171623569532,1.4895987118708207,1.526315339168551,1.537912331404879,1.4278986407080445,1.5044130825384823,1.4395868700469066,1.4382787668273198,1.4018958472905796,1.5130464879894068,1.521014621555202,1.4717278658413928
1.5104690148789586,1.5414778566861989,1.5366971634538038,1.5277786161442093,1.5597996414192812,1.5896427652881875,1.5975981658839875,1.4946482247302697,1.4884336503506128,1.5699037609845272,1.5086298091702945,1.5346284545004576,1.5364114854608306,1.5038972857328725,1.495932605578141,1.5073576202158325,1.5166292417339273,1.5185771029801174,1.4999602958799474,1.5234301724892796,1.5332774553360713,1.4910315702357695,1.514591535306973,1.5460695302860403,1.4205604867375092,1.5209254489385455,1.4706279536956341,1.4080142160032147,1.3324258118803007,1.4785630495916657,1.5345885646932251,1.4517692565751976
1.4849148432921522,1.4955106644544396,1.476531432813751,1.531955198626989,1.5702919038605112,1.5097693190023365,1.5086425696395338,1.472683368604365,1.5158123531526857,1.502672155519848,1.4463985497151877,1.509441570603555,1.5593591670596203,1.5004419263010802,1.4883148740267034,1.5280016660418387,1.5311281410554747,1.528309838162229,1.5313754915971747,1.546854156201797,1.5641559454857823,1.5291906472316563,1.538423353907107,1.563573833856289,1.4668343975399973,1.4931400687667291,1.4243163535544507,1.4141750221518583,1.3858146017318875,1.4910952191654439,1.5051749492038733,1.5065152444954717
1.4966624612168837,1.5082563485631788,1.4679842989488072,1.5349023242219737,1.6128922703583568,1.5137370239669206,1.527002629788389,1.5091315455251404,1.5090609933827865,1.5164282320263391,1.4578404433383558,1.522364177330956,1.5362125107282467,1.4847764765263993,1.46799508157631,1.509859408494419,1.5159806295775824,1.532759933721648,1.5406878749881547,1.5574296961048655,1.5428085355615606,1.5327385745559008,1.5225760202464111,1.5609410431621786,1.470899433219698,1.5223088615015066,1.4473581565695672,1.4085375993995783,1.3688297044897653,1.4639045692734316,1.5414060170013877,1.4649270724228345
1.4578074405870298,1.4487258468648887,1.404561342082472,1.4730188621167781,1.5792316722712987,1.486663406648908,1.5129336985705297,1.5429543748135128,1.5210212896364061,1.5414209477771514,1.4585562657782967,1.506858371547264,1.4895320774244503,1.4730039813165163,1.446837621879023,1.434773651617784,1.448249823238445,1.4529711977155915,1.4816412864892157,1.4977054021172833,1.5001879488520784,1.4771450530175472,1.4916767843082606,1.520922343366616,1.4295068774189092,1.4908100209775534,1.4460957356243256,1.4025512556948299,1.3904277225689876,1.4409176474017769,1.5088677080376947,1.4561775840629654
1.4869360769774123,1.4832693735314548,1.4662928741501977,1.4986744868539412,1.5028592498792668,1.5097321604694258,1.5122214831108607,1.532842749621153,1.4942274050398192,1.5219368198505778,1.4634620496761694,1.514746506792999,1.4787969671520964,1.4643615021237906,1.4235432510246089,1.3979393420564845,1.4170309813149888,1.4239747956079083,1.4586763430825282,1.4881357041482324,1.5004370751271983,1.4752273444424602,1.491280157838898,1.523478750755714,1.4293357312330606,1.448601243762322,1.3614008568236506,1.4160074583386515,1.3880074973610426,1.4816061164835022,1.482959271111701,1.4635987948362137
1.456699917521782,1.434945740103572,1.412963190751908,1.445553657274133,1.5118579058162096,1.4563707855690542,1.4645578480137666,1.4679062470266322,1.5326131444676832,1.4865937437047092,1.4296529480201359,1.5066748420130998,1.520615354816946,1.4843069734517915,1.4464457497637617,1.4626377756040538,1.487600055203624,1.5052335867324294,1.5129047531714777,1.5327696454617177,1.5528814520286653,1.500185369481305,1.5298033438578114,1.5577698374592366,1.4580199087496861,1.4935350853309086,1.3996084814337906,1.4211941397079664,1.4343098894620665,1.4757195271268972,1.4837694017636838,1.52781943568113
1.4347383793700943,1.4310421224389909,1.4089757956107483,1.4434323496663488,1.5011835164984662,1.4630896085146932,1.490800132497026,1.531517265387891,1.571534509980592,1.535624863464953,1.468266391468909,1.583812691057649,1.563037584147224,1.5499067618712228,1.476297010036082,1.4789813145992747,1.4722928352682683,1.5068747912564184,1.5101347797997948,1.4945317867712258,1.5163070315960576,1.4962727253774504,1.5036617305496718,1.4913038587098724,1.4253058593612944,1.4563046996926088,1.4004759322770788,1.4219374605273056,1.422754913085498,1.4610307542371803,1.4588285891768895,1.515078725577211
1.5090988409104236,1.4654889541558669,1.4867265015278672,1.4868643757104312,1.5195004381815285,1.5235162271639917,1.5731591873276418,1.6029114559182744,1.578529021963746,1.60958983423699,1.5617778117888041,1.6429870044101171,1.5765373769205708,1.6049888550828628,1.547094266030921,1.563142465962603,1.5604604045973316,1.5486026306264,1.5739172390908704,1.565079361955447,1.5838119742779402,1.5567436491245603,1.5814522192628806,1.5685254201029184,1.4957857511630228,1.5476902863639328,1.4627353332486033,1.4297902777214182,1.4625610859848115,1.5070571853519508,1.5110218442146481,1.5316549770011592
1.5394955813183289,1.5394832013747388,1.5112515648201579,1.5264646989648727,1.5881105044203008,1.5544902232699314,1.5985969313361301,1.6495580292402061,1.6783163335392457,1.665811425514337,1.5722540922804455,1.7199664591019959,1.6321482578000357,1.679261701012929,1.5642856851942022,1.534420069414352,1.5081724630150748,1.5101890162145726,1.5110198870703935,1.5187747326122125,1.518619307461434,1.5202545155506464,1.5259632862972106,1.5137200526441814,1.489507396324379,1.5669922851140887,1.4766078022782436,1.445889037615,1.5278814671249414,1.5528987068801046,1.5652331838305875,1.5724509147192813
1.6073076009136282,1.5719109438887116,1.5803160016676736,1.5530045791886726,1.5905368347719557,1.5504572384757913,1.6313613645787541,1.652505907565196,1.6900692512704918,1.6761620990476451,1.568849352255578,1.710432865887725,1.611282105689622,1.652821613712972,1.5473101046609476,1.555241504647849,1.5316958754748837,1.554809966359724,1.5819191521714553,1.5683006873200642,1.5865184592238704,1.566990513882739,1.5723516245951992,1.6106553439151963,1.5383248551695536,1.606046045353963,1.5407187276437555,1.4591619760823178,1.554784537174501,1.600761921816985,1.6085280724369693,1.56786316560408
1.5906442794408553,1.5839515313049783,1.5229371634963194,1.5525907381295896,1.650969367875305,1.511958403866251,1.5918541110136564,1.6669531401342101,1.7158478992463562,1.7032899499775909,1.564635953476243,1.7435012620600694,1.665672836019558,1.7021492105575138,1.549323953579032,1.5335013198599765,1.4671520625393877,1.5433361674827406,1.5533998820336534,1.5241366863637602,1.5671385164973877,1.526529283454017,1.5561493568177645,1.604716247398396,1.5370204252336293,1.6264193828898756,1.568557867907937,1.4864952257439583,1.5400562168731402,1.6276732547016752,1.6485175706489938,1.6266994670364319
1.6012387470159235,1.590702386456408,1.5166640639233522,1.512609410150398,1.6134348188989818,1.5221799612404991,1.6328128260632704,1.704297450225262,1.7677133452368192,1.7433194478957006,1.596123693502257,1.7763719618085883,1.6765732233983222,1.7074573707893363,1.5589578768167507,1.5543188760457887,1.5532733588021388,1.5928432428091464,1.6403159137666852,1.6140024775771544,1.6500756804304322,1.615748591704668,1.6266076532950497,1.6608811977229427,1.56192551593996,1.6534440646184692,1.5867380008021086,1.5109085124556558,1.5317605988585472,1.6171484880896083,1.6442989466255962,1.6282844642557983
1.6318409991734641,1.618540107882117,1.5448100388750428,1.5420886147496855,1.6859805035412676,1.5422586154609137,1.6275258145041203,1.7418636557279987,1.8260157867881763,1.800777780160227,1.648299504857517,1.8436921382632798,1.7335015997051773,1.8041787069635964,1.634015393886733,1.6118786997206633,1.5670493102794862,1.6153632939791431,1.6607202702792716,1.6095210859325157,1.653381185829473,1.6168904342650987,1.6456088272233158,1.661461919682494,1.5769975377606946,1.6853764728026113,1.565540960041361,1.4904375521790818,1.564590840775232,1.6308954456594613,1.6791025312963783,1.6998482446514445
1.6107653980286516,1.625017389731338,1.545804589239035,1.5585859631164638,1.633053428191815,1.539748948692261,1.62871435081673,1.695764761547111,1.7737906370005503,1.745814965408043,1.613207160124088,1.770132889352792,1.716606567400765,1.7357777769883223,1.6313360967244779,1.657788242300463,1.6100333859560358,1.6499222882464135,1.672070207261013,1.6267595969796542,1.6563311154100175,1.6693677140113465,1.6445976675676448,1.6315018013577252,1.5468854247634318,1.660101702104578,1.5534863507688743,1.4932291324549674,1.5254076335914186,1.6075802234479106,1.6467649987142094,1.6614258555932093
1.6297806655546885,1.6314131524725082,1.5673698005738632,1.5423822489679284,1.6126026454371625,1.5371195983274952,1.6079491076921508,1.726202987364813,1.724211098402274,1.7479308818385138,1.5988781683840383,1.7857682474884926,1.6907743439549832,1.7390438677505853,1.6234373203757198,1.6381919344967686,1.5770183530734236,1.6376608299706195,1.6580492472447836,1.620176330648894,1.6358430632377379,1.623922149268903,1.6426485871573309,1.651028763538864,1.5696295084311123,1.6595861737513655,1.5605254790131502,1.5512362069391665,1.5737482448205875,1.6512978378633585,1.642504098481585,1.6648877885484887
1.6458451493062387,1.6469504136480158,1.558738510726546,1.580255325031486,1.68263168942198,1.5276028687182899,1.643534826539467,1.6995694474415841,1.7895813823047033,1.787597468688124,1.6176301478304618,1.8102900964793887,1.712811927043264,1.7426851503435157,1.6182226632126953,1.6144852727139292,1.597333818979927,1.6356006117174215,1.6798063261913154,1.663396426938307,1.6823953189701242,1.6649105773101822,1.6844765404238766,1.6750570091000734,1.5727835645703827,1.7087051980882073,1.5953048737863722,1.5058879275240615,1.5611400553575774,1.6362816397356414,1.692454809523949,1.6905533954218879
1.6753552053525549,1.6562788412429001,1.5543157686284248,1.5517564279173444,1.684763341678085,1.5207388902716712,1.5792969533537946,1.684624902373109,1.8015487529038414,1.769648327092317,1.5841549934144394,1.8136753422636607,1.7370461704957734,1.7451345977611143,1.6122367186559834,1.6491200609071692,1.6227909299665413,1.6913953386234966,1.726855019556454,1.7020965080641999,1.7259871495819488,1.6976851609451642,1.7337213402815155,1.719465723453223,1.585630128341234,1.7602584986685965,1.6442240956121779,1.557041918664769,1.5891711860311473,1.7143272018494702,1.7238457080545353,1.6976130755639205
1.641352982442055,1.6558818128248998,1.5157787401791416,1.5626335989140525,1.7028246911851164,1.4745271939335103,1.5348236378477966,1.6671522687246907,1.7791887257547874,1.7224710193001609,1.5737788649598503,1.7721667050677796,1.7227125093963522,1.7400658722023703,1.6352316076133342,1.6644307976504855,1.657089464958146,1.7253733986695599,1.731172495657831,1.70170084517576,1.72351715318394,1.7088908022223235,1.7262613090988048,1.6951903373141264,1.5487159606688177,1.7636347836838624,1.586275516638027,1.5343472489561674,1.584311124288973,1.6663801935683618,1.7226324354093316,1.7044147891693076
1.5960451520619534,1.6044196286303953,1.5265130160204603,1.591656822446609,1.6605208231025983,1.5388786065401534,1.5399538754697617,1.6167462973625655,1.6783597340691,1.6735448277146607,1.5420724126781855,1.7062572497818416,1.6431239789172436,1.655482399878227,1.5611770899311552,1.5780022690472777,1.5682600523873125,1.6606688393691302,1.6639452202958671,1.6139217840558582,1.6530274118314068,1.6586658861301975,1.671362114778941,1.6063416153460344,1.4754898753365289,1.6887638224345323,1.5464582968117098,1.446575676407538,1.5148063458647156,1.6038505767358224,1.6504994846155316,1.647878891662729
1.5361219349278903,1.558872999690552,1.4918759954739016,1.5365598813775776,1.5886005404382009,1.4991944705713298,1.545423762497134,1.6519395917699071,1.5857176755841165,1.6275969732603754,1.4475796047489102,1.5776346745764476,1.5579639965997216,1.5527608260926098,1.5222084179132038,1.585264031496814,1.6246386396271884,1.6955895838576691,1.6917282259787183,1.6266743525975154,1.6542782358583519,1.6509327956350668,1.6794124868299312,1.5656574864258992,1.393140159550185,1.6210130504573508,1.4314037799550596,1.4167816229994017,1.4689065844948535,1.5481455422329433,1.5997635300960755,1.6708179584062473
1.5297168026971721,1.543805337196152,1.44472549984094,1.4926652401630274,1.586208020005517,1.4784121983914689,1.5659933438348843,1.665205952471378,1.6693174359855718,1.6924745434492483,1.5062782796874812,1.6570013336248175,1.5645350995639917,1.542237657904604,1.5469876712331638,1.6012765753439462,1.6248599736810712,1.6780355327983232,1.6796083879909798,1.6514388411465712,1.6741751702302385,1.6690336914156172,1.6827656120852037,1.5921051957503856,1.4714350392857527,1.6553533436387795,1.545840636024459,1.400101090370724,1.5149572226788608,1.5632545303926046,1.6103718577469488,1.6269035872155218
1.5407117116946099,1.5492213616711532,1.486907485629278,1.4956985862124004,1.6172315503847619,1.4775541291363328,1.54025391273826,1.6390887463113888,1.6189029230480918,1.6392717434813664,1.5077756976326415,1.605267460380871,1.6579314169299,1.5732169668294622,1.561651528836983,1.6126398969255755,1.6706665336941111,1.7619425012174819,1.729700485966144,1.6681256978309038,1.6840926886622907,1.7189103191919024,1.7034894411550188,1.5426777036408108,1.407268612392754,1.6617843780113088,1.4879132663734247,1.4375639010045378,1.4934151293850688,1.5609061966466051,1.6215545937725646,1.6807777344092145
1.5480910615287833,1.5545913235792963,1.499768222377332,1.539922586025353,1.566786067712954,1.5247794207034513,1.578479549881231,1.6323613683784477,1.5613365149950935,1.6350300822188437,1.5809863518931637,1.6042901778848748,1.5768454541625851,1.5629828502756733,1.5878809753504508,1.5768378758041666,1.5814686789325658,1.6764845540855386,1.6660526861935245,1.6009422319216846,1.6359297461825668,1.6626864423211554,1.6596729204854603,1.5221658139634544,1.4138527938172234,1.618993807860529,1.4885276257880924,1.4872108525035976,1.5107699165789574,1.5930454228551316,1.5884073987921696,1.61706222354959
1.5287630604100666,1.5470849872658217,1.4922958646135465,1.5255189621328031,1.59384735454557,1.5341408568935893,1.579699898848349,1.681581469337389,1.5207066605458335,1.6073521977209428,1.5007279968113831,1.5343859839407101,1.5589268031659769,1.4899492524109523,1.4774700950418351,1.5147931444283191,1.575669827352806,1.6739945991038039,1.6769025064127712,1.5924788920143484,1.6450628517170556,1.6668993308295794,1.6586498718125806,1.5112755523193788,1.3908896741826102,1.609445236812561,1.486964970153752,1.4666354984258227,1.4840103115376053,1.5723283954393517,1.5882521413370192,1.6550509632730592
1.5675427931121484,1.5838300915646295,1.5139363556570478,1.5661170380736424,1.6600444822022242,1.537070818596619,1.5745459265823216,1.6418579554218176,1.6281272609317918,1.6490602542114128,1.5619259346465855,1.6456165607623512,1.6539665652918092,1.6034293780713147,1.5429996087342144,1.5480452425576896,1.5771093258697884,1.7181716292062412,1.715599362433801,1.5686958160373399,1.623331794225258,1.7132084834877106,1.6617524805044706,1.4768911082357914,1.3608777405384835,1.581397648980228,1.4938378125787874,1.436676535521967,1.499515092114161,1.574258111589458,1.6219021047273754,1.6234154140649923
1.550005707442727,1.5586560035872927,1.5395210964474262,1.576040877739721,1.6198866836365253,1.5361665543327447,1.5609222884385738,1.5877853004004578,1.607965807381223,1.6088636422390687,1.5473414785581636,1.6235032507087643,1.673807206978744,1.5867559366363941,1.5216333378475047,1.5307322187027925,1.5641223372789996,1.7063302413896384,1.722660656592041,1.574452200202774,1.624487450851515,1.7026196718439164,1.654473129509575,1.457177990855351,1.3807336393302694,1.5009446494319552,1.4764002670415155,1.4316140827428245,1.4534514942838677,1.525143166031011,1.555709333901927,1.6046560241453043
1.6183218815627411,1.6251714326824456,1.5624956373950936,1.6359313356031548,1.6943571539690079,1.5780200154762378,1.6241140754885328,1.6388146721474388,1.641715822947667,1.6742844367576952,1.5906553759450301,1.6794709511863635,1.693887976838474,1.6397827917967585,1.563200912298246,1.57169041451461,1.5840524497490789,1.7384511263768379,1.7188132533515836,1.6049564299750627,1.6053356931756315,1.7041600713923764,1.623742220209364,1.521060294625777,1.4786225788221854,1.5834217120735605,1.5513164571833373,1.5319471848141832,1.571691586876529,1.6401902580693197,1.6627769921443656,1.6636984839707458
1.6688470434200176,1.6759998154955063,1.618117513799892,1.6169090055681794,1.6520668299144472,1.5781347551873082,1.634216581311165,1.6466380116190529,1.6824158912736118,1.7058115441593462,1.6344377395126242,1.699893170197099,1.682361619263208,1.6528453067858424,1.5894234328538308,1.5949467797162842,1.602800132843827,1.6970184752389608,1.672998024122061,1.5811646227099814,1.5851921969658085,1.6662627530532637,1.6178930430356102,1.5120146990204444,1.5205214462492724,1.5693553672520768,1.562308464214807,1.5368827853729763,1.5957066684376937,1.6560154582956614,1.6712937075138192,1.6280834623005116
1.6902364779123764,1.7102160840476974,1.6708552625573736,1.6838251974070404,1.7250900645684593,1.632475157667188,1.6596010864744208,1.6370796556896383,1.7121217746122133,1.7423885562296382,1.6641275896728416,1.7462964605768527,1.7093993190909231,1.6909950913748508,1.619223023134036,1.6018324361218492,1.6304200090464382,1.712106302083453,1.716699280646135,1.6123374249056417,1.6868568250737053,1.7076594098022428,1.6820621997752072,1.583639426669405,1.5300494327659662,1.5667539624810154,1.5521599245683257,1.5503355040220193,1.5827791734877903,1.6764059897101722,1.6951666872213274,1.6099855934418057
1.6850037164483207,1.7114818440876027,1.6684205414357596,1.697719672249934,1.7116974931089655,1.6560978905816919,1.6494176067812836,1.612783479942558,1.740142446529018,1.684511808047467,1.612100545391154,1.7264398577642155,1.7543640387023491,1.6676419070211967,1.5752678784574732,1.5871406099357301,1.6087115235224774,1.730711868674228,1.7549626274082595,1.61415025845339,1.700588229069586,1.7538312670874399,1.6989436239009361,1.6050516784759805,1.547030488705744,1.5965426766465183,1.5661390573370368,1.5539584163647537,1.5427642011725733,1.6423288222719346,1.690943052114692,1.6483322053252483
1.6863629237318856,1.7071006395732276,1.7158349936292854,1.7042675322991658,1.716016148775911,1.732649686471807,1.7376947772580733,1.662091754294511,1.676778466897454,1.7166518636594352,1.6548886731006411,1.7032836287674105,1.7306821312442773,1.6549343820212374,1.5605101060977193,1.5888793111479478,1.5781731807066643,1.7181557480433,1.744646111243921,1.6361007500434448,1.7031208594930962,1.7580082187344623,1.7260638685367957,1.6586982999522524,1.5814991530247975,1.5945379382833855,1.5344982413306802,1.6137743225348316,1.5670960467050015,1.6472803217824232,1.6783791305830567,1.6675251589456646
1.6095727523599945,1.634300312014407,1.641570864582438,1.614102707669615,1.6677173124344025,1.6524776107682204,1.7182710889270905,1.6340085815772873,1.664927457391447,1.7191425350336933,1.6397335180352866,1.7103368462500297,1.6674835059451123,1.6331582547153995,1.553839532070503,1.6047299062726321,1.5847928220888035,1.672022535938909,1.6994992177461852,1.6230405868008408,1.6478419275514,1.7103329593930858,1.6856840294264035,1.6159042881266126,1.5752996440443778,1.5847428608079603,1.5235362093019906,1.5359325232972256,1.5260423554410443,1.585613858909143,1.6390180594050818,1.6522829927687195
1.6452619281291208,1.6699358787447556,1.659387292434049,1.660973527366236,1.7135932429201037,1.6424488709574496,1.704029075934008,1.6558669344066494,1.7233359382755913,1.749728164788837,1.6829270609032603,1.743185193845807,1.689119686814404,1.684807252739904,1.60826850715235,1.6270652927528026,1.6309866442582384,1.6840164065005965,1.6964064626976134,1.6233512584130985,1.6662773048513528,1.713061112913942,1.6764419742831325,1.6267346944768137,1.5611577425967165,1.571531182559567,1.524452091355255,1.5430642603484692,1.5227561204639286,1.6119428677103798,1.6729982928402511,1.6296359460209078
1.6533392409710963,1.6820897104007118,1.687198029145619,1.6567388278856496,1.7300766804772187,1.6586280234252755,1.6988156776854892,1.5880108212709976,1.7581785252179374,1.717338568103335,1.6649698667379198,1.750467538765518,1.7051063816192866,1.681664632672706,1.5987460586165583,1.6150386970891661,1.609661852202585,1.6604512154215787,1.7106649280310242,1.6446179482347434,1.677539403648188,1.6991005620271116,1.6751059676390345,1.676754189813547,1.6025416193647417,1.5479939019500526,1.5245740395547984,1.555950827670587,1.5627519209488059,1.6511296966230153,1.6801617581093018,1.5666882586981903
1.698745048383259,1.708097725255596,1.7422799970566953,1.7065236506022858,1.72321844086703,1.7524131896602824,1.7364092135814684,1.6933019897987738,1.704400298606902,1.7486605660447248,1.6583567109070512,1.6819383668611319,1.714063065936726,1.6428635209221027,1.5919771115802583,1.6153150447839744,1.6296083925579234,1.6941841678313552,1.7455797346661077,1.6795066910587884,1.7361696234752673,1.7718156158321166,1.772915689495761,1.741845153421623,1.711198938604045,1.6443429646560797,1.5959674818687049,1.603810178199379,1.5795444083080605,1.690580875623103,1.694500824979749,1.6578851696166854
1.6522647018534056,1.6839593109130133,1.684197395131743,1.653928281444273,1.6818203173232231,1.7124759197700152,1.7288443949290577,1.6544650895968256,1.7134244054655312,1.6966874537664927,1.6148548824398703,1.7112722145237644,1.7227312265917978,1.6898323495834502,1.6280171763556812,1.6464962192262689,1.6523866714312665,1.7437220305546215,1.7514573285730526,1.6812589892761418,1.7160632438441197,1.7704138072801126,1.744559986836448,1.6919896779681587,1.6519332796785402,1.6080813717440592,1.5800155294709484,1.6181263826312597,1.5846763744062256,1.6961670881782933,1.6710630531967596,1.6540445717741186
1.6631049748603393,1.6689591651202507,1.7059563090958896,1.6678556036744128,1.7061338990189099,1.7238837574741666,1.727474475285974,1.643217585916826,1.6751367938913415,1.7115962835840595,1.6456311297709578,1.6791613971221724,1.693633386206015,1.6417246770972733,1.5954207709478392,1.6011853528843123,1.6308806871614516,1.6820588491203259,1.726002311691497,1.6725458400624813,1.7196953021524934,1.739144942988844,1.754008672145328,1.7113508777520128,1.6669550395688388,1.6276414521159135,1.559412119334787,1.5699364864278187,1.5369353544734767,1.6488130028850145,1.6608970873173339,1.6482514581904166
1.581069716130984,1.5941676125605035,1.6359126517997247,1.608854237422173,1.6735051367432738,1.666747317683615,1.7020148047232817,1.6401872210671693,1.6988978935374761,1.6882377846094097,1.6225501021393651,1.6851227765293375,1.6821087639544428,1.6727255790888154,1.6127699422971162,1.6178653653879171,1.6271259742089914,1.678707435222725,1.7042787416193579,1.655973851904322,1.6893805956578325,1.7018905706926657,1.7142699920419116,1.6971506227552775,1.6108142469747375,1.5997081067610612,1.5364851547547322,1.5379918218722943,1.4980223327936124,1.595823793156197,1.6288097999108389,1.65298108388091
1.6160241956302335,1.6351393412541133,1.6651051679963274,1.6001680974455301,1.6651009171691715,1.6311316025453308,1.6721715585937427,1.6324052737971617,1.7370615195813675,1.703925902403854,1.647354543586977,1.7289626523536235,1.715096025057914,1.7052204240288975,1.6549016533726686,1.650666110129832,1.6722709091112768,1.7351059128218407,1.7165717432970147,1.7142286274387224,1.694466809951169,1.684557200645389,1.6969711797631666,1.6977652073097194,1.5580890250449555,1.5906368958697223,1.5206102388276495,1.5388639398003305,1.5381496940757233,1.6390641342258365,1.6478253438092854,1.5813810609108572
1.6157380286574066,1.6161503787802098,1.6410463610982986,1.594040131076767,1.6200543415649562,1.644513941868918,1.66296409580399,1.6358739181173296,1.6738939044272465,1.6850520923027545,1.610318135332347,1.6865499576599008,1.6818117971937432,1.6819770939001393,1.6403863665143965,1.6344297702938555,1.6430088033745431,1.6780374126881556,1.6620464698239605,1.658805227766539,1.62827203633422,1.6686287954220247,1.6841874063777538,1.6399000120503244,1.5266942136039414,1.565748664826497,1.5055706759939689,1.505772000371657,1.528476512913298,1.6237742661831263,1.6274257993641845,1.6175778202374453
1.5842963594692248,1.6013486108985948,1.660731823896929,1.6085276152324575,1.6405069662086749,1.6639377256001624,1.6622600285029647,1.630265911555496,1.7248103959661536,1.6660077674123777,1.6122974092711904,1.726573071718478,1.7481963789814503,1.7486584384010175,1.71824230457557,1.666197718114759,1.7122544637489785,1.7513069665849055,1.704579635595731,1.730372088594451,1.674369354714059,1.6751442872686608,1.6661777811068792,1.6252997882890652,1.585708703676766,1.612890526495441,1.5459824145688519,1.531181493504888,1.4924673844535221,1.6410379413731409,1.619465832265319,1.6526692794254947
1.6044334456547327,1.5827127770725995,1.6231460834998321,1.557251669204926,1.600922631784488,1.6162091027306533,1.6322769327289544,1.6373746204923088,1.7033454760847524,1.6822439014035988,1.6578037893815003,1.7237684207875195,1.737326482046269,1.773525848892933,1.7473464087542945,1.7001628309440249,1.721173978814086,1.7597921394564955,1.702309357749676,1.7444018178744305,1.6821443264463143,1.672899984940223,1.6771397861432058,1.6558503858047915,1.5590011278520062,1.6104154821339713,1.561434198585809,1.5680401587011576,1.5319061909988725,1.6427442563048542,1.6024744416799455,1.6805699421316025
1.5581235827563578,1.5516808249133112,1.610122504319991,1.5271222797807416,1.6210406137883704,1.6513284095557441,1.6711155485206073,1.6970978679993998,1.76765082680795,1.7235785967117665,1.669603107466725,1.777717009680503,1.7909640895781407,1.806818613417326,1.7673569081077092,1.7489036878799373,1.7463024314871447,1.790523218699565,1.7401514778740776,1.7597849560046226,1.6893300616495863,1.6850736238621014,1.666598413759981,1.6750574109236,1.5762138642506862,1.6008830391944568,1.5352331653685636,1.554073098507941,1.5189527929120286,1.6050980393431171,1.5813947873309762,1.644939489952955
1.5456420625856553,1.5079018755811908,1.5466058552035036,1.4768804284785786,1.6138366091450527,1.551128724639226,1.6501921587876127,1.6751430654512762,1.7636845537483203,1.716896881260698,1.6872140510832419,1.7833169918847114,1.792774664714681,1.8102537685135986,1.7579004164177763,1.7406018337849274,1.7420931148757337,1.7880765946491588,1.752860911111357,1.7374260947837032,1.749786258580665,1.7205738242017568,1.6929553537484214,1.662361025640063,1.5368769942321712,1.5852823753968543,1.517834921646131,1.482128635176439,1.4454425514354023,1.535641152431453,1.5700643520819169,1.6096518958624972
1.5474124055537188,1.5361164502955595,1.5712956987257098,1.535110364479271,1.5724528989252244,1.563117880682818,1.6427789797299714,1.5953560284535298,1.6970639279080997,1.6605662360763427,1.6339569274880656,1.7424378076027893,1.7693543003835408,1.759758947592201,1.717213005946853,1.7313575559220549,1.7416355279313123,1.7812406431707546,1.744257524761059,1.7228711396295888,1.722330384295511,1.7224203079113007,1.6891773419811746,1.6763176132743804,1.553229368118355,1.5603334856928623,1.4755370329154087,1.524785367037898,1.4865422583041128,1.5667818065505614,1.549600518972252,1.6015126481076911
1.5156274919749944,1.4827955617338637,1.5295310127273074,1.6063374391897896,1.5271681619876902,1.5753867862918811,1.652545005235809,1.6215375217715058,1.6331204319679868,1.6665750631355547,1.6502529786325413,1.7184786896536135,1.7437565915330078,1.7604577787780065,1.723248730403381,1.7393676523208494,1.75361044673887,1.7648326452442993,1.7075658267606801,1.7442306797206504,1.7167133252316444,1.6939500668188043,1.6822549579595703,1.678436691165526,1.5782107804891363,1.5369387066147675,1.454091250369511,1.5590108249219548,1.4894050228846656,1.5285875909022577,1.4795065169063448,1.569203983796011
1.5158094283324892,1.4859947858004339,1.5173100773393657,1.5525714573985174,1.5290275778174394,1.5615606967072553,1.5982637620635265,1.618006153018349,1.5333322193213463,1.6011204360200983,1.6045581064055519,1.6731451851609633,1.7079448926001928,1.7395713794491343,1.7080471108529138,1.7107823905094168,1.7262989119225218,1.7492527085908327,1.7291536873097846,1.7565209612944308,1.7096305656987234,1.6915204840668858,1.6745709550470622,1.6991035472222291,1.551843508293696,1.543877371577573,1.4587832851650993,1.5167029436363388,1.447870692843308,1.5035785062657232,1.4821159571450129,1.5982563386418784
1.4731143918012348,1.4887025023452607,1.4741692338636134,1.5281536264549664,1.5120502231943158,1.5299052292132735,1.5535567298194535,1.5953185857788323,1.6075300437461804,1.5720157544398858,1.5642388707851913,1.6796132800252483,1.7710797646034153,1.7588306358085217,1.6784490989787118,1.6827476378320168,1.6944523243681997,1.7591332708962355,1.753247513665315,1.7625127773983174,1.7436071771632145,1.7184080922647897,1.667498905214114,1.681297927874154,1.564214185534305,1.5326396857709164,1.4479170238906534,1.5039126166070604,1.4823632545660739,1.519094939876141,1.4743460968069138,1.6136985550300504
1.4964181156182945,1.508567975463863,1.5132661821626188,1.648722185160201,1.4750775543207209,1.5760262660967002,1.5980451851841175,1.6261705556598909,1.5410819543026522,1.6013970375668922,1.586721258974671,1.6661819462943597,1.7023605564709083,1.707572716036172,1.6453466617614767,1.6339635915876405,1.621426648197557,1.6836860727033378,1.7097047998458892,1.668890608421105,1.707545638327144,1.7065406701552766,1.6762086244955756,1.6345089029945872,1.5937943760617075,1.5309937125802444,1.441433399476255,1.4915440317149127,1.4851550255916586,1.5063305220877545,1.473805131611713,1.5725335001470884
1.448943832447363,1.4810273055803327,1.5009700844439888,1.5976226222022385,1.4784627809239301,1.5370511787160834,1.5918746875217744,1.5715383842681838,1.5670338972066633,1.5895315061084743,1.559573463045861,1.6726872799980035,1.7184399917802264,1.7125573611392046,1.6438268852048024,1.6387928051023712,1.6119378262809483,1.686531560816976,1.682059890122391,1.6464512827317452,1.6932259918958539,1.7121332733452175,1.6678613854574587,1.6153250268527948,1.5480003744825532,1.5292485609163735,1.4504752492359374,1.4625788709324326,1.4498171366265913,1.4839942264818624,1.4508289020938943,1.5830437141834817
1.5100167206262898,1.542222327398474,1.482314573358468,1.6405107301843513,1.5353762706705218,1.5763238634518633,1.6020733334865715,1.5750483008745577,1.552515050940775,1.6256616897225376,1.606683553549523,1.6901439148231217,1.666727450971011,1.70093473398155,1.6317722435177977,1.6504236582043847,1.598764803937551,1.6377724702671324,1.639973554198238,1.5982734077440215,1.6234950698441144,1.6594358305200634,1.6499581542996966,1.6022607274398077,1.5295653450445503,1.567347806708347,1.4946351151180104,1.4987513855814676,1.505354686687376,1.5264787476887893,1.5371918184337905,1.56993066494665
1.49657856135443,1.5188152775158208,1.4673667327285391,1.4786903709170165,1.5214772583000713,1.4823710583758016,1.5219826653234318,1.5554881882767815,1.5689516485774286,1.5596729071851536,1.5251772114577713,1.636888954910644,1.6538484692533792,1.6618448026189991,1.5877232482535268,1.5982203723753652,1.554659375039843,1.6076300512725765,1.6390317865332984,1.5517989845976778,1.5997992256437625,1.651559030615155,1.6310713527557303,1.5691169479569202,1.5513745502579337,1.5569833819446859,1.485726544075393,1.4522048507919652,1.5010752818962547,1.5122661676365423,1.5341451143787237,1.5713660586381493
1.4916985970579866,1.5226112302029855,1.4889578014751683,1.6081301184506953,1.49334023329081,1.5077925531842882,1.5612778577257587,1.537443769595432,1.5683478139654903,1.5843687107665922,1.5469976236905734,1.6534751125389746,1.696446487856797,1.6316320596975338,1.5342358167558034,1.533382467311078,1.5537165405909164,1.6365463610103634,1.6871967366234626,1.5982330760781316,1.6349676169008325,1.6641583216950322,1.6506167523505821,1.5894221542159157,1.516741224510379,1.5110147448244866,1.3985319261450464,1.4497249722266594,1.4742090081323944,1.509987504477664,1.5099842064008828,1.5658998563004358
1.530587355861128,1.542962202243656,1.5060467258291284,1.5923920334559205,1.4800226287609142,1.5256097196956635,1.5699469808817983,1.5200089195714488,1.5680999832647347,1.592114174117418,1.572221393166677,1.6512469522870366,1.6964537716958854,1.6491244411947172,1.5634127324574738,1.5785039154529958,1.5731748474286407,1.6422143720143059,1.6785980398614322,1.6041765872749496,1.6613511430213055,1.6695145570047862,1.666478684379881,1.6148903120086457,1.5539794333234884,1.5493854422754954,1.4917982611324432,1.5132505384021795,1.4932106372312526,1.5354007516275374,1.5152885411102852,1.5497264164670435
1.5182003720279735,1.5211406145153068,1.486835371478754,1.6166302596856315,1.5333750487367226,1.5167293519001452,1.5688785711903255,1.5761530868884763,1.5955965465138156,1.6199256340096733,1.599985414740364,1.6836499019497702,1.660791503230638,1.661537529381861,1.567244649035728,1.572451760720679,1.6120256796107753,1.65712306033522,1.6822761381758835,1.6535685225607457,1.673140487609104,1.6604979011196317,1.6707841298742048,1.6529599681614344,1.5722900632553583,1.5830326872677687,1.4881293610853488,1.4870558968170675,1.4792243616765077,1.5284606150587041,1.544042597195225,1.6007372630426893
1.5631612625182214,1.5659674337951692,1.538898235151919,1.5337231269573848,1.5511751389501665,1.5569874069997118,1.594588745107135,1.5563276537725883,1.6659287587046054,1.6411709793030351,1.6125371523350887,1.7006568968356586,1.6962347775490028,1.6673932615205231,1.5551037718383824,1.5409420833632537,1.5532697712550416,1.6098352107416773,1.6328700881908254,1.5724992684276848,1.6078507795945296,1.6261142099112782,1.6125152358914123,1.590781643497141,1.5162459744716974,1.557992799821831,1.5153697794966738,1.5068632784188292,1.5187111638656838,1.5716696825719143,1.569246939169416,1.5557948493137699
1.616757793130188,1.6336639782303877,1.5697899289268948,1.5737216810342556,1.6003125205456756,1.5861059860204827,1.6528333719544754,1.5621526104930765,1.7141666301787883,1.6722171539277597,1.6416043144018106,1.7034056440563865,1.7128741309179192,1.6860622375342256,1.598847056881031,1.592371086481816,1.6277977546839215,1.6619443089046935,1.673535781436971,1.6379039757884049,1.6575889878214511,1.6627424090235563,1.6655824064189284,1.636660508868289,1.599980628402298,1.6327169489968776,1.5867011646171205,1.562948206162976,1.5865107120559085,1.626777932655665,1.6344822214559473,1.5973364029255213
1.6154714240002896,1.626721652952471,1.5823150592370996,1.5691590376847455,1.6111791458572846,1.6029235772142396,1.6534800885141177,1.6166954623803698,1.7114433418592834,1.6959915631488784,1.6413022793317773,1.7388755516014567,1.7389903829668922,1.7081354098234072,1.6261998645177171,1.634487297101519,1.6575312105406104,1.6898555546003207,1.671904226970476,1.6784079651496009,1.6569274625038013,1.6541534876238173,1.6659578345979895,1.691259585159161,1.6071162916926474,1.6419957981550943,1.5743117100003898,1.5795716875183405,1.5663481121876692,1.6248782193757014,1.6289537927663302,1.6206599356578337
1.6407424268793245,1.6181389285539842,1.615538082206838,1.5526224809600346,1.6082105314821817,1.6350992287656076,1.7669353881740109,1.64001497279458,1.7040105195308197,1.7790400007866904,1.7534507771413494,1.7853469588030662,1.7351934089403351,1.7604466546280557,1.6910940673806578,1.7042861871381114,1.7119387817215974,1.7311481637364075,1.7221056814060074,1.730538775226993,1.7268374110386955,1.6940456885977684,1.7228966806054773,1.7364512726033376,1.6484481344423072,1.6350647543989782,1.5731806455287842,1.656657371821917,1.6071763698050716,1.6639888347551282,1.620532168930237,1.5717435305047354
1.6696051233698332,1.6632443349002197,1.6492799950851498,1.5885214207460538,1.6646407889004649,1.6224430291358092,1.7200284714781748,1.6334469979331723,1.76731078626674,1.7498830657305875,1.724246152414692,1.789815428913898,1.7396017007893214,1.739414068864935,1.6614657000461293,1.6780757707354101,1.6922926612987332,1.7141885011217308,1.704213195074046,1.7047795463776094,1.7020325013600315,1.6917531719717949,1.7121238834928312,1.7124489918134067,1.6325316422703473,1.6481902395423709,1.5828069247235397,1.6403333046628144,1.6012107243768339,1.681756985432151,1.6676534209254639,1.6025415998031722
1.6528017257341576,1.6486225595986157,1.6802930357286254,1.5854959884057462,1.61658902934586,1.6965498980886509,1.8060991191602673,1.6647769283125844,1.7347821490186364,1.7904937991564398,1.7487126216499498,1.7625532959464856,1.718732277161744,1.7137667398749246,1.6343002156870783,1.647853031993017,1.6530484242273045,1.7039137253751742,1.7176909739010995,1.7043887110694225,1.7247671399125706,1.7091381237841297,1.7226873632762758,1.7153387311501958,1.6245168479207464,1.6414500788976543,1.577795840940646,1.616637399213997,1.5885075040836216,1.6633181543803475,1.632131572844499,1.596817703459689
1.62949904732596,1.6016915457662046,1.6827485569169442,1.5316210144650253,1.5865294040174276,1.7019374527716704,1.814760955789886,1.7211364337512034,1.7665226384372832,1.846782607868419,1.8159920461483017,1.8193256144497976,1.7361575825729805,1.78644578863746,1.708694730965781,1.6951833435561066,1.7115963403416303,1.7211073838427762,1.7009177993659674,1.7328280395147837,1.6961825431170603,1.6822799403400739,1.6837418924450185,1.709520788859888,1.5936901661757157,1.5994859119312017,1.5391441974338291,1.6251267790666346,1.569346939467468,1.6517665584237067,1.5920216042110833,1.604984288768919
1.6668222235929524,1.655508219241701,1.7156747105206158,1.6080946393409519,1.661802678999906,1.7344025199703905,1.823941659392894,1.7114723825598077,1.7916726280148592,1.825645529064859,1.7977302869663976,1.8174061638645143,1.7095620349467244,1.7721419943733336,1.684380806932757,1.678916966297506,1.6827746478129717,1.716977585655354,1.7165970562600192,1.7756299161470404,1.758921900165655,1.6752876071130518,1.7153797271632365,1.7644654967965014,1.649588447814156,1.643032028553379,1.5940810836663304,1.570781738218391,1.62414172957685,1.6646433062272432,1.640311558742558,1.574237164487494
1.6474476070038002,1.6060615545273143,1.7303512743438527,1.5849294777963854,1.642071946148159,1.7550826693871948,1.870044973727082,1.7365197315917884,1.7713144716732536,1.8733165909065226,1.8333200819549238,1.843742178973682,1.7214568646752162,1.7791696778645014,1.6845455679884809,1.6782883856589443,1.6865076898598745,1.7261461247777141,1.7312333430761888,1.7773996237151695,1.7633091974608184,1.7082913977591154,1.7346413964224172,1.7744370249277455,1.6254130293042892,1.6217296802808951,1.556567732159862,1.6167384727016398,1.5931236954681998,1.6566677688280445,1.6131479672596847,1.594446260274037
1.6880829043096077,1.6698341892395687,1.733550820852285,1.6623069422604921,1.6525221822709697,1.7677537255202271,1.8363680673166871,1.7098690089921649,1.7650146225675682,1.8363047648121549,1.7910373152215742,1.8063003065422312,1.691646986042607,1.731986041846253,1.62882862919925,1.597113753645969,1.5984084316287064,1.6660222772492397,1.675052104798055,1.7117352522282552,1.7075978250348165,1.6649417426265876,1.7148232684140818,1.7081155692160719,1.6053777415152937,1.6443922504250958,1.5868060723475046,1.5681079035127197,1.5860329485177644,1.6516901608077799,1.6442767297909866,1.571476636167821
