Fp1,AF3,F7,F3,FC1,FC5,T7,C3,CP1,CP5,P7,P3,Pz,PO3,O1,Oz,O2,PO4,P4,P8,CP6,CP2,C4,T8,FC6,FC2,F4,F8,AF4,Fp2,Fz,Cz
0.4886814827854513,0.5074680718165361,0.5255708132281036,0.5330003642851548,0.5457973178874367,0.55648377703855,0.5425580173322735,0.568035564519703,0.5490620465961471,0.5267962612516142,0.5395206936477202,0.5436551198779798,0.5572299817037574,0.5518068994082577,0.5848806609942692,0.5917029508012686,0.5497340264952513,0.5799735788833056,0.547670858329695,0.5380135469005936,0.5378945707240468,0.5462297844040962,0.5283789956305656,0.5780680272624474,0.5627016024904514,0.5503865112908048,0.556159673444566,0.5616099314659562,0.5616792295490516,0.5328787151012628,0.520394181685393,0.533647246499616
0.5306540808525031,0.5248435938460712,0.5520683994850613,0.5518806498714239,0.5601678497317075,0.5563534535770689,0.5532490884028638,0.5502670701942654,0.5228906921071985,0.4992328383919191,0.5612542220295151,0.5169873896434991,0.5337855926386497,0.5355737242101135,0.5768254323925546,0.5978545210270512,0.5308562045260548,0.5528396802140878,0.540094593206287,0.5370019180636354,0.5448216637618679,0.5524185277538041,0.5217262236910645,0.5870438633500128,0.5507276025511056,0.5536710265226894,0.5607215174096116,0.5583073255997943,0.5482230173747604,0.5486999975562377,0.5365714456597792,0.5503916244280238
0.5356450196126774,0.5296053916681283,0.5830006780632817,0.5601219409498648,0.5716684295452943,0.5633172538180338,0.5590304102329018,0.5421768423612114,0.5208901868388307,0.4979414135231428,0.5850101363425302,0.5119071492383229,0.5441275553311691,0.5438634441017909,0.5933847450665137,0.5887458177969411,0.5188183905911381,0.5601181720108643,0.5568846510346286,0.5528407428222448,0.565452942753137,0.5784778459154549,0.5443690565557486,0.5932416505235323,0.584175758622457,0.564197549008826,0.576937576221999,0.5736738584501904,0.5694449449921066,0.5483257596204965,0.5289640634588033,0.5580028367257022
0.5488303838182969,0.5242830149856541,0.5877351561257016,0.557516973581552,0.561506985004554,0.5541624047894405,0.5534922867844974,0.5491031016392438,0.522724171644458,0.49451105008273055,0.5917569705929355,0.5176734966315282,0.5437233459953976,0.5397797072090742,0.5906098474096395,0.5919217396812742,0.5119855280922341,0.5436476294800254,0.5708651060769769,0.5827444476398087,0.58607384157053,0.5690155271993409,0.5695968249966374,0.5935079375815961,0.5813722423167285,0.5691979547413513,0.5895630857585679,0.5764725567191649,0.5798928341175924,0.5435125707982116,0.5337586004375652,0.5713524692084064
0.5423371084982258,0.5181845921806434,0.5760554693173559,0.5342003642094442,0.5474880705454974,0.5507315903658987,0.554925032068224,0.5586945270932859,0.5304923047380115,0.5141753536463343,0.6019227541474521,0.5125533136256153,0.56541166552792,0.5416832773050331,0.5956848110115751,0.566603558646642,0.5219127181893222,0.5533386115466774,0.5755900322810672,0.5813492542060006,0.5832438979476415,0.5697912681569544,0.577956851231499,0.6003186014388122,0.58280508575863,0.5713375023085905,0.5887130416295956,0.5745995165408795,0.592072005803717,0.54876349134629,0.540737884705381,0.5614170781965822
0.5524320924621935,0.521285056782701,0.5775985099932144,0.5326537900405435,0.5504030965717948,0.5596887674708171,0.5608482232843501,0.5496675983894881,0.5287776319341133,0.5241297409819397,0.6028745244916021,0.5192921836641209,0.5543398635099304,0.5469027184246316,0.5888697828111096,0.5471683351732732,0.5205184825536522,0.5371509205031715,0.5601438283510194,0.5672450493006682,0.5931593429040483,0.575948886978531,0.5722049442527717,0.5965722535495246,0.5846815766661493,0.5677401038138035,0.5991235011246432,0.5681700839118111,0.6075145579244849,0.5581271086670925,0.5294762990389388,0.5715554951346085
0.559976884366499,0.5313150591477571,0.5660629894766478,0.5374771464085284,0.5547525393577524,0.5557926729801435,0.5499326165509646,0.5572526889089868,0.5545901758326024,0.5453392252926403,0.6004429751850973,0.5328601466895364,0.5587899285325655,0.5453294603511223,0.5837701804625528,0.5739166369452997,0.5365119386165409,0.5438113727245968,0.5481035843333464,0.5664790804237203,0.572770582580937,0.5681841008227271,0.5692799662741561,0.5738104464915907,0.5700259322796395,0.5597625217670821,0.5806529226919017,0.5716510334516127,0.5925605446845963,0.559444205506491,0.5348355588564218,0.5695386474023083
0.5486944659688895,0.5303778461081308,0.5750311728420168,0.5535641491901933,0.5462402593204256,0.5457647248319271,0.5492896176423581,0.5549966501560823,0.5626445096917019,0.5367445458422377,0.5877919609449074,0.5306090858008279,0.556031349760191,0.5697093140018059,0.5490732069343904,0.5382887169780153,0.5243207637887166,0.5272110543539328,0.5604300863272398,0.5630226322420944,0.5706237450996285,0.55284462198704,0.5693460990436061,0.5780317317241281,0.5616266831654078,0.5698802379105241,0.5771276305041022,0.5801556611093899,0.5816789399694646,0.552774981763295,0.5486434031023886,0.5684152177585702
0.5653019010554017,0.5543228278699015,0.6023865865586613,0.5696029075293247,0.5498125219262606,0.5560656263816726,0.5468496460399428,0.5579196906412123,0.5699618139930407,0.5406137579477646,0.5835819762286683,0.5364145340002349,0.5516389390449521,0.5492472168885341,0.5222274788923542,0.5104161066831616,0.49799279968765786,0.5095961918356351,0.5459061709537956,0.5582196108934334,0.5644599040310609,0.5437548394355689,0.5747633649412172,0.6015194690159023,0.5982417742340314,0.5515200314281836,0.5742521753990752,0.581967907320518,0.5810844871379595,0.5596954744566656,0.5642670360350115,0.5704369579678512
0.5555643882570092,0.5450277190420572,0.5876454350155793,0.5854019188538597,0.549384322440817,0.5365838301331864,0.5481714508770508,0.5483239570707128,0.5610661378564665,0.5308450365187376,0.5842067753204843,0.5360728634288803,0.5503776976331181,0.5451327486840918,0.5346161385360522,0.559664652523368,0.5135642399722489,0.5145804286685265,0.5441759264888302,0.5662439580866234,0.5447336408079502,0.5331831291511886,0.5642053818317199,0.578752691691208,0.5753132366234159,0.5586319205272514,0.5728874168579852,0.5856787806391228,0.5991103874136297,0.5690882677220119,0.5710255512260227,0.567797113903509
0.5471161221493834,0.5572071842890995,0.5924717623393216,0.5906032398798877,0.5655557298067264,0.5478131435511884,0.5452959935704329,0.564756702445337,0.5782997854253389,0.5398283055627449,0.5721698468132517,0.5424249600552886,0.5829172410278685,0.5613242381595396,0.5546866109394823,0.5667673326650293,0.5298644688776983,0.5410696515995266,0.559994212964368,0.5707721809894997,0.5470030925170044,0.5528997117640766,0.5896509925934765,0.581970489559207,0.5902969144148584,0.5657493334255563,0.5683211648223478,0.5801409334009762,0.5934866045599207,0.5591781723769302,0.5841546975212983,0.5753250668477881
0.5526401542235426,0.5543434717945046,0.5837966176684959,0.5990178136729751,0.5793556622919369,0.5506635010029663,0.5485735810061723,0.5709828411569471,0.5793147976058486,0.5453357530479743,0.5683874395988604,0.5535252906571118,0.5837982618104021,0.5790652971027708,0.570257615635752,0.569663677106754,0.5368182015867569,0.5239455825981323,0.5618750199011959,0.570540848086023,0.547425371188254,0.5544748632787959,0.5758475030319294,0.5737605523773217,0.5921275198371827,0.5688663008748884,0.5723162278550649,0.579582010034176,0.6028091155233226,0.5853109133257388,0.5908426788519456,0.5662305570438542
0.5548883202611612,0.5605187250063817,0.5687511633880709,0.5879116007737784,0.5832202669205082,0.5454495356643765,0.5641094713885964,0.5830165699945202,0.584680115905857,0.5475366288575816,0.5754290686806605,0.5517433442956232,0.5850776339225146,0.5821101258633408,0.5806499746944711,0.5674459589808629,0.5440734951021278,0.5168862313129932,0.5615552110281739,0.5747350482531792,0.5507660388997437,0.5504286504264253,0.5683773295949592,0.5870505137894404,0.5911385293273863,0.5739135147862462,0.5668445569061165,0.5861723130192762,0.5968763245709447,0.5780122658784768,0.5939003957355231,0.5699714252892942
0.5654049304437967,0.5701193177727166,0.5824304573012409,0.608819323871546,0.5594584364725601,0.5635681435084652,0.5753355293084503,0.5788719130303566,0.6039460472612546,0.5407621458521814,0.5883112089622093,0.5483961530708701,0.5792814196898037,0.5901569107774498,0.5820239646972794,0.5623528084803313,0.5395715553751517,0.5112247362563926,0.5445146444918567,0.5634031532644062,0.5520774073937198,0.5450517488780795,0.5580184328034568,0.579933007816583,0.5894333431669816,0.5750421250199191,0.5700489991313504,0.5746171062371244,0.6052422996015898,0.5755991858440113,0.6006252335439934,0.5603798679150929
0.600876721989946,0.5999852338287046,0.5956008662931147,0.6141165308932743,0.5822145666195171,0.5804842789840752,0.598624055361316,0.5621926036700868,0.581717618965389,0.5438342450439526,0.5693854614684066,0.5600634656229615,0.57934605827371,0.5748009175086164,0.5794288067544922,0.5804306771639833,0.5454935203381761,0.5229961821613656,0.5422157626922122,0.5707350031951486,0.5529065507444679,0.544289108467527,0.5639879059848445,0.594570820633963,0.5943618553962993,0.5743861820818363,0.5780163821783524,0.5868917612918172,0.601902640162963,0.5760801206203858,0.6116099312435059,0.5725721719195738
0.5743773473715263,0.5880710099398434,0.57098816906141,0.6000184240393085,0.5730481824042313,0.5635331141478748,0.5879016898422669,0.54819021765526,0.5797298296249895,0.5409589112625097,0.5891814461527414,0.5411118240689237,0.5733267702514677,0.5603568977928504,0.5806044740357668,0.586921322423426,0.5410264996278991,0.5408683944424073,0.545904086608838,0.544842196873728,0.5560808043938512,0.5444426680392582,0.5394958200395448,0.6009955186457328,0.5874094733731545,0.5709956434604417,0.5757133801050194,0.5959472402020811,0.604658175472601,0.574330809378913,0.612225898417984,0.5573647257808179
0.5930923887016912,0.590783957799347,0.5618837174323699,0.605920305264803,0.5740921984012255,0.5669391404157316,0.5933389759757155,0.5579261207765178,0.5716823984891097,0.5373471251696524,0.5812109380590971,0.5334560999509117,0.5615999649654815,0.549906410949391,0.5639544214703665,0.5678331122587008,0.54368196673876,0.5419794422100783,0.5482715800344393,0.5580085579172351,0.5693540977964031,0.5425202956629556,0.543753452824371,0.6059165136954392,0.601912152590149,0.5719627120576813,0.5792556041183659,0.5904962373370761,0.6034592741072493,0.5657118049517948,0.6115257061033681,0.5588453543997991
0.599216824092315,0.5935700998528137,0.5545622171347797,0.5904180514767661,0.5568622565774652,0.567801768177802,0.5912062005944527,0.55955531735759,0.555632656023334,0.499327546615671,0.5678889195383019,0.5179892390132852,0.5132937132490238,0.5290789690299045,0.5405042934096782,0.5420388199634716,0.5289246062667163,0.5437255971252308,0.5494133144406845,0.5537743349507966,0.5595203323266622,0.5276871631745528,0.53346720147151,0.6168371475559402,0.5930092298705403,0.5854002303863464,0.603171608164998,0.5876161379596558,0.5867851768546215,0.5628833747101041,0.5991897244727795,0.5584913764591799
0.6006490772457607,0.579663288046183,0.5528489289403367,0.5922338409135719,0.5678155658723205,0.5903123993355051,0.5866744809432687,0.543291182742748,0.5298226273138837,0.5263079540258939,0.5652599189480587,0.5264688590062838,0.5047122803961521,0.5377200021265849,0.5375198182843501,0.5396499480035057,0.5595057843573716,0.5437250028428648,0.5466554743459047,0.5511330367346647,0.5660474817725683,0.5264529899379267,0.5445512294736852,0.6154896130744607,0.5956877859812266,0.5925420652554005,0.5811053955937378,0.5755462146218231,0.5792388559072039,0.5605352326592037,0.584887795662512,0.5528229015684638
0.6013227447869149,0.5786505448663202,0.5751173116989841,0.5891705777101497,0.5675599893982164,0.5797250267828984,0.5919542996031617,0.5520397562279289,0.5169539250130861,0.5294450610566375,0.5682998936073091,0.5187007443560598,0.490166190262181,0.5410588603677198,0.554698238849709,0.5441423739615519,0.5561505482334979,0.5466310862470363,0.5405274330279637,0.5572913039488667,0.5666038733113772,0.5385648164594397,0.5613936368619861,0.6200061135495378,0.5947847176766352,0.6086660023926198,0.5847452243262072,0.5763042228766602,0.5894322596427295,0.5741936783284638,0.5787208304464491,0.5509871141517575
0.5793909682750624,0.5710397914079466,0.5720734976651616,0.5914236372571962,0.5625841055463274,0.579183455545822,0.5946784024683245,0.5661222413174105,0.515902529629793,0.5285439109237302,0.5619970585286396,0.5168204900309035,0.4814599384036744,0.5255694821641308,0.54446248582886,0.5235229587774732,0.5533431606506811,0.5401690738487135,0.5287430711938734,0.5529597439910248,0.5723157533528558,0.527618172077001,0.5616751409683478,0.6169542204800731,0.5964099395599725,0.6148130311096693,0.584454257187518,0.5737368934329461,0.5817150079051685,0.5650401800410645,0.588574372973595,0.5539359053551491
0.5672273280805751,0.5722771847768047,0.5667110427166819,0.5836557835208285,0.5744321452788532,0.5691607632004385,0.5913257899632525,0.5588818110503069,0.51899349456375,0.5276954157628881,0.5502436799375672,0.48530768308197736,0.49489488040843943,0.514005801732329,0.5292386826859055,0.5308539507384284,0.5637166683173622,0.5366507891378878,0.5261001377359791,0.567933098919589,0.5820735115782334,0.5372981886892569,0.563764898014274,0.6080497363553135,0.5906936262371416,0.5886764926082173,0.5870637450735217,0.5630160134615929,0.5586308503749535,0.5451024294163145,0.5911176113190653,0.5508909561812825
0.5774090488576564,0.5808930689005769,0.5862561953241103,0.6002879635983605,0.5741082127960877,0.5710573871988092,0.5808900248157012,0.5678947824642679,0.5144813741818308,0.5259515385785303,0.5617702687660295,0.4755952735418587,0.5149899216734188,0.5227593173186844,0.5463870379401476,0.5396800265314905,0.5574356988763673,0.5410085854506712,0.5228487438611098,0.5678940856630597,0.5704675431675645,0.5369975553274737,0.5582221955624198,0.6071786636810592,0.5994283095302326,0.5891096470247916,0.5831987705690018,0.5775688489835731,0.5682075174041223,0.5495899244293234,0.5792662710380578,0.5531558543415622
0.5636757378135848,0.5831038127473205,0.585052275871857,0.6042366613124615,0.5622806246412035,0.5698289660662708,0.5681325591385447,0.5644091098837971,0.5162505813545595,0.523244843021542,0.532780760676069,0.4832784338104763,0.5194102607386846,0.5273954377033592,0.5451706085942369,0.5470004934465567,0.5633808185631297,0.5272785402392306,0.5348643453716933,0.5569524773661314,0.565287594047128,0.5313339517515825,0.5711699651690769,0.6002113506535678,0.6047687257841794,0.572031435966692,0.5860128119048813,0.5840172510479702,0.5606188774475847,0.5543430006194443,0.5708753812123573,0.5525106386684095
0.5656949610133468,0.5757552643162605,0.583813475251695,0.6075883386648959,0.5493229794379584,0.5835537836857432,0.5384348363684315,0.559752374142545,0.5151119604013146,0.5122600515993088,0.5367340209316991,0.5013505662715847,0.5013529360576867,0.535808122986194,0.5380668566734945,0.5347316368305748,0.5489761179094841,0.522826657720342,0.5316372680910342,0.5498935659960331,0.5497873655428429,0.5328308580339622,0.551010161540201,0.5905992098073924,0.6015039198892924,0.5708851262778665,0.5882008857724625,0.5832666299303204,0.5619064130703761,0.576353256656092,0.5695963127871622,0.5525347407281234
0.55675538787697,0.5815184196731353,0.5826858245387578,0.61381634794086,0.5481186440666748,0.5841543688710695,0.5444304596460738,0.5545371883075649,0.5083852008911292,0.5002860987750024,0.5311217343451702,0.5132652267404785,0.4893473151711314,0.5405566818305174,0.5420608740561548,0.5367236294472018,0.547291060859282,0.5154467904539106,0.506700111709244,0.5211431441267194,0.532222586948619,0.5277417387047278,0.5328181660795321,0.593001456679934,0.5974505808216124,0.5702319652289849,0.5882044405145344,0.5801517255519215,0.5524381681045063,0.57757356150191,0.574106312506212,0.535317234732891
0.5575382722369491,0.6046112582222274,0.5975993843698553,0.6035551635804906,0.5678501516259025,0.5702457502299851,0.5503480708362325,0.5540480670205645,0.484633458661448,0.5208602388892407,0.5414323422488394,0.5328805673927102,0.4985247179587349,0.5559685884060221,0.5559448286167514,0.528659099675509,0.5270876272624432,0.534460205099577,0.5204205171913432,0.5274735950508012,0.5248987409723238,0.5247442480430076,0.5382325525027016,0.5876175981913794,0.5863623348668927,0.5572190641452281,0.5824548441680761,0.590362982439165,0.5511782923325854,0.5613313315683688,0.568008758941875,0.5235752818219646
0.569279741045218,0.601440611796467,0.6042751988226889,0.5876330367129934,0.5646195985324822,0.5647873479942787,0.5588725813483832,0.5584407706083647,0.4983932246367653,0.5378514679967026,0.548232767404139,0.5493929664660762,0.5080618085637361,0.5819886364488625,0.5583096976171227,0.5369799547205281,0.5403534785597595,0.5489374994702998,0.5408423929210757,0.5349290277473586,0.5379857641042434,0.5466056833989335,0.556121004962681,0.5903875434365178,0.5655337457889202,0.5543379740846839,0.5845754500693143,0.5852433322141835,0.5625160380651599,0.5641945662290486,0.5706551869212029,0.5292004630996292
0.5757323344267249,0.5910415565331135,0.5796117782748422,0.5851616444537879,0.5544807611203799,0.5573222543934504,0.5557702221640572,0.5528847659470251,0.5062807902474855,0.5301333657771496,0.5239488813465956,0.5454302837795746,0.505856100568638,0.5618485190403035,0.5719336419417154,0.5346728732759951,0.5278873690249584,0.5352360620107488,0.5448552765344203,0.5512804265181828,0.5440865056362365,0.5597613286837717,0.5431991019587952,0.5881512823968289,0.5598857594527145,0.5651557092540958,0.5892026004804918,0.5908317357704416,0.5783022293667797,0.562535963857242,0.5864090769894714,0.5370717806009417
0.5718085650495222,0.5866844646023281,0.582006578519132,0.5828438550488615,0.5463669872542387,0.5607311710345684,0.5456118679266222,0.543823024597764,0.5069136220310719,0.522705649364732,0.5305135461488137,0.5526273990380055,0.5023631396675055,0.5481974546304134,0.5814768438413807,0.5244267066634518,0.5279739640172338,0.5231248200602128,0.5338401042985934,0.5440325166362237,0.5272094619904362,0.548355147856193,0.5372410886204739,0.5701875341161085,0.5675843116016424,0.5585068768553514,0.5871828988214287,0.5961691453542879,0.5967579039325765,0.5615136880528975,0.5904876854845584,0.5407373047856443
0.5685910689055587,0.5740800703297277,0.5706032291722787,0.5831822448872077,0.5518833836468429,0.5703192065753062,0.5509520700288681,0.5455806605904536,0.5080447423331833,0.5217606118337277,0.5247082794213802,0.5451295163043808,0.49631537453603203,0.552933024333957,0.5920731114705688,0.5195420165614459,0.5214582750212027,0.5199537857157273,0.5369372227990787,0.5393129918061983,0.5336065176545892,0.5399267721504892,0.5538217773896363,0.5712777351717904,0.5551370486172775,0.5629579033701493,0.599573800176032,0.6091853609189721,0.5952866791666929,0.5563763852235142,0.5888263819211579,0.5406118308433241
0.5783793628233722,0.5698923057046676,0.5621408985228888,0.5847068790842327,0.5436339445849114,0.5659168322214625,0.5315398733345837,0.5533175338604992,0.49806593762515083,0.5081970454948621,0.5319298102303387,0.5383102746241932,0.4966845715998436,0.5419005049836643,0.5868836023573021,0.5139049544441963,0.4994309445317229,0.49227093690532797,0.5113278820361504,0.5260373219802359,0.5112855571364512,0.5261082029043451,0.5685946823291914,0.566036135457181,0.5461742160429548,0.5829795382041034,0.6257423569355844,0.6202360828451474,0.603745173820057,0.5699760506094265,0.5844715440702011,0.55145116765335
0.5835157454177771,0.5728504061488433,0.5559347508555628,0.5929709180228748,0.5469837306835954,0.5617618996852594,0.5405010804083381,0.5615721035838446,0.49200860765735266,0.4981699378897311,0.5301985579132698,0.51106894864109,0.5115437508418315,0.5174751948322398,0.5720173969850877,0.5026535515906936,0.49927611976566544,0.4997750211286678,0.5163537452500857,0.5196422319592662,0.513509994656447,0.541623968865796,0.5571361804263235,0.5554950078338212,0.565176473660729,0.5843035083719617,0.6338651237696222,0.5937364559952716,0.6128558547894296,0.5592369109146311,0.6129869816279658,0.5515953033334342
0.5775273354544952,0.5856674112493758,0.5785890062202297,0.5880169646780509,0.5440081248417612,0.5610757533295896,0.565589241790772,0.5584599603539471,0.49265874490453987,0.5086258045125458,0.553141689034867,0.5196994097141987,0.49442388033921336,0.5283591008542645,0.5505524574485321,0.48869053269579554,0.48441236563016465,0.4810957204871045,0.5027970945196203,0.5217114011552613,0.4999431427792711,0.5245515798906006,0.5522520322851938,0.5506493051327843,0.5791353304668596,0.5883393489670805,0.6137364344410221,0.604463385302469,0.5977698172321144,0.5556659127138328,0.609422142629235,0.5719742358278239
0.5867385620916612,0.6119727949738949,0.5620007573518349,0.5919004220463471,0.5420706386243155,0.5530722372023886,0.5551959715630717,0.5675674130609369,0.49561472958420216,0.5179061422625422,0.553462147298573,0.5169676181744491,0.501421860387441,0.5329846635172304,0.5613804517729148,0.5001298461523191,0.5067355606065993,0.5041606167929409,0.5112175127422574,0.5438195148742819,0.5143752525276617,0.5138913539468883,0.5568756087453424,0.5559537646185655,0.5758363699025502,0.5790374956490756,0.5916704868411635,0.6085105905591304,0.5922968754309346,0.5659858212061537,0.6048800551395823,0.5718200686612134
0.5638795106068106,0.5882584197420573,0.5586432912134485,0.5909219988263592,0.5648890616437101,0.5359571597784765,0.5312975874373311,0.5795737730784256,0.517400319036696,0.5063991883487549,0.5425880906007583,0.5052549708840317,0.4997087161638145,0.5220563350273313,0.5392028362466275,0.5019086825443382,0.5047053591049284,0.4808767320246554,0.5010518476768877,0.5304900324293942,0.5187474405553356,0.5098952662124336,0.5604554173177401,0.5686886719607922,0.5786960457429142,0.5834549138478904,0.5787516965283142,0.6020006945508976,0.5787293037472785,0.557010880513118,0.5992343999099887,0.5824059021860619
0.5732481702795194,0.5804613246494039,0.5237154776450104,0.5954308821109637,0.5834574410826634,0.5468963737721766,0.5423725392025935,0.5743891204130245,0.5176355584027923,0.5121098821722923,0.5517533384023459,0.5015781791833898,0.5058461280814415,0.5268734725506143,0.5440517924357038,0.5275129586848379,0.5210560916002356,0.4930919663778224,0.4955686467760039,0.5215189714807011,0.518197330001354,0.5122356604669545,0.5622350084237286,0.5518855804894085,0.5753477928185506,0.5894102655525262,0.5699618965008555,0.5846512771537702,0.5755835636468296,0.544890856470353,0.5938111175458154,0.5680059731689515
0.5833448881896133,0.5849746037271384,0.5225455886712957,0.5808619975648295,0.5832051956364253,0.5428410191419974,0.5261558725167608,0.5753132374989778,0.5478171923987714,0.5217362144799722,0.5608588138350084,0.5233057938534471,0.536299139995569,0.5279755811732358,0.5500130381751664,0.534446584112716,0.5271040681197259,0.5206691249533932,0.5177768277958581,0.5276152065254056,0.5315837932913863,0.5443737239992861,0.5692910150474759,0.5500590628819007,0.5842456140335974,0.5942105405433082,0.5759433290151712,0.6001942409823262,0.5721621601235718,0.5554598142952831,0.5942194883329486,0.5661053877093516
0.5949919413314464,0.584256019834879,0.5126308685825443,0.5986320244403056,0.5925921196466262,0.5356477389333487,0.5183415022379738,0.5617164903717828,0.5602490472182255,0.5336880804971629,0.5749990110991638,0.5548797637386449,0.5391895518150314,0.5497811288221746,0.547011205274508,0.5464143423643897,0.5512500363578665,0.5459513900533035,0.5288954039675393,0.5446548203472212,0.5411496362113906,0.5405456641415722,0.5668804843569886,0.5837192894166523,0.5854941629018282,0.5862241571632993,0.5508781907107241,0.591534934989348,0.5734763779582659,0.559017823769743,0.6004211471188565,0.53405959089896
0.5913559491010325,0.559722076544801,0.48748116674312625,0.5850642247363815,0.5879725100984867,0.5313493845796948,0.5249826346290187,0.5525652386716295,0.5618550001710982,0.5321599518735831,0.5606510262426649,0.5537955179218157,0.5344058416640758,0.5489588476962943,0.557370139737809,0.5351914291532189,0.5380366804953289,0.5354528324852299,0.5263451311625764,0.5450352237207183,0.53722564279779,0.545459742024661,0.5516909260917444,0.5836062623880904,0.5869530103355416,0.597417026605819,0.5664101532798176,0.5870956360446788,0.5820486124891042,0.5499203596750659,0.584164265634123,0.5238161732156579
0.5953227853204655,0.5699983152426991,0.5082123488632999,0.5859794523488842,0.5977535416246469,0.5380923095021628,0.538561893924812,0.5492472399991222,0.5514989284989777,0.5291441766674314,0.550856271780328,0.5561027850334321,0.5324222057278645,0.5367576261927898,0.5569668143223403,0.548989305406741,0.5593241174284285,0.5379787676691747,0.5481953075719277,0.560738946020038,0.5483522225954274,0.5409410251959561,0.5434095073401339,0.596799357573147,0.5890972683922144,0.5875538878941362,0.5699826735208116,0.5918938249170194,0.5782292135086768,0.5653159411803701,0.5947240406894254,0.5023468012016519
0.5910185944607464,0.561248590435627,0.4953006256371917,0.5812497679956539,0.6009647945554719,0.5252879343280714,0.5300272798138566,0.5423281421794734,0.547398688467279,0.5290353821003628,0.5523250459136313,0.5478422487407983,0.5465322156386097,0.5269493789569006,0.5552462150356594,0.5423814838777834,0.5724148990677347,0.5390552804117936,0.5706275243331991,0.5550033802127632,0.5416066883344768,0.5612583247179139,0.5483854744576901,0.5970784019126825,0.5853972812789174,0.5785758698879748,0.5670890781097775,0.591089648316069,0.5661157530659167,0.5736076253070235,0.5781101288175936,0.49449977431424674
0.5916385807255535,0.5754151296758772,0.49658391172712557,0.5707099855368272,0.586394857042821,0.5274907094957411,0.5229281319070376,0.5507977644691175,0.5594702741959932,0.5241403438692873,0.5558590245510313,0.553116998859494,0.5276998109450299,0.5326048868905802,0.5683992571849061,0.5527642215239297,0.5732600298008705,0.5541584833695028,0.5795309047293427,0.5439653727622424,0.5412715990068198,0.5550928622666409,0.546940720979189,0.6036307233710598,0.5867510243953804,0.5757946892719947,0.5792944702551175,0.5962784955340759,0.5616382581019015,0.5703902514249499,0.5890421531595207,0.48108321276010635
0.5722280626320231,0.5589989456932845,0.5140043006614072,0.5853880753111951,0.5669596813411797,0.525221472564787,0.5144789829961351,0.5386969678322897,0.5676829595508228,0.5172915795802577,0.5477699561952067,0.5362942932148793,0.5480493363820012,0.547469660981271,0.5511707301848388,0.5444713281513005,0.5745238151196577,0.5558591535950326,0.5859748607822541,0.5569382132513838,0.5521884804894119,0.553724101758192,0.5642391042930117,0.608000316975644,0.5777857543807814,0.5737844180073308,0.5803602609489062,0.5881965204933177,0.5823696687566464,0.5613813034419639,0.590996640674295,0.4964145364579595
0.5795394505486793,0.549698512977546,0.5347089700336167,0.5842315813029124,0.5671637101871609,0.5183951209803239,0.5254251949511581,0.5230733076220995,0.5825548845472932,0.5117243268362572,0.5148703132799808,0.5407452713304699,0.5537561559184838,0.5463776849656234,0.5353632689574948,0.5442822103025806,0.5582669709067316,0.5688375204168707,0.5725907163274551,0.5450442050434021,0.5605966743501671,0.5547958569754039,0.5809219380041091,0.5880456122047777,0.5645380860898084,0.5736090325954666,0.5874679460471279,0.569417738566234,0.5931203374976812,0.549359926887866,0.5931935739633922,0.46538050385644647
0.5676685326913065,0.53923484628341,0.4897391988576896,0.571661278205494,0.5585256599639599,0.4994031241062924,0.4626967375720299,0.5295182673104448,0.5687554173938509,0.48021678094086884,0.4936839027560951,0.5306181571263195,0.5366386729277797,0.5311898836107836,0.5349968556983997,0.5260712506342178,0.5427776051024491,0.566944681051047,0.5678799442236824,0.5484313852835365,0.5640509166851166,0.5652138580954373,0.5825937005043098,0.5920374668045754,0.5654063468953878,0.552164738727051,0.59012512942091,0.560720651723813,0.5957048150128035,0.5395189915685776,0.5799454224126652,0.5107345414348785
0.5531919651325081,0.5377891732565669,0.4655845004151802,0.5524789877291587,0.545365547551,0.46061661456544867,0.4120557381237968,0.5064011213982202,0.5484817762300014,0.4467229080945363,0.4455885766003993,0.5132751893260648,0.5345267843521055,0.5255295632538601,0.5170250732397443,0.5313035182071322,0.5491752122343176,0.5513148569952313,0.5579718588636067,0.5493910258490566,0.5687431443054716,0.5581750690635126,0.5706872155719838,0.5820794449046831,0.567611092507792,0.5462211033149496,0.589207137129216,0.5559127543023896,0.5924063189839135,0.5471836047645318,0.5677177128090141,0.5097685477396574
0.5426834519955781,0.5362241275326478,0.4497792065687545,0.5670492871679298,0.5525037617146666,0.4430815308625937,0.4085669249145303,0.5124249977957342,0.5387649205904195,0.45107540583543804,0.43843400126120624,0.5107593115267739,0.5522080952081261,0.5236196294832927,0.5086294204743087,0.5334875696241963,0.5728836401847572,0.5574310833189027,0.560161606186155,0.5525948699275647,0.5536308868298554,0.5426170611953074,0.5680031930685248,0.552864283610254,0.5540654584790055,0.5656447430139555,0.5944230499237362,0.5216213835502925,0.5874434625737028,0.5393497427812575,0.5732205401657349,0.5002706157336538
0.5386668355201065,0.5286757350510771,0.46262969903684903,0.5795255630334784,0.5459643618534558,0.45685030941928684,0.39439846560863234,0.5452515024002795,0.5383965836746767,0.45986427139577657,0.43392591199979424,0.5162980146920639,0.5526897261182504,0.5288604419701217,0.4960649914048201,0.5227425684822204,0.5418768484513969,0.5284929667446243,0.5360450597340676,0.5177368964583375,0.5266968950603759,0.5356478044662176,0.5453311168580472,0.5588745816124474,0.556156267705791,0.5581914113655095,0.581180999620655,0.5319414922824794,0.586972038437505,0.5380701483209793,0.5790895948064501,0.4419335026591944
0.5414988600669512,0.5359954005270722,0.45218539207879394,0.5737291726859794,0.5512513845259268,0.4585981830505963,0.37110526292781243,0.5409320841978027,0.5537346670124932,0.4674036298542479,0.42878087807228615,0.5149732431283813,0.5273600210010638,0.5267753365270447,0.5081442479862952,0.5341173391215142,0.5496289050156271,0.541143062954073,0.5299231446942176,0.5287587731338412,0.5431494495219842,0.5185988911921533,0.5737833822658396,0.530711472208552,0.5784757321032177,0.5540702857974229,0.5764129738858443,0.526475615575289,0.5839657903921576,0.5341564512301926,0.5709533583755042,0.45982814985832565
0.5578022608223319,0.549191556292731,0.45445147509456785,0.5689495448193971,0.5235400086054698,0.44959401950963596,0.37156436282225513,0.5343235203682037,0.529276105259981,0.4583992295121688,0.4395649822177612,0.47454785330138405,0.5124005816082073,0.509056859027043,0.500547403526725,0.5295683120695727,0.5554554006773977,0.5411520314419578,0.512452931023883,0.5348526320310976,0.5375219400391664,0.5237663492648994,0.5519439393236305,0.5295396446144962,0.5728584913345278,0.5622498975764061,0.577790401885454,0.5318610477031283,0.5912703096574905,0.5335592190405287,0.5736985072924461,0.47246947039506804
0.543706739616646,0.5267464157211279,0.46539445911703536,0.5641742758739587,0.5089144499731213,0.4528625119532408,0.3759391760380093,0.5220081186735337,0.5153957735769787,0.46513157089893653,0.45910083371797183,0.4702638608400762,0.48705913799863687,0.5034244772438359,0.49965492717491644,0.5217185546689662,0.5476713473639179,0.5214841749349506,0.5068754901809616,0.5232780500673972,0.5175202012775055,0.5028017391516957,0.5517389238796069,0.5132239228048752,0.5720948172592517,0.5694030959252139,0.5733225494471865,0.5412965449864613,0.5716145868842606,0.5273878302961954,0.5636237848626005,0.47545414901913086
0.535928048371785,0.5349441560616572,0.45083237020636213,0.5639110221301564,0.5115783164112977,0.46331493080388286,0.36826539838575156,0.5026684438100766,0.5219850960863366,0.4508178352104646,0.44868879801323125,0.4518659979746844,0.4600426100762669,0.4933523378488136,0.4763336295245826,0.5033944426086436,0.5400284845635408,0.5036372101707172,0.48804049416860007,0.5093649358637862,0.5057103064078543,0.4873684351215868,0.5354888223714043,0.5163252821679358,0.580010143871716,0.5768685492982102,0.5750079077280441,0.5505310894256485,0.5856027260442267,0.5322584080659345,0.5543215226969509,0.4759941145892346
0.5285264779042396,0.49802985286264656,0.45101088077835616,0.5468043160920781,0.5169190027911643,0.4609867848709768,0.36779644890822594,0.5117248555056828,0.48159609446444085,0.4414385933142011,0.44458853121351716,0.44099728864063126,0.4409905395743223,0.4748562142921764,0.4821248582966522,0.4907895253722714,0.5173451115266108,0.46891485200194616,0.47610111595902715,0.4839361312039072,0.49734647635274243,0.4811173294032969,0.5459040189206537,0.517930089833361,0.5694678539649694,0.5658229411157154,0.533142974446323,0.5459936842414685,0.5704257701468083,0.5328928682640188,0.5495595698942144,0.48005210980943813
0.5306113159390846,0.5238045481200895,0.45908484768816527,0.5693685664510504,0.5205377720382764,0.477410888748536,0.36537287326092205,0.5127844971293434,0.47852157391501704,0.44126610341008377,0.46545476459053914,0.4422127486284362,0.4518200744466232,0.4822654752050921,0.5105439412888746,0.47913987221646437,0.5080095302698626,0.4645314871299502,0.46633469114579684,0.4837280804836963,0.49890538474883117,0.4725683539038066,0.5397223559981548,0.5267232155919053,0.5729644336153448,0.5694019714897536,0.5403943335489769,0.5557339623447546,0.5592086486700385,0.5371970825629209,0.5780474412895407,0.5183197812908444
0.5368512469339097,0.5196621444113014,0.4742000379661935,0.5580729677963343,0.5076900091942105,0.4934537787713613,0.4057054973459473,0.5340725191950386,0.48389560554290245,0.4732098229779029,0.4890112861918703,0.45347170233354905,0.4509141639773926,0.4941696864601042,0.5264106500373908,0.5042601454927631,0.5197638990833018,0.47949526105325013,0.4856206329815076,0.4768200525162656,0.5047126151320147,0.46421765360360245,0.5388366989893889,0.5394617370097183,0.5735126895714546,0.5509790947992714,0.543642623675813,0.556450337242762,0.5624102595343232,0.5464577824613603,0.5718464958589253,0.5291087004319537
0.5622727010662407,0.5331638479501923,0.5259995836419233,0.5708763955268927,0.5061929600599413,0.5392648244101523,0.48406331039376305,0.5522952637694032,0.4877113419000221,0.49021378591480635,0.5132687606214055,0.45284902704024876,0.44058091329083204,0.48223126675174477,0.530656240132207,0.497008263001697,0.505939052457141,0.4794220593130998,0.47641278067364823,0.5014052182722484,0.49821585934403245,0.47473226577496064,0.5097409172849066,0.5511417197592925,0.5838332603405565,0.5477102369874096,0.5519455928091839,0.5586745536388071,0.5474842739771013,0.5535787835710457,0.547991083544594,0.5171060757042385
0.5589957603955424,0.5409868338964636,0.540398593115162,0.5670087195859419,0.5109394980471533,0.5883408231991969,0.5413031059691207,0.5545363552081923,0.4944326788469984,0.5239115850115148,0.523234258134166,0.4524773786143035,0.445331321837362,0.48990854464775646,0.5303995391778384,0.4985293942826532,0.5111716675275182,0.4933956073947172,0.48490271795667894,0.5058347642854506,0.5035312519744082,0.476658330537846,0.5047316679830014,0.551936966081906,0.56809998492185,0.5409960305129089,0.5433644066362042,0.5676975470537435,0.5256674727515,0.5721892771850783,0.5366467373444532,0.5171034856284074
0.5587209509954398,0.5443959507927656,0.5346004907043138,0.5645408298744661,0.5075751852794204,0.5677908356340584,0.5530139085709447,0.5524079611420505,0.5111182208139655,0.5228333419690254,0.523682748140883,0.4730601981439775,0.43062293768624293,0.4978075507720754,0.528158967106581,0.5092035602730798,0.5137157676939954,0.5042660472504736,0.48447803258996114,0.5135482574333463,0.5103922913689782,0.47626117170571236,0.5095735114304127,0.5447747875661682,0.5719261620625655,0.5410953582165647,0.5403819597041482,0.579103415818965,0.5125632590570652,0.5695996310840736,0.5350601888482478,0.520116055137398
0.5581306140973856,0.5377949043657915,0.5614968416005164,0.5693040024429306,0.5045836123712459,0.5705527495413407,0.560454657293096,0.5405012119781736,0.5187840009041786,0.5230812332513457,0.5408519367149118,0.48398498273766677,0.46527487038537396,0.49904808031254033,0.5222964529981731,0.5101809177632166,0.487339676517236,0.498208490632984,0.4846253732685617,0.5277789842518419,0.5232887630444494,0.5001530066592976,0.5238583526042389,0.5487190222428149,0.5797484081484328,0.5549922445388797,0.5414880996301932,0.5748691218359614,0.5145112223342738,0.5640327995509691,0.5377115499123777,0.5199739332942657
0.5392181583524756,0.5477426985941749,0.5557335099393308,0.5733580223635117,0.5158622286155308,0.5844932879516609,0.5607950003863373,0.5615612199155393,0.5335694884780504,0.5252327724346291,0.5609092274811847,0.4912658467426674,0.4770632142672153,0.5120842173823097,0.5265218393451501,0.5216957247119653,0.4881463558008359,0.502619502609361,0.47805125287310535,0.530666038262106,0.5264311462141422,0.514004697605571,0.5368510834173303,0.5548295981247757,0.5630718232760397,0.5616785518376664,0.555850711393171,0.5737852603590561,0.5136123873842453,0.5450090066303677,0.5201759008867786,0.5144893288909147
0.5310767449843063,0.5434932026277202,0.5557602306342027,0.5686485022075196,0.5360516511346134,0.5926062558409555,0.5625325006211579,0.5733535484543286,0.5348740257181714,0.532444307035941,0.5488682945781194,0.4841950867880591,0.47862586697222165,0.49612372628590773,0.5129557076891591,0.5030120667329778,0.49148949721215107,0.5096692083017751,0.4928742909442785,0.5373691523796253,0.5396138190011319,0.5537489914285398,0.5652723566463913,0.544926096191737,0.5685571445222397,0.5594202651101616,0.5710280849666978,0.5730836761011049,0.49902058057992216,0.5509219186669614,0.5210428058203895,0.5619000734775166
0.5301166381137268,0.5528083761227758,0.5544769110556871,0.5752978392958048,0.5557873734675902,0.580411515042154,0.5692103503756938,0.5787090504514518,0.5257679789730876,0.5394882562603072,0.5434340706151319,0.5153601565118118,0.4981985544571894,0.5164876544983934,0.519093923773378,0.49780325862566643,0.512494217501231,0.5076837455478267,0.49210580867580367,0.538732509863622,0.5456738883459384,0.539093242107525,0.5858418742541218,0.5602343068159485,0.5914801378045724,0.5663300420863062,0.5686444745419035,0.5695566452534244,0.5003505556176453,0.5390857728224678,0.5344062963034655,0.5554645019070392
0.5682474060476461,0.5795450447980506,0.5631022799491419,0.6014017329537502,0.5801384773717024,0.5918358302949174,0.5722564154414118,0.5744765114356398,0.5416210277747457,0.5511802665417291,0.5525987422839789,0.5403247775093485,0.5283568924627549,0.5261616147106896,0.5275518469834615,0.5086664799540115,0.5259577783956502,0.5331147696763066,0.5040533885609433,0.5411987343821156,0.5487481676244856,0.5586725807953301,0.5791450960150901,0.5786076797300104,0.6020845448281285,0.5717730881251448,0.5770885359790352,0.5904090448902548,0.542051114660552,0.5553132598429005,0.5865273460102469,0.5426926320213505
0.5701492464706628,0.5755384250597704,0.5633397046101365,0.5119083958983226,0.5756049273769821,0.5976582662632155,0.573830784178393,0.5777784212252159,0.5234484992850885,0.5726287352824633,0.5590327561656894,0.5123818225041981,0.5150457496453362,0.5042572495446218,0.5298040242700472,0.5031814538167558,0.5379065117547022,0.5174155010181773,0.5006625034691092,0.54901313164244,0.5591854070206375,0.5694412469198249,0.5855030755158488,0.565725401869988,0.6114728790581356,0.5804146799686927,0.5822269902086687,0.5915138746321236,0.5560977363826285,0.5428349820442797,0.5640051867861899,0.5503402084736608
0.5677953380114591,0.5814295052121583,0.5519196746801094,0.5080365342331787,0.5754016846816703,0.5886549250376198,0.5665592458068271,0.5719555467924655,0.5112930563146931,0.5672210804989528,0.5446424165696757,0.5153846643561582,0.504522126330285,0.49705569553324525,0.5117043841385973,0.4827263494018075,0.5210610653949095,0.503762993499131,0.4931355375889992,0.5499527450266726,0.5503690577026878,0.5550589890000355,0.5742405867490885,0.5481814604377289,0.5929054618338467,0.5689810887766984,0.5889397668236449,0.5923986659655207,0.557828469838558,0.5395925256349265,0.5752128689539124,0.5326092970696044
0.5680856128725265,0.5892257648948465,0.5457819788486145,0.5173742588936965,0.5621884575253988,0.5803560617227959,0.5571516553571212,0.5584220262672766,0.5209388507306536,0.5484391681504168,0.5384290974582377,0.5204262611240615,0.5007219701321026,0.5120386360248212,0.513828131102986,0.49707232721964933,0.5239398979503487,0.508797919543595,0.4900043022870664,0.5530066486547915,0.5473779687782905,0.5542999666565329,0.5673633974949448,0.5544161791593551,0.5839798954481954,0.5615599205716046,0.5843329645285049,0.5840253199970644,0.5640035171600832,0.5596323875083828,0.5563040326151802,0.552901326688271
0.5867127576619979,0.5837930175549455,0.5659212102003619,0.5291074635262722,0.5396619239083678,0.5766161358846267,0.5606667072632323,0.5538423386588995,0.4952046833798036,0.54364204847244,0.5379502105340204,0.49693274839945056,0.49851150561181967,0.490711289380406,0.4974564652475064,0.4953498982140556,0.5241326479792754,0.4943557826483769,0.5014073487538742,0.5674100401359734,0.5614577978940214,0.5468804491788748,0.5733813590632262,0.5625089748778889,0.5893343568376515,0.5534461789163427,0.594325747179075,0.6012990289727602,0.5759460512460541,0.5393496065920003,0.544967885322865,0.5574916058815917
0.593542963919262,0.587147816788562,0.5560719834510102,0.5191925558859976,0.5308929327839889,0.5666166037389218,0.5221738029718641,0.5500813579808095,0.4754055288097798,0.49727476035227003,0.5097633683897773,0.4963009303106638,0.4916983143113467,0.48146667971869794,0.491168664227414,0.4849251266967185,0.5305638896389326,0.4962582301892726,0.5158534069630742,0.5592141155766743,0.5731219424117611,0.5469666402430509,0.5793702354184331,0.5492051611190258,0.5857241668011106,0.5446227605387439,0.587742829886436,0.60833310163977,0.5892841988843136,0.5542635124612558,0.5408427413247501,0.556179255330028
0.5858540251019573,0.591652374149715,0.5598941403628612,0.526588190394484,0.539993152266586,0.5647511821390792,0.5142109327862885,0.5537576373425854,0.48439554755666325,0.49669457741236256,0.5030432993164813,0.5041447015151959,0.4920653538838664,0.5067484940183187,0.510593035687414,0.529622356675028,0.537074271613537,0.5019909644694995,0.504569337598491,0.5542334013881423,0.5543327368841635,0.5303396813313359,0.5612030481740344,0.5460407027583956,0.5627912402000828,0.5482848463305072,0.597667146357765,0.596998955932599,0.5826564421584415,0.5641372557659499,0.5389301249009923,0.5334022578925737
0.5719013862285625,0.59083267481427,0.5709940826896327,0.5332824362644168,0.5312381674715367,0.5679520836754848,0.5142914885674328,0.5485209998445408,0.48345426573933503,0.5013105345572018,0.4978761406185188,0.5013207233773658,0.48429040615585617,0.49799278176149864,0.5198429169725691,0.5417092313685758,0.5386964310939426,0.50232997261815,0.5140545743259262,0.5552493509909628,0.540417663001401,0.5379089027099986,0.5640917685431575,0.5451498435221169,0.5672772437118079,0.5557263196104194,0.5881196826927715,0.5998869549416632,0.5889313767874165,0.5588096754497145,0.5320929030397958,0.5496837930882967
0.5748603501832195,0.5864678204099483,0.5744817398111866,0.5317883502641783,0.5349380336197229,0.5709464635842822,0.5135167327461203,0.5394466803949833,0.48909798909264346,0.49754337405058946,0.49774876687798475,0.5003919869700599,0.4877982680369799,0.48530020278051067,0.5204235281656957,0.5471106573562556,0.5336987509861095,0.4977002103876855,0.5284899890902781,0.5631477870217112,0.5591829743172583,0.5349296467598244,0.5529685705640497,0.5442963936082288,0.5793797854511249,0.5315918528734871,0.5925796312953988,0.5860110998243715,0.5896462065446872,0.5579711474384128,0.5393454964432496,0.5649490890183677
0.5587294847029733,0.5794964483479541,0.5826824685566012,0.5090044603676942,0.5320997279084816,0.5600507552252223,0.5181916860137856,0.5350854115431996,0.4998725668993944,0.484625131774314,0.5077640449547154,0.4940031184643323,0.4868118897042968,0.47949783611259456,0.5298719110402477,0.5410805888959755,0.5197424946894573,0.5061248426367193,0.5217784795246301,0.5438386131062019,0.5306536069130061,0.5314410687345661,0.5484483720571189,0.49001844727579424,0.5615072059110893,0.528102843707885,0.5760124417759602,0.5749725167448143,0.5767491501554369,0.5243462011348119,0.5324708109626877,0.5691424856019927
0.5633617951058651,0.5875695953742008,0.5870045964598116,0.4987745191196402,0.5237323112598733,0.5569017830975711,0.5191570416141666,0.535748500803475,0.49987857457762486,0.4699043228414985,0.5117916340933157,0.4989030592358361,0.5034491842720095,0.46796380378138247,0.5200847307335965,0.5535464133159649,0.5299227122884802,0.5112680809254755,0.5321806385093768,0.5460353300690111,0.5260274408255263,0.5066006012520421,0.559157344918972,0.4941983506252212,0.5690129765339229,0.5231151912399254,0.5597792894574174,0.5591466174334188,0.5667926608456,0.5356170724827338,0.5257210151982288,0.5614168319329242
0.5612999649496251,0.5762667526117062,0.5806625547901345,0.5349166657323825,0.5224241573781221,0.5757613303665976,0.5120057500771682,0.5487501515299935,0.49318124354751003,0.47031399788393013,0.5106903690227238,0.5072345893084438,0.519234601760068,0.4771451235069448,0.5283227630752942,0.5519458616052342,0.5497483997253676,0.5246952981836803,0.5273054222552096,0.551374477165981,0.5180509998252587,0.5142327808914251,0.5450729101772582,0.4922532316813384,0.5597479261364429,0.522816119504395,0.5638953513703755,0.5760221366252543,0.5546815919479298,0.5434450063061993,0.5327614660488624,0.5738180610798529
0.5639995849224544,0.5853688610919563,0.5895120684164712,0.5384357350506019,0.5240404256790603,0.5724997335853637,0.4998927401493023,0.5403039762691213,0.4962084262341362,0.45511636850116854,0.510602078000105,0.49883252304439685,0.5255927944828294,0.46909387717429185,0.5374587941748366,0.5588719541044513,0.5565779863589055,0.5379179572129411,0.5108882303076463,0.558836201793774,0.5209433207188008,0.5224887170081125,0.548549432132194,0.5161018980429048,0.563568535337049,0.5098849667528342,0.5564201845033003,0.5756606082207489,0.5563371983855205,0.5534019171531046,0.5277589248835803,0.559247560723199
0.5724250708920242,0.581275170878448,0.5817493932611391,0.5453439215543305,0.5405355300571273,0.5824176984770317,0.508492936758485,0.5804082276645697,0.4960053850217485,0.45832956251644585,0.5074741505029752,0.4955477243475084,0.5096850390727226,0.451494965847667,0.5218546576480265,0.5277612740540123,0.5324120589975414,0.5232773008253737,0.5046186694436283,0.5536886017021687,0.5189396526882053,0.5499246249553043,0.5503661374981532,0.5229599882701339,0.5538455517763947,0.5363378290044527,0.5758916043880307,0.5641340364921099,0.556246266749485,0.562129344356256,0.54719179379072,0.5705499520215946
0.5653215394732563,0.568874519177561,0.5657741123127136,0.5291615643554421,0.5313798828786744,0.5560191136097696,0.5138226291923491,0.5556096908548409,0.49967213433773194,0.47289385015969243,0.49891626926461274,0.5048067787293813,0.5144318373964443,0.4668803090246678,0.5385755737120776,0.5296007712593891,0.538472448716043,0.5134272184255821,0.4942090654768543,0.5518399911382108,0.5068917610749684,0.5375339880163108,0.553962259018872,0.523936551815591,0.5440694995878403,0.5340133560826907,0.5847002196425306,0.5564635597782437,0.5804285949481898,0.5562558320195925,0.539453217576543,0.5686410799043431
0.5607992997361282,0.5725314690392707,0.5737649981466095,0.5651562087020965,0.5501586469598756,0.5530877622312489,0.5637916992368708,0.5840368601281232,0.4966311234249945,0.5126872035271517,0.49853120658725114,0.4896529579112392,0.5146097283416085,0.4580751324507708,0.5404021500181826,0.5340015958113549,0.5355207232257078,0.5081201156380146,0.5155191937818939,0.5420129342742177,0.5165725704069075,0.5344596663184369,0.5626930643611185,0.5571392658164163,0.5511255180017209,0.5363740933726442,0.5905896134560518,0.5407844442622398,0.5635413133907252,0.5441372541388536,0.5438307560644104,0.5762841390437083
0.5628860954577708,0.5815575369466948,0.5719837950975686,0.564492886283952,0.550537085045506,0.5263183983496429,0.5734190393970686,0.5576580698784142,0.4982438403412268,0.5220227330831966,0.5155894414098614,0.48943139837435057,0.5283314997119257,0.4551520925214456,0.5509359748336506,0.5435688732629673,0.5288581707833324,0.5241175983468072,0.5240159595381897,0.5467667804565983,0.5210266035099447,0.5474430406097222,0.5565508561999404,0.5569993782274043,0.5786607890708404,0.5491074313839728,0.5836816716435642,0.5354015908044301,0.5671602390544699,0.5422082821199865,0.5528205751301374,0.5869675523749196
0.5630008620486842,0.565685476528818,0.5621058365951175,0.57056087904239,0.5343084647254859,0.5188440800555787,0.5526128983516876,0.5606874565352817,0.4801356695279986,0.5338630776181819,0.5171431557347361,0.4754141727458321,0.5007094270042782,0.44691010068615844,0.5447592790366462,0.5282321105526253,0.5200019374244151,0.4980943817968537,0.5102216618340965,0.5267609118047116,0.509498228405922,0.5380124677603888,0.5322115600091988,0.538062795298798,0.5594070021408251,0.5564595401333432,0.5928342146203258,0.5372135233045974,0.5628779719813322,0.5547593486379974,0.5519862840249941,0.5812046871023591
0.558054799761555,0.5574834650553036,0.5517766921943439,0.5688277676149958,0.5445801867666265,0.5111177178999187,0.5328734587225799,0.5615019723222465,0.5070545809932594,0.5257331269865682,0.5366907426052587,0.49351947429337173,0.5044495766944164,0.4629793405897944,0.5656061954303708,0.5383843963487092,0.5298182431304519,0.5023939265341317,0.500061825395218,0.5328844604239453,0.5122667111711356,0.5298437982100124,0.5263925177517441,0.5398637235803934,0.558022771088404,0.5490707239781973,0.5857238146934995,0.5430767800377105,0.5629415410884406,0.5567704295391502,0.5587704459845666,0.578533877579881
0.5327551575780833,0.5507679143245197,0.5342231771030566,0.5594357992271011,0.540341201542204,0.5102701254122275,0.5362667313425198,0.5668078429882644,0.5158177530734442,0.5385040255624842,0.5138730055573735,0.4808386773968776,0.47709147321966183,0.45307836794774525,0.5020920878933564,0.49539660596303836,0.49888109182647167,0.46551413595090185,0.47409622688530373,0.5136435557328172,0.5270142423899631,0.5212246354945758,0.535507373700518,0.5395716191700983,0.5655039355255429,0.5474128374579275,0.5889912327966842,0.5496203594556812,0.5543970298258998,0.5493209702991559,0.558618340387318,0.5819208627292802
0.5249870641945065,0.5598605394546854,0.5065636943192531,0.5541433963971518,0.5474085255217136,0.5101338110602227,0.5215892830697006,0.5615347015123326,0.5102708535083922,0.5326204814010818,0.49819285473609876,0.473205965249881,0.4650042239772536,0.4429065727804966,0.48814145088922123,0.4927092762562455,0.4989635197685476,0.4683065559473678,0.4606654511508319,0.5099206157280318,0.510245097431608,0.49692309679235924,0.5319609210684684,0.5606608218517408,0.5948046001055634,0.5531589489510171,0.5978622255759536,0.550093595301175,0.576597196564034,0.5422309216755421,0.5578964236464299,0.5549652632773019
0.5163445099203425,0.5584284961442258,0.5045577916732968,0.5576626769047244,0.5585899492281201,0.5049366243954942,0.5453627532568541,0.5676924819992175,0.5201606596169048,0.5462141647783181,0.494222766824556,0.47869636114744907,0.4526165159131619,0.4461778803933556,0.4984932095065857,0.4820587534845773,0.4914887028938213,0.4556482898307954,0.45445281832417006,0.49204653803675136,0.500346410987504,0.4902955876645927,0.5136642858354561,0.5556789013711789,0.5735263905106893,0.5626718640958308,0.587653242201847,0.5318466056191888,0.5669159028830442,0.5178661018202284,0.5564465723147918,0.5632032271276812
0.5055127332016656,0.5483098928359937,0.5022591792303737,0.5431247903212397,0.5585134333164632,0.518453942678514,0.5616867502930103,0.5624857676537727,0.5050200812556493,0.5396016087428932,0.502032842898223,0.4819334585040438,0.44280652131765175,0.4453204297263582,0.4970117287909326,0.4759030450360524,0.47328675015472044,0.44153012008198766,0.44727988311855515,0.50085393377918,0.5010555761884388,0.46276911069717785,0.5188046588569675,0.5501551241684517,0.5662971136592212,0.5733998433607517,0.587103484511478,0.5035299429803906,0.5564024659216491,0.5120265342769379,0.5314049166508088,0.5387485638458651
0.5250359853430124,0.5557809914845686,0.5069965159202994,0.5617989399729977,0.5568614425940264,0.5295965848520181,0.5644601411422818,0.5528020486725316,0.487389841128576,0.5496441324593548,0.5246212448539627,0.5131048522412276,0.45236712394590617,0.46384425671894025,0.5109804490677088,0.4908115165597544,0.4851626860594829,0.43285047733203497,0.43397400733335223,0.5004409228615723,0.4929087364473186,0.4476226305465958,0.502275579588666,0.5636526503091153,0.5717869922003715,0.5565973417143288,0.5879380495009645,0.49816278035520023,0.564480772307324,0.5021663546462252,0.5502321108769901,0.5352200284103437
0.5483281161853295,0.5640846255312795,0.5174418153831515,0.5861288597613097,0.5651638346053978,0.5457211167916731,0.5777913835255388,0.5506608006312139,0.5025611978294511,0.5580257178860291,0.5283208407572864,0.5123301927526347,0.450197386802198,0.4612601854094036,0.5108159273749622,0.4824758267778404,0.48608213875297146,0.43320937374481616,0.43936281143805145,0.5108289466453662,0.5064344200138815,0.4526565242258469,0.5311126544535743,0.5720274494675137,0.5753496543947039,0.5728207166896295,0.597113258206512,0.5069706048635712,0.5750427093831463,0.5366799861973632,0.5591003251173987,0.5345485763966171
0.5484141401013862,0.5797741333173736,0.5444374474708815,0.5900029894693515,0.5621981134618723,0.5631302567433658,0.5821809119774253,0.5603708936680905,0.5088016804391482,0.5706355636625475,0.5506323162964204,0.535108091773667,0.49703819612098243,0.5005570961779391,0.5169591457772937,0.4961024395197269,0.5045169431482988,0.463649241587786,0.45946226296868264,0.5120109997854239,0.5113261188090563,0.503976918148354,0.5328039824694701,0.5774050058219609,0.577619552416087,0.5729474381952682,0.5692821806920949,0.53866729195129,0.584446927167459,0.5486177550106657,0.5535785805536748,0.5280524763290257
0.5546186389506693,0.5865345260794137,0.5652659067797701,0.6037857096112491,0.5741051820290419,0.5764687882827491,0.593022800423535,0.5776306789239363,0.531868236681837,0.558576869823912,0.5724802199764123,0.5435344734778829,0.49841779829220023,0.5162398703326425,0.5302527499836684,0.5109879764591261,0.519330247578897,0.4859208437197804,0.4843165454368541,0.5325556622641292,0.5133514792387999,0.49792203283655034,0.5351008687515972,0.5873097504767064,0.58067708957108,0.575685498470643,0.5879105585792512,0.5742081523472695,0.5977880617267912,0.5653553338814734,0.576439896389219,0.5454654847119365
0.5618309182252119,0.5925469463403163,0.5606157743328124,0.5914507601883834,0.5847525551299606,0.5685869455387302,0.5707516148010741,0.6023328960860663,0.5475001021205577,0.5438291945898523,0.5815081152554029,0.5420393202346805,0.5055477813565648,0.5285528588051567,0.5451162055578536,0.5259797768005066,0.5433639920271256,0.5060179377799732,0.4870034682034472,0.5270640101761157,0.5233759545933183,0.5008629369744853,0.5572998047219135,0.5979984236463984,0.6014166263136196,0.5736951286334055,0.5736806903021483,0.5730243950817089,0.5962321299272757,0.5578481250190603,0.557557629382988,0.5559121285513386
0.568849682791702,0.5990969658719574,0.5737406006065799,0.5858319699792127,0.558845300336785,0.5795703641645504,0.6046770270959478,0.6312481019901517,0.5508664329493702,0.5583794155010127,0.5917242583588145,0.5680751296661097,0.5133759773965534,0.5360535569875298,0.5538040921855236,0.5292072121097093,0.5418743370236125,0.5182966628081145,0.4775802700977487,0.531078510097049,0.543879276350784,0.5041274113984024,0.5701450302943716,0.6070831452210186,0.6070279974503041,0.584017244870346,0.5890644657575472,0.5671556276551897,0.6032453375519045,0.5607050956314454,0.5804471280057499,0.5764221980076849
0.5653775789170123,0.5933486792543436,0.5930592140946636,0.581604136084994,0.5684377308252979,0.5772118278939606,0.6209475989148063,0.6209760772434398,0.5479411796318789,0.5563295334180065,0.6050027540554184,0.5733691284301159,0.5118181078539115,0.5534482642408278,0.588255742906151,0.584615353978899,0.557436115442068,0.5527906499582618,0.5301127347917132,0.5376376066382833,0.5623134039727495,0.5267832207477134,0.5725241088373885,0.6043974060577386,0.6155015447479966,0.5774141989255193,0.5953477255450612,0.57991167741248,0.6131358583919662,0.5557014332621342,0.5936043498647887,0.5743705988527368
0.5800984986808535,0.5993785035976535,0.5973905304044549,0.5898671861278943,0.5687222943280159,0.5898108555968444,0.6218469141173797,0.6257262851083936,0.5325685778179245,0.5607390065392641,0.6303368168469072,0.5688518418870316,0.5381820775273889,0.5930687311325769,0.6189900902003784,0.5975048717448224,0.5927833521428592,0.5590007515691537,0.5728286751424059,0.5600558008589802,0.5943970595101296,0.5685945970290138,0.5889586944019651,0.6067138993860981,0.6226266390983959,0.5609785249785513,0.5940395002424763,0.5664735823165241,0.612597942379367,0.5739217366771849,0.5727350097074315,0.5894073473132044
0.590135679324773,0.6049763080174966,0.5969581501218402,0.5844418398055975,0.5762963451088794,0.5906323856103342,0.6149838311191034,0.6328691760685774,0.5224205279980318,0.5456365361364952,0.6247433166209762,0.5745519785010176,0.5590448921408155,0.5835847821699027,0.6133734523324614,0.5816906746074046,0.5978659084960505,0.5599300859845213,0.5861054773551495,0.5588700345027457,0.580241784510048,0.5876297616591892,0.5737305137698927,0.611740999300812,0.6144708886977464,0.5501448720035564,0.602048880961088,0.5839980131451448,0.6182455424158735,0.5865024654773321,0.5749285741149563,0.589828085660689
0.5904006311994152,0.5946759805720983,0.6033949073014226,0.5956679003902892,0.5724068498962249,0.5917028688163457,0.6122007865560088,0.6145532728233984,0.5237067423743849,0.543716210578221,0.623495613896178,0.5605762594831165,0.5628054470313999,0.5960570280342181,0.6094832045186971,0.5960393055959834,0.5850220005518847,0.5660251576517368,0.5919846662698611,0.5727632342766165,0.5891724699874819,0.5965902781892969,0.6015253193227577,0.6068622995033235,0.6172781551042652,0.5562558804792674,0.6132836006172071,0.5848656380764274,0.611987542465513,0.592188960297217,0.5636484783669151,0.5781109920463501
0.5871325380124981,0.5801426891826544,0.608073197176429,0.5940588091013335,0.5808864283358717,0.6008421456932056,0.6194505049811001,0.5917242708925188,0.5187099635345764,0.5524817855659552,0.6223497223368053,0.5541887805380306,0.5593144270110093,0.5977479435184985,0.6086330663377062,0.5831168154256408,0.5727680635282013,0.5749216845448633,0.5832723733283429,0.5588136047900272,0.5728356565215855,0.5807854171848743,0.585124717143501,0.6077211571283767,0.625395158696878,0.5629140017816603,0.6101902571302191,0.5903603319487511,0.6116657046472835,0.5917549997768159,0.5611712742151425,0.575576772234891
0.5839320373659236,0.5781212788156891,0.6137809886827856,0.5924385971586608,0.5726781048931313,0.6079583291659709,0.6122706711004695,0.5701670937224472,0.5553042518293285,0.5607329554627851,0.6252801867502713,0.5512142832380613,0.56636695570581,0.5982831271383713,0.6212523148965508,0.5948227462200357,0.5678179891877813,0.5870204686406089,0.5862375155536439,0.5690567030613929,0.5977281742943878,0.5948678464157009,0.6015626233634404,0.6076129821449658,0.6165558341436768,0.5770944324151244,0.6113287487644921,0.5918484313822208,0.5993150303581181,0.5637821024545824,0.5632362402807645,0.5776429277489608
0.5838099564557773,0.5842104212178105,0.5952039930922739,0.5956556794454198,0.5930470203639917,0.5984850663028043,0.5931237983314985,0.5752423799326531,0.5562527871860397,0.5591614193331407,0.6250021618767159,0.5811631169627778,0.5673162894017794,0.5992122592315456,0.6157413409874404,0.5954870110848769,0.5508389699308913,0.5733625066592687,0.5641172344939505,0.5560508867316454,0.5631270789146154,0.5726894993944662,0.5871913094943984,0.6001808857894635,0.5963330571952539,0.5931461427481683,0.603004143438671,0.5837162365823807,0.609170066202307,0.5830152909179604,0.5864668055034095,0.5658779430508125
0.58587728882233,0.5774744508318843,0.5903646117995138,0.5924776075946632,0.5905346826880566,0.5995981862757782,0.5784699442178254,0.5728850782944681,0.555301685591576,0.5562803117574782,0.6093407694628996,0.5821223297091698,0.5535429010742372,0.593093529136759,0.6040175064821836,0.5848385716902444,0.5169061948823392,0.5439264890825313,0.5470534441366435,0.5387396167904845,0.5479171927384554,0.5698600228837813,0.5686682705706487,0.6040475828952157,0.609952796964977,0.5688880431749572,0.6003764449636808,0.588861515322054,0.5849270591824811,0.5700782337019885,0.5820811494543636,0.559744259953797
0.5637658217864447,0.5755047489877327,0.5842581990281812,0.5729281163538764,0.5852881162785022,0.5702793471616219,0.5700116060015392,0.5599829938709013,0.5620190081833178,0.5740967701056312,0.5896860919128111,0.5664052494645455,0.5561762005963158,0.569033921806239,0.5846981482629667,0.5812906364848343,0.5136933294857111,0.5333066128891981,0.5353735784292795,0.5430917790118794,0.5446387487863311,0.5693083872710019,0.5674804104927125,0.6032441211849457,0.609199826965352,0.5459047541690847,0.5714503518082235,0.5866690148409708,0.5842834842266527,0.5579999983985409,0.558585756421806,0.5438921865661634
0.5612412954755728,0.5861016014101099,0.5838622584892863,0.5721117866517664,0.600993714453752,0.5713215762924082,0.5647196877479401,0.5538163664875988,0.5399881907480055,0.5738830779908803,0.5797521510995329,0.5513256215506077,0.5663068465330512,0.5538954044107789,0.5764945973185389,0.5737749326670172,0.5152022261698908,0.4977147850795052,0.5413881926012793,0.5327851131606467,0.551425212086031,0.5629889063810052,0.562235212256736,0.5952555261052703,0.6009062931791824,0.5450878726796988,0.582306543252642,0.5976847501225331,0.5772598005887368,0.5712579668900903,0.5562371151453411,0.555835010150366
0.5873362775614339,0.5987975514243664,0.5713865776122344,0.582206188852171,0.6099915769370976,0.5573131447481727,0.5570245935051124,0.5413296182565159,0.5364559184750561,0.5797273323588641,0.5948429670824993,0.5537649349263498,0.5666064033992231,0.5399929601445774,0.5608706622532167,0.5592974359050396,0.5249587287758954,0.4972609120438256,0.5388508984523201,0.5456970665823899,0.5528084261379811,0.5589221514474314,0.5693198663183403,0.6118315530143885,0.6000168972317721,0.552147805028727,0.5843715307055173,0.5949067471640999,0.5926582306428778,0.570861602945171,0.573465767642062,0.5598179058183446
0.5660160926771747,0.5950966532585551,0.574021031493889,0.5740070256009702,0.5998148167406239,0.55037029895488,0.5431779048225618,0.5493824532666438,0.5369254218796575,0.586451245488393,0.5783710335239127,0.553997988743236,0.5575868343241277,0.5031368696040661,0.5333452388918123,0.5401282212550957,0.5242457645315723,0.48643174406545864,0.5215977856244014,0.5393323840097364,0.5458639797725882,0.5590736871079627,0.5792780056620424,0.6170116738994462,0.593635264447085,0.5599038767105702,0.5848026712142271,0.6152739354901788,0.589315502651548,0.5607904871918183,0.5660315467092909,0.5655812381209229
0.5893596985686864,0.5956964565176399,0.5550822162869116,0.5792072180153593,0.5931389594665966,0.5395736665047317,0.5246930320711347,0.5077702517612166,0.5375590522156721,0.552392986930478,0.5536638367945681,0.5186737221562483,0.5200304630088857,0.494994747298652,0.5127088521944807,0.5097831732319724,0.4985557926452939,0.4630156164379686,0.5112232467087705,0.5283210502822668,0.5498783090396615,0.5516946045237194,0.5682896148724188,0.5929734617582834,0.5898762747771751,0.5793015138842548,0.5859834056598743,0.6053584649712778,0.5871980502753908,0.5661243042455864,0.562476413285383,0.563036974578699
0.5836742281373479,0.6144216614418645,0.5715867254816729,0.5962149159617591,0.5713869154981484,0.5509992211298531,0.5302312136353051,0.525737593112217,0.5428014656711198,0.5396698077982958,0.5439377833594414,0.5265943246937885,0.5156558519718031,0.5068702527917952,0.5140950476764092,0.5198396934665563,0.5108729473437577,0.46949939835844656,0.523711751392093,0.5430060956017657,0.5624637528151726,0.5534652136350613,0.5725888055427601,0.5931543647159883,0.5945748391021266,0.5865658160767961,0.596326627976548,0.6060500061018876,0.5828357900525467,0.5798891843588478,0.5811639540525357,0.5721363969644577
0.5834239231120923,0.6119812868203542,0.566158619859944,0.5921222831278778,0.5651285622835842,0.5672767842264972,0.5251849512086197,0.5133378159199746,0.4699507372920997,0.5179009249500099,0.5543824029032098,0.48435691485294585,0.4973854186902469,0.491593760516722,0.50272758287517,0.5126160018118879,0.5074884261597212,0.47379075700672946,0.5164607106093557,0.5456603045072868,0.5647273708819553,0.5580205512360825,0.5691745662608998,0.58514444385133,0.5964397695739176,0.5669749258626724,0.5772830518649608,0.6147459774584978,0.6064416686292873,0.5687966375536764,0.5740590042154432,0.5495036212611373
0.5824929421237255,0.614938246533697,0.5751396349305677,0.5854960944178234,0.5541794561177902,0.5819670430136354,0.5356565234914554,0.5259953984934254,0.4844003664533081,0.5122147730619315,0.542542860271813,0.476047786245438,0.5056590147019886,0.4768335032491495,0.49359214809891805,0.5125100675569918,0.5069861448642912,0.493101875947608,0.5231657019291083,0.5481239554774153,0.5792108463783276,0.564617199521273,0.5715931956593034,0.5986323803623219,0.6039916769807618,0.5723491886620482,0.5884035816890281,0.6128752437254223,0.6104712362348952,0.5669734457676601,0.572348357796781,0.5499965724947069
0.5783541387691216,0.6121258747273601,0.5913919277848443,0.5896919434148105,0.5416320266108152,0.5960299676321728,0.5330707015203378,0.5374045494100979,0.4850093585351618,0.5155792358594753,0.5298538164440361,0.4751086926648074,0.4972569047453943,0.46688490422171514,0.49812393822633627,0.5224492423293778,0.5101348287310801,0.4958005620679309,0.5287944067217429,0.5457632775532444,0.5838321169409695,0.5678926170862244,0.5703014225903384,0.5810054122192851,0.6044062491744717,0.5737073877572185,0.5917906376475699,0.6129195150828144,0.604947894011822,0.5702891033411497,0.5534886137461967,0.5381292068861105
0.5799647364707345,0.5906597098893092,0.5845656709345834,0.5992800906582221,0.5372732267136233,0.5915780430458173,0.5475040955606421,0.5529992540069251,0.49773409115165723,0.5122653262017143,0.5335406841823636,0.4711640230053584,0.4980414211922177,0.48107623598761506,0.5069287502915398,0.528064169871294,0.5378395320604779,0.5194040015667194,0.548081795825273,0.5511684484733408,0.5890825606865624,0.5731326285249634,0.581330082982308,0.5802794290271707,0.6071247539316662,0.5778242591061495,0.5752655342328516,0.6078776081635411,0.5931256530457971,0.5674060436576371,0.5416113422097828,0.5422376950192209
0.5592669263229118,0.5748221580160044,0.5764282496798727,0.575197013294968,0.5402176853928014,0.5795482390445224,0.5308625192395682,0.531930963904391,0.5176427656907272,0.5115096147695732,0.531990255460915,0.4823887949959067,0.5162344285952063,0.48675522391348247,0.5046432347622298,0.522789506856411,0.5514114790228044,0.5580176567543207,0.5844751598321154,0.5704730943527303,0.6101356926660526,0.5869348718604801,0.6023971049770149,0.5786015398424067,0.5941052873762813,0.5811617112918297,0.5779293762962059,0.6145240075554699,0.5799358472236098,0.5705008220218097,0.5253245561500184,0.5366523203635314
0.5550745756885886,0.5626260758551931,0.5797708279134066,0.5706671594383916,0.5273793846049073,0.5723964584236874,0.5301494977594858,0.5365867579857064,0.5235491796407037,0.5124321088540493,0.5379447379114759,0.49311965649110245,0.5262685017584094,0.4926277758307225,0.5104704675147969,0.5290931592664352,0.560214007642645,0.5656327248258739,0.5887665661811203,0.5611074083413019,0.5865177873264713,0.5763867003001608,0.5936536944197504,0.5708167234882038,0.5903559459415169,0.5670001552660313,0.5861060408858978,0.6223632638875491,0.5811615235424625,0.5738853346599031,0.5023733689372478,0.5198045407435798
0.5349959153755477,0.5487266542280977,0.5564054442545063,0.556247244343262,0.49497005983273734,0.5784047955636296,0.5323313038987418,0.5356313331568177,0.5349682029028622,0.5120438797624254,0.5407925962289672,0.5032352492382675,0.5122676196087146,0.49061197731268225,0.5287403761621952,0.5354213023033747,0.5554335549302212,0.5594305830108843,0.5726823603859188,0.5719498366873794,0.5855263312740555,0.5812174497477978,0.6019352818332164,0.5771103469387842,0.5781179133837377,0.5621056263085102,0.5782745754340417,0.604613941000629,0.5822930902462908,0.5685047325045045,0.5001460677441325,0.485049257204091
0.5500423453993029,0.5390636716291741,0.5595003842893438,0.5499204806384461,0.49439832261317074,0.5865753438127901,0.5238933098523901,0.5289677640330468,0.5268164629791037,0.5130895661653727,0.5596490224957238,0.5130022795625058,0.5255470843700789,0.5110349924434883,0.549012741814197,0.5624254942716949,0.5689818454687856,0.5816863589980672,0.5710408325923142,0.5676241442083798,0.575434535115479,0.5905461901575859,0.600915060102809,0.5721421687267183,0.5751846694327982,0.5655697533148052,0.5672727130195252,0.6083881232826212,0.5887570942430522,0.5764067412059268,0.4917444846123544,0.4957868349695058
0.5757863214547916,0.5423124480091328,0.5675853762519489,0.5504783790599181,0.48319554758612426,0.5774621912265419,0.5255359131765069,0.5392439439269707,0.5143946908443358,0.5059324212002396,0.5790966121485446,0.49790544475548115,0.5449452316201189,0.49176283739825166,0.5364985088678598,0.5798183999994837,0.5562197011899057,0.5749733300830187,0.5768632035032772,0.5723418091192576,0.5756934904963722,0.5909716040183324,0.5871374148871387,0.5567379665127228,0.550779918906894,0.5517156804853927,0.5457405437612541,0.600806188169213,0.5666571139358783,0.5677648303907028,0.4881133845089387,0.47473667617223114
0.5569516254272893,0.5388048802774308,0.5701516765014274,0.562276667603304,0.4823612092951448,0.5579419451528729,0.5240992989094968,0.5350708780551292,0.506332682737809,0.5102924328037841,0.5695937787870466,0.490019943483583,0.5364789961890546,0.4965165102827771,0.5363241712078373,0.5674536604412497,0.5457241526111329,0.5744640462731079,0.5786896462841593,0.5639970932129774,0.5910426624604548,0.5976005233008768,0.5860967432774578,0.5624353227315169,0.5599723090131632,0.5452373529358114,0.5404740024872989,0.6077942790897812,0.5648177514458466,0.5638665311862376,0.48985873894202614,0.49651935355898713
0.5615555211123797,0.5447987749758649,0.56063468017406,0.5688324822051563,0.5099900966336315,0.550117304003805,0.5358796305373614,0.5356717573246885,0.5370808795507127,0.5261562377956692,0.565787965238409,0.5290184892992467,0.5688240568266636,0.5238168736588071,0.5159987872388454,0.560063715389072,0.5510287561330482,0.5711446502741642,0.5929374982972422,0.5529761301574809,0.5862258447585393,0.5868481982388474,0.5779569028352767,0.5726898086668686,0.5633683852108375,0.5391209293011792,0.5451265605263331,0.5887750312530033,0.5902563101301772,0.5680546654481229,0.5030048983415774,0.4903845128263282
0.5513016910798729,0.5318879790637316,0.5541624782737444,0.5682105666511794,0.5191335898364557,0.5437640020134098,0.541560409285462,0.5370257153192131,0.5144104062681358,0.52840608332192,0.5652359350097576,0.5100443070834544,0.5688624077182873,0.5372627952492111,0.5365797350176198,0.5630109060253923,0.5489489546448305,0.567290497765971,0.5726159538261082,0.5342216063022871,0.5652410113018385,0.5744222108604773,0.5806406588816482,0.5660190019873208,0.5677110725427754,0.5398353757365708,0.5455705490813805,0.5707295355644875,0.583984625748061,0.5398127916750766,0.5109380873403868,0.5095166429982023
0.5577112745153099,0.5287999626711084,0.5570086098970735,0.5674553865002401,0.5159316123079147,0.5426336478492533,0.5492236286062195,0.5465351098911442,0.5405827123658611,0.5281604423101882,0.540163799821721,0.5064393579097799,0.5418729255214259,0.5268977766993612,0.5418346244731089,0.5341117238420447,0.5364941279801076,0.5184378213028666,0.5371461219924631,0.5362138409069344,0.5753088105652711,0.5595700951123477,0.5794405638599525,0.5658845216937869,0.5642259408696182,0.5310023354396298,0.5491571940141005,0.57324046495755,0.5852561251366617,0.5375052231412751,0.5071548090096232,0.5059066173679474
0.5587658687221491,0.5385774109021866,0.5479507654112123,0.563291375019868,0.5198603188540729,0.5428935577623517,0.5607114928173091,0.5522503815143907,0.5562091353436456,0.5313320201611607,0.5442146454006247,0.5150396531496781,0.5535026014234226,0.5357374152504764,0.5415118559774053,0.5293101625129153,0.5086270125387378,0.49901195747255667,0.5403522911534488,0.5182604377855964,0.5698378676814624,0.5780403967232131,0.5837732716831043,0.5526525477400543,0.5733883982361374,0.5449739660947959,0.557413210920847,0.5771549984503506,0.5803952062397828,0.5463516487066644,0.5106323216525275,0.5186738188875308
0.5629969775102381,0.5462020283349802,0.5502815624616342,0.553246058396283,0.4984672955652383,0.5576017723266569,0.5539429416828314,0.5462526155559178,0.541682870452969,0.5542375625871339,0.5473035851044057,0.5164751582604268,0.5627238567177715,0.5339130285497911,0.5342332953192845,0.5090474535477667,0.5141047733130755,0.4933099971373345,0.5316050776935959,0.5152471473795628,0.5629488077305838,0.5691297911180793,0.5640482488449998,0.5517128994354219,0.5832642816094751,0.5596615347791682,0.5605681932190225,0.5779398411560757,0.5811149561547819,0.5383366017534836,0.5260895998906014,0.5045773178285331
0.575636930236668,0.5702989254795274,0.5446406266691781,0.547591239677879,0.4983681789026746,0.5496296332965049,0.561420277120015,0.5424193650218809,0.5393439024899984,0.5558745867220685,0.5420657610182902,0.529566352061738,0.5539287602846485,0.541528469783084,0.5315179276046216,0.4992055099590269,0.50177688917285,0.4739734905648523,0.5234317747064408,0.5308533522162056,0.562765053632968,0.5614675191757503,0.5790441306141143,0.532631051705998,0.5876883737941241,0.5503076565397413,0.5515007802473861,0.5841582815818596,0.5744000129243236,0.5496614777810089,0.5397103083419714,0.5318936707375959
0.5593379819533846,0.5792029626461193,0.5625272800157886,0.5551076434645306,0.5230174755977028,0.5513315556418052,0.5506549091381832,0.546785395870788,0.5411337989276563,0.5583231773258786,0.5364285694433089,0.5350782377526664,0.5331020689543919,0.5437740031241374,0.5386488433172056,0.5017192751698394,0.5053772164797312,0.4678150053289145,0.5192666145795228,0.5333841718393715,0.5516525229388556,0.554487550613525,0.564736110257491,0.5144537503599529,0.5818880416478365,0.5515309358356228,0.5443173128517249,0.5909264109904209,0.5682845657369135,0.5247906122116479,0.5510714007799034,0.5188077577023602
0.5335903899737313,0.5532332661209081,0.559394285062703,0.5552842928331647,0.5186292887232602,0.5316862878496353,0.5462954852132271,0.5480268595886173,0.5493723568629321,0.5546294245618371,0.5377846086712061,0.5317489102426203,0.5218623411502112,0.5295914655757663,0.5397437477544504,0.5190033588768093,0.5029397367876522,0.4442792966200777,0.5061833322625651,0.5279689469202857,0.554234295333301,0.535799223456344,0.5489186267409307,0.525042946412769,0.5708180786671697,0.5520383326765907,0.5544225431983794,0.5542979724551884,0.576532110970577,0.4923876824250759,0.5359111693640215,0.5225048869650153
0.5582584608321102,0.5614895517317398,0.5786518338452704,0.5720337956989172,0.5307568062598338,0.5263036347350365,0.5392036766075572,0.538313783501414,0.5576991658780188,0.5550337183270955,0.5525137806350617,0.5341388850532853,0.521054686945972,0.529624682347456,0.5413573339104607,0.5272258887398062,0.5084948850758706,0.45793545919760437,0.5122958945974925,0.5388442447952011,0.5630474528699914,0.5358266819024355,0.5571139886102596,0.5474097648166212,0.5970490600254093,0.5811679555491414,0.5946362155368909,0.5764365937640523,0.5955079435724726,0.557823823485208,0.5767579217521077,0.5402453165000445
0.5525534288431726,0.566964794073471,0.5791468273489038,0.5763021454678334,0.5401056221664016,0.5355256049982073,0.5267960689356603,0.548571480269862,0.5605122790208568,0.56568315108938,0.5418557348162873,0.5557873138254115,0.5265061497287409,0.5402857949286273,0.5492459403410774,0.5337877118293615,0.5412996340151133,0.47203113210338765,0.5211913368347081,0.5510435617546525,0.5485640942501653,0.531393109420057,0.5491566881986589,0.5206647100802848,0.5857313093868037,0.5717289609487253,0.5929646145056036,0.5720741256169206,0.5962113665931983,0.5504839288667025,0.5718111080888808,0.5196853767328373
0.5649434528455015,0.5727644953719815,0.584013494245244,0.5890792943502983,0.5540505107942741,0.5316043862578752,0.5238273464293424,0.5607642071058834,0.5786604914670814,0.5589412476458411,0.5478378056988036,0.5607846802272887,0.5111037801552607,0.5492134383046494,0.5575707410226451,0.5509084712787211,0.5516284875109081,0.5072812055490483,0.5345819466908015,0.550172243969469,0.5583830973343438,0.5557755117038243,0.572747930552461,0.5574507302011864,0.5861760749809415,0.5979025784121137,0.6234436241411991,0.5831794506432177,0.604047555999673,0.5685737935911179,0.583838544709713,0.5404637311651821
0.5806946967799842,0.6057055721948568,0.5807331286122674,0.5797433481004735,0.5618037902002779,0.5537307777095895,0.529904994330793,0.5984209538215963,0.5795863306573144,0.5477651159410599,0.5368476259544779,0.5568091836946234,0.5200380114585057,0.5520499906381615,0.5618182753051255,0.5539019298392573,0.5606699715146917,0.5055898483489845,0.5633439973461676,0.5690254598040272,0.5700050358461324,0.5676528317697369,0.5762198758162129,0.5761333774176047,0.5730711065231757,0.580502670407967,0.6114761193199967,0.5901460841517987,0.6016690018681286,0.5694665235746643,0.6036788870216885,0.5453351254869463
0.5698368877203714,0.6050866649301052,0.5867645316367143,0.5787478909358081,0.5620445391700959,0.5486224984486192,0.537617842177339,0.6016133436284079,0.5791845740387842,0.5463127987118388,0.5466541897620005,0.5542443476953944,0.5250462553916608,0.5525215989774859,0.5673571413476677,0.5621954608744839,0.5737749314628373,0.5408939000896873,0.5551264316830591,0.5604751772000283,0.5670893908362791,0.5602890896273576,0.5844640793186282,0.5820599797245394,0.5934257369291589,0.5759903575109053,0.6288903985099545,0.5988056885829325,0.6239649027359357,0.5760808059799163,0.6091503564619236,0.5711162566076018
0.5770087281352385,0.6037974765111214,0.5797085657356056,0.5896364167977506,0.562355779658831,0.5419161639844248,0.5305710376974582,0.5871124880978025,0.5671466295239478,0.5370806673222202,0.5505449968749838,0.5499479563547998,0.5278468425463334,0.5432690370462199,0.5615902959761132,0.5635003469841342,0.5710552386655596,0.5385542937964503,0.570537494958566,0.5474020571180893,0.5657367889075622,0.5850732671699141,0.594259628906642,0.5817001344789436,0.588126394458726,0.5853394741698743,0.5958100887661568,0.5866831186454813,0.6197827633902389,0.562628007883343,0.5918426121280311,0.5778398755778591
0.5703660955443062,0.5908372657388306,0.5768454487576307,0.5867433288863122,0.557508579396182,0.539287686705487,0.5235089392424124,0.5876266934962491,0.5674854816211425,0.5424770061656199,0.5600538309199377,0.5824312666077431,0.5314269226930759,0.5751978664078758,0.5790716322304492,0.5757970552730374,0.5833212638789593,0.5447278046629678,0.5697077810336517,0.5541533428478163,0.576446875725769,0.583098425786091,0.5871277253539553,0.574072411856247,0.5900812086381393,0.582285016550856,0.5949916641987927,0.5782001346799213,0.6158621827763522,0.5626915526603078,0.590185661830029,0.5719474056071219
0.5778117763640584,0.5747684985243371,0.557309827527642,0.5681359651430267,0.5556590495787361,0.5566483347065101,0.5235623697785798,0.5832287512433343,0.5868438689130397,0.5357704593120793,0.5648423000139213,0.5714972271153433,0.5409091610007417,0.5579749915904211,0.5850559010003265,0.5726254082573305,0.5751451770828653,0.5432225763947751,0.5695026839389956,0.5479798891252954,0.577412423338862,0.582596895716665,0.5815260247547673,0.5721692422044748,0.5884009867037738,0.5733217514764495,0.596007297323836,0.5813652972205969,0.6294308747212551,0.5695192644192608,0.5814163686313272,0.5877179241533961
0.5767974248652328,0.5664333512397008,0.5441531507850241,0.5388850594755259,0.5716754161138873,0.567923763692491,0.5332106874568026,0.5920018252893726,0.5869238323427903,0.5508049189538036,0.5673117387267794,0.5942222029342172,0.5753535685022393,0.5780698248587308,0.5849774838481983,0.5804862638145325,0.5703199283099085,0.5741867197798829,0.5664602597345758,0.5754785223053234,0.5842132336987151,0.5832086519671171,0.5781810656726329,0.5650522407370597,0.5972126534961557,0.580630970204052,0.5864171820136694,0.5911567552958243,0.6302411824634384,0.5861087167568275,0.5694942561497358,0.5869430289310147
0.5843007551715269,0.5643314582056891,0.5661306827882195,0.5482953202996805,0.561184524290884,0.5626664222814344,0.5363597224251966,0.5969281703535163,0.556470353615619,0.5465533881119722,0.5689960237501026,0.5902559941805432,0.5817979402809561,0.5880432468977301,0.5932503620959224,0.5757277492442663,0.5643225959432812,0.588048990458284,0.5799392134712726,0.5761495198050084,0.5804754533834711,0.5639960567521887,0.5708784210840996,0.5602779049154969,0.589757729886685,0.5657867522511255,0.580655897349462,0.5947941705711539,0.615229157929098,0.5871453640596949,0.5727130113277252,0.5815209055046111
0.5882424790056899,0.5593371832500402,0.5749897934005723,0.5721439271105515,0.5712995685415048,0.555384915192624,0.5511312294163471,0.6001623171973387,0.5630374526233757,0.5520436410110641,0.56620788551513,0.5948423332159996,0.5860826733627196,0.5916416238151472,0.5931014896235145,0.5713838816741235,0.5639626955510995,0.5933720391224284,0.5807768805308537,0.5811457424615667,0.5896791582689942,0.5696661984741778,0.5773002232976392,0.5667720732865296,0.5877319052552563,0.5741563810922679,0.5790036662451694,0.6150221551599366,0.5912395350530639,0.5829638949521674,0.5900996307168698,0.5858452308921978
0.6052549225132728,0.5688835553720462,0.5753158618043788,0.5617048680447927,0.5742882811353556,0.5612268471983262,0.5726037234127914,0.58744533236049,0.5670615871886637,0.5696579638207768,0.583284525475479,0.6098686306390579,0.5823985500759128,0.6059227961242715,0.5874265756913006,0.5660765813040034,0.5436697841340523,0.5837052189920509,0.5834418868789468,0.58387038970795,0.5898329825111279,0.5694405702252419,0.5868358735175399,0.5687222019028542,0.5980176300563054,0.5849147811598288,0.5917151036111301,0.6067837543471075,0.5807431470411442,0.5765731815820576,0.601332168986279,0.5976663385533216
0.5954493557346838,0.569348915379341,0.5842452568379262,0.574871624858686,0.5739405799028305,0.5964130489701485,0.6046567405961243,0.6048883945096621,0.5381473952569911,0.6021571959622922,0.5991031444535544,0.5919606978416749,0.5800335291388263,0.5979874555348563,0.599199324804085,0.579133288279376,0.5676191927941376,0.5850623662830547,0.5717170147422825,0.5967724585077319,0.5946012068275399,0.5506525780690157,0.5797690114584588,0.5697931833256011,0.6002145056801784,0.5999632797864911,0.5910763296420152,0.6026208547228782,0.6051408502660598,0.5784166454637045,0.6019686801384121,0.5927547491123399
0.5861507452412931,0.5689096736211954,0.6027299154804706,0.5660419667441277,0.5773362530712105,0.5930613634612474,0.6100595886536033,0.5962250392382682,0.5295706070207795,0.5958680287801963,0.589106923938016,0.5930727791347117,0.5928466767977842,0.5821587313894367,0.6027787881615345,0.5825999605206538,0.5639930909357274,0.5839775734738049,0.581611556663459,0.6148545550707172,0.5893950852443863,0.5781777838729449,0.5789362436619365,0.5638513311483306,0.5987359205596183,0.5963262819457653,0.5900885301750933,0.6060362459029647,0.6143837294086079,0.5695630322879901,0.5902942465618444,0.6001413513352412
0.5713522429825382,0.5734748273418404,0.5925922571895152,0.5679688442551258,0.5782986675368522,0.5699728694385131,0.6075485069006947,0.5904104440998577,0.5221863090105399,0.5999646679304473,0.5820828412381243,0.585534557690615,0.601041427470371,0.5877261023146065,0.6056812503896061,0.5842141722671053,0.5729659062398573,0.5970824436299584,0.5795262599009345,0.6076522352662028,0.5983280139355438,0.5905511540988653,0.5774169585251401,0.5655391697392216,0.5701966801599645,0.5796050752167874,0.6049853874730524,0.6082790617069818,0.5991233622178789,0.5669203074581555,0.5907179243226603,0.6063627800047064
0.5516964030641818,0.5729135817954258,0.5738400527979595,0.5617732134328746,0.5742561442011471,0.5775241148916259,0.6055478484063492,0.587302413285772,0.5079647652739618,0.6216925833470035,0.5708115598636261,0.5803327977395858,0.6064129771441533,0.5983841021177292,0.606870878109814,0.5816126523234693,0.5746020354150998,0.5874375227288922,0.5805780707199228,0.6030382295507803,0.5944701827247192,0.5999049707925126,0.579779713530697,0.5872399034750728,0.6012123005804137,0.5908765490574033,0.605008180604778,0.6045337045105206,0.5951063597232258,0.5568954201099365,0.599638299638757,0.606543756219986
0.5776695911978202,0.5714047013403478,0.5707469693983529,0.574594886788026,0.5757780792955316,0.6024262092398911,0.5936438044882717,0.5585974214341789,0.5058898432176995,0.5992701873532118,0.5629888729325674,0.5602901066162609,0.5868403175987869,0.591192100010888,0.5971215975995956,0.5722001726947741,0.5631348781053949,0.5803004010475283,0.5857750548016463,0.5938497926494195,0.5763839385168192,0.6026495490918982,0.5657567121027127,0.5896679870842179,0.5857092424374852,0.5793141803080495,0.5968028205808529,0.5924793434849125,0.6088301281894042,0.5570672866916087,0.5917441016581262,0.5999133793856792
0.5765723617060763,0.5797002922465397,0.5694433749120873,0.5628913796336743,0.5836119718731076,0.6040104230248478,0.5684971185953098,0.5699149881264689,0.5085620607185288,0.594202047455457,0.5637990649487308,0.5560815897458347,0.5841382028837967,0.5897342308307016,0.603105891109299,0.5857289256829921,0.5663522443398095,0.5932976032677715,0.5808057973216347,0.6017506084510171,0.5789620914571421,0.6028044546045375,0.5577710337644031,0.5872844868091902,0.5679918917358764,0.577241842665523,0.6002599407887046,0.6064957898974899,0.6178694271384253,0.5678663372320112,0.5822158336629308,0.609436390986493
0.5656597866710111,0.5751975042338695,0.5692721729026515,0.5797287694571813,0.5772738713350276,0.5916384785791848,0.5505683887277137,0.5530329567851004,0.5017661571637353,0.5562342935461064,0.5651094160493573,0.5416888779852913,0.5718572027889532,0.5772873466414499,0.5904327397199154,0.5882165026363935,0.5868703093269421,0.5928613833622798,0.5550730226628682,0.5847869025468833,0.5789651501508608,0.5980702537880997,0.5510182119132079,0.5737217570287996,0.559059893463258,0.5801267332280253,0.5889961901945067,0.6035214489063452,0.6123645468683674,0.5957175619593071,0.5710499392379149,0.5838779253115893
0.5659669375428851,0.5615601376616675,0.5645520910255559,0.5817731507506991,0.5596378629441552,0.6044484710000804,0.5627702413172284,0.5492905294490722,0.49725780425360977,0.5299221575197479,0.5602238220783105,0.4700562489313449,0.5553075552793092,0.5500576047772814,0.5884807023503562,0.5943164339886993,0.5831494504368644,0.5828376646387419,0.5821756221726107,0.5976093058747813,0.5858710495611406,0.5978339153745185,0.5724005382642785,0.5843649669801088,0.5521064986624618,0.5627740578800506,0.6145336000951485,0.5911044136567596,0.5994353385347031,0.5851585045221817,0.5643136541327269,0.5735296276565336
0.5658100510776096,0.558327945613712,0.5724975913535357,0.5852205613123127,0.5645846496824887,0.6033940319818529,0.5473504336702382,0.5508521052577611,0.48138889271108365,0.5333766396292536,0.5699827061386347,0.4992382253757244,0.5545229528693447,0.5655605123449887,0.6041675439384648,0.5960397846889012,0.5978005917174274,0.5771046622877045,0.5845365565566016,0.5860374881914225,0.5925934965374924,0.5968471147377765,0.5758153594638435,0.5817825785794919,0.5697308251811015,0.5652436176351294,0.6128319721420339,0.5980915167736334,0.5973058852863637,0.5740806810532426,0.5577132751026244,0.5540419469844786
0.5718048754300886,0.5608188214120902,0.5572291254878872,0.5829054456183624,0.550093677092991,0.5964768057978445,0.5515432782815375,0.5516924159092356,0.4820656771855254,0.5159902118232331,0.5609828317161933,0.5126135793450288,0.5611138263604376,0.5552923965334027,0.5975086123783595,0.5769725845496203,0.5764563136423551,0.5800166007617249,0.5851394398541814,0.5788547285968435,0.5859737974043524,0.5988268377063606,0.5676445716246707,0.5874026790474143,0.573590097054816,0.557918121842488,0.610053882995448,0.6022514819855789,0.5900201865644505,0.5800083512964709,0.5623778806373978,0.5431900259254459
0.5911915089368134,0.5613766583753876,0.5729957505409891,0.5534685594985191,0.5622344079567263,0.5884220864114873,0.5682397671293855,0.5574858672691851,0.4884030630359715,0.5314838099256849,0.5636651239761199,0.5201825171745313,0.5479094507112023,0.5588765083466583,0.5811184300700498,0.5803675864445736,0.5788375764528308,0.559256085939333,0.5460104385144584,0.5813974910340312,0.5698308732054311,0.5854586666710806,0.5791580153149596,0.5697124919814227,0.5531501177851532,0.549667237648273,0.6179702032060033,0.5986511173924076,0.6212725409992097,0.5950489547371784,0.5643368107174322,0.5427879222380372
0.5941793500829515,0.559388737367347,0.5794430308345153,0.5654860858033932,0.5671886452936961,0.59801190944899,0.5572778196973811,0.5692568779889005,0.5014990780186213,0.5332033959612534,0.5838476918784248,0.5262923762544203,0.5509528687865761,0.5642553997732063,0.5897864260071963,0.5990796858620215,0.5696589731329729,0.5600841115179653,0.5616163981329723,0.5929538875893869,0.5931452509523414,0.576816328269667,0.5887614663164316,0.5852201386206297,0.5771213905159094,0.5631883342357251,0.6147984992264117,0.5995502012758238,0.6106267263039196,0.5938189730784447,0.5638401116227558,0.5613658291813408
0.5957841916582467,0.5732913885288489,0.5769382340387779,0.556656721314269,0.5870993762490757,0.5976483422067345,0.5501303450606723,0.5640281865486818,0.5004593092979395,0.5300746555723626,0.5713895027842297,0.524513395230505,0.5384146605150621,0.5529537255864834,0.5791890841957712,0.586101179207537,0.5742184977629248,0.5697163910665366,0.5654081494925718,0.5827710593260176,0.5930673223467142,0.5699842814842229,0.5793905717035099,0.5735819490895882,0.5703545825604328,0.5947035818823703,0.6081173380705187,0.5783062842994138,0.5879016929853802,0.5842143653403729,0.581457687089268,0.5596939999213455
0.5824786395921904,0.5482517870260675,0.5661673366488604,0.5371505045987304,0.5558116057635742,0.5523229101806173,0.534518650092914,0.5502248230646063,0.5081158276632367,0.5250308969038784,0.5768349477937611,0.5293578368426699,0.5413988553022833,0.5505211216848891,0.5858215494585521,0.5713896161304532,0.5611970946563201,0.5753861875339497,0.5678433474046485,0.582455769144282,0.5728983520226749,0.5618999106995952,0.5730539730844799,0.5525886600649286,0.569910023473299,0.5880988085963486,0.5983110243152159,0.5841422283315656,0.5798124370254305,0.5579187622677075,0.5684340205725498,0.5256362872518783
0.5701680142975127,0.5456013945761535,0.5691010336370219,0.5242222817281257,0.5374642217010579,0.5455630411056207,0.560481371030412,0.5549262296991953,0.5112358683185616,0.5414858357819963,0.5913172543091925,0.5307719223222342,0.5499398449413748,0.5430108750677949,0.5734455543778338,0.5589939429982453,0.5615983255388373,0.56452116375866,0.5612569521525619,0.5762368531301165,0.5624489521878524,0.5707802781938129,0.5783953568807063,0.5443420319021341,0.5804363134410968,0.5587329673942438,0.5602424681597418,0.5834994189519103,0.5939267288033379,0.5556888513102023,0.5471551478605283,0.5275224136746397
0.5750171728388271,0.5566846871958768,0.5935126978557261,0.533634581564534,0.5486760368753174,0.556630303993821,0.5489153096241863,0.5613445482686634,0.5181289738398855,0.5329207965836193,0.5836956237282518,0.5245855079176911,0.5511685034555787,0.5455644749399866,0.5736059440646022,0.5671865035180774,0.5517939488384771,0.567738692875071,0.5598952836217586,0.5660189529736961,0.5723188857610748,0.5831469701695764,0.5733349296915784,0.5424077238421434,0.6014092696240239,0.5571651188722799,0.5524222254633759,0.5751615631525495,0.5793509189844066,0.5667007448879895,0.5478139782572256,0.5225357515241886
0.5793546138961352,0.5719981874150686,0.5972009955902702,0.5355129568572528,0.5391525803103487,0.5617459129851325,0.5550618159276062,0.5637530828786983,0.49663837716215875,0.5581986227821338,0.6062405985009303,0.5275260483387805,0.5738303937453582,0.550969227344634,0.5929918778608987,0.5780203203931022,0.5561886343275559,0.5746416126222536,0.5391553695380913,0.5662788915173373,0.5744124919120557,0.5906716273590762,0.5691002511256076,0.5575843560948712,0.5922814568098755,0.5667873896426827,0.5487605366048163,0.5737366657356078,0.5763995046204728,0.5733736556272593,0.5591015488625728,0.5112262129932938
0.5926388843243982,0.5866965431376792,0.5901111790095195,0.5503989088654824,0.5484093679626088,0.5605573190489967,0.5642245824610601,0.5663879520032675,0.5068414859384363,0.5679713411614218,0.6121593232162974,0.5470480828884186,0.5579327740661637,0.5784360681962659,0.6019432259534812,0.5742192430259809,0.5496593663856637,0.5642521582139244,0.5436719042707687,0.5592800036823733,0.5759611876512238,0.5801304678255006,0.5596110844517361,0.5713248283269525,0.59290161420545,0.5593962456333528,0.5736503230380992,0.5724593232941135,0.5921042453952863,0.567198493046464,0.5501730487354108,0.5212954769418232
0.5754424340607374,0.5865558530512311,0.6022935475989128,0.5547135550776887,0.5705452023868367,0.5753263474603756,0.5576030382801394,0.5754973600325615,0.5342212946217701,0.5421323875610886,0.6042953914139977,0.5620632935335261,0.5524413213592996,0.5726445560446707,0.5879685438579441,0.5625329377480952,0.5464315904973809,0.558379996777171,0.5417243386608743,0.5701474232762469,0.591557560893682,0.5815460076960615,0.5783298545189024,0.5740030059871732,0.6078766457153932,0.5824642832282123,0.582871518901193,0.5988304543211029,0.5890939224173817,0.5847094126343335,0.5613663512339144,0.5250246474530642
0.5762679698152455,0.6095282084547184,0.605682561602551,0.5416029266242623,0.5700662296565002,0.5746956994361594,0.5691004660783774,0.5640518305118651,0.5292549196789684,0.5656091417576863,0.5994122303013998,0.5656797465254502,0.5598426508887804,0.5737834938421775,0.5868073597635863,0.5754128147347375,0.5518170235698943,0.5601905866328081,0.5521558549298469,0.5613982643487279,0.5949822738788164,0.5727131394319849,0.5724785094506046,0.584567506238487,0.5940000481696428,0.5762827403919126,0.576626739452422,0.5951267669970552,0.5884749675291099,0.5847030202826562,0.5697096942008035,0.5212117099593088
0.5738538402730282,0.5985244478779612,0.5939972863418808,0.6059528628286115,0.5632612932613981,0.5857902209988599,0.5822873514664213,0.5622085943596113,0.5356706979122343,0.5744204067779894,0.5972081361744523,0.5729285567710147,0.5668572018540585,0.5644111047568825,0.5856060253094739,0.5770394329721245,0.5633190754831388,0.5717478431714951,0.5528715111947813,0.5603805076543402,0.5805542547910614,0.580150676690502,0.5604597593162204,0.5946334838598641,0.5917989547787452,0.5732620980959782,0.5894267350288538,0.5886848857508702,0.5876068460614681,0.5910619751769484,0.5670040830652558,0.5422944360485453
0.5667897891743121,0.5900162282253612,0.5843544827599083,0.5887563958752207,0.5570658578024141,0.578544164291956,0.5807934957659695,0.5495064596294843,0.5329517716309171,0.5666044629216427,0.5828781161033922,0.5681102471121506,0.5559115361817426,0.5582197487791536,0.5909604783467888,0.5564179734045336,0.557750086112343,0.520843781106743,0.5330844839396027,0.5500391357543934,0.5608079175318781,0.5467568040966815,0.5553883746464914,0.5830764895202756,0.5973605198661196,0.5727505100676726,0.5915787502895986,0.5893334272463382,0.5904136045853519,0.5701975336440999,0.5638793977251924,0.5325821977524576
0.5772347165962834,0.6116648785538752,0.5696967953493712,0.5861510496608924,0.5498483030003243,0.5834981357311753,0.5676050585948791,0.5479990421622198,0.54733498980909,0.5589096826653499,0.565453219552464,0.5380130949751152,0.551617254977085,0.5400243140656693,0.5987342177184636,0.5665887373524856,0.5460643875212834,0.4996298076184882,0.5378536876237017,0.5688805338121314,0.5576229867096067,0.5593478812682569,0.558046960964445,0.5942277869005834,0.6160391055253891,0.5833508204181865,0.5942373081919996,0.6080583069358751,0.5888283441572768,0.5763305905234106,0.5550895712010027,0.5248099950386265
0.5704120135674478,0.6131316569376453,0.5812935420571503,0.5849850935895171,0.5518637404049151,0.5949184376536651,0.574166478197986,0.5536798615271299,0.5340587616758823,0.5544724585648964,0.5738055434758889,0.5540380925755057,0.5487557256243845,0.5463180371891001,0.5804973381524481,0.5769633865673796,0.5465990682761839,0.4991126102843242,0.5390310584044484,0.5735532905593361,0.5586919478046859,0.5564898121618862,0.5623902843886208,0.5926134970373993,0.5989891754998684,0.5662259636362377,0.5921847456275926,0.62791620067533,0.5853829091113152,0.5759849820541305,0.5572543656086388,0.5491824892738046
0.5575379856115439,0.5614040653288428,0.5804080640185023,0.5735421857344716,0.5476778705734802,0.5958187933131613,0.5709276634510436,0.5440747744917216,0.5213603225153696,0.5307784999357796,0.5507339846765587,0.5281301587681875,0.5414216642647478,0.5537229416926914,0.5832278597859148,0.5972652435116501,0.5706444303797054,0.5302958296204401,0.539452583589878,0.5913381674244516,0.5674729328815462,0.5468877195086193,0.5686107634001027,0.5979383182205544,0.6026366269174979,0.5676793994997569,0.5844884322527286,0.5795806264069832,0.5824937083236219,0.5490347054438791,0.539504024695399,0.5604091817124885
0.5344936026986065,0.5525700048113995,0.5302920683234515,0.5749536767312384,0.5465779601987197,0.5836087133274397,0.5592546694949023,0.5646360233112029,0.5282166542164441,0.5606499487916801,0.5559648694551784,0.5391569399251503,0.5390044935421541,0.5576932286588097,0.5953530196893833,0.5923783173609998,0.5833095768671912,0.5561834299945176,0.5371145234838015,0.5929126495977757,0.5623562662642563,0.544485867279433,0.56406801272718,0.5886964120399818,0.6107136568059537,0.5814718580138352,0.5923579516739879,0.5779885720840916,0.5917078576223358,0.5223024111460846,0.544348995840978,0.5655533217268642
0.5138697857036281,0.5319121955543467,0.5144789140785346,0.5639121656974506,0.5504160382270542,0.5745542479126566,0.5692088145028253,0.5602718352321876,0.53323599758866,0.5498671003430129,0.537819356702411,0.5434347271628845,0.5390045369778758,0.5566148789813146,0.5857183139009661,0.5697548715040694,0.5800436040826162,0.5490217478601576,0.5330923593055745,0.5911576626240014,0.5573052069931297,0.5445152636327313,0.5526930770711274,0.5667840036885483,0.6199330969902834,0.5900411800729177,0.6016199190964859,0.5580721269056141,0.5883111666698282,0.5197066031828603,0.551350551996741,0.5602190605452884
0.516872741083779,0.5361874747546156,0.538559566230159,0.5647732934765339,0.554227746547983,0.590724016147357,0.56512205081878,0.5606214863964452,0.521189970084178,0.559847202045824,0.5584978137742875,0.5435261766843094,0.5266292190690889,0.5700778208029655,0.5766610920345321,0.5636955564536716,0.5751303912467538,0.545409706604076,0.5412075796638134,0.5767041785362488,0.5618330923523311,0.5417136242561571,0.5374240072262522,0.5604691547185854,0.6037329246018674,0.5829443987071037,0.5816637144471488,0.5506995089943758,0.5877214602568785,0.5096947186100733,0.5523146414828015,0.5643003810887084
0.5032645097530679,0.5299311051170266,0.5420573664802655,0.5580167335738468,0.5710434792892345,0.5849595398606597,0.5535378042912908,0.5545026831568829,0.528602623357671,0.5612153376925297,0.5504428372505434,0.5244539174699989,0.5370982615658488,0.5724570790079442,0.563555205167821,0.5573488618676001,0.5737852857918138,0.5476915702680607,0.5388486180390717,0.5860675399754722,0.5578375739878996,0.5491324168732321,0.5191635511948274,0.5614612126112228,0.5807208336449055,0.5893754609285686,0.5851150762181687,0.5492620702437785,0.5931763628578124,0.5324364616521824,0.5664062184664145,0.5672688123607177
0.5093632292480983,0.5366685766639447,0.5344760375222175,0.5616284206955422,0.5622780436158803,0.5876193936937648,0.5211718082149033,0.5559707049016716,0.5263426015677464,0.558356749756217,0.5479065375190117,0.5391870379179724,0.5310001273860685,0.5734383245490746,0.5550543589505477,0.5699083708202863,0.5705936345506197,0.5520434321453296,0.5355261519794374,0.5624575602088604,0.5707995585482792,0.5494781676132954,0.5237925100477305,0.5432401158919844,0.5729967786157975,0.5842852648563568,0.5867784040379687,0.5672960539125347,0.591594726199788,0.5589224206931545,0.5726719957367621,0.5703757565247924
0.49709722828267466,0.5316478335262635,0.533566241093359,0.5653970182772943,0.5469859045289338,0.5766210535438252,0.5245752373748207,0.5537615773362714,0.5280305850699256,0.5582318364845755,0.5416395561111229,0.53459879008606,0.5327340888972754,0.5696365060238793,0.5536900301176,0.5728516932090275,0.5789068732584965,0.5566654919411369,0.5333991058113607,0.565725353544472,0.5660464159928535,0.5593833108423469,0.5362004355417955,0.5416367814985645,0.5748168876066404,0.5744427157028764,0.5870341040979521,0.5797557723058406,0.5877493405740069,0.5396900975194758,0.5697289212757761,0.5706437937552713
0.5293717743562429,0.5347471483953727,0.5287212173852445,0.5809351190446068,0.5620556995489974,0.5713648489711907,0.5219554261480237,0.5524993973054815,0.5324763706157283,0.5574210762864684,0.5493101101772799,0.5248434175119443,0.534829728397046,0.561019295746187,0.5729105075007519,0.5841514377754482,0.5607164541459921,0.5654275593075058,0.5468389449774542,0.5780113055542291,0.5799498817734894,0.5649439289821481,0.5479334555539337,0.5309468413663678,0.588459546658302,0.5785006140067654,0.5915313561308491,0.5774878704043411,0.5945158530318517,0.560794422530325,0.580210342209142,0.5677628723685344
0.5377557763281979,0.5243129568567739,0.5304619993412176,0.5845788586362337,0.5648983193166819,0.552099993211502,0.509652710352777,0.5611667730440937,0.5431500729971517,0.5507208289027341,0.5855191578725192,0.5267433291781569,0.533833540097993,0.570548484667909,0.5629967402510063,0.5948163762685232,0.5668288479989672,0.5537056114475143,0.545519045306198,0.5722362069730016,0.5749430333084398,0.5510557132691791,0.5403238397444712,0.5336899881061776,0.5825038685448831,0.5748140712973453,0.5793501776009204,0.5786707144304954,0.5873091720232031,0.5583112159787822,0.5629834085692438,0.56792842678645
0.5565748862288848,0.5135197125523123,0.5221089331081994,0.5802158234258084,0.5596626620670362,0.5441520330921885,0.521139463674102,0.5425750703584584,0.5257785308204559,0.5314941423699255,0.5532979414545869,0.5300148707582282,0.525302511967833,0.5618639662124538,0.5623695697304707,0.5692357794369474,0.5492543461648873,0.5385761379873562,0.5235694741233647,0.5544114440256895,0.5290479139409761,0.5302210672254399,0.5257756162588092,0.5421089588712684,0.5745768042315311,0.5715985266598853,0.5813759605494315,0.5729910412734047,0.5880766308635734,0.5459281080108958,0.5563012813867414,0.5716191387566236
0.5493054118368756,0.5352973162067083,0.5223078608773943,0.5674105231105573,0.5631587583346986,0.5435112254490178,0.5281442753440349,0.5823622153339212,0.5358027152415614,0.55805734951432,0.5457017116877543,0.5376376484097096,0.5358406905092439,0.5671105141426618,0.570326915859225,0.5772752742471177,0.5583018532229493,0.55027099886534,0.5183113848905601,0.5609249842062565,0.5393000884299561,0.5540087100991409,0.5172651104693924,0.552946477610599,0.5796012251914764,0.5754952254644423,0.5808414876594252,0.5767140234541825,0.6066646707908285,0.5619049245132506,0.5407684020037729,0.5688866126974252
0.5633189372592899,0.5663389760287778,0.5405360744542627,0.5709177809481356,0.5670164157607109,0.5421751737638947,0.5354404411465139,0.5745099260197164,0.5307911789470392,0.5556289439251776,0.525915387546954,0.5336088652505504,0.5160307035896521,0.5642643979721393,0.5592686388131938,0.5592583662799915,0.5348493274926764,0.5221523239818775,0.512503680953508,0.5486508920020081,0.5461924213235654,0.5446192906088165,0.5232272939452596,0.5501248190125358,0.5921269631975172,0.5749939509506214,0.5693522371405226,0.5828250679431624,0.6178595435626999,0.5790444690283847,0.5722343006864024,0.5665501958375692
0.5747891684336186,0.5449863360923355,0.5367327370869814,0.5623938638589836,0.5669817555900445,0.5107490120371017,0.5290496023186391,0.5717420850333159,0.5150123372311519,0.5628431229686646,0.5496587326751974,0.5133745134031056,0.5069425129828127,0.5363095107881222,0.5554598922067484,0.5595689753040101,0.5273690049277526,0.49099650285490615,0.5320765950678155,0.5324734679774026,0.538679349571177,0.5580259668410164,0.5264622308312923,0.5501770441701952,0.5862483694577212,0.5833334612348708,0.5859588343959619,0.587531438382594,0.5938724801478901,0.5793843456499506,0.5808960980607285,0.5730483756853606
0.5712427049139577,0.5493861401695814,0.541799477415497,0.5619804444231682,0.5683962894678918,0.5169523138986523,0.5355325397494188,0.5776751991882865,0.5029746255416807,0.5613702156903191,0.5589299002925299,0.5185032323326548,0.49305213914795987,0.5229950742044549,0.5515609958591696,0.5389883187148778,0.512115957078993,0.48672389804745775,0.5212145699546435,0.520716367195194,0.5391263232484822,0.5498331114516315,0.5287025005628596,0.5378622954003518,0.598381372797756,0.5982349110322809,0.5960215955474006,0.6049157098781048,0.5768018691105694,0.5877155633070781,0.5905462593717186,0.5682604609974646
0.5768094129458112,0.5506168295464815,0.5498716383442241,0.5929002188000236,0.5559200508951117,0.5229419621036491,0.558605417581779,0.5692912075657572,0.49904436024606813,0.5748440800040591,0.5494293955046348,0.5143446981090736,0.4913072014042239,0.504121885305715,0.5290076922904436,0.5505339774798594,0.5250248551288235,0.47413541433659834,0.5239865243324209,0.5176034001313501,0.5309890748217807,0.5208218349559846,0.5409283269822489,0.539626292460393,0.5878075686988198,0.5847211036271225,0.5906779136488174,0.5967031180687292,0.5705283374073526,0.5791581399038832,0.5764766580053315,0.5584128437274893
0.5814965055899148,0.5514405160653122,0.5558068555346072,0.5741706716106005,0.5602830988695557,0.5401884325142197,0.5856637641246571,0.549642726807889,0.48427354494654207,0.5468989563306925,0.549412035610608,0.5071361916544332,0.4941300715053125,0.5016286249106137,0.5292852710774385,0.540167960388461,0.5285012763207972,0.5026561660775339,0.5329127552852211,0.5432428890581122,0.5395863314465803,0.531410951506996,0.543302488018957,0.5310984114574571,0.5871914441502337,0.5842738066487239,0.6054022390302229,0.5995841406218934,0.573010836063649,0.5828928167830059,0.5593141825415242,0.5528707809944997
0.5667098245689774,0.5659158131854518,0.5501518291613001,0.5696534593029474,0.5550325496881885,0.5375131537730953,0.5794629250582166,0.5503813101079991,0.47727074954268733,0.5449101276966757,0.5543730589407461,0.5151338012839259,0.49900488962257317,0.5192698057559197,0.5341875829659322,0.5419933532368484,0.5223488162717658,0.5126032267487353,0.5361815613488674,0.5400595962405359,0.540051506815467,0.5406853091483583,0.5520155795425992,0.5376360252772954,0.5941671613091466,0.5855376998616921,0.599364665682224,0.5945022221057594,0.5546798869031337,0.5736312512066184,0.5671689822897648,0.554739142910726
0.5696427403778026,0.6134449541828517,0.5854217252635361,0.5824540933725291,0.5392631841720723,0.5618994558401225,0.5942709508423367,0.565782993915593,0.4771501048400375,0.5335536409152724,0.5524572749522649,0.49469746575176243,0.49278131130450387,0.5071188697716176,0.5378696643073582,0.5262220950559753,0.5133070552778802,0.5157822043865847,0.526999312371915,0.5156743252454872,0.5291561778302678,0.5466601974214593,0.5632228927063938,0.5417014800218669,0.5901159151181448,0.5557093897354628,0.5924720152441854,0.5874689008176324,0.572833857853273,0.5812565502825251,0.557224421305186,0.5753590968382198
0.5855299013750597,0.601741204273849,0.5915892210901754,0.605330834060188,0.5361854572315865,0.5662740922831482,0.5962095945506181,0.5672644839984393,0.4457492401512053,0.5284729185310555,0.556072246306027,0.47284904504652525,0.47301971711468527,0.476500020510064,0.5202067080692969,0.514125289167445,0.5123242865602116,0.5030207796383306,0.5263950182844477,0.5247790520212656,0.5269548889448474,0.5224344636562988,0.559822981598201,0.5414524274083812,0.5726813986523625,0.5987557877808052,0.6073298871655344,0.58521061303925,0.5854404668851823,0.5924058251915785,0.5663334043185153,0.5746814525317472
0.5783092824663996,0.5913280381334234,0.6179241937199405,0.5383891526168316,0.5323780434223173,0.5545687311442036,0.5918510357472502,0.574888854289664,0.4683178700055537,0.5407268754983745,0.5726347771934743,0.49606985957735805,0.4830864236064927,0.49292042450414364,0.5378368268467408,0.543416159179833,0.5355552037637339,0.5272265286272182,0.5400362119567346,0.5354149039976406,0.5369531569727255,0.5325843115263029,0.5577491272602417,0.5382112241912012,0.5638366830318651,0.5961711073748059,0.6106925377144292,0.6037754258629597,0.5964113017812798,0.5913517658750975,0.5754862323571146,0.5779108241739666
0.579074548538236,0.5798849366438339,0.607757741017839,0.5308531850271367,0.5530012892322618,0.5392074859766738,0.5956171218077744,0.5777726894409212,0.48350014921922924,0.5482967804595513,0.5801559491967168,0.5022351612167131,0.4854703982679678,0.5001240634124469,0.5353851167877166,0.5465100909102691,0.5350925154442936,0.5241789982179932,0.5378192957153112,0.5480285998280015,0.5293499002109225,0.5257409045819466,0.5521422700772831,0.5274799332140989,0.5794005464972409,0.5825881767380778,0.6216894859012316,0.603135763836351,0.5852339435113936,0.600223269704852,0.5707949518190176,0.5820627883293703
0.5768733557767871,0.5695963684007292,0.5989838729195069,0.5361903399678765,0.5555613143461664,0.5251611508889158,0.5900058525171321,0.5655333973442831,0.5026817896426437,0.5522778350213424,0.5634310201551074,0.516516125006762,0.4931315895970192,0.4926770673149532,0.5375860872163041,0.5545216801334729,0.5531800665786362,0.5312680956465123,0.5295639582384228,0.5357516036942203,0.5157370586749446,0.5302696370403974,0.5664565986645149,0.5264478459979238,0.5829500173274926,0.6041991680644898,0.6106391638642781,0.6057389995573677,0.5767731507780742,0.5845246455508906,0.5641670536881591,0.5635379456695815
0.5846581163488924,0.5891957291467622,0.60218581335771,0.5413412421069381,0.589235280582578,0.542578052436899,0.569339938422889,0.5793007152924212,0.532138895412503,0.582443839248787,0.5810089709372792,0.532807964872132,0.5260908877487078,0.5252410272189403,0.5529862081231691,0.5645292182487873,0.5639370718075849,0.5426658769496897,0.531457731072873,0.544476712944646,0.5272707105093546,0.5370519399895821,0.5739216144379071,0.5427602273358332,0.5801031586115584,0.5948714569598907,0.6148990331924788,0.609791170940297,0.5766214795574687,0.5830808405245902,0.5754949461205849,0.5657265718579279
0.5960773222579792,0.5933598897996122,0.6033351153829769,0.5321104484778036,0.5890717286042082,0.5540540301233232,0.5737622771497177,0.5714641672736724,0.5188044727805248,0.5788978202462709,0.5833504123153519,0.5222132733623575,0.5399953060017073,0.5232786937479434,0.5591545045924078,0.5693556574880434,0.5610435311973774,0.5390908311062081,0.5326783869233012,0.5427384175722487,0.5157826784501065,0.5246441937996198,0.5547953459849793,0.5512169305663299,0.5863406914801588,0.5981879796596226,0.5940399437713273,0.5994120585360352,0.5833944866982024,0.5818969797915097,0.5685551524758337,0.5803712002543433
0.5941499907618919,0.5808246425361014,0.6010440308624672,0.5287796005940328,0.5967939474129649,0.5459749936637852,0.5791466857188032,0.580605594945236,0.5199818490931145,0.5842661324762228,0.5701017562810997,0.550460742201619,0.5495687563182994,0.5541473706676183,0.5818677698167742,0.5758545174269822,0.5685209660942805,0.550029975266666,0.547820772034346,0.5548382618158092,0.5593907349732579,0.559317077086837,0.5569942971921766,0.5635337407082375,0.5832605376530826,0.598502826455861,0.5983905733146662,0.6010239838415941,0.5920608432486838,0.6062878085686929,0.5769536024375039,0.5774622822898308
0.5900101769894297,0.5800951235870246,0.6051560066823916,0.564151440992104,0.5910727148887505,0.5381058797361629,0.55891960520009,0.583405774376732,0.5101697803682663,0.5906960593664974,0.547485492847342,0.5689641891305022,0.5412416516065557,0.5619142550643197,0.5669177440783946,0.5693203971723544,0.5624996937013216,0.5646212894634939,0.5490069384315288,0.5714949391261492,0.5612444784369535,0.5715637074464466,0.5625976059140378,0.5621317937244052,0.5757680957773794,0.6069803576000701,0.6137798171580413,0.6052896555701714,0.6052582247857599,0.6022342936168141,0.5623703976528143,0.5913937073208566
0.5792563537065134,0.5791716985062996,0.6066140667253288,0.5789274939472939,0.5975261322475638,0.5610955200250469,0.5646978546383745,0.5960899359117953,0.5225274164539511,0.5956398985073155,0.5622565182932511,0.5718863672364827,0.5045349656030331,0.5639478570591385,0.5768968674551229,0.5855971338670356,0.5717765347247195,0.5400250544306253,0.5214363889836653,0.5499104343379475,0.5442192317329919,0.5355605857663965,0.5584031862287335,0.5522137666975899,0.5944666659474849,0.612764904808532,0.596161639705231,0.5954119221393555,0.6022840094677333,0.608103942447034,0.5489467325591684,0.5769884273485051
0.5739425910644682,0.5827529941201215,0.6143403014584394,0.5635252947825373,0.5983398302388445,0.561780539757891,0.5771985073318726,0.5726487691801667,0.5382182936347357,0.5764370256711477,0.5688265889366204,0.5705635159731166,0.5086690008625596,0.5563186111844804,0.5769079815216793,0.6005194595935928,0.5574897176066673,0.5611375664562375,0.5248653211060526,0.5550274218583353,0.5685936750689611,0.5398676397394162,0.5453789674000253,0.5754023752946935,0.5995280555546811,0.5953508356999713,0.5729785573171262,0.5882376890318333,0.6019223214995875,0.5914618245603895,0.5586209575738641,0.5736148702959678
0.5735293375818324,0.5729978047652651,0.6106005254693221,0.5664623982169332,0.5972698911308338,0.5804865243334465,0.5893390320421621,0.5777344025719398,0.5638758964875303,0.587318832065638,0.563924801491972,0.5656229019103685,0.5255889892037584,0.5624019275435375,0.5809825097258918,0.5756641198349381,0.5371770324652765,0.575087099439211,0.5258315312263675,0.5361491186581846,0.5664872030197676,0.5395699839458215,0.5454771433970675,0.5549029114965496,0.6007584521823777,0.5902876746911261,0.5852540556172792,0.5922690070516126,0.5824226695759558,0.5863547730811427,0.5487864513155096,0.5849489248562407
0.5775901653565807,0.5701325911217205,0.6117220816734896,0.5690536698229254,0.596324974029006,0.5927254568460838,0.5747456932507755,0.572011853818827,0.5589872059248808,0.579128947690938,0.582310706167906,0.5647817823701997,0.5478349299801031,0.578549067255405,0.5656300815081718,0.58994567916245,0.5588662717526716,0.5857063903873034,0.544731885336379,0.5461198269107506,0.5701880371268877,0.5504393334405062,0.5417699501573603,0.5527178523536027,0.6006711786414272,0.5847166997413851,0.5642675884987804,0.587618136281455,0.5704989268085425,0.5653177589113918,0.542018289797765,0.5961110955810827
0.5543142782799948,0.5593496689078967,0.6136343495970706,0.5704749185510609,0.5995889725467052,0.5832105829943472,0.5635823894782894,0.5798055418916008,0.5529987636389513,0.5570278942390616,0.5773071275371162,0.5653730495057792,0.5381484896950566,0.5804239126452804,0.5680465380876587,0.5711859479574266,0.5617698513030902,0.5867821898497785,0.5800861266271449,0.550728099240692,0.5705925820620283,0.5729623012620317,0.5670715115295724,0.5498366218355768,0.6005480173363673,0.5808824807363226,0.573256920076104,0.5787426285591808,0.5509438761406025,0.5660173589128625,0.537893562127072,0.5862703350020508
0.5565743381074668,0.5600091167194625,0.6091850498933749,0.5668617662270781,0.5880256573915656,0.6032387928403784,0.5311023373661641,0.5792180018435809,0.5521073651153845,0.5478717363050367,0.5353490179821825,0.5575554207948685,0.5232971853697257,0.5725918250528585,0.5742875514195425,0.5556531622049534,0.5506882472415047,0.574027176566589,0.571800608543537,0.5528897136003139,0.5786658309770867,0.5602610536794943,0.5627291568084303,0.5280895797996359,0.596036465645363,0.5728366645534946,0.5841281281403075,0.5800682508531372,0.5534560243699969,0.5435447747138755,0.548401001508807,0.5778956124666372
0.5483772790017056,0.5600803677452548,0.595695281404601,0.5613335074483494,0.5784497316224315,0.5860012280405114,0.5280129811775964,0.5836266412138458,0.5371945102819544,0.5140902600618782,0.560170301023049,0.5218947183433675,0.5244127597320976,0.5649250005482402,0.5554243202048372,0.5642222962030008,0.562018148418642,0.5583882593247123,0.5610583519968824,0.554789442389148,0.5830115348275129,0.5669234193345276,0.5602796607202145,0.5190846217472451,0.6045273342800246,0.5587387917813946,0.5914692846470344,0.5883594025067604,0.5385124746045622,0.5350390047479978,0.545031942623484,0.5822803504143441
0.5426743471698501,0.5510730552010052,0.5831321970802321,0.5740070892861633,0.5853744861800214,0.5980272481680182,0.5110743035110348,0.5817936546981843,0.5312834753278617,0.4887862049527114,0.5612803264361723,0.5174763070571191,0.5258740498559935,0.5606006405498989,0.5650619309450686,0.5807232347912081,0.568043156219983,0.5624658858995928,0.5736801171726609,0.5442190309238564,0.5712950456329775,0.5548766829181297,0.5591384213180883,0.5348606440658319,0.6034354390639347,0.5581026928025015,0.5878084476892713,0.590293598378612,0.5372900972295747,0.5252015621602544,0.5335093257724148,0.5854910716579593
0.5345691925282652,0.5577406183331473,0.5697824261068272,0.5846024340280649,0.592562257959572,0.5955006133791358,0.4972658978009119,0.5700196302552172,0.5185159798776731,0.44101647043345027,0.5286797165329906,0.5098508457962483,0.532844487261054,0.5481243324964344,0.5892538175109161,0.5848478748205745,0.568681614614126,0.5605459063797289,0.5847268677257222,0.5281700340891087,0.5659951133385537,0.5445338321879727,0.5452374239610318,0.5352389309588106,0.5959340607910613,0.5501667433600663,0.5946743123207954,0.5921153922264857,0.5503017018677001,0.5478987051186817,0.528315731779617,0.5802525122686353
0.5319524923125409,0.542829554471445,0.562800429953457,0.5831520328923308,0.5986752480092448,0.5772446874401376,0.47710054534690993,0.5517998263996033,0.5005659667813243,0.41893328681578224,0.4986436711812363,0.4873926480586235,0.5445766518872355,0.5140556564050591,0.5773203758948857,0.5769547426303423,0.5596471194068746,0.5578237410274487,0.5811280732577191,0.5303530440408877,0.5593165569374943,0.5561222058778923,0.5538352434828173,0.5357440673832183,0.5872197179839036,0.5495069085630586,0.5881102700341927,0.5834178248612418,0.5443322709288019,0.5520445000252168,0.5356555983704268,0.5712150265888849
0.5018115027228047,0.5292303294285228,0.5113695535748763,0.550997935776329,0.5868968356813036,0.5211079905384013,0.44940437942807465,0.5336642178958089,0.4973505191741321,0.40525310267377224,0.46664270673442143,0.46848187862537616,0.5271344857726752,0.5082960006897403,0.5648496801371592,0.576764484087184,0.5544885811488482,0.5398462648099902,0.5567453951118724,0.4791468689534084,0.5141926705512203,0.5488029655352276,0.5468999902955001,0.5008585289722016,0.5570597192020581,0.5364688949262741,0.5935255591452955,0.5806657529060244,0.5723061168089116,0.5209830049658066,0.5328498656545744,0.5588597660863677
0.5061016153997926,0.5339848770642881,0.4844601650051201,0.556046833543276,0.5710207069301632,0.4774176047823442,0.4426575259566068,0.5307095935869741,0.48738851386216453,0.41921423036120053,0.4731935042985542,0.4658110675542999,0.5277036235226036,0.5092356558669171,0.5637610013868746,0.5800657420264255,0.5432358546497067,0.537388045294954,0.5542388556573243,0.49083607173759614,0.5077019586792759,0.5604274030951508,0.5306564381723828,0.4790430962264911,0.5662499174253166,0.5526192394569756,0.5977651267254007,0.5975439746958986,0.561719872995377,0.5323259499525057,0.5199845270269279,0.5641058053450405
