Fp1,AF3,F7,F3,FC1,FC5,T7,C3,CP1,CP5,P7,P3,Pz,PO3,O1,Oz,O2,PO4,P4,P8,CP6,CP2,C4,T8,FC6,FC2,F4,F8,AF4,Fp2,Fz,Cz
0.5686023063269683,0.5550259138964845,0.5599395255197332,0.5584302296058681,0.5215889261703841,0.5596631337520442,0.5356028105485999,0.5558256336048563,0.5254306907325926,0.521215486149079,0.505982064308574,0.4952445964598103,0.438429957528866,0.48393306242664724,0.508926629106487,0.49657379654459943,0.4427013490945804,0.3898506753401841,0.3945417762932281,0.4188887946840183,0.4266767202876692,0.3939426833011674,0.5046235593219666,0.5913600803689075,0.5301076914261857,0.5795641197097519,0.49638567913445397,0.5891001517660204,0.5543006377052502,0.535147708828165,0.5528036748259726,0.5155548544668472
0.5931953658238754,0.5922532941781267,0.5790370362422352,0.5645181358893699,0.5290892006170032,0.5634742205328196,0.5450963427188977,0.534883806770676,0.5090954627538167,0.5361926641081614,0.5227586790912219,0.49121979401639526,0.45523196013457784,0.486236351982442,0.5181851032797514,0.48932532655045113,0.4591491621912681,0.40326789004985436,0.4076367018778662,0.45013429521883735,0.4518035580684667,0.42462004057554065,0.5333592773196092,0.5975245052187494,0.5442769518353526,0.5468018131678899,0.4848857931218058,0.608171194870539,0.542716133156225,0.5453569439233084,0.516804822250975,0.510710855199691
0.580060986910464,0.5512536803693474,0.5424294806669036,0.5629200634985538,0.5185069152078295,0.5605311336956799,0.5261319294489337,0.5329699157301984,0.4779882851932845,0.49426810768283314,0.49490998564748345,0.4735653081398267,0.4392360024708988,0.46557975192386036,0.49249650290847813,0.45363487817964165,0.4550505365954639,0.413829084415772,0.40771090782291336,0.44238427961889965,0.450592344346527,0.41755002559551985,0.5179038278750615,0.6013905649041272,0.5422038901780062,0.5476207565756505,0.4714857384444371,0.6007175453449084,0.5192187442526099,0.5370881235308427,0.534455693655754,0.5058197082235906
0.5655792731054764,0.5604222244106779,0.5562899208213845,0.5646884195186689,0.5347080880156273,0.5344120563714143,0.5214273086356036,0.5415154508360179,0.5137145472905255,0.49615762545866515,0.5003115161584895,0.49192970852203155,0.448511727157069,0.49056009443051274,0.5123516218966201,0.4650797970969464,0.45216494851112193,0.39919312353868913,0.40008197090942743,0.41664371007610124,0.4363172251967932,0.4467999520792583,0.531736607712945,0.6080581956115053,0.5498480596007199,0.5500864761505055,0.5021831573930711,0.6039545631173272,0.5440974527936052,0.5499316680282812,0.5339289712225457,0.5075572868257565
0.5814235462752186,0.554077954557536,0.5436367881217052,0.5663052928317981,0.5399484777327308,0.5511150130376291,0.5142721962313279,0.5452213369441419,0.4961034706014864,0.48295545328365996,0.4948952774643155,0.4856522307229762,0.4225966879771802,0.47918297409408794,0.5001615121947608,0.46735702656938466,0.4468477517169988,0.390880917362986,0.374549296833566,0.4185301335768557,0.442364156257819,0.46302037551416375,0.5480126157181052,0.6075111965083076,0.5388813188458531,0.5320969077334231,0.46304479867070264,0.6138107519775182,0.5183998967980376,0.5516500646457315,0.5239984024096225,0.485117154072249
0.5553044648799199,0.5382584056859505,0.522333716298765,0.579601713821097,0.5225251811200602,0.5508163753345294,0.5019462975413036,0.5581036647856553,0.5066542785732095,0.47547321380508933,0.4757959716816567,0.4728831868172939,0.4406370466316131,0.4693767879127215,0.4854569640730312,0.4649326707637551,0.4360055217359026,0.41970984409111767,0.4187010654187137,0.421198256333459,0.4752909757921087,0.4887018139078537,0.5299081554364878,0.5967976351183787,0.5307279678641534,0.5439132544363348,0.48445958515672444,0.5922706451589744,0.5247053190053049,0.5414629162560346,0.5465534757029639,0.49277033676932475
0.550660968694014,0.5711606575740011,0.5530817687832261,0.5999615550209014,0.5383517942804821,0.521046299596551,0.5120408467377056,0.5257582879541899,0.5166305082853193,0.4851881997647543,0.4953653328419967,0.4778234153750377,0.47344785942660766,0.492620787310619,0.5025255439016736,0.4782338370585424,0.4745789369719026,0.4311107777196296,0.44210080726756457,0.43297257518861076,0.49597565846404484,0.5288554951310579,0.533845566791978,0.6086084886698672,0.571193929576489,0.5454962342584181,0.5520780730771151,0.6030820042716432,0.5601331558711254,0.5721454712259967,0.5419627589026556,0.4977320171109733
0.5807275521582256,0.570415157659494,0.5627437690729001,0.5817785288553776,0.5334682953845761,0.527051638603635,0.4899001034249401,0.5351827480702465,0.5349443049401641,0.468715513644301,0.5006538959935732,0.4965313038774812,0.5332217584248019,0.5083730482358797,0.4978010778577775,0.4958524366175904,0.5055121213396347,0.4693442424453282,0.465896478954041,0.453231577884057,0.4893540142651901,0.5194570434488575,0.5132063985564068,0.6016189532144685,0.566639267736207,0.5256441540758723,0.5509932093741632,0.5913575949751627,0.557669199630529,0.5805402446348641,0.5469148303058119,0.5250381754963571
0.5692750789987604,0.5558873592069581,0.5616229108353364,0.5830864480294067,0.5666926231302036,0.4870736210699633,0.4879119552271679,0.5578695753126645,0.508160817693171,0.48001775957325815,0.4911290022577388,0.5047428076386142,0.5203511059339684,0.5183387915024747,0.5067348978694364,0.49760088118935164,0.5025310698934903,0.46962835510435774,0.47015150608137424,0.4507785202826882,0.4855046562781429,0.5223856946939597,0.5002946426282768,0.620625604973912,0.5678903790814247,0.54254994119267,0.5412040765500664,0.593810927563815,0.5793872395931202,0.5822836364238783,0.5767338802390162,0.5299262878978434
0.5785618148746223,0.5695988942966361,0.5823731341584767,0.594087497368865,0.5532541403516116,0.4949122798024357,0.4857614561146827,0.5446383094731102,0.5027285852389914,0.4821395629390032,0.4778340147413793,0.5011868279994721,0.526883495540484,0.5130331401821374,0.5097482125931452,0.5074055202032353,0.49311127382867087,0.48165639987620307,0.5017648399046272,0.4422741610345784,0.4971868070422519,0.5204151174499443,0.503286157201447,0.6152880314731235,0.5840744663925787,0.5377275568297345,0.5745626538706576,0.5922723302374081,0.5924165536525728,0.601591677718469,0.5799322435167624,0.5349549020083216
0.6007998214471473,0.5730050932139705,0.5790868690063433,0.581510449040533,0.5012015973731727,0.48821232219739286,0.4811899098726565,0.5159914202334104,0.48704292854086206,0.45717532129691674,0.4336590681549667,0.4600562867399521,0.5020415191264456,0.48406446088838667,0.4961604008023625,0.48488008539691274,0.4679086093413962,0.46117989368304785,0.5129805913553411,0.45904561252001597,0.4838893250912733,0.5144385087877368,0.5073170805596723,0.604895581909462,0.5460471361924379,0.5287857470338916,0.5498040923176737,0.5291508159401035,0.5951617368339822,0.5884189601267377,0.5623610727727109,0.5331507918658202
0.5965563245003506,0.5710023981801585,0.5611241034543233,0.5793543689436265,0.5075623534134032,0.46276512338393827,0.4955025496004232,0.524763445952771,0.4874207388066639,0.4846050437799588,0.42779746614118724,0.4865470496103418,0.5174872377483002,0.49858048501736546,0.5094937621221862,0.5168033199222732,0.47659417895077044,0.48866206623664754,0.5232487372903852,0.4938807071316397,0.5047961779025306,0.5351287847517378,0.4769713232302569,0.5886901433828137,0.5066949378112825,0.5227318638948898,0.5007925920383818,0.48332634919919976,0.5536619854933355,0.5635854310515592,0.534579374254577,0.5446851590216163
0.5946289023999336,0.5927437338308148,0.5736799885939592,0.5785373033211895,0.49155200091559265,0.4899179331360754,0.4924926267637753,0.5158246553707313,0.4883948458424533,0.46472360987220357,0.40981939624947117,0.4751512318491473,0.5082168187430982,0.49112201380419696,0.49493860247800187,0.49655681086047954,0.47007839770082044,0.5051713101462979,0.5194398833346746,0.4903194194845207,0.5243551136977674,0.5478050855410154,0.5236926206086924,0.6113831034428612,0.5489474115782862,0.5444406422652824,0.5450533448895603,0.5635741039965352,0.5875803494449947,0.5941808410219769,0.5545952125073649,0.5781852797300785
0.6210099662050146,0.5942853326557871,0.5826443269934563,0.6060103848792747,0.49125444161391646,0.5026798215724856,0.5199477382555847,0.5093185486941985,0.481027612702727,0.45091767478159606,0.41412531228086497,0.46233498148072366,0.5077774914767673,0.47667265205622383,0.4966484148032622,0.48075637555403644,0.4796168311281139,0.5193241434961531,0.5290802283678384,0.5100920006811627,0.5373858368328478,0.5299005469974878,0.5075839878645219,0.6250391251233461,0.548494121349311,0.5322406158464787,0.5381512354379971,0.5584180672151783,0.5967052460597569,0.5765046499866252,0.5646488112580653,0.5677563504987551
0.6108726684678387,0.5889066075292642,0.5658903969891244,0.6015839127563374,0.5082105972819152,0.5257478808304705,0.5141050203291114,0.5368610794801812,0.47054524585201385,0.467611236231748,0.42436774440466335,0.49039141305597894,0.5031216050732915,0.49380831459129754,0.5055418258096834,0.5032216884157918,0.49846774974568275,0.5164443027562414,0.5349252749412812,0.526242772239859,0.5578658351979422,0.5556189393642011,0.5370421095393516,0.6158293001045635,0.5219980237940726,0.5341043050786132,0.5479112728325705,0.5604258302917143,0.58305140515921,0.580419476202511,0.5599444863639632,0.5388353961961827
0.6091636684680112,0.6113115271546086,0.5848840428999805,0.6084677361052871,0.5069354182067413,0.5569563510555146,0.5096312136676797,0.5416301116642214,0.4887682380949878,0.4540044754148773,0.4229585866440887,0.45793109528970805,0.49703223776086997,0.46465941889923773,0.48852302185151547,0.471478682965224,0.4892258526849322,0.5133491138191739,0.5370606560125393,0.5163660130451192,0.5628415637333167,0.5658858900386946,0.5551973267975798,0.6168966312240438,0.5552764434021341,0.5409229786036842,0.5773681805418147,0.5906269943501649,0.6122134039325158,0.5948959335599789,0.5628114196944315,0.5483430188123034
0.6055451082571887,0.6257587514466258,0.5660160933351646,0.6098572805446837,0.5120280346115037,0.5301501233808497,0.5373656732614456,0.5475913636725069,0.498288407091552,0.45951288014979935,0.42857208000477504,0.47626421734147373,0.5048591238426516,0.4738239113219561,0.47681769145174785,0.4784845029882485,0.4901828842297451,0.5335075244764413,0.5160410000588853,0.5260286592422393,0.5592492683415264,0.5088982020169047,0.49249627235337623,0.5974449209474992,0.5071527015660271,0.5368700099068463,0.5537649565179013,0.5439350759374785,0.5839308743969791,0.5913592113624722,0.5452976201712251,0.5439393288647885
0.5829131405985848,0.609917178158276,0.5346836954821164,0.5970271366130118,0.5244699063229261,0.5592883388090384,0.5132450874402572,0.5553397035356935,0.5125510057668091,0.45696416657398475,0.42871731516641254,0.49425290890636087,0.5139145467780643,0.47803329893827545,0.4746084995135784,0.4720116803798528,0.474480105302281,0.518640721747075,0.5088902896769472,0.487297195826288,0.527476321510577,0.5342607583044918,0.5446347970086862,0.6224376476855867,0.5219501870159025,0.5634347114943343,0.58002925664817,0.5939369115068706,0.6052587977158109,0.582879549892393,0.5564127066120684,0.5136055135340032
0.5912813555886787,0.6312076313037848,0.5825399005521994,0.6074303738263518,0.5343937483063391,0.5776378023353004,0.5545735545666555,0.574635875482386,0.5095235995202347,0.43999063293513524,0.44158291607003397,0.48557144648018324,0.5032928633096505,0.4592500635491958,0.4520640290686275,0.4408292018123746,0.4682459486663375,0.5091252016870351,0.5140652945891562,0.49024429978690526,0.5250857514675542,0.5378130380451711,0.5481018490346973,0.6139378425916289,0.5312502866020387,0.5464132153071891,0.5926344755278317,0.6071191966497137,0.606053155915476,0.5844852917524725,0.5491010423826115,0.5463617630469564
0.5755513072190352,0.6282278957373265,0.574046730285061,0.5988976881255456,0.5353659185498599,0.5454035941364569,0.5182216001436828,0.5745397835474291,0.5146751908608981,0.45719100673469293,0.4453944492171218,0.5075652105818437,0.5046291128655963,0.46658976508244265,0.451030722182062,0.4563184378216387,0.46200108045939936,0.5009909157270191,0.5260044246342428,0.49573711382796787,0.5111862575393686,0.5268359736321554,0.533686066368153,0.5923042148505301,0.5259183513592703,0.5436351059688571,0.5903702478523437,0.5625678873092522,0.6012049840194555,0.5653201935715653,0.5421699803592892,0.5210115577817052
0.5233868060190283,0.606542098041533,0.5561724591614131,0.5662957973547936,0.5051015165241778,0.5340978357021923,0.4648656773657039,0.5665983474249648,0.5292233522755319,0.4735488247388833,0.44705500520963376,0.5050872417861987,0.4905847399947729,0.464369080027331,0.46782465069616047,0.4474094379498473,0.45571456895601864,0.5007988332933212,0.510708958263092,0.4640765108149787,0.5010932853846728,0.5390106374608945,0.56137447517638,0.5962067868799632,0.5441714254991736,0.5343958439950484,0.5669946262651651,0.5842632874290734,0.5895925343021692,0.5449104165727126,0.5256290876088894,0.5041174504086341
0.5039450793448873,0.5966095924882375,0.576658656330806,0.5711982731710077,0.5426930217134363,0.535155333448015,0.47965825177960614,0.5498679144036273,0.500953253126855,0.49449146417247014,0.4560791811337357,0.5063500894160586,0.47846500003121,0.46542541490821693,0.49098507592045737,0.46438172671643935,0.4484866578217718,0.4917786521944145,0.49386936986691793,0.45391316505572893,0.5180083748552724,0.5175703916240004,0.5263458964801229,0.5691384300383755,0.535566421252285,0.5623741692446292,0.5738440767406295,0.5489893602828533,0.5672968552897146,0.5586756841179648,0.5371831536807294,0.5422180256966439
0.5276948787202376,0.6035839726411032,0.5544479327762687,0.5826377354070899,0.5216824327889217,0.553021089494945,0.49285018681060877,0.5463986845581065,0.5203495626239806,0.5016055670433183,0.44878190852589117,0.533349125873943,0.498502197202106,0.4935454915693819,0.48944348980582203,0.48284796897728216,0.44811205122861614,0.49615154080704854,0.5154927678773925,0.46442035026982886,0.5110594021662086,0.527684769690762,0.5527483733378645,0.5943753579963748,0.5349131048520246,0.5341904296308851,0.5591864202474199,0.5039743179359772,0.5653767775412959,0.5358461976776794,0.5295144010744693,0.5106873504888141
0.5419584510533243,0.598118090401545,0.5571516498756209,0.5576805242344243,0.5087213373207421,0.5275481278899417,0.47618628298383614,0.5315320579133218,0.4906294838299869,0.5010031047628607,0.447996912411945,0.4916111006089356,0.457720467460521,0.46831691111909435,0.46683537227964933,0.45976213950865685,0.44029273602646957,0.4594261039019391,0.48255073816485694,0.4544343103917971,0.5133266144629168,0.5162921589369612,0.5604696325923214,0.5832813467036665,0.5428504464700041,0.5447639543797902,0.5477095805629308,0.5388468959323633,0.5720747601441415,0.549433392589335,0.5269797374919009,0.5223278845847679
0.5329693748751506,0.5901708890708977,0.5580101446128796,0.577130244115359,0.547084858554477,0.5290177656935828,0.5086395235231268,0.5290286951325174,0.5061558956390011,0.5084723245901642,0.4546472847434046,0.49786314428171324,0.47746961478336847,0.4693152158903232,0.4598276937265298,0.4888673202576335,0.4456367241923385,0.478078831781096,0.4860718873037627,0.4683199279179456,0.5128750202620826,0.5119600344403344,0.5633053510640786,0.5636951763594654,0.5282954359933381,0.537311009171255,0.52818901049202,0.5388874139314713,0.5705157087134155,0.5254364375903577,0.5426434968817615,0.5507177139921172
0.5399299290408073,0.593681316263065,0.5317019861740201,0.5554921235908434,0.49182911630179527,0.5318974283960565,0.4880929905992761,0.5437788877574333,0.5177154306004419,0.5218794962964927,0.45903250533219486,0.49971061579582726,0.48792070223934014,0.4891744738168281,0.4824957265182379,0.49844890369773287,0.4637958818919344,0.4647972022165312,0.49692208040994923,0.4775859551273373,0.5150979318327156,0.505167051643031,0.5623816673246871,0.5615410939191873,0.5156925390394039,0.5067940580260193,0.5194521922330522,0.5057144227253428,0.5845546256792206,0.4997462363067846,0.5393981858452158,0.524687714273711
0.52109798193697,0.5789856470588931,0.5002490601861199,0.5273087069885432,0.5294307663928749,0.516517357704705,0.4804230361567591,0.5270001373186716,0.5045490502933105,0.5474946572682956,0.49750765540743197,0.5005601135585487,0.43523912870037984,0.4837326143267944,0.4860197247194119,0.4872864743740512,0.4591984580235675,0.4538886717975484,0.4801351178553384,0.49038537822850753,0.5334297367837479,0.5115383528553332,0.5803288789513861,0.5927516450633965,0.5544938745442306,0.5656325434496852,0.548245954440106,0.5726010043699347,0.6037736493166281,0.5465955866152397,0.550899148994369,0.5348453191334749
0.536366106454335,0.5574133587416944,0.49764457251028105,0.5553446056494669,0.563074211409244,0.5360622096503883,0.5398157483225752,0.5508761421555693,0.5387432235205701,0.5566850694688971,0.51141341744574,0.5209318696791425,0.48475248914654917,0.5044781953147939,0.4822719576422512,0.4910449854805676,0.46750130078807745,0.46609915063552804,0.49958641180593316,0.5029846316960229,0.5300983798547465,0.526326904694883,0.5797641058377402,0.5961763963481674,0.552279880186071,0.5470839031762523,0.5346171857977999,0.5365818182423946,0.5974844583320374,0.5387132935300064,0.5694182379951841,0.5580939629548131
0.5357755674311904,0.5402680401846256,0.48817594111279333,0.5359811335077783,0.5312954536981722,0.49441910191302124,0.5604227292978684,0.5674414393976874,0.5217993750178233,0.5445189833635621,0.4913676462757262,0.4982404755669465,0.4633660731112219,0.47445984369446537,0.44969322226408104,0.4422897860759171,0.4563789507404242,0.4097299277820595,0.4896035640238593,0.5145833309641968,0.5386247960190408,0.5100173062350316,0.5662828920004562,0.6035470605581842,0.542638959772192,0.5213454465215718,0.49904702078764973,0.5342523488369909,0.6085583088096549,0.5314844677194257,0.49820542539308277,0.5778308559418752
0.46961200599279224,0.4883222433571735,0.4347076135410503,0.4795567779690815,0.49310193813058817,0.4496022605329499,0.5695520673200638,0.5670337264882146,0.5290985330373297,0.54463581893643,0.523286482088483,0.4999250857402636,0.45581221378805065,0.4774641433613819,0.46019921687803167,0.4561420535394162,0.491318699457597,0.45617567392651576,0.490574807828361,0.5230863243913219,0.5282025543458408,0.5272609381488726,0.5834558041186384,0.5979680041462144,0.5506319440494025,0.5144313491862574,0.48713059045472035,0.6040269032735267,0.6072255030566336,0.536373638373402,0.4589861948790134,0.5678429797552391
0.4595715755820255,0.4508413710753663,0.4144913934023364,0.4457035384333509,0.49094364349826086,0.35976285446195305,0.5484540287231082,0.5445659812887169,0.5319554222754613,0.5328622291379319,0.49693232041769697,0.5047135387381368,0.4785451380744519,0.4820541108079865,0.4651123685560617,0.4543545553866636,0.4751742912632431,0.4785544605151579,0.4931359204039232,0.49432778575868974,0.5185559792806945,0.5115633144614563,0.5577661547894287,0.5837215763480853,0.5379869833882798,0.508580866886847,0.4991840709232622,0.5203847697218956,0.5974502014363821,0.5244932193977947,0.47372221014736565,0.5441580591369348
0.4695736115237241,0.4559953535858534,0.43140229385500656,0.43210743938351903,0.4848299181655813,0.33999894024529725,0.5727380017405165,0.5085190562865315,0.5051226064897603,0.5560233383457879,0.5463363802572331,0.5113611047836082,0.446808897162616,0.48348390838407357,0.4815095019000749,0.4564078451523168,0.49234346135035084,0.4691084352461855,0.5005880043153343,0.5413453008956347,0.5487013211679569,0.5048604571019933,0.55833540231334,0.608582750740523,0.5570302658760454,0.5148649371313873,0.5066439147630005,0.5435138247967138,0.578656763973228,0.5320780989841096,0.4552178399925539,0.5202243414016018
0.4710713800492204,0.46680813393057013,0.42480405778606667,0.43512216346989324,0.5022095539914123,0.37735113812384985,0.5504229337068497,0.5267188375805305,0.529596743984998,0.5591987863054103,0.5387548516500105,0.5245058481748289,0.4868058461085617,0.48532607496928637,0.4817226514313346,0.4664791400131252,0.503550466544511,0.4955628160791952,0.5014728736338392,0.5303264750791445,0.5380145004540711,0.5182475059954501,0.5772602766811343,0.6024733523578938,0.5590379190432705,0.5301854773196572,0.5341623827270993,0.5622065998373051,0.5659554881342124,0.5647901960908489,0.47484379552986583,0.5291609492895405
0.47954197611679666,0.4432989452309861,0.4385076771665838,0.42238925353804946,0.5082156314850451,0.3578748337907854,0.5636069221990712,0.5107743103215364,0.5268471036495657,0.5410523265121348,0.5228691672886778,0.5208759571385438,0.4916755179076637,0.4899388201341216,0.49381871246000236,0.45921129079131523,0.48945649880628894,0.49297787926427156,0.4999726428799124,0.5397835278389648,0.5325725690207476,0.5052598854698985,0.5419206444335612,0.6103275384796973,0.546703544710961,0.5082291159336454,0.5150978402053766,0.51496264203113,0.5472744532910635,0.5378615210203901,0.47410838520292187,0.5065377351015188
0.49665310048562183,0.47877183818383845,0.43957825322971705,0.4536824220286816,0.5002403683307968,0.4106843857310749,0.5552043324239251,0.5174264422651715,0.5164124481738733,0.5169186094287506,0.5031702168022835,0.4949663108871562,0.47458923172670914,0.4793720503621514,0.4744680845811453,0.4496683524381557,0.4916913935179258,0.47671500595787747,0.49015565223860136,0.5200356525207902,0.5220388110270004,0.4944678046892754,0.5267219001576336,0.6001152772200843,0.5161273928641732,0.5000940322287667,0.492308072397062,0.5388296760510897,0.5276035305319299,0.5094486294683056,0.43881299850628835,0.5159036014439233
0.5029150371964156,0.47737352459652743,0.41214679265635357,0.45177828205450615,0.4934015353010924,0.4171508449645544,0.5134926190407653,0.5113450131578409,0.5183109832169415,0.506930514725796,0.49944268323784835,0.509083121521298,0.48533146159729057,0.48604306305210365,0.4888941857934117,0.46856467585482153,0.4874808077036115,0.49602497323874184,0.4672493617139378,0.49821342088465903,0.5004836162934843,0.4729343199736882,0.5059051129627236,0.5833212134509305,0.4921751722525784,0.48523969469189737,0.4913193246652419,0.4844449511805579,0.5026809788668121,0.5165860049512674,0.4452243686398866,0.5236705885385073
0.4919357287396429,0.47391310544411763,0.42147994151275625,0.4448850616394536,0.5011322285955735,0.4223649757633789,0.5168537058896429,0.507708213684129,0.5005758173285526,0.5111470346423371,0.4834219281668043,0.49866136338526423,0.43015465464741354,0.4858648088434883,0.48211885819541095,0.47747235113589404,0.47487316112603656,0.4851375065197708,0.4514975483061058,0.4499605306624462,0.4776900075353321,0.4307876098789582,0.48990039193462553,0.5627740094014654,0.4596736850297943,0.5047006588077952,0.5080414847075423,0.5066116737348529,0.4899822800471022,0.4772470868002898,0.4773377828572544,0.49944090487558823
0.5373019043475692,0.5353230521469934,0.46956387966475227,0.5581074533324558,0.5136266445556072,0.5056070021514376,0.5018119980707216,0.5274526383091483,0.5062378179460048,0.5191968076151587,0.46396937684063516,0.4958379229271723,0.44208701376696163,0.49207290832865075,0.4690076747461443,0.47350273101970275,0.47766782282546194,0.49351765362273314,0.44302956864505544,0.46347182487138,0.5073342820138708,0.43334428858216123,0.49096090895933636,0.5777896163495361,0.4679749172179448,0.5056427869150283,0.5083060452587456,0.5360490627078448,0.510476585687176,0.4817064213495241,0.48565502996020554,0.48642315732725294
0.5846445472990849,0.5583948370607654,0.508215082590826,0.5624356115237988,0.4939885804419697,0.5410760009940392,0.496405029065862,0.5416072094750622,0.5093464857722484,0.5026625878800655,0.46653840368011257,0.5100378164835547,0.43477631201305916,0.4979125413859846,0.4904130752816807,0.4888578149356518,0.5021829719497739,0.48082473817137006,0.4346192040718152,0.4587470177685556,0.4736888377586601,0.4005182768343979,0.48848223846497,0.5744957471337573,0.45479096437955874,0.46363927938079647,0.4821274052310001,0.5327380202889941,0.5218598481816398,0.4893023762252184,0.45402072313585334,0.4650062573415293
0.603354060057865,0.5559621353148985,0.5305699304846107,0.5799176166239222,0.5087991633283341,0.539715667196787,0.5103003455114506,0.5486074291388109,0.48758335469936953,0.5042629996900941,0.457589145855953,0.4652666761521525,0.3955915770262391,0.4743014121158869,0.45896249159495267,0.46475614006548344,0.46339108972284004,0.45849892120381425,0.4023406331685012,0.43357104400106,0.4547060703777608,0.39433638070497307,0.47767106788239594,0.5685757264107895,0.45803923738946034,0.5092774907295566,0.5017370419083874,0.5171450152339377,0.5296498575939916,0.46670595980281904,0.4873039272174284,0.4173813360640667
0.6003213321777229,0.555782805409279,0.5404048711632017,0.5976761163223425,0.5080281723607143,0.5544277714691838,0.4820511897307758,0.5534141257023957,0.5186389191905075,0.5349679762937929,0.48474899183325126,0.5091249815099743,0.4426549525471584,0.5101528239021478,0.47484612983523455,0.4871876156192087,0.47767091658203553,0.48551189279598966,0.44182759685020545,0.46396057316678174,0.4909358502416428,0.42503326658796897,0.4939258531375112,0.588832890836262,0.4815292430795062,0.48672386764829023,0.49064695263429486,0.5256283624114133,0.5325510603085565,0.4853916926131626,0.46985873659680377,0.45750816759782914
0.5966433094407987,0.5663831281277679,0.5512665068338117,0.591562065375263,0.5141700056399438,0.5471865475223658,0.4440960648914441,0.5591267277637629,0.5252771897138023,0.5109261616680068,0.4704008752268946,0.4999683421429065,0.4393228177795719,0.48376299674537443,0.4803402226616253,0.4944945819716095,0.485811461789736,0.4571452196142218,0.43049063243722036,0.4416376529568684,0.46997263555320795,0.40350887487516196,0.5083397452174442,0.5749418769874964,0.468063856141003,0.4857495480456681,0.48465702690355394,0.5346456907404527,0.5280439450457536,0.4887261301274291,0.47309118276410805,0.47878097032421324
0.5714239262250582,0.5450077246489615,0.5428858301380861,0.5970408737942253,0.5366767374131877,0.5375136875005461,0.4218582157246104,0.5546363184268538,0.5402262257464348,0.5420233142308851,0.459802617143217,0.5210415973002203,0.4650269127789057,0.5078416833549053,0.48059767578349877,0.5136302307174201,0.4950548252025174,0.4684259731699489,0.4629731506822298,0.4430497137705204,0.5140526276979377,0.4327387604484182,0.5222101678719187,0.5791264962406282,0.47669616898264616,0.5176026112333477,0.49665818930480043,0.563407328335393,0.5620611488556989,0.47456939671052106,0.488828709594476,0.4715764056922928
0.5847364064620392,0.5867679707085909,0.5816017627385212,0.5826316275142869,0.5221861443368752,0.5602692035429305,0.45267890081017936,0.5677381998376547,0.5522967063416686,0.5520018548127208,0.5166202887342656,0.5373009520531514,0.5080135265839033,0.5290999704886983,0.5379260866346488,0.547777069222819,0.5386598163269475,0.4951839373681021,0.5196741498544377,0.4944317210998275,0.5314436706603459,0.4617003914488726,0.5107450260719913,0.6089597492199346,0.492879835609996,0.47649717820483134,0.5263117369670987,0.5897676263274888,0.5554856910573134,0.5234299328746529,0.474598397851847,0.49712387242105777
0.5879754461767576,0.6016843031200062,0.6082999937659993,0.5767814213683876,0.5364441878886348,0.5548529792492217,0.4433667630122855,0.5650982330338976,0.5319560386102643,0.5416497846694782,0.502729742936575,0.5136177910084763,0.49335347256741613,0.5171071694738608,0.5413701331502637,0.5520879103046293,0.5197729615641535,0.4370257172149532,0.5147569500832653,0.5177175039711505,0.5341625540393281,0.4497576790065811,0.5260366767477923,0.6024626674417761,0.4908423174357177,0.489497375005449,0.5171512973266059,0.576989108525261,0.57552011667089,0.5140698347797847,0.5032185352237113,0.4776372359579884
0.5649819921741004,0.6079517483110419,0.6144359902744543,0.5949194990898943,0.5422354407830955,0.5581829756086205,0.4295452762447519,0.5265213521809249,0.5240099284305731,0.5436021197765709,0.5228278576730776,0.5290889638917373,0.5215284530298102,0.5312801230793633,0.5428834503643638,0.5517830151067336,0.49482636148030046,0.4924422347584919,0.5513376790357355,0.5300391319724254,0.5262633977602768,0.5128387939854371,0.5415134541442974,0.6189908659555983,0.5112944256299536,0.5063177413790522,0.5511055470777562,0.593156585951053,0.5868559824409545,0.5407142128602939,0.512941981380098,0.5250129020509731
0.5469051967463489,0.6079313136164359,0.6127301883926601,0.5858554386856416,0.5358215827694962,0.5554970713638036,0.45640196731693944,0.5548557931418209,0.527665277358683,0.5245035269750904,0.5118830022418881,0.5111881148066547,0.5235444121884554,0.5270681168283299,0.5595051663883926,0.5483831247053664,0.4994241510691522,0.5091823544330135,0.5398917853463131,0.5249280964445305,0.5422911021017606,0.5230498840022255,0.5398586786441361,0.62002288644893,0.5085636393348623,0.4950851247088922,0.5647910082299384,0.5928574257982248,0.5944742763456174,0.5692648315290877,0.4942569446797533,0.5570500805365827
0.5673915142053141,0.6198059361012596,0.6204747370661995,0.5701885323767119,0.5222607848989189,0.5529636524952174,0.4504179526521216,0.5221234578881073,0.5261681909555531,0.5271096762105806,0.5126257189936565,0.5239796687585027,0.5291819633058534,0.5430132001252458,0.5626049189492183,0.5407879152298569,0.49860549743282684,0.46411655382627526,0.5377576204424535,0.5236167709146882,0.5502006603000598,0.5099572206440546,0.5634801564509966,0.60986956039494,0.5181443665763162,0.47289766598611893,0.5268629615671272,0.5881581737036282,0.6190985580799934,0.5561919285628019,0.48372029167027725,0.5442260591205532
0.5769883855654139,0.6130629356834777,0.6121991288423417,0.5664707927000155,0.5279328096122334,0.5594732049644491,0.4829537034922237,0.4991585393050006,0.48888997509218163,0.5187179436935753,0.5106328385806258,0.5058915059808441,0.5149066065425513,0.5442603945341377,0.555780730530413,0.5252731467840996,0.5110142593081741,0.511804594705356,0.5276921067076809,0.5155752658141868,0.5065289561017849,0.49671837349667286,0.5602863768436338,0.6185572460675662,0.5189341477840007,0.4814326644495265,0.5560587220425078,0.5934582393003727,0.6154789784158283,0.5790739713738496,0.5024721244840139,0.5618250705890553
0.6018675146140864,0.6016018495141329,0.6247098095958681,0.5631186171104754,0.5294838198113596,0.5538128788138799,0.5185618553724746,0.49743738590526315,0.4897234211782708,0.5309870429360521,0.5132152967932048,0.521768416212508,0.493924373403279,0.5441679354750294,0.5580631504533398,0.5309203301669738,0.5015604878036539,0.5372101761439082,0.4717241751493394,0.5017504023642019,0.5068367084450969,0.47697824334646527,0.5627700449297397,0.6062927944879195,0.5144618675202861,0.47137221323831263,0.5380361051719341,0.588824250864401,0.6169755721891242,0.5786183640220398,0.4977248168882189,0.5320570865744436
0.6035575169430769,0.6074426599148918,0.6159765772052317,0.5635568373760311,0.5225150829233585,0.5317568340938992,0.5249531179379117,0.4688217291407807,0.49171720018943743,0.5145345624553141,0.4937080904474067,0.50251808848782,0.4955055779607555,0.523053751779242,0.533469965260633,0.5032595967778015,0.4982531985367795,0.5313917367602483,0.49386935279582156,0.49805914235372795,0.5001173986681168,0.5094083990456588,0.5603968992614443,0.6044459554196597,0.543383379277935,0.4727071126872836,0.546991462773598,0.5790154222317276,0.620521169775129,0.5872774346760044,0.4981449651786823,0.544365105074671
0.6118028086682964,0.6132056205160609,0.5831898130413152,0.5838798524129326,0.5543070731079723,0.5096758444220889,0.5039313262842592,0.5029290912177516,0.45723575667969385,0.4827601108577975,0.46187194006011284,0.4806363367239188,0.48050655167287265,0.49671254682509386,0.4961273015583242,0.47724168813233886,0.483729070835663,0.5166517999491255,0.47836179546639385,0.48708756547280135,0.49277957627597585,0.48524468881785326,0.5447917331451778,0.5987744291515705,0.55935201642098,0.48065557231636524,0.5856279826734672,0.5472411553766844,0.6008400607945865,0.5996405477717196,0.5324559765092014,0.5671782795496272
0.6081039751021735,0.6210142848619101,0.574594205933382,0.60126019957786,0.5228286275163264,0.4751550753765899,0.5156435488224043,0.49311205919379425,0.4856650438313884,0.5002853917134,0.47599093206390936,0.4921819878171148,0.4911049281246657,0.5172605840819168,0.5069261905737215,0.475558525467479,0.490215325280809,0.5029924602803447,0.4805001111083717,0.49167202261248877,0.5435546810087301,0.5067187862431667,0.5710667626778239,0.604823997193603,0.5592025903699215,0.5182874084407839,0.5836011057601264,0.5320336247998582,0.572153687115672,0.603127309937784,0.5506708285120451,0.5693448766315186
0.6103110796576687,0.6181669529251662,0.5692242983695607,0.6074915602562974,0.5272105897889554,0.4987836685190283,0.517793476222073,0.48624490924890895,0.5137756711113046,0.49613077144995954,0.4562193515653468,0.49220459926731785,0.5003708299885458,0.5034073339953926,0.48087541245923804,0.4543741737668337,0.49018019514364897,0.4954025086589546,0.5110712313502102,0.512372134809397,0.535573500175137,0.5200222575641672,0.5563376162551676,0.6145575897976668,0.5655142540280386,0.5515005007149079,0.5832670118120663,0.5418818792110462,0.5818050235830142,0.5937189502652648,0.5746839340635338,0.5383707006117677
0.6148639705994383,0.5987741711258698,0.5717639527174464,0.5780365491714802,0.5220993362081601,0.4733863731511232,0.5108646222439421,0.4804388260588278,0.5162966967305435,0.4996675805785533,0.4734869371119541,0.5071993668014183,0.4743130565295582,0.4953409863258851,0.48220249470463034,0.45735255929724555,0.4863386604359041,0.5112207475915216,0.47928652568020813,0.5060626072059441,0.5016952138739955,0.474501526255297,0.56320072841059,0.6073645661405156,0.5606339896272692,0.542155163322718,0.5798962022175596,0.5467077802753005,0.5805526006358229,0.5979739623674019,0.5354625178268082,0.47105387974830243
0.5915167184329961,0.5849707294093297,0.58272098064005,0.5615018919162451,0.4987570994997928,0.48500019278884615,0.5276352906310788,0.5083099428116047,0.5019475331462758,0.5014045483960763,0.4683082225392424,0.4969485861480714,0.5034284742219427,0.4932009631625897,0.4647875968741337,0.45281179947942424,0.4732458297865669,0.5190795179459968,0.5238102388666387,0.49872150006834437,0.5168689429028699,0.5101525895165506,0.5801587422518777,0.5893290274825991,0.570656886427047,0.5149189961653833,0.5790466840128524,0.5574120177295112,0.5817831289452855,0.595412134473584,0.5024739375829765,0.4681393567927201
0.5769893344547499,0.5930622364593013,0.5409687659837417,0.5735135876530902,0.5276696951565072,0.49132961861373364,0.5098610837780854,0.5150074593347664,0.4742743322860373,0.4891766877421318,0.4465542191549889,0.4781203452982791,0.5018649859888337,0.44831132955055,0.4309625958240266,0.4196512091675279,0.43773909632543706,0.4923690437470266,0.5248884749532063,0.4819748702782559,0.5128692705015392,0.5181699678891439,0.572850904226272,0.5748699443254033,0.559928364206757,0.5222046395082256,0.5740413313476335,0.5453329712367926,0.5799079050553492,0.5795064111442758,0.5469287445029334,0.47774113742700697
0.5715050679624324,0.5882206000566639,0.5601829280895372,0.5548668033913086,0.5246200542549455,0.48242841141052795,0.4976954576916965,0.5036885922212982,0.4816646974880347,0.48989290665906604,0.45371241074864277,0.491564897686178,0.4943099828742283,0.4557901431958832,0.439562172575764,0.4336449317731012,0.44566740669467164,0.4923611582842365,0.5264760346851467,0.5025060358401567,0.5247942125496795,0.4859011467461464,0.57735584890139,0.5875081118256971,0.5726682453861635,0.5068417831296168,0.5654620338243279,0.5385405568885047,0.5735868962914203,0.5851582902776745,0.5195819673771696,0.46003630276937085
0.5720448162652501,0.5767586073707194,0.5733741966688422,0.5638594605480013,0.4871462160666913,0.5369423635006414,0.4894255495958614,0.5331672807123056,0.4875102523575709,0.5377430048772017,0.48192757650010287,0.5239063442647881,0.5100062146493485,0.5053987233933602,0.4724239640916573,0.4596604545240649,0.45511874468762836,0.5019894310443586,0.5525016317409063,0.4944039978363779,0.5224749695814244,0.5031525600177819,0.5817730292062645,0.5943203323771431,0.5488626271489973,0.5319434479412325,0.5449063155499801,0.5376936967378757,0.5546469900296376,0.5614378012319311,0.52863855969709,0.4854153161952183
0.5735707632132296,0.5822293629774852,0.562021730127733,0.5616619620057534,0.5429025213514082,0.5352849549057509,0.5046683665279647,0.519597779863057,0.49095043183746395,0.5324536145224839,0.47726889143895607,0.504717394947901,0.5097222178399448,0.49366382657506686,0.4861387576856405,0.492335360911543,0.4682055223410383,0.5108341560947467,0.5379515254457042,0.4996798806599191,0.5104422783276479,0.48958836552584106,0.5741985859116135,0.6006073846985686,0.5496584454125936,0.5308275001274794,0.5596266731078606,0.5648137413860591,0.57775570069518,0.5765795512689635,0.5561252315267472,0.498103633518284
0.5534870252456013,0.5759893832261809,0.5603826991693167,0.5224093533879404,0.535709890981867,0.5225185662246724,0.5082536545201158,0.512104617384528,0.4925199058734039,0.49365855020688215,0.47270088279267625,0.47263346442997267,0.4862778740602141,0.4619055229562289,0.49812237035640833,0.5055254279012036,0.5167514744153249,0.5048111334660562,0.5271543310396591,0.513543488056714,0.5146724655515466,0.5184393596627781,0.569682328227703,0.5838314694127615,0.5570231485309612,0.5281434353862735,0.5554582994580025,0.539884658986522,0.5658696612532133,0.5466715967061289,0.5260920583953812,0.4932291494201481
0.5640559357271892,0.5785868549450786,0.545390796198538,0.5333674999289718,0.5115963937971407,0.5400587233422854,0.5171544304666085,0.5097290048211385,0.4736081830806979,0.47056271813614853,0.42039865572034346,0.41311525839848784,0.4490109153136414,0.3949442333579825,0.4491861117418598,0.4618676922269729,0.45314475551537436,0.4140210790083105,0.4332821498441403,0.46873032411397975,0.5042692493126091,0.5212136667304348,0.5826367055658712,0.5557442828125864,0.5606775631961083,0.5421834699993586,0.5698932009837322,0.5309858545689479,0.547464398995127,0.5050868509666426,0.552484483791262,0.5199207083896972
0.5545548476836567,0.5704268124244176,0.5388236639323281,0.5512706424993292,0.522040230541232,0.532941021154063,0.5119713032759236,0.4942383350019,0.46600131442895515,0.435504833599527,0.41674582187323056,0.38153406521693023,0.39989055906053855,0.3730045620449566,0.43330529330565815,0.45029450360600376,0.4339345501982973,0.3641922470965869,0.40539500865757677,0.48554894091344897,0.5169510577587056,0.5048315255410818,0.5795702381961911,0.5945088860619254,0.5513652245731796,0.5496853469996721,0.5927066940217388,0.507435798479374,0.5753064672446392,0.5347095208731372,0.5313028263194495,0.5252225215682153
0.5720382524882776,0.5672260643179388,0.5531980718968159,0.5458377385891803,0.4797712767699965,0.5320298554461907,0.5025972992252518,0.4823115639087194,0.4350252541790464,0.4534061276418081,0.4410740284725244,0.39693607202823256,0.3885295166563846,0.3725699345750001,0.42946937272816316,0.4411527980951584,0.41243633233398264,0.34767095906311163,0.3982195693708625,0.45249522296707634,0.5003410290550914,0.5039375839679402,0.5440123763852258,0.6036965628438193,0.5486665656953805,0.5328361270353831,0.5765577245084712,0.485894438467827,0.5468413980969227,0.5305407800537828,0.5073401309850347,0.5144303855685443
0.5817797964766499,0.5878118503588255,0.5601619021441876,0.5692670096396284,0.489757954303636,0.5346574944475949,0.5369093850463591,0.5188453916623629,0.435740476408711,0.45285840324255133,0.4303908165236324,0.37659835500441957,0.3710357293324652,0.3412315780834888,0.3983088430842807,0.4053854750213505,0.3632035688451576,0.30949510335379754,0.35755117554670335,0.40169982976130947,0.45562886070552183,0.4830002161437501,0.513230290678645,0.5931779477375818,0.5500903391334748,0.5383674636251624,0.571490015293452,0.5692571950643619,0.5758061286265553,0.5293052773229434,0.5205921057484716,0.5162110840355552
0.5738365716990049,0.5761931682262001,0.528053317806995,0.5441093750664427,0.4912639394991875,0.535854637929449,0.5359160763651941,0.48886044785338234,0.44130844732284613,0.4479643961643266,0.43531271103197977,0.3891479813888674,0.3917854938123061,0.36171361237918886,0.4193150744271943,0.4215160681371146,0.386882919142059,0.32204559817060924,0.370460329308043,0.42882254755335497,0.47848579265050833,0.4901951400110318,0.5259860880761541,0.5947605375455122,0.5566565447589106,0.524775209071264,0.5548414728133612,0.550510240640111,0.588984630150212,0.5452402492514946,0.5027053822873931,0.5168702585415867
0.5787368840842511,0.5826588190120064,0.5539633666034443,0.5554654137089743,0.4603688050540212,0.5437873701986162,0.5188226518314535,0.4853625736032977,0.44416851939549157,0.45771733535589265,0.4436875988604507,0.3880424824390723,0.3909780877286359,0.3512039190371397,0.40126364517970403,0.4112661767987539,0.3858832432908252,0.3147962504379831,0.37230065381020105,0.416906117432744,0.4714788579543135,0.47975653592357,0.5013331285758418,0.5931976597313641,0.5652341043421312,0.5328832658851557,0.5849392911919697,0.5320077329801891,0.5710531323406735,0.5171260436649859,0.501326821436174,0.5079557578446985
0.5731774429746364,0.5842617444806911,0.5641369304440659,0.5606033535840521,0.4589920043075341,0.5495303111542478,0.5404390621501082,0.4996010815363078,0.41914975227261075,0.4537304739155801,0.43309251933528237,0.3638462359286858,0.360631255958915,0.3251190592923597,0.3801550680343556,0.4026489631472035,0.3744836782210776,0.3087181972432077,0.3560106522690881,0.4081242018826594,0.44539618711310996,0.4712156022492987,0.4982518661463348,0.5931719223465752,0.5599554029402447,0.5296076798819123,0.5907150756342766,0.5561686594090035,0.5607036393533343,0.5352706947809942,0.48723089465318936,0.4719656225692812
0.5809965383714675,0.595577327078515,0.5604370461446421,0.5662168557329297,0.48302013263868965,0.5425066089542742,0.5225321013009873,0.49783859364421634,0.44724757564537393,0.47799873921674646,0.4734181197937147,0.40769007875267094,0.40727463110987866,0.37585586239356306,0.4362550568054057,0.45204999332485385,0.419248385244637,0.3316819138617261,0.38694986346724236,0.43264140489053826,0.48174493778169125,0.4936475651715113,0.4895172918128425,0.5953478351521578,0.5492483526573334,0.5388969891247193,0.5776270614967434,0.528363024892376,0.5792844994989682,0.5501228493496122,0.5194081457096335,0.4681705927232742
0.5703587400921547,0.6120964507867254,0.5731189205148224,0.5772443105026183,0.49277606164861304,0.5631771881638613,0.5257610110219383,0.5440615394895764,0.45164101330202905,0.4981184944509297,0.5074070326196111,0.4593678547480299,0.43975857553660214,0.43886411972100575,0.4936572638791709,0.48641895633011906,0.4505888595373457,0.35489427259526934,0.3919221298318897,0.40816333636262275,0.47058534094948945,0.5075021451645242,0.4654989290893971,0.5829095807517563,0.539467425982584,0.5120452160130955,0.5744388955004744,0.5933364728015306,0.5857941808470323,0.5556675591316508,0.5262342887131205,0.5221150594593721
0.5789110833054982,0.6275829193736273,0.5737533906676336,0.5849847491321699,0.5361795344419119,0.5449810892275229,0.5348711641262063,0.5588897330642265,0.4618211735280799,0.4943307118399775,0.503638570679855,0.4777684498907281,0.4557871550022338,0.4770287549917687,0.5117085150095911,0.49742185214276124,0.47432012231700327,0.398548652292708,0.41517107762047833,0.42340645860236165,0.48256923053439554,0.5067154142833538,0.4882966083679942,0.5822325125110316,0.5620427465481339,0.522479568710631,0.5987885114332208,0.5965380849694308,0.592386239034381,0.568748077169007,0.548515880926813,0.4668997582985133
0.6011073252248805,0.6167408746503273,0.5636743726074477,0.5975700884511176,0.513174713217559,0.5436543174781979,0.5222589336623221,0.5337292610419917,0.4673076741108094,0.5179148644993443,0.5020850036929969,0.4950210173843791,0.5203491963731923,0.5115941019071529,0.5359844552402453,0.541325033346955,0.5267513548768594,0.5037669273751912,0.5217289103716384,0.508442710111033,0.5473877290301707,0.5690526891641627,0.5259213491328395,0.585712875030187,0.5773114012955409,0.5271734148025738,0.6062477887191549,0.5812075136962934,0.602356923065855,0.581692290481383,0.5571807925697719,0.5007984276006119
0.5999773357180138,0.6085824487390363,0.5669870622423037,0.5799723409758112,0.5407615210526144,0.544087059773213,0.5205004793931057,0.5248006525417163,0.4656949579484028,0.5084038077848161,0.49547629869389526,0.5005642006479017,0.5554185360266186,0.5283112679285867,0.5442828205932766,0.5407971999863561,0.5371689507112561,0.547652077064792,0.5589189779549456,0.532104081432769,0.5419704442242061,0.5700821409186738,0.5444061482132745,0.5959916644100952,0.579130476664097,0.4936310026494502,0.6088530437932028,0.5801205701955834,0.5983418997847791,0.5986551479385709,0.5364277017180111,0.5141368772626063
0.6002368037002032,0.6077535959372966,0.5639903473733882,0.6090029098419425,0.5330435450550363,0.5326615581062375,0.5305310102782703,0.548739431349567,0.5305007685953244,0.5031754101887173,0.485391843248699,0.5153468502009216,0.5499409432850558,0.5280532692709934,0.5408418474407066,0.5391734504060035,0.5400858025890394,0.5356778942007903,0.5487165907647955,0.5431864957455741,0.5616244090877397,0.5636522785512991,0.5570732185001828,0.5959225215079318,0.5786615706428909,0.5220922523347463,0.611559811697479,0.5844032039693948,0.5886057771522641,0.5783549987028158,0.5521723291791917,0.46661036651253285
0.6148327346904123,0.5838095009370213,0.5473640809484084,0.6062566652826811,0.5190139507961198,0.5553684324556378,0.5387907912929382,0.5554368427310856,0.5270696028498245,0.5139464125376034,0.474378848303748,0.5008385020016918,0.5666801468091669,0.5347356218875755,0.5400658783373279,0.5518220195633489,0.5332677202988622,0.5595513934293739,0.5636511507125903,0.5597275151723536,0.5604736550205143,0.5699807339336672,0.5495042153434259,0.5819813417370739,0.5642257011556775,0.520779273874903,0.6189447267081588,0.5848299336026059,0.5994620470086935,0.6009550182436475,0.5460051610098174,0.5204412903993597
0.6228895733491551,0.6008787402855629,0.5659666306967043,0.5838854324579541,0.5529391413707987,0.5111987700377606,0.5380757442472003,0.5456999232765924,0.5152341820215768,0.5147098962153028,0.5060816588763702,0.5151007981645237,0.5577684387193134,0.5337891278956381,0.546986813006343,0.5399556387153982,0.5428253164951904,0.5450786089675771,0.5651224999397363,0.5563061698507391,0.5549292097757179,0.5689191728443476,0.5559878469234449,0.6034188799832252,0.5570425517894546,0.5192169539028157,0.5883212308278319,0.590643985390448,0.6234075101340582,0.5986075304671036,0.5455661415977758,0.5206021039606422
0.607425628815463,0.593940914377806,0.5509355161384962,0.5654352478147122,0.5153810987612861,0.5038747405544854,0.5502234616699255,0.5476574280181317,0.5356688896396188,0.5165151397600217,0.5049133550613911,0.5320884338057711,0.5588965006508332,0.5341220578198975,0.5344147058117519,0.5256760986014685,0.530503403732277,0.5413976733979006,0.5532941284404985,0.5391298325277272,0.563889472744562,0.5602161230910704,0.5438338500103356,0.6012558409359245,0.5643634487487669,0.5320218262062945,0.584953353463193,0.59615982150461,0.6108532620108112,0.5773292957520743,0.5400579960656557,0.5096000441707259
0.5744110873793538,0.5753270659394385,0.5365072123840863,0.5650196925160427,0.5127268513283973,0.4950289980753595,0.5663758956190642,0.5235191955093869,0.48913546258238394,0.5393944375611459,0.5227275105868658,0.5303834637653114,0.5513075216701907,0.5371210589168824,0.5488116206712894,0.5324938770063636,0.5409283175057852,0.509402101246961,0.528636304663659,0.5197309960892562,0.5476031335388083,0.5418792603828634,0.5351821061787589,0.6156349559204525,0.5529935099185376,0.5381207777986479,0.5724724139504995,0.5949608604043222,0.5689344164574532,0.5106321661833835,0.5196963011075711,0.549540783758876
0.5590750783023629,0.578723203841433,0.5356494675304311,0.5220934359380253,0.5097332672660411,0.47341561449425495,0.5661638170429507,0.5339747809793136,0.45489002076256185,0.5096375769370742,0.5146484335882765,0.49998692030071246,0.5197521407430037,0.5289072853975502,0.5298754684490673,0.5268316384856409,0.5214429438177205,0.4936495939411279,0.5262678110499277,0.48217714955024643,0.5253367820460466,0.5260554179288521,0.5431696196840465,0.6089383550189713,0.5494414031208615,0.5368725463347896,0.5720988467042569,0.5931051452525871,0.5374565121626161,0.4376859071938286,0.5191750502276167,0.5282710095373406
0.550075306812507,0.5459811250061813,0.4978210109663938,0.50907268000597,0.5087613204336722,0.45023152788498755,0.5724953372363495,0.5383079241765832,0.45358234677807674,0.5108049868043377,0.5037299407936342,0.5002962976461784,0.5256547329495123,0.5096993570139251,0.5118821555642936,0.5223736213943968,0.5111700252157044,0.5050149632082559,0.5038001953432422,0.46325074293806345,0.5275415549782786,0.5224693313415079,0.5462782409559743,0.6155669640541381,0.565911528004126,0.5366079168845905,0.5821975240810369,0.5652514223834461,0.5346959369810337,0.46972490032954445,0.5151194724212002,0.529381337946427
0.5622908140734966,0.5633662694752191,0.5144181701389544,0.5180169073033367,0.5132691434615703,0.47217483008521566,0.5280045203360115,0.5277223681309263,0.4600527549986522,0.49680230986469026,0.4793780948910077,0.4913374738620123,0.5285367251588798,0.48685954365174444,0.48800034019751237,0.5137637046034588,0.48688460672225925,0.48354047643517717,0.49007960149149304,0.44978641416274545,0.5165669046401579,0.5057502689745613,0.5467634874763675,0.6116227226455024,0.5514649542772548,0.5428227880482875,0.5637314962196869,0.5949367627858638,0.5297085739627397,0.4611148661202063,0.5165365198157505,0.5261405463790164
0.5481475379027767,0.5499281553517983,0.5162468968931982,0.5028512307904196,0.511302323943466,0.47575948131364126,0.4956450849999034,0.5518487597432661,0.46702747562983643,0.4906612540599747,0.4812788153338604,0.49168275516979354,0.5315129488543976,0.4786493362986406,0.48067382392860775,0.505753748103278,0.479794816237332,0.493101467227957,0.5001145461054257,0.44573755253160396,0.48550583030945077,0.5399593611629724,0.5426776497559898,0.6183812759889216,0.567887272048796,0.5344451740441848,0.5727050443468934,0.5666032006362934,0.5302393719373224,0.4435595667441781,0.5231956541071245,0.518846392493681
0.534128257992686,0.5440378327890305,0.5081420776019453,0.5142440630454649,0.5189155859810684,0.5029674532467832,0.5191934658782248,0.5536888388290948,0.46488137234000265,0.5077397676294195,0.47531504703601596,0.48976170055268525,0.5174952254644014,0.45795032119444157,0.4673792676016148,0.5002161863520086,0.45737491616352915,0.46978331562544157,0.4551726338312206,0.4183461603007194,0.46352856461784225,0.5119175513993596,0.5484038173825266,0.6212896405232523,0.5802744340447535,0.5622629906495679,0.5778650274166809,0.5683865657645211,0.5296418198414984,0.45482705196902523,0.5296738198319341,0.5339090010051268
0.5364468747350243,0.5704793342172683,0.5144000738203698,0.5123032040770312,0.49654280978353754,0.5227832289951181,0.5079665080253942,0.5371309064718023,0.48055221650762925,0.49666379551010403,0.47805198868295656,0.48340989948156754,0.49029937813369234,0.45586209964319363,0.4618204793557896,0.4809652821545563,0.4394857904097815,0.45270987689573566,0.44875286873615783,0.4275775294122653,0.47070759915919064,0.5059018584776726,0.552031321135604,0.6098392984032005,0.5836968410785989,0.5571473398452401,0.5626323515213413,0.5725950605036743,0.5300985114614539,0.42764289977529607,0.5257089398999562,0.514566656859487
0.5388222121102326,0.5649325023284083,0.5185284735600383,0.5204442224072897,0.5109954467828702,0.5158896670021135,0.5118954217956195,0.5523411843243411,0.46673206456509836,0.5051433484089893,0.4964938957612925,0.5038060943981051,0.4725297256811687,0.48070241861856183,0.48788592034252976,0.488587080327599,0.4526238763412752,0.4514628940759024,0.4465042936421438,0.430740403829037,0.4669746735389224,0.5076341591200906,0.5602817125538188,0.6168046168659124,0.590887724090272,0.5681434491091804,0.5962115997377376,0.5559141167234529,0.5691433661521945,0.4600561483885956,0.5372448080354911,0.5173408871493284
0.5826870230592244,0.600725351134994,0.5527133564726453,0.5595000268131984,0.5255134868890295,0.5405885288881618,0.533294929576785,0.5505869029667009,0.506779971163016,0.5148329654261724,0.48733808853638,0.4942536299656433,0.4633809822591944,0.46625208430434795,0.48199421511588897,0.48351161212659244,0.44310369020100565,0.44524296920516127,0.4344538072417219,0.4362230733389986,0.5041773015296409,0.49500267239572976,0.5419171938485742,0.61107985540222,0.5557063206928018,0.5556710272276842,0.5990332184503984,0.5900838538493229,0.5858160703157073,0.5480223893251219,0.5383308415358337,0.5122905690736177
0.6028366914527922,0.6031316541026763,0.5654413505044471,0.5800724121204642,0.5041481112079992,0.5734717767757548,0.49438721212406916,0.5588535904546457,0.5156872474937001,0.5184195074762462,0.5018066068646727,0.5132099207727635,0.46817177495599177,0.4680340097130143,0.48591215604745297,0.4878982250619602,0.46285469621036884,0.44864361805225156,0.4407284467131984,0.4536125554043847,0.48942985834432423,0.5064615755602389,0.5530121908211066,0.611221195433808,0.5700535244026598,0.5569134501436986,0.5941230983236018,0.609338469186855,0.5799572021836107,0.5277659580280417,0.5230785647234644,0.5169217733638385
0.5948234639271008,0.6030748060724926,0.577578178596154,0.5814500834032043,0.511364847926431,0.5664119500407966,0.5103175277236143,0.5679954984723611,0.5242589954381306,0.5291562299410018,0.5252349016707574,0.5269079285863606,0.44740360637198645,0.46818536891210616,0.4983942940374385,0.47843472071867116,0.4504007105263771,0.415638689081448,0.40277114592311414,0.40595618699869795,0.4518752427249232,0.47828619020631585,0.538057693080502,0.6124842307413797,0.5486696433453431,0.5658263493778977,0.5978476619016417,0.5927026054479898,0.57630011949793,0.5523983666008662,0.5271299108377429,0.5249128818951432
0.6024179015888261,0.6130293330373336,0.5743148734028143,0.5698782932918108,0.5389009102942902,0.5357438790270843,0.5245967657778664,0.5312658322936978,0.5289796596378212,0.5394967070884384,0.5211986634659626,0.5079363387990714,0.45923579368302925,0.4780026502751335,0.5098256982827095,0.4716906479759242,0.45314447114017997,0.43744229829418424,0.4110101971509814,0.42636173191295296,0.4580672039220467,0.49112361797809134,0.5080113120299024,0.6038154502673994,0.5149923852316163,0.55206808123652,0.5747366605217855,0.6171322150388757,0.5561214554501767,0.5349072714043754,0.5367473698399967,0.520326679816117
0.6146745751474518,0.60128437919556,0.5798647546521049,0.5773016867365713,0.5160161106922609,0.5003694949285921,0.510512814061516,0.5262994140251873,0.5195177497949318,0.5302935403825343,0.49896317213142305,0.529994451188747,0.4576676601986879,0.4871873780793922,0.515914458495515,0.4565733844037232,0.4497231774503283,0.43542923638691516,0.43032813692569005,0.4207237547357889,0.47017975631873593,0.48407739801860744,0.5553156259075556,0.6094510756358917,0.5314715874729848,0.5732943646254954,0.5713957764529135,0.5892801217908636,0.5713991529785948,0.5322025939764471,0.5312427970745959,0.5451898644764334
0.6044765719514921,0.592783020332898,0.578292914720387,0.5458123562401461,0.5349727692547802,0.5011749899824235,0.5124368341579,0.5131645281150915,0.5386434151199493,0.5154232361153955,0.4966671713171147,0.5306170798889148,0.47824955874956904,0.5030404721730773,0.5343878848771604,0.48059944931308346,0.45983342877975264,0.4466615583672932,0.4484690122565284,0.40764845875733347,0.4745850692770387,0.4974648533318859,0.5247469828552114,0.6107480798223146,0.5017534552589263,0.5706846332131296,0.5791646357044049,0.5882982169291237,0.5799004853412111,0.5537710006725877,0.5453815546552269,0.5101381842557737
0.6101902329056182,0.5874849818734478,0.5874900196392832,0.5230942131238341,0.5519958117901248,0.5111482559101245,0.5018828185032511,0.4993120321341425,0.5293082605490707,0.49315412283315974,0.4728935413831135,0.4981357781115409,0.49132590893862066,0.5003128674221634,0.5130259854015021,0.4764712895179281,0.4775411964222508,0.468953996793804,0.4776787002539741,0.42774142768301965,0.4640167089173726,0.5178523692641928,0.5397451522233575,0.6083779703470565,0.5096999217474341,0.5573210439392375,0.570606855863247,0.6064520072280035,0.5550996539321112,0.5206820841063444,0.5370722027337478,0.5097193892052846
0.5957464693933104,0.5962627194748729,0.5860026547973335,0.5412880328077937,0.5465513174852255,0.5044492451605491,0.47282498428764347,0.5001830698986648,0.5481112065969351,0.5168875136967475,0.490563451151551,0.5242448438427649,0.5249213473269453,0.5108919680431422,0.5238898898161175,0.5041278082150438,0.4912369505384004,0.48422714725718646,0.504072500219618,0.43668516712268896,0.48912057041915125,0.5164320916740304,0.5513733563268233,0.6120777029776789,0.5566620869484581,0.5738235353764308,0.5687408576818169,0.5878165854296253,0.5477612901360547,0.5408005572868421,0.5494344074261639,0.5321214791605486
0.6031115904239147,0.6004824450550479,0.5881210251435334,0.5444706147779549,0.578280305241322,0.4986346079247355,0.494547024428354,0.508352067397223,0.5496633658678916,0.5258522610342365,0.49242067159390823,0.5193277273965421,0.5289275044264561,0.5129765482501769,0.521437850428994,0.49233330759282107,0.48172529306095957,0.49129893239987465,0.5113524015188458,0.44301711318577874,0.474685869494423,0.5506336181643549,0.540264327831373,0.6159489065053663,0.5381823020914863,0.5797861755925832,0.5857237473416977,0.5727370773347619,0.571148018378863,0.5617789436070956,0.5616597990884864,0.4953379770937423
0.5991096985941822,0.605261772457148,0.5662680594142433,0.5372941491864095,0.5881212728636168,0.48422645771961853,0.506764356763588,0.5241671605970574,0.5311326385854884,0.5391472776507581,0.493662592547648,0.5227115721875707,0.5206418929754376,0.5217887017517838,0.514084517754066,0.49160095712931917,0.5016193045010695,0.4858451717813644,0.5054948362329125,0.4603903748640146,0.4567895891669693,0.5281757226388456,0.5464222785274955,0.60399041893435,0.5532727625114173,0.5843929971340148,0.5854773197685312,0.5769584265389207,0.5575575327741673,0.5454161815189015,0.5633796416909578,0.5254520997295236
0.5867703677555239,0.6092796401626969,0.5485824728921163,0.5386461448517973,0.5623167448656066,0.49304716483027355,0.5006204252986516,0.5242873981981699,0.5212107955758347,0.5193899103958413,0.48579917324346644,0.5352434126718898,0.5287583968435012,0.5249639065002665,0.5030133845473304,0.48715291098476016,0.4871985245274243,0.5037430969294752,0.45997947889268226,0.45446397163599644,0.47399924803422067,0.529695707665138,0.5494553061840073,0.5930397844717187,0.5659951833479404,0.5747278851857066,0.5695219744779936,0.5732265663711914,0.5311298497687656,0.5370025218945148,0.5637026973667908,0.5204598118906291
0.611151205092471,0.6141826912995457,0.566176616741087,0.5513876170467539,0.5508041300369946,0.54213466505448,0.5459999710234856,0.5566225456669993,0.5256541638363135,0.5231708005707794,0.48697611106194716,0.5492900744938831,0.5407539415791102,0.5076667098074225,0.4947247091395433,0.5043035150376655,0.4871030045288166,0.4739395963406854,0.46363921045096246,0.42620852378442986,0.47065333097697515,0.5202419837702021,0.5533318955078356,0.5792945193349438,0.574311602489864,0.552662577049858,0.5868146654018054,0.5785403034835988,0.5784798127265527,0.548256616021348,0.5623151948113507,0.4883004782131409
0.6038902764688413,0.6160150574614958,0.5549135966812899,0.5485843115785559,0.5535859149346096,0.5243689402499158,0.5366393415395404,0.5857137655700455,0.5185012473978947,0.5261918252920648,0.4670894854839887,0.5200210841963449,0.5244619912868641,0.47952037911187045,0.4804317738356401,0.48625699130851036,0.47224539358037776,0.42890754681035503,0.43183756614112695,0.39400028612504223,0.4578454398114338,0.5085807424961502,0.5078053422459669,0.5327159026453794,0.5909632584544395,0.5417955914328185,0.5598277443823526,0.577129649130629,0.5563030981524011,0.5439698911992776,0.5529689476519971,0.5301051059205321
0.5932227878132632,0.6094446446022065,0.5355429031272705,0.5792124569161812,0.5537236575203052,0.5169030379239151,0.5222334276433009,0.5586038619710735,0.5177976971397954,0.5037844570785828,0.44237981017352923,0.5260995938073203,0.5141003751013083,0.4531118964361268,0.47684139525228925,0.4800132327730877,0.43955871660360124,0.39691776680639324,0.42347103402721836,0.39147667062879,0.47135032251885917,0.5224414327753445,0.5147108845005276,0.549172828622819,0.583267253721668,0.5418945145309129,0.5870534767990012,0.5560808860976255,0.5600824549562213,0.5251749704623205,0.5616574027528526,0.5216249539955432
0.5999420402651222,0.6163634290127719,0.5472019061341937,0.5791151386171451,0.5766963316668865,0.5124522667739074,0.4877478739308815,0.571881112836958,0.5119280971715122,0.4853821251193045,0.43933584447670043,0.5255482413186412,0.5098119336278404,0.4580746545506513,0.4839658070916517,0.4732529869483374,0.4633164524634631,0.41751131023549165,0.4240887565016387,0.38060823994414517,0.46416334671050835,0.5200218738847849,0.5086335609100748,0.5341993487915921,0.5493738116194976,0.5418947552399086,0.5628201996619784,0.5561506429939828,0.561432142563747,0.5329037232895039,0.5600024662771108,0.4855692862992292
0.6053942559823023,0.6096979563729802,0.5319803746673157,0.5232868564953975,0.5706231536011777,0.5102660062818383,0.47245909452971313,0.5621379908511401,0.46925379797844974,0.4659304907084025,0.43450476093740426,0.4992494151991319,0.5041936884488833,0.438877464803807,0.4504748709533904,0.4391451477807048,0.45591762494254695,0.44685858134829465,0.43640275061192746,0.40822487436150756,0.4736815372034478,0.506781415800134,0.4941736727151438,0.51656810636225,0.5321425651443561,0.5363996233314086,0.5297534866744738,0.549250970548003,0.5247806104084982,0.5142802692341973,0.5701423232222931,0.49363071154012494
0.5976174783365734,0.6084486859896477,0.5199070752021998,0.5009712831758502,0.5065480625230026,0.5176623471268308,0.47954168579957546,0.5340166120424429,0.48330287446430936,0.4587477223526741,0.4202186216248171,0.493858376123073,0.48041842230134496,0.41925887996092115,0.448857809179004,0.4508441231889544,0.4452371239420987,0.43093360533828057,0.43097284098093214,0.4070318431451678,0.48684298978341894,0.5010646063652381,0.5289062442029444,0.5526859504885862,0.5650707708723594,0.4995712340817694,0.5509025331905577,0.5619226349992165,0.5666953737318168,0.526851458430336,0.5399328298365061,0.5293337972285369
0.5982828455046869,0.5996106887653398,0.5602779825957147,0.47847957196152,0.5064318111263536,0.5175494938218437,0.47692994986355924,0.5305123899746538,0.49678786706517414,0.4752298195928791,0.4330472514651667,0.45834589157986705,0.4630313502945747,0.4133609495013443,0.4320855242837573,0.43898333093428404,0.45130839508557274,0.43901002839301706,0.42414436348956563,0.3842816317538945,0.49217263454480226,0.4819441839023266,0.5147680600553762,0.565738226836337,0.5204160412268477,0.48974280596724645,0.5282845764057149,0.5547406442277002,0.5772518244257587,0.5386486125241958,0.5148185395486611,0.5064243706103146
0.5984595945481204,0.5990444108277228,0.5452210102110091,0.4576642011198652,0.4988737445262925,0.48714471685920085,0.49198656435926164,0.5349666081840045,0.48983391518779135,0.46852888407909643,0.4438429326014155,0.47909606040439817,0.4739637361785056,0.4382372739771865,0.45590242961587585,0.4658959755053673,0.45179152436445186,0.4355869042194357,0.45210362122517334,0.41041805344151144,0.4871632227105869,0.4963962592570297,0.5227333636581621,0.578292100858906,0.5263017421628149,0.4925184001299069,0.5140666143473605,0.5707503480415359,0.5759126871924762,0.5452846487841158,0.523785590405187,0.5153017814277219
0.5953085250157775,0.595782113655375,0.5204761795022678,0.497435658092959,0.4823973551190249,0.4947012299993754,0.433652117647247,0.5147502206728667,0.4963460400327074,0.47078328777332473,0.45093027371976946,0.48463512215391863,0.45217526887531295,0.42891214820946455,0.47103630699401916,0.4665012742448367,0.44781083933056354,0.45028947331527086,0.4378322709158624,0.4136825895889158,0.477303943738619,0.4829391587779741,0.5087608788810889,0.5896977281227436,0.5073025591819444,0.47425903426782706,0.5220539871320663,0.5794345429026136,0.5658341061755541,0.5551870196129212,0.5023054374930832,0.51236567375834
0.6088961964953515,0.5996486517091262,0.5391497692683612,0.45740233475817355,0.4944651629523165,0.5055001707300351,0.46878751509559097,0.5148157445884127,0.4793506667416307,0.46735305881617445,0.48070998057388914,0.4944603829361708,0.4703583915750827,0.46389973789884664,0.49162732209361054,0.4631270853960381,0.4838837851698449,0.4697652537004433,0.46489787289638235,0.4587050828374128,0.49940917047913863,0.5038884242939794,0.5427334957407206,0.586726133432194,0.5018426296761556,0.511426848279087,0.5109815724880659,0.5851273097615256,0.5733432124524988,0.548610952291664,0.5026988503940547,0.5061166403711173
0.5957090880883839,0.5981541936394847,0.5173869923560354,0.4787444828405736,0.4876231342010405,0.4895019678558984,0.5062748740889306,0.5008679789206296,0.49800725739073637,0.4462730433784826,0.5016051288043105,0.5102669911959626,0.4736728671478363,0.48083374444958277,0.5041495815046441,0.48354071770959983,0.48553490343456274,0.48912299217170463,0.4815561387598286,0.45155302795390023,0.4893044842286632,0.5078546751397827,0.538403285095111,0.5953260073752349,0.5433651357977637,0.5265761489224176,0.5268861797975766,0.583825443424292,0.5848360098907619,0.565741102042639,0.4921580291524745,0.5283645955087893
0.5840410408309479,0.6029502212798392,0.5328880762470543,0.4867984603775338,0.48612058715339285,0.519448439550203,0.5139118438107275,0.4995031731848285,0.4864178925704424,0.486693596944119,0.5133435237874721,0.5104702727002113,0.44827388615703234,0.4798670105725796,0.5061126394059955,0.48706567223119107,0.4737817514826967,0.47909841714554746,0.4631463418939104,0.4376384350597056,0.49288087309877054,0.49425086687314645,0.5376977814054644,0.6102985962219045,0.5577970851856053,0.4939930623690646,0.5519153765639615,0.5857168920133575,0.5888344329786004,0.5763566666462973,0.48532903465485916,0.5342540115630823
0.5679602573934437,0.59338736998498,0.538961953335576,0.48295411734464766,0.5005839731436798,0.5111863933567476,0.5195375789705996,0.5011583578794702,0.4776021867301106,0.4976684436199437,0.522479073840799,0.5119430266495276,0.44975829327348,0.5112084112989601,0.5439261390010179,0.48944474975655516,0.47066723541196537,0.4609825419250623,0.4509588966514499,0.44538245328822434,0.4841566706599479,0.5043339068774773,0.531745724082314,0.6007414969377927,0.5532683048064432,0.5401031755663351,0.554734681360594,0.5817378903387997,0.5759860919978635,0.5463229885424837,0.49328311845558165,0.4932401843990831
0.5687349489290517,0.5915258757437059,0.5056242010828045,0.5345570644811529,0.5021498012378308,0.5171761323946893,0.5036373144059109,0.501225721101073,0.5083760860928436,0.4897292803811978,0.5330146498788684,0.5199768420283313,0.4760513181794178,0.5079631500587776,0.5321248011096276,0.49730930096006015,0.4490774657238757,0.4594705564279399,0.4550285507268826,0.43121824521693813,0.47459186459266733,0.4902888525655844,0.49647077138049917,0.5954445418738781,0.5399886518084165,0.5359867725354098,0.5619749916554978,0.5847069399678833,0.5651936685978292,0.5672965832211061,0.5128227575434662,0.5087460005297452
0.5531826253110731,0.5870416636842777,0.5077788182892886,0.5495199814417566,0.49845477251990794,0.5360586724458473,0.5218936305514479,0.5212074359540888,0.49033485191941373,0.5057113082255188,0.5277967676580363,0.49541705212219955,0.4868456647686031,0.4819210097020762,0.5418199359407311,0.49826202269149783,0.44279191755536035,0.4487597599492023,0.43229423529774547,0.4286910362465338,0.4599371780816995,0.4985744695528462,0.4972512082270922,0.591122914548956,0.5230034887095087,0.5364759319600869,0.5852220364094246,0.5815045261053967,0.5644337482548899,0.5438093684017969,0.529090254651804,0.5413325206239279
0.5630306567656864,0.6047934457883198,0.515047364785082,0.5268732347380903,0.49065113337635957,0.5118541552579713,0.5166300817478202,0.5206097136765329,0.5075896924518551,0.4919038562809121,0.49921526688901846,0.4734202992032229,0.4753396094872778,0.46082702968507555,0.5276108532682864,0.4920715464652182,0.4216687494407178,0.4386369874364574,0.40748843418380926,0.37785107398190293,0.42128016318988837,0.4766228824068859,0.48483379209441774,0.5857549231429499,0.5278615077894484,0.537308505611592,0.5799754231011972,0.5954461973419259,0.5772284043965986,0.5501834926089341,0.5154028884220229,0.5271547295471828
0.5517628072393306,0.6053128819601304,0.5179565103133283,0.5399632008706192,0.49309633409864745,0.5227419837481471,0.5059259963937757,0.5118397411622104,0.5123363191321573,0.4631453233780475,0.4347458484821123,0.44629621985214907,0.4538500674963279,0.4364218417243301,0.46802436482384574,0.4404406262197434,0.41062349299507345,0.4047859316451631,0.38039695785973215,0.3530224038722638,0.39456174295326424,0.47435152222552074,0.48414236629795154,0.581622024226432,0.5083215711895552,0.4998525416576739,0.5784035266683607,0.5855572633634953,0.5767685160426023,0.5448549242151043,0.5071874027729286,0.5142443447986492
0.5474712105261129,0.607900684562665,0.5206613044075205,0.5206603667768164,0.45056191762053666,0.5407164702178746,0.4823593129384554,0.5166211134998197,0.4668193490806146,0.4194178214712101,0.37103522721718585,0.35830075437453396,0.3983678554106593,0.3534795845055781,0.3997563815424169,0.40346734299378967,0.38185693599775355,0.37514173214300695,0.3701696383092238,0.3458140482089275,0.4068578256556967,0.4862245256407437,0.5044858576984587,0.5943668527628517,0.5061916871585663,0.49691791654173423,0.5616029907254017,0.5858590240148482,0.5795196124294301,0.533205384144443,0.4746989060558332,0.5075249981989706
0.5480164755969369,0.6048210975858763,0.5073705684152867,0.5202589884223754,0.47373782633963213,0.5318329376223682,0.48025793627382357,0.518516287900009,0.42648702787345105,0.39932239083005105,0.36116258846760607,0.3236886550215079,0.35023134272290957,0.3154181485966206,0.35310718232086014,0.35981035617802665,0.33796867917501305,0.3488920513930686,0.343808075855692,0.33068394466102863,0.3806928613879113,0.4324649892868515,0.4894716673277347,0.5940120558973467,0.504106629884373,0.49821273391475024,0.5636254598219514,0.5960356741115438,0.5831742535373698,0.5302847153140845,0.48219649158953404,0.4916756931675572
0.5573013250760357,0.6167552181702932,0.5193826108084661,0.5268116872433736,0.48603446424512237,0.5299226673443667,0.47385050437556525,0.511190742260437,0.4456468375444341,0.4359270417419298,0.3912354647148461,0.3581471788830163,0.3969595260350871,0.35902306262278394,0.40857982234989,0.41386076956162915,0.39657581077819526,0.3865509455356557,0.36581938331808617,0.3707419352057721,0.4317080352326158,0.45966232122838835,0.48304212893086984,0.5980024437174267,0.46710537406341646,0.48572552675338887,0.5437514230025817,0.604677900541461,0.5751396859162363,0.5154255238637001,0.4882848342896737,0.5161479572010889
0.5544821701370545,0.6119910675487775,0.5368692892840031,0.5208556799495372,0.4829241523352784,0.5394764490444202,0.47039505109059654,0.5057561456892817,0.43768663914299,0.40036591641648017,0.3662377942764497,0.3436975294639345,0.398400973454648,0.34616991424854077,0.3767255429839023,0.40228174169218134,0.37993626385268287,0.37535086202349194,0.3777226298365009,0.355919823662008,0.421284369881043,0.44741869161986614,0.5154240154150297,0.5938644585969348,0.4945880015508147,0.4793430057678772,0.5446171506848958,0.5934627823755833,0.5876679975413323,0.5392683493305972,0.4819741159743904,0.5260401513164552
0.5616506570637526,0.6197560503408419,0.5666422197267099,0.529065891950303,0.4887962320876808,0.5479523928507287,0.4766235300777257,0.5199030831924734,0.4403025433682641,0.41919005272623905,0.37050253285726026,0.35962485339155864,0.38514475681572213,0.34914754930566744,0.3704308036546783,0.3856544758270929,0.35804927247804724,0.36419574528567994,0.35731337827310705,0.3547878836750701,0.4236652965014803,0.4385198048930069,0.5058572612934739,0.5919117059807847,0.5182364434729426,0.4925432768308717,0.5359378110653705,0.5967252489474181,0.5985427647523626,0.5421245071443502,0.4864027356870746,0.5220343022720325
0.5659954879074316,0.6184385008613016,0.548175467822901,0.5188178484215676,0.49196002913722386,0.5522334111250642,0.486097894443446,0.5150469823001649,0.452548740002199,0.416351629195014,0.3728936297082056,0.3901096274628082,0.4393205157963508,0.37062388349302094,0.3854989176937531,0.41570074084273184,0.3713620572300002,0.38031587703256936,0.38695953756641105,0.36162195710318273,0.4384363773871129,0.4855925624949449,0.527901980102481,0.5941290169521901,0.5073716087963974,0.503800342785353,0.5350848537681079,0.5945777191733124,0.5859919167660798,0.5636084556408602,0.4779631882086363,0.5246318082217513
0.5629656895030652,0.6006448877535722,0.566507196910477,0.5139988255711786,0.4958666037468856,0.5564584233978707,0.4969107472663871,0.5400224484905577,0.43012420090721937,0.40268720423519005,0.3531495679145152,0.3569523310744965,0.4209334729718281,0.3322959573675149,0.3354224325654798,0.3856196362438361,0.3320158951088469,0.34470503957386633,0.37647791689077176,0.3572446099906271,0.43690469411739963,0.4740378141834254,0.5199790214695212,0.6245576792816157,0.5297095512797246,0.5006855531590353,0.533487755696133,0.5744247167336884,0.5902726943591657,0.5783629750806819,0.4833190694630489,0.5351751451270641
0.5584217458978142,0.58784211548178,0.5656817287424448,0.5407926555315172,0.5045852517079844,0.5522378238090088,0.49876546964991747,0.5274738792312891,0.44757963477610146,0.4522082510783767,0.3800414787815195,0.3748990171291465,0.42124142572286943,0.3384844233002105,0.3448010105002162,0.38964639940685164,0.3487302896308467,0.3499969511833085,0.38313316392471664,0.3829894352136721,0.4498487491049043,0.48065917575124534,0.507922800110457,0.5966925086196183,0.528654130478619,0.4946244416069394,0.504460450340996,0.5989923839790579,0.5994067918987057,0.568393239063312,0.48585795497361356,0.5757746500609805
0.5719592823220795,0.5943842252703355,0.5847789802236407,0.5430548912571294,0.5080057492882228,0.5514310368600939,0.5359087044506885,0.5316119924352202,0.4786990518265157,0.4457107320652896,0.388253897421931,0.4153837810908791,0.477343295033137,0.36102049068575814,0.35864605247907194,0.4053778054012921,0.36143955795231236,0.36606933823639787,0.4132411973895307,0.3871826361540946,0.4393669930127328,0.5040711682310789,0.5236179510603195,0.5604236481943058,0.5385477259379778,0.48665587029336566,0.5146564074385512,0.6058959388026325,0.5885875901595715,0.5800537435257458,0.4870979527811785,0.5878044545005529
0.5700105714693396,0.5702085556596191,0.5911382048410717,0.539028983169284,0.4999980947819445,0.5319947371934916,0.5112151241584524,0.542899868128408,0.45666925323191215,0.4306944745926629,0.36769536408909753,0.38381201928964276,0.4675810795270498,0.33649188615542774,0.3409228653613724,0.38582012282223294,0.3595851595308284,0.34317901675874357,0.40621990504422706,0.39368763847028954,0.4494308446007147,0.5149021755529314,0.5234118829239801,0.5714018500245218,0.5316054224847861,0.48030039157878607,0.5126647885258394,0.5787887284859612,0.5936699777555298,0.5607099551646862,0.521039060479081,0.5808854369143522
0.5842782168118323,0.5870697303070604,0.5968564438840644,0.5575587379870819,0.5173527561345274,0.5317859910553548,0.5179714469399616,0.5525609622659299,0.45680963488094894,0.4440871803094944,0.40091611270955346,0.41092926636529825,0.4538472746415933,0.33284270270985183,0.33310668165528756,0.3729147140862459,0.3476801179869611,0.3413797147895722,0.4093455639987124,0.4086335123635556,0.45647427347555913,0.5052283179989319,0.519806134103043,0.5828016042302553,0.539044735510791,0.5163507228949578,0.5099544399085097,0.5563610321859908,0.6000858602325987,0.5384367944432987,0.5166446903231527,0.5814170997310206
0.5695484604131575,0.5961843983287531,0.5793967112607801,0.5234197685400197,0.48894643166332624,0.5248423456986537,0.519964462345933,0.5369026907955976,0.4704520623923558,0.46663101324433015,0.4157815642568013,0.4419399030482357,0.48131130828826924,0.35013786498139293,0.3522553314757981,0.39743253365428194,0.358969113486869,0.3568446885410181,0.42822445583342317,0.3915071888317942,0.4605879789987288,0.5189568681998845,0.4867944659787279,0.5665747971955395,0.5329867938881504,0.5205383818723188,0.4945995619491026,0.550165941106233,0.5981997056637457,0.5361101949736864,0.5240887801449498,0.5644514561097592
0.5827940215364021,0.5752681562667624,0.5683013816189996,0.5433134378746789,0.49773138903569514,0.5092058365790002,0.5123039130536393,0.555217104087549,0.45342926161960073,0.4546881045895222,0.40681722910944257,0.40659555811868975,0.4603675206049966,0.3386677864169376,0.3488299092000223,0.38921767464397317,0.37013603620477886,0.340670970137026,0.4233457612392739,0.4111230900350193,0.4615919524033276,0.5120442429437938,0.4931271610655092,0.5885588148561722,0.5318372304643284,0.5063224032275291,0.5130311592930045,0.5574367728390958,0.6000175984110474,0.5206720265956186,0.5468725140914379,0.5603631858805235
0.5826766336081324,0.5978754601367173,0.5665792260219448,0.5609151151939084,0.5220262512247507,0.5382020187284049,0.504444168438876,0.5476722295608704,0.4672487953997587,0.4793162874632804,0.44048292780862397,0.4218583811681141,0.4294086199839305,0.3521224408888534,0.3739353886558788,0.4011721356834523,0.39225943279213704,0.37512147536443463,0.4232209545698635,0.41970722760529433,0.4541372927688778,0.49625299995524336,0.5063995823814003,0.5627664977531907,0.5480515627511519,0.5541800629863944,0.5380662060131658,0.5658189615725772,0.6125356569425298,0.527159102699909,0.5481593805051248,0.5379153773497688
0.5737638539046058,0.5846568906624179,0.5364974296599739,0.5626684762740972,0.5001138769056044,0.5128185971636285,0.49532985624404213,0.5250718734203066,0.4644148225279386,0.49726025237073673,0.47695127707560064,0.48027801858947233,0.4780319612428752,0.4124640838024371,0.44753973840905314,0.4491307594353017,0.4513017844640176,0.4384964858399651,0.4678774541618805,0.44747021239359847,0.4839947343056748,0.5121393114766641,0.49823092621471493,0.5656575605024732,0.5471759753694219,0.5605863162529418,0.5559612591576147,0.5610674572722917,0.5975367113435902,0.5053570257345675,0.5506281554098741,0.5108283856517363
0.5673322146429761,0.5897081578294824,0.49965217421269115,0.5570250314491867,0.4967577643083634,0.5271698949995436,0.4764272438219055,0.5583071701944603,0.4136227069232799,0.4758319231912237,0.46342205582045626,0.4669148681712865,0.46533860892605183,0.4212551928402745,0.44692903235711284,0.43805351836856554,0.46595556769606694,0.45376658786956287,0.4864486641979758,0.46762052495243267,0.48694135949411704,0.5090096594610726,0.5153624395783947,0.5881253311549784,0.5501479099270936,0.5668086159935471,0.568576055861506,0.5535549208441415,0.6009747327641376,0.503605703710163,0.5505661476089092,0.5137006909954259
0.5629319529209433,0.587365059881889,0.49559385170915743,0.5390790075372256,0.47369326713929516,0.5347867563011444,0.5035635609936782,0.5092813679075874,0.4666792597186049,0.4911418047702171,0.46468604901748306,0.49791364134740906,0.49305719318964797,0.4665720933460912,0.47885427670415215,0.469726856451818,0.49210281616430246,0.49685623872300305,0.5196168908717022,0.4758776331222529,0.5196986419348635,0.5303229257381727,0.5219516629763951,0.58662327322289,0.5591104325840774,0.5514988974576098,0.5668301961490348,0.5425818109193528,0.6059481502180991,0.5123428302910561,0.5128767936793683,0.5197549115574449
0.5515413831894211,0.5789298758891995,0.4998217742221563,0.5447938981408701,0.43832046596977675,0.5089381382846809,0.5070697530272185,0.48093355195490545,0.4717411665859837,0.49869297666831003,0.4864913331515584,0.5256320559175938,0.4706673328817624,0.4894501804629995,0.5002559173824328,0.42513164141816234,0.473578577119944,0.44814249878019735,0.5168931899350724,0.48970725990526165,0.5113436726571065,0.5289039103268388,0.542946056596053,0.6061678657470815,0.5866206247280091,0.5423438070704748,0.5926483661354006,0.5797492302178484,0.6119613714348201,0.5402618337554277,0.5025609082655877,0.5020248364104737
0.5311793390849937,0.5654363970515452,0.47919164343567866,0.5468707542945556,0.46723272676658717,0.5126149009689186,0.5070951676089764,0.49112565238960576,0.4300191346981339,0.44883604528892723,0.4501702172486492,0.4539893480790219,0.41045364443726856,0.41293364219140477,0.4300097101975053,0.36750485585150455,0.4486414403865587,0.37970177631283486,0.4817196340968499,0.47474063238077935,0.49511554828169346,0.4800714051283952,0.5578140436335977,0.6031134669849277,0.5781263345484213,0.5702797224762647,0.5954571218351652,0.5899455835884626,0.6096064749757635,0.5759387175656444,0.5268137532631643,0.5073372016223126
0.5368021929208397,0.5622383188462905,0.4750800853495453,0.5381524427884995,0.44167461598709046,0.4924579904078174,0.5232109029961535,0.4386926361905152,0.4592064128990475,0.46849542116832293,0.47642552507626723,0.4912237840362742,0.4469412960565196,0.46095809005221206,0.4637032768768297,0.4294201653642039,0.4708452824076912,0.40749726181596607,0.4890697970023249,0.5010611080452082,0.5137233875649375,0.4855329648827468,0.5368372953742122,0.6033678197226805,0.5680158193250345,0.5426646581261934,0.5831952996384869,0.5991459346377006,0.616729566409424,0.5413140806660796,0.5152361531840602,0.4828195123772515
0.5490732560807493,0.5602736550355641,0.48966251833337326,0.5199766215343837,0.44443366328812905,0.5035258526098282,0.5248345953987384,0.43770671398966643,0.4490934093196738,0.4900655795677412,0.4909843562066178,0.48865214170316734,0.40943380213142877,0.45455333532801545,0.45421391154991514,0.38888038793946195,0.4477423048192882,0.38492507087718814,0.47695723259662637,0.478496554689812,0.49543738797792697,0.45563155261844407,0.5257250896888622,0.6076600371546281,0.5674514436926491,0.556327547645861,0.5915835532168042,0.6069912195130042,0.601818680888691,0.5560831191802466,0.530827299221525,0.459781272844617
0.5406976718903005,0.5410678585433483,0.4985969225090374,0.4926582311996219,0.4168936902633644,0.5143008395601013,0.5367630257495789,0.45151282460700526,0.45485400381274244,0.48408848925079107,0.4841403171730907,0.4742038951747783,0.3891642681692641,0.4508454393337579,0.4588411695976557,0.4204172747374942,0.4974730432889384,0.38218227333173604,0.4639808299747398,0.484627012056312,0.5026371766671379,0.43412160425940577,0.5137323812845624,0.5960768470606426,0.5592554718458667,0.5494014473493845,0.5755685242825693,0.5963910451757176,0.6111566123252329,0.5441855826708709,0.519589887509825,0.502527276887955
0.5635781195845506,0.5720874868037706,0.5257593353398565,0.5307530590487235,0.46415948659618905,0.49087504235083146,0.5124685612045008,0.4254324327667442,0.4807929302303408,0.4799235812578178,0.4900037942916936,0.4986740278235919,0.44375777950684236,0.4875548064728755,0.5011852639782949,0.46635051136297556,0.5118400215860129,0.42597030627389426,0.48918323679892767,0.5086252787233017,0.5157414476658265,0.49249003482792486,0.5164172414449598,0.5873318343002959,0.535680219087521,0.5237578155902768,0.5717461525870768,0.5886061414946476,0.5981670989677731,0.5275175469163006,0.5023341708503027,0.47668387498024717
0.5825615255168899,0.5643241731279738,0.562898149974665,0.5149240077288577,0.4897022099069362,0.522100966349648,0.5070229045510634,0.48602548833500914,0.46356438406701267,0.47661929709190015,0.5011635886869071,0.49884029286370635,0.4528414370565261,0.4910646153138443,0.504000465941426,0.4492654691687846,0.5179699077040726,0.4193985773617844,0.48201553899565314,0.4808440840559736,0.4860109212749198,0.4710105445800333,0.5078491294525774,0.5854173968438133,0.540908305158491,0.5795184263494835,0.58266532750437,0.5721243601274444,0.5751180704990142,0.556939540283333,0.5556133686542858,0.4985770961681457
0.5837995913764706,0.584165198333928,0.5776267325977014,0.5221472889874655,0.4511256300340333,0.5135026929449248,0.5244450029140316,0.48410869392840145,0.4731049162922424,0.49784399948643293,0.48840749142290185,0.5096222274060309,0.4685909210320717,0.49791016101430036,0.5213297644464954,0.5067233038066418,0.5336353790910897,0.46039681369479346,0.4794186889605851,0.5017239003293598,0.5080956574636897,0.5144869261552897,0.5121248130888867,0.5970324415062364,0.5580717877751241,0.5714505512879855,0.600143809774712,0.5935648947463935,0.5948724794075958,0.5738156101542959,0.5536142377302183,0.536450457326375
0.5864044657643565,0.5940183609249233,0.5826798089376407,0.5595649356268421,0.47474981398455574,0.5301050036439134,0.5127061265655923,0.4843566960715386,0.4998653070465194,0.5106565359956937,0.49072258922889717,0.5077396562894787,0.47570342328635296,0.4851776055265024,0.5172512782204705,0.528226141066605,0.5304774465766333,0.46111109892683266,0.47490946143313745,0.5234766458006805,0.510995793036524,0.5262380494663413,0.5215846484380208,0.5789688144695114,0.5529297567580927,0.567190088243144,0.5889803720743286,0.5879741651448136,0.5837247045708304,0.568904742569057,0.5272350191804707,0.5248414066769528
0.5964918131075143,0.5992149176089381,0.5734045133487883,0.540916231171494,0.44709017202316337,0.5490474563211211,0.5373942378550706,0.5114457826410168,0.4912231380393657,0.5032001287578605,0.492053623548878,0.4897872513357543,0.4529353719100352,0.4642685425807146,0.5010509361215303,0.4866369872512675,0.508077525287087,0.4386395104363727,0.4476963719984589,0.5081959898765365,0.47460436601377126,0.509589086041116,0.5089432468424553,0.5958194350429585,0.557086595122694,0.5638583868452568,0.5571899102472752,0.5871601177354473,0.5833113135927382,0.55651046537771,0.5379566455533993,0.5609880071183933
0.5772169340914832,0.5999139813867385,0.5702225111642879,0.5717024464828371,0.5007931358759675,0.5516636287845326,0.5222604062534585,0.5057099514353891,0.5146885930232968,0.48990083584666616,0.4607328881923274,0.48326548503447603,0.48042703649845225,0.4656245963303881,0.5012282629422394,0.5076028680379556,0.5290681409068113,0.45251442544716924,0.45866572257191457,0.5060168094215803,0.4711999398331732,0.5089872111767627,0.5219815728662018,0.6074086664485039,0.5668972441001069,0.5453617324222415,0.5949834360981405,0.5881550732031495,0.5885162053163947,0.5608046227830106,0.5489540945570889,0.5663854116347978
0.5773114658616764,0.6038351196366887,0.5612217904709336,0.5912308499211859,0.5139437701541069,0.5473019735688026,0.5215293111796611,0.5130976918679901,0.523625679506812,0.49330983607185586,0.47285314144803164,0.4787377285662226,0.4684004114201287,0.45007668352572705,0.48426292133531507,0.4847906993399831,0.5028419950091608,0.42579252109161475,0.4474448692417905,0.4952330064864527,0.4723496250078861,0.5161924730271312,0.5234572146024367,0.5892690128350844,0.5718923040363426,0.5589248766253919,0.5901380413699446,0.5830840412543657,0.5757173880427999,0.5534449171228316,0.5494645613648768,0.5499627721408112
0.5855907168639455,0.6047087841337199,0.5614414199622209,0.5882636719361491,0.5089827809927563,0.5549382694697614,0.5418461359554415,0.5026870852352997,0.5048713646386543,0.47738387817646616,0.4569106998297833,0.48196802855164933,0.46676183920057013,0.4526582639057739,0.4806565941766021,0.4861761089670676,0.49350303014271385,0.4320610233453135,0.43739706601174044,0.4919433030728786,0.4615173802988723,0.4940298818367328,0.5102565335225594,0.615666977888418,0.5733110606924394,0.5504337955329632,0.5880960698405493,0.5902599969193797,0.607169265819401,0.5670983368506237,0.5543235368121676,0.5537657974407308
0.5764216464759729,0.6071477248716036,0.5669726749535061,0.5846224842780379,0.5345833962756192,0.5727277649071456,0.5353016865386391,0.5180236220592858,0.49946620935923525,0.48627853055013004,0.4593584438349588,0.47629919365440393,0.459395471505451,0.4492887065114235,0.4821203925539281,0.4897709559763642,0.5107061318090668,0.43023363572114004,0.4506281995626425,0.5219237799077912,0.4886172873640242,0.514934257563391,0.5449798188016216,0.6125713737949047,0.5863015644342695,0.5529058672535201,0.6029489657393939,0.6208211246846111,0.6140929961492534,0.5791139280264096,0.5397998184357422,0.5631044177893788
0.6064007804864728,0.6141874270183981,0.5732875343879341,0.5843966108137794,0.5033410766996188,0.5772566956928539,0.5830808124416792,0.517750377556654,0.4529429160184606,0.49935456715295684,0.46807059048972727,0.446730257406166,0.41456568797975835,0.4234492757909171,0.4549705562094587,0.4395941635100141,0.47467193369202876,0.40688912920034215,0.44254357322945315,0.5110617664168638,0.5111966455323115,0.5215130031259475,0.5539745417884478,0.604445655556087,0.5981115025677293,0.5617875099630325,0.6070263305642477,0.6187885490005564,0.6147569891893743,0.566845125893197,0.5299664890897315,0.5540279527733543
0.6223199993966602,0.6126573966892626,0.5774506919235834,0.5871772642585618,0.5298036225177173,0.5835614053279065,0.5746992919560276,0.4894395207254181,0.5047625434034098,0.5169469686656054,0.4841064227901997,0.48304279039193043,0.4664708467825206,0.45847006948732083,0.47497808918541673,0.45014926421961404,0.4753106246649896,0.4336556111028891,0.46058790004642197,0.4855926870384522,0.48181381540133544,0.5017252721504383,0.5412559391241603,0.6151759698914209,0.5873699768672408,0.5391122851637339,0.6260038768487963,0.6145686551536246,0.6222785997196792,0.60857623047943,0.5353563642307445,0.5568062731545182
0.5991203868469616,0.6217132572749048,0.5655027102261742,0.5881008696297944,0.5377544921246259,0.5475882832922406,0.5518082992181425,0.4802691655146123,0.5444724618548512,0.5201782382346036,0.48867061831534586,0.5147362347070751,0.49929805606814126,0.46662231407243543,0.4615005651101567,0.44338969194144917,0.41244942527760303,0.4238595997667603,0.4615724658394724,0.4464093498335231,0.5175012773837514,0.5256201536155748,0.5849076756140866,0.61610326575741,0.5885802800543142,0.5341014292098112,0.617867835966107,0.6210863969154272,0.6137949296606362,0.607866950473952,0.5578271903994159,0.5337038933899028
0.6041758785240035,0.619872317056587,0.5653427124071366,0.5739275403474571,0.5359443430890085,0.556145071595909,0.5479256890255736,0.496430231215593,0.4966681686318669,0.5084180012797669,0.48417911888816156,0.48694984684832715,0.44833858865437376,0.43949087649336444,0.42612684995302536,0.4181143147938533,0.37752432676241726,0.38169610047060937,0.4097668724908455,0.41631382626372504,0.5065029215019295,0.5203259755388239,0.5719252452416039,0.6137940667611177,0.5749308344838617,0.5642461803583851,0.6095996145083853,0.6081189173795023,0.6089414976909149,0.5867240920251341,0.531937626665683,0.5373875158714665
0.6053673850101301,0.6133655365984315,0.5696562765933892,0.5854413607303893,0.5480303743361885,0.5539677436922751,0.5482517735643088,0.5044590215662402,0.5110959269717558,0.5307227876636957,0.5057569195852719,0.5221722831250568,0.4244950929383773,0.4520811189568002,0.4215035739734712,0.42163699570757673,0.3574489425170994,0.34716725582870717,0.38790999731609604,0.3842687502691412,0.468740294698672,0.5090152865723848,0.5737920137956855,0.6081713781440528,0.5829527607413686,0.5529769069769473,0.6027107622714588,0.6141906391282702,0.6129566366293359,0.5983737300259945,0.5385561876318272,0.564031792909792
0.6077982526095559,0.617392372502899,0.5755298353399233,0.5886301432691781,0.5122988581898789,0.5472391487861198,0.5523960258224665,0.5191993673457631,0.4559853818710973,0.5210339037981696,0.5008196602878687,0.5091075643783818,0.41482739842454713,0.4392314831624689,0.41044706912331,0.411229012354751,0.3549009758244393,0.3536714255228913,0.37693156717104603,0.3596969607064619,0.4587143431526631,0.5084323906162286,0.5575739878424946,0.6018107138021673,0.5454100739723209,0.5747238768069316,0.5958134579823435,0.6124102776723821,0.6125008293032602,0.5758562264317387,0.5571507730992118,0.5538497283739585
0.6045321871780783,0.6125218213356362,0.5888839109849322,0.597304137321107,0.522764092586313,0.5467014314776486,0.5438822787512754,0.5514242517679815,0.4788466921478833,0.5200756732954497,0.5133635397910076,0.5064017174013022,0.40555711066755495,0.45241094129338777,0.42752015823577183,0.4241239874474448,0.36127796687504854,0.34917641078004197,0.3745382880845514,0.376222358069571,0.4542956959723477,0.4956756185031717,0.5196363860217909,0.5996676095979022,0.5075315739969922,0.5598353761863082,0.5746165183748847,0.5857306332476292,0.6145667429170588,0.5363169437844345,0.5592837457103543,0.5598233067300142
0.6016218544964262,0.6147538564752925,0.5791286985592717,0.6017005539527207,0.5474974209846744,0.5244582836013207,0.527981176077742,0.5274860607893284,0.5436453172457297,0.5278677266313457,0.511257671924251,0.5206957169283721,0.41943521137757533,0.44964136475089045,0.4222689274485037,0.4164892411989633,0.3483168699070384,0.33547428510847827,0.37295719089365403,0.35032666827126324,0.456172819237737,0.5162723225319333,0.5494511677552687,0.6100481820096809,0.5095484960976367,0.5744962732620605,0.5764633869542948,0.5968609430154789,0.6117122197353538,0.5402231277187934,0.5790060295284335,0.5654666551710188
0.6025686667032868,0.6195186924623802,0.5833795299239961,0.6022795765201724,0.5286772992718093,0.5306265321198053,0.5140519223112981,0.523563221289084,0.5046236706547914,0.48217353997387563,0.4661420375093256,0.4818822991094559,0.41076347903512966,0.42728815447690677,0.421902415630952,0.4208350186038592,0.35522243910777357,0.32574596253009597,0.36125014111694986,0.3564007129171775,0.44083268218839006,0.512230274392745,0.5660497851767808,0.620158974018557,0.4640544742721089,0.5825989231338481,0.5634003660881942,0.5833438230683506,0.5965800528187535,0.52491988080009,0.5855388857523337,0.5544103267397067
0.5896146933203498,0.6056910140724892,0.5581882347565766,0.6034865397272366,0.5605517663462749,0.5080162715068942,0.5178566470154048,0.5431599095193993,0.542586140386511,0.5100699633286018,0.4618918437329755,0.5001543123724703,0.4348483224709804,0.4517366327838517,0.4458840868837651,0.43453260642119024,0.3648978678251757,0.3252226588368792,0.374940164553517,0.3740547219473823,0.44861560658840766,0.5303833911567143,0.5557526330158437,0.6027297077265259,0.45837124549290725,0.5833803491318706,0.5473722275696042,0.5858906097893669,0.6083315073270842,0.4961609045062993,0.5803336482290938,0.5754220120487236
0.5876433514364513,0.6289935130697513,0.5722190375927777,0.6025736010247156,0.5331770329997962,0.5134766858506989,0.5101594036824451,0.5357450061180159,0.5294846475691852,0.5137885115081,0.47081724874768077,0.5222528758305259,0.4601872025874175,0.4982476153542079,0.48516398068273764,0.49056323540256064,0.41622519331542324,0.35418795728016433,0.39504321531281306,0.38811421216323966,0.4341773306873688,0.5190881513112853,0.5546611415583875,0.5935429080248287,0.4703472736586931,0.5819750906372299,0.5362229725263685,0.5925385063404007,0.594837451329175,0.516671200926749,0.5827130830866437,0.5663329514626572
0.5796589945262396,0.6317589574181625,0.575482187254458,0.5907920034254303,0.5265413306729816,0.5025221943903256,0.4888686524959521,0.5482339101401592,0.5272106601713262,0.4978097138329702,0.4515847493595382,0.4892315960599578,0.5085257824311119,0.4919105113076052,0.501613017748552,0.5060021575705166,0.4395721514804158,0.3823967344834059,0.4001175580537326,0.3637485422618216,0.4030361532022565,0.5234622084081278,0.5309558341134119,0.6030620055698356,0.4517248312323441,0.5346776672519193,0.5330451458830033,0.5922277477290405,0.5843922326357098,0.5397899105829566,0.5733588098429754,0.566465784106528
0.5340998144939325,0.5961611150221385,0.5390442731500348,0.5703004766810255,0.5562902542609924,0.4993935581701687,0.462675277420207,0.541849559693901,0.5641337765233614,0.4927905854434515,0.42786179517535655,0.42768483229132664,0.4822166704548223,0.43735002863950595,0.46738228067136417,0.4776483062753188,0.42975833980393596,0.3784662527868743,0.38097826916706157,0.35030387002139723,0.39900384752776563,0.5379165394079498,0.5403374050741364,0.5918844518926784,0.46977073445551126,0.5368485978591025,0.5406359376370349,0.5880172540930418,0.594015290841792,0.5278775959997619,0.5367611960658909,0.5811997852108056
0.5318874807846672,0.598074452762122,0.5493897482747869,0.5438411705304552,0.5192281166306583,0.48902563071134764,0.46711388186590036,0.5363877383816292,0.541178362334553,0.4616755556764027,0.40775651553528636,0.41277906519781943,0.4602640688996568,0.4028316120931996,0.4445398461387663,0.45434864101071076,0.425326798399804,0.37435726005291775,0.3571962028595229,0.3656286098022706,0.4067435028695633,0.5161400028373938,0.5226948080244759,0.585788941904387,0.5024427044675215,0.5119231427378309,0.5464988117281283,0.5836650782015866,0.5819522678688198,0.5386935597677017,0.492099870474497,0.5490184898239114
0.5177031699008697,0.5705486740758448,0.5139924568552161,0.5394067313348221,0.5144463923824926,0.473657924897009,0.4565925420136447,0.5455190100928261,0.520586042812352,0.41159331598434523,0.3664261200753749,0.3995911397551098,0.4669741801658075,0.38471031944129924,0.4169171450092099,0.4270513326300835,0.3846583875262454,0.3363775343362112,0.3480324751702112,0.34228201739852293,0.4026779001451641,0.5142455164136908,0.5315285489729908,0.5543363434206166,0.4800352104664012,0.5005590380215628,0.5219806801812017,0.5659910241753343,0.572785054187907,0.5085978098884418,0.46967773206147134,0.5566140177320749
0.5073940450135269,0.568904373830931,0.5189085590066702,0.5240362157694107,0.5050403521451494,0.4837027650437609,0.44630882097750624,0.5352045109978624,0.4979933189447776,0.4206741223782801,0.36882436977836525,0.3587250071891731,0.4364070481605244,0.3397914410707441,0.3598823928207167,0.37012177024745324,0.3471588993251818,0.3088091954837326,0.3422076616399594,0.3549882734842919,0.4086922139792747,0.5134806186140742,0.5255348242524928,0.5609896602518938,0.4848559330689973,0.49190704878651137,0.5248957205928981,0.5393598283698426,0.5687140861552809,0.5038801301770109,0.47341911262376496,0.5403767332847483
0.5137652420678671,0.5576834916153464,0.5223751423287243,0.5140359075054584,0.4901010487732911,0.48091374349129307,0.45570990834807823,0.5392828437715044,0.4966086012160692,0.42582448142854556,0.3795602496226835,0.39496235766627535,0.4441048153471168,0.3672710462719189,0.3922259795606704,0.39068276055300244,0.3443351559326573,0.32048420251123955,0.32709806183792023,0.33278101261532383,0.4028089033748706,0.4931105728039292,0.5294438779731392,0.5579408825634247,0.5098785773732649,0.5019968986489244,0.536898425574329,0.5331562664059245,0.5674908519773686,0.5167967643343208,0.4718063971300419,0.5288993616741525
0.49265701174681875,0.5388903848403638,0.4745123541068966,0.5029659377948231,0.49819060233462753,0.4638525188545024,0.4209548802290366,0.511243103947098,0.4851732213383374,0.41004239671034126,0.3611338461212997,0.3788801502812061,0.43631369899206834,0.3414257523544151,0.3694615906283581,0.35601780495494884,0.3183513371573979,0.3009063760666083,0.3291668477655663,0.30448373475354124,0.39431850561274473,0.5107094435961864,0.539417011572632,0.5558957653159599,0.5041018030194503,0.5227230923246491,0.537840843304764,0.51194709113638,0.5315817229044171,0.47671797541803795,0.473579777997142,0.5589649893213362
0.5091836068690281,0.5528561224630864,0.5140674357618793,0.494463690280316,0.4838821300578732,0.4888591890592536,0.44590490487253615,0.518964303325365,0.49457045900079777,0.43062715889582515,0.3796446238588701,0.36920556892201084,0.44949743514634954,0.32413917880314014,0.360484702885356,0.3583926234114771,0.3429162030377374,0.314253085154688,0.3728854199714332,0.3418358802064584,0.4430009580778574,0.5338909943312988,0.5613172265628071,0.573964683090302,0.5074562705365743,0.5166864452362449,0.5533709064578625,0.527076677914783,0.5581445432410239,0.5101213506311121,0.46872463508698264,0.5279064863854582
0.502176641166319,0.532154001085848,0.5009070985903097,0.5118992670048457,0.47402730193242915,0.46432182987811416,0.4321472558233122,0.5136137274858201,0.4925540946842095,0.43067128368971686,0.36987552554854053,0.3938952062567641,0.4613201070414634,0.3508553398756737,0.3739874924004592,0.3826833691593217,0.3504985158075192,0.3314145686472354,0.3869070567796638,0.3394168457464001,0.4657384736550632,0.5123496263817707,0.5467357034920723,0.5641224831673269,0.4871128704610392,0.5214338605924658,0.5539303370240644,0.5191035162417864,0.5511563310083792,0.49522209752785445,0.4611599138190815,0.5332390190674644
0.528036947130919,0.5365043669294555,0.5148670874841403,0.5141857899145451,0.5093580350806088,0.44972556968116967,0.41253704022151433,0.4840739311371287,0.49875960666910607,0.43020948856220304,0.37847494644751367,0.3921350678725908,0.4666776753886415,0.3363729030284439,0.3564236021388013,0.3661501089743922,0.34450932712526683,0.3146434583311951,0.3991873113547808,0.3548700130976522,0.4614505356697208,0.5220895032035547,0.5396699226498125,0.5857084347344127,0.503272080771781,0.54065148106342,0.5553852241713906,0.5380190809630674,0.5461981119211589,0.5077598387761427,0.4930493545447956,0.5212368712104116
0.5494021495884696,0.5384104886455081,0.5273240512853784,0.48168609696029985,0.49298803558773907,0.47267523259652694,0.47562238509532684,0.4650084926665214,0.48435329275036776,0.4565985799082463,0.4109191038521332,0.4220415726378195,0.4661858549273566,0.3840123157611509,0.40685377135466716,0.3931649719759581,0.3764043453560303,0.35690111127077734,0.4242198562876204,0.3744791184277968,0.46849129360545805,0.5135784591429823,0.532820161081641,0.612697618248389,0.5153529164444483,0.5380734694360585,0.5567834171928131,0.5374131025495943,0.5720596456009891,0.5216119632064441,0.4690889215395088,0.5021440740989517
0.5735540058616188,0.5649117700087697,0.5195656589710111,0.536055104722714,0.5300110388032094,0.4681054718497805,0.49970116499361206,0.4387500024062543,0.4827905761992967,0.4728091706658174,0.4422093367073139,0.4584739424780748,0.4734187931622907,0.4508055566625114,0.4828692794793095,0.4384913125738263,0.4055099772598773,0.39546787955934554,0.43647385093528795,0.38253304332003196,0.48650332334659374,0.5132159548122339,0.5237244808438419,0.6187096085007738,0.5100508439975242,0.5564719785287088,0.5574713362825073,0.5307831223611537,0.5637331081139015,0.5274645421125386,0.5278685566312643,0.5140396586164625
0.5875459209911109,0.5980141631793876,0.5331146394795963,0.5300322034492138,0.5326365264133535,0.4890207335987558,0.5139948467897921,0.46179964848400495,0.47469255446289715,0.4901405964023281,0.4502723439275459,0.4698904938515393,0.5161555589366095,0.4756760609507634,0.503093645281898,0.4667388870495807,0.4506034490297537,0.4542573633870091,0.48202312863498564,0.4358036498826076,0.49757674437101035,0.5064850804054063,0.49242101997125803,0.6127913703450274,0.49751904136397895,0.5545370284403527,0.5328664613804551,0.5544358600386291,0.568060929958941,0.5222080263918178,0.5282771336781323,0.5020303171938342
0.563238724896638,0.5705592120042694,0.5122821074671744,0.5215923124429377,0.5401424896703061,0.49577726911528686,0.5186191048757048,0.44313691126228444,0.4496175355476531,0.4774280848474172,0.46335123474699813,0.47770798706520967,0.5012228617189626,0.4928936041659296,0.5086797719471194,0.4719244129599006,0.4787226096817767,0.47809538461278134,0.49737909289610704,0.48111874020034895,0.5119931287850616,0.48768244380170206,0.5178762242323223,0.6213347750104746,0.4897383400400778,0.5340930229813281,0.5558799410302867,0.578395529901857,0.5724072676296041,0.5298290273350763,0.5586548361824245,0.4654958089992037
0.5080141668145254,0.5461874016406822,0.47315148574672705,0.5177530761393051,0.5146922317403677,0.5113650071289979,0.49037526262332976,0.42420399748228627,0.4371478500446097,0.46950162610759927,0.46864239574367966,0.45122241359268367,0.4727600996241809,0.4811400746263401,0.5047312246168566,0.4833335697448725,0.4748845990711585,0.4748077913227991,0.4727155394383346,0.47658954585473584,0.4932572685427906,0.47373287856483354,0.49775520031047493,0.6169398326986492,0.48910665773769096,0.5423832948939457,0.5262560436612123,0.5502869618450873,0.5495833744330203,0.49508185813677,0.5142280022939716,0.464465905056934
0.5232090718420827,0.5742987125149231,0.49044195203902785,0.46521392986329835,0.5017426966394941,0.5440287524932566,0.5120559184230127,0.4105966718965339,0.4550447075050635,0.4814690138305578,0.46132525543743425,0.48175670200359666,0.5017915779837627,0.4823862882119382,0.48219263489992936,0.4616997641592237,0.4591006093992434,0.483967165766619,0.49941185436638424,0.4811877173542254,0.48950571834319334,0.4988844148945221,0.48565222515909884,0.607425051931358,0.46543219494335253,0.5381742940630869,0.48931883535432374,0.49806074291539404,0.5395859522913036,0.45228315838560623,0.48789312185426625,0.4795561749408403
0.5308496517924538,0.554848924512835,0.47204520494524366,0.4818921530696042,0.5247209970137707,0.5326864487424764,0.5003987291769175,0.4355076414154615,0.46325657018347227,0.4909544724752399,0.4927591453509434,0.5048750090014802,0.5092278335199366,0.5017760405699697,0.5093571316180764,0.48704973180214456,0.479617626015153,0.4838056648746353,0.4971394829933262,0.48893904186497295,0.5092439490874454,0.48939069532620577,0.5086119489673423,0.6021291725360933,0.475208774424591,0.5446251731766626,0.528497576134196,0.5265751996567521,0.5353868783365656,0.5044740220272793,0.5302868119831589,0.48438991879992593
0.5327034723354879,0.5810082658594322,0.5105407228569111,0.5033180252476948,0.4842969529881075,0.5743999455876,0.5116236163972918,0.4690491342075619,0.46258984802422154,0.49512510208805877,0.49279824192439897,0.49485239437915873,0.49601687450472004,0.4990895590349176,0.5152229509037578,0.4948607051245027,0.4846458941716343,0.4961495251829614,0.5044800861055064,0.48751998272653446,0.5111347791709226,0.4922185456460925,0.49515996178501864,0.5824633610082672,0.4716395464040239,0.529779000366805,0.4967377920909775,0.4993235905156262,0.5205051140878363,0.46005417063593024,0.5037745818418532,0.47271159829939885
0.5488917022897362,0.6027176406111031,0.5363058967339657,0.5141346920291864,0.5366475005942458,0.5539891978333181,0.5152521606044411,0.49767764476041204,0.4892328875002635,0.4920100092135451,0.48536343564327317,0.5088031205168312,0.5368574781900961,0.49586108596920697,0.4901274850421769,0.4661282953647048,0.47951900677092235,0.4876112831972679,0.5133582297547343,0.48558357800164453,0.508002476811068,0.4894130115156913,0.5072483954523705,0.591146490156431,0.46721317993108497,0.5303840301702697,0.5238659235924298,0.5203273069145538,0.5487519915027004,0.5075044561965636,0.5259095017916077,0.4928705557561496
0.5194171556211206,0.5589868290065291,0.5005939790173305,0.49429219160082044,0.48077805462471496,0.5467219532141143,0.4924073802630607,0.5058485671545532,0.5011663422094851,0.48408484750474257,0.49574241657726414,0.5047659061450259,0.5139960901429174,0.5160342210413448,0.5172457004208029,0.49676698985964407,0.4943073045205918,0.5078116316981776,0.5261496435479723,0.49580016557622886,0.5065050026508267,0.49007660722492014,0.502356728291089,0.5788120740271019,0.45806661442566676,0.5395974571744538,0.499429249819795,0.5028880956062852,0.5119465829909352,0.47661271719039666,0.503373882269454,0.48165474303015665
0.5541421165039078,0.5914299189056795,0.5390939053855448,0.5132240290640607,0.4214960471546665,0.5465362251040169,0.5064439747030802,0.538196678983544,0.49138284548879274,0.5040072441636427,0.5237804861935238,0.5089256901941837,0.4718799424167122,0.5051837898541512,0.5240980272731084,0.48847994559944247,0.4459030224104174,0.48317123964860964,0.5008281914164194,0.5008282820915579,0.4989955744678236,0.5275072174680772,0.5202990560706643,0.5972501269649672,0.4662559390147292,0.5386530850966534,0.5050450182868557,0.5129178050830809,0.5377226445326053,0.4813743117644002,0.4644580854022393,0.49137427862917543
0.5895552844046723,0.6097230084847773,0.5849156532244656,0.5446924955356878,0.48224111051474244,0.5345867722358741,0.5048748432877318,0.5115678048806502,0.5202896509675503,0.48832152889453023,0.5125813991803472,0.5020620143325615,0.4667961056962194,0.4786952291538885,0.5072036649379997,0.47870885794078377,0.4419433193441082,0.446341470739346,0.49068393622061635,0.49262723875339975,0.5054353691681657,0.5598278284913112,0.5092301700487852,0.5848490606775023,0.4604738719950964,0.5291617893943117,0.5221455668835637,0.5305531786099013,0.5474917058158831,0.5112961077012532,0.4913797880209013,0.5090141315200527
0.5753345279114382,0.6062230046268993,0.567847224574287,0.5739914814932263,0.492843640223266,0.5490728765637561,0.5353270507959865,0.5231975057212459,0.5390582630412408,0.48693549721206997,0.5182140353167117,0.5060017072405009,0.45462090129409916,0.47402681142663655,0.5221991999365566,0.49844927184959104,0.4534591348524325,0.4598354388030267,0.5194069359347048,0.47883728123092056,0.5089215888790035,0.5340490523957895,0.496219050549896,0.5759191186128045,0.45878298189788214,0.5225789652199864,0.5131044151896972,0.5430060300723323,0.5490111372714573,0.5003110558627887,0.4806836368757008,0.4925935712900786
0.5967158258908727,0.6137313385568779,0.5926381921796708,0.5936267234684127,0.4777914903020795,0.5671026286513577,0.5614249700530529,0.4975427272378319,0.5091750878468327,0.4984104188895865,0.5200007243618655,0.4935011259936877,0.44656119360676183,0.46507300550782127,0.5167474401539189,0.4641940823803472,0.43382990489621287,0.45922543498575863,0.4905480127952972,0.47432186115513036,0.49473142211207366,0.511063479758574,0.5186739779997884,0.5896997655662933,0.4780203001190143,0.5378816911704121,0.547313189151046,0.570048763212862,0.5759812933777353,0.5446167115283336,0.4753907068697509,0.5350687262813606
0.5704702525796003,0.5881323035465587,0.577763942060693,0.5818635402343196,0.515741243137345,0.5431077535715729,0.5398556113724952,0.42988142642733557,0.5101182111074068,0.48479556293874765,0.5030886075092701,0.4842844163872044,0.4855550429752605,0.4764607844572646,0.5097779966285609,0.48303335433435063,0.454879157768726,0.4779524991824117,0.5178746749285363,0.45203837709073297,0.48891808439634077,0.5279710741345264,0.4930950870943063,0.5716833154474786,0.44799435055834325,0.5326472098490297,0.5193699171697448,0.5725368667838739,0.545860133657579,0.49997439708687297,0.4680628875748712,0.5346077396998572
0.5730591613202995,0.5967026010047706,0.5603199609321441,0.580352469326335,0.4681293849844588,0.5391777190978296,0.52219841816478,0.44337521115175166,0.4921428041300261,0.49323218861809526,0.5203096342878898,0.48318191534696076,0.44857470730672416,0.47757846528623665,0.5080571953336452,0.4816671612066465,0.42201607626046767,0.45573789294171835,0.4992586478152378,0.45738455303630604,0.4762589983440246,0.5110405087329852,0.49502145689723,0.5947705708186399,0.45111410342669533,0.5237578853239313,0.5160543338264402,0.5862573724920771,0.5653342580819247,0.4968330651664127,0.46239079418959417,0.5412846829534507
0.6020019585208187,0.6126804812346136,0.612728713107686,0.5859905366706715,0.5100130942295122,0.5433252641449556,0.5538715307791503,0.43729176071823983,0.5109721317675487,0.5075306520871979,0.5296659401698743,0.4870856798476038,0.48541777876233805,0.48064516186576073,0.5056869227097119,0.4857667604204519,0.45074439106749714,0.4660246357888123,0.5011432947213501,0.4514887544556083,0.4902168570906726,0.5215513186604515,0.4887839765745056,0.5999337508300983,0.4597274106968533,0.5205829905584908,0.522443291524568,0.5936332184397667,0.5835942309930877,0.5180484010390036,0.48738096560480704,0.5360012495624383
0.5821507932493558,0.6078327918284038,0.5951361202520349,0.585312959655765,0.5441293386156694,0.5467216287002481,0.5461176669258685,0.39607270323230204,0.5126849856188412,0.4912375876163747,0.49271572833330723,0.4751743473923084,0.48957963976230773,0.46972550319058215,0.4987064691093437,0.49700150129495674,0.462532503886401,0.46546624538849984,0.5031522357879643,0.44428040316254525,0.47667968656534987,0.518600528713134,0.4767394383340842,0.5912192976285988,0.4267719316684598,0.49311073605870376,0.49471171824270893,0.5858515304225742,0.5742044377111208,0.503653286253363,0.4832098665246063,0.49525252060846486
0.593893952800221,0.6174452915635814,0.5996555380747259,0.5847131100595668,0.5440147481311232,0.5294550795455537,0.5497850441167876,0.41468651108441734,0.5172533538439963,0.4852955868043989,0.47419463012222507,0.4774015671916594,0.49258982323193146,0.4742519817857493,0.4885680973840232,0.46727486353642267,0.4462482882246943,0.4662470721608939,0.4864974365193316,0.4520426349804771,0.4783312661972431,0.49006398013247693,0.4773218770454496,0.6061713781851015,0.4621463615561687,0.4937940358810505,0.4993814767693899,0.594015288560889,0.5713856953698268,0.5170998341620243,0.5094495498572689,0.5097266320083843
0.5920741192360686,0.6113390705265173,0.5904797903501307,0.5833058970284859,0.5608857139547709,0.5499337103987514,0.5516798899595892,0.4271649562431042,0.5373914151870769,0.4811390638761948,0.46944048522687837,0.4821492673593394,0.5403877047211827,0.47438205350968654,0.4924335741475063,0.49765316548335886,0.4965541323138699,0.5147379521914744,0.5203324765245168,0.47933223413596415,0.5127634258286532,0.516565222382967,0.49374232244764266,0.6106115335279697,0.4724973953430064,0.5133499082555276,0.49815124420549534,0.5915176848740106,0.5763380223503018,0.5460534035074235,0.5214999543306975,0.5133682065584673
0.6042314534596567,0.6103167491619013,0.6140479733849284,0.5909685550497006,0.5742214112652124,0.5420012760251508,0.5355040789456332,0.44564944869235495,0.5129955171712469,0.4798098398935963,0.45907371617685,0.4842599820663122,0.5281627148427521,0.4891788134410302,0.4952172939562067,0.5003087542403937,0.4955300780329055,0.487103361855498,0.5062500959920481,0.5002111329318476,0.5122010449874024,0.48896829310275974,0.5055547306230816,0.6158263603278201,0.4813025528403349,0.5141246028507959,0.53633565573382,0.5962238191119339,0.6111134457459261,0.5461703037729423,0.5469049159937666,0.49606517984978676
0.5809683389682176,0.6160018024230762,0.6023126854175336,0.5998059852973403,0.5695053536320787,0.534300679676648,0.5393899900315874,0.5084972270728572,0.490014114464919,0.4965712901430496,0.4791207918477593,0.4890006544063125,0.5114630393680707,0.48465342120581584,0.47754843567354427,0.4842839290377439,0.485642472267175,0.4617267629950657,0.48706988990262384,0.48273543548567144,0.4883316791725588,0.47277824060041984,0.510487422616897,0.6046323815931638,0.5235745047541547,0.545489214587664,0.5661114187686359,0.6003832175164987,0.6093026838699138,0.5594903437892573,0.5344082085875369,0.5084284771237109
0.5881423451572296,0.6204944566500904,0.602631339454037,0.6045953372452245,0.5638640944845479,0.565253900540719,0.5348482195743185,0.500806354749678,0.5083520443114351,0.49263034506560127,0.46939972704741995,0.484582240364835,0.5199147181473268,0.4629889663838537,0.48633898923687857,0.5026852325926329,0.5038092843690022,0.4732447393451132,0.5119015490757909,0.5119830481088775,0.5221668605505018,0.5028140510370893,0.5321420717195389,0.6039845915329366,0.548561893777538,0.5378147286868101,0.5717900828895596,0.5990706572313717,0.6223259035056818,0.5887849933956444,0.5324362745788426,0.5053637639929413
0.6031830875383971,0.6154454096762391,0.6000401342531038,0.5953803697566195,0.5679289753358311,0.5062166715045101,0.536191031610213,0.4641440500105572,0.47018641227116836,0.4895891140553022,0.47676318159050707,0.4736931347278472,0.48075029782926487,0.4568848839608237,0.46846130977524325,0.4666872088045379,0.45920056145556815,0.4433979827164545,0.4807763445420818,0.460854644575017,0.49971323370895343,0.48518052944105344,0.5105229940385678,0.5879712558529163,0.5288890962032702,0.5622110853444922,0.5624797799205369,0.6073136706017124,0.6191517261825834,0.5688530299278935,0.563399054919428,0.4823796690705159
0.5959319883651746,0.6067852984950881,0.5747701146465315,0.5909599553178022,0.5501406533769392,0.49336552613072787,0.5102106939693816,0.4833449201708941,0.49676957399976457,0.49415100986017063,0.4925764041131001,0.4865618669415527,0.49348698948890696,0.46868041351764794,0.48060483618888666,0.47656305396121007,0.4612453101353466,0.4356724535161909,0.4610731492238266,0.4531151903115627,0.5075299479859523,0.4999299108564929,0.5169999501669671,0.6019676137750496,0.5420889618825401,0.5761897424351478,0.5843958441806283,0.6063387587288523,0.621209378562782,0.5656458075019025,0.5661664627242762,0.5068664291207299
0.6065148006742779,0.6078360297643766,0.5852287555194207,0.5854228635580554,0.5588348903386097,0.5175433115053933,0.5216555075590289,0.49433412071368865,0.4887855453971903,0.5138465344772521,0.4907840535915971,0.4749411717578278,0.4842080918286269,0.4662449925727297,0.48766335783960957,0.4847238736556055,0.4569035840713867,0.4265846680879188,0.42683709027208727,0.43782382357900607,0.5021975213392864,0.4883669554084481,0.5224920113319836,0.6102658181782198,0.5421107265602281,0.5535443628530439,0.5807592202023893,0.6150505946544427,0.6174422236513466,0.5803607269756155,0.5602885177858135,0.5035118631649046
0.5967141762669549,0.6149868782712393,0.5601636687414485,0.574633882824978,0.5332460279971845,0.515433044856798,0.5000185132115484,0.4839730924176825,0.4687946926026059,0.4610370797260764,0.4755039856937808,0.45653481378243077,0.45659128583204817,0.446209215538103,0.46878422877801496,0.47202609180790717,0.43152803572586007,0.40937201320132555,0.41759627965871304,0.4169110369814764,0.49025928657212364,0.48687324019018663,0.5158669862473789,0.5834680311987569,0.5284045912272114,0.5632791450401721,0.5643022668528311,0.6125640720140747,0.6094885837036338,0.5373366135665439,0.5474874150569023,0.5174283029108878
0.6076454617310716,0.6124206498606866,0.5773380889304586,0.5651831703612313,0.5014638727854188,0.5211162127613831,0.5037147973733601,0.49633097589291475,0.46886137233119574,0.4644411017064618,0.46210620909500827,0.4250223182618692,0.4429130615575595,0.4065562671623594,0.45663855118324026,0.4636900020055363,0.4227841221831533,0.37709390491155703,0.3738615761817561,0.39558783081638227,0.4663831448675371,0.45069925476098216,0.5081265730620438,0.5978761491965422,0.5296886076885772,0.5499109008445533,0.5711614390792707,0.6179182667711484,0.6033544029367819,0.5406341898043562,0.5144642098485124,0.5455459019366864
0.6016011665588228,0.6195772846450175,0.5652812176270707,0.5625402659568961,0.5363294566581615,0.49923840348759085,0.5047536001729337,0.4773787204848339,0.4508850214716585,0.4762108998785672,0.4597229545813833,0.407761637100975,0.42437018979922814,0.38568049263482307,0.4395065474678831,0.4727047341211425,0.4202580762204596,0.3671965427030673,0.35255812134065284,0.36314622429940263,0.4564974116485027,0.4261237656949668,0.5146871817003196,0.6084975022235747,0.534976195374718,0.5336221090205738,0.5656999183360502,0.606373823095961,0.6041576478813154,0.5383160505341957,0.5268751332405481,0.5409100199662868
0.5941881367539708,0.6092659550855118,0.5453495186691669,0.57434988536314,0.5230066910749553,0.5372571515612279,0.5200354807457197,0.494597903369726,0.46433760818101655,0.4539665795816277,0.4513896040305653,0.39996642647709557,0.40251440558569035,0.38448296789290753,0.4247110187843211,0.4568335912987607,0.406898743502572,0.367290527543475,0.3603254689957955,0.3603117306407852,0.45383037196946174,0.43203237098992436,0.5204851870154238,0.6096900651730806,0.5420247526603292,0.5143827827137409,0.5632619231995807,0.6128168821794061,0.6004001408152675,0.5050153104677971,0.5146027971221708,0.5499702407651268
0.5941028916129555,0.608426741804081,0.5643032352588414,0.5533080660732184,0.4997928374529837,0.570831390392192,0.5494691044145839,0.4980313016927038,0.45744120993984955,0.47376450494326117,0.46631699684330796,0.4102074764041969,0.42421422793636826,0.40284349646018836,0.4556411069539104,0.4868517539598703,0.43484273682501323,0.3792761736569296,0.3627405173131832,0.3850779190234577,0.45437871749700043,0.4331507296182927,0.5621551550127349,0.6082338481845202,0.5571138519288705,0.5047384795593435,0.587968977027458,0.6075115035919182,0.596102333251965,0.5443916109571882,0.5063452100954046,0.5724296781651852
