Fp1,AF3,F7,F3,FC1,FC5,T7,C3,CP1,CP5,P7,P3,Pz,PO3,O1,Oz,O2,PO4,P4,P8,CP6,CP2,C4,T8,FC6,FC2,F4,F8,AF4,Fp2,Fz,Cz
0.5686023062351682,0.5550259138579222,0.5599395255075532,0.5584302296028224,0.5215889261649899,0.5596631337498729,0.5356028105492986,0.5558256336045095,0.5254306907330301,0.5212154861482845,0.5059820643074299,0.4952445964596316,0.4384299575310698,0.48393306242798667,0.508926629107324,0.49657379654796613,0.44270134909653724,0.38985067534099904,0.3945417762947839,0.4188887946853019,0.4266767202901305,0.39394268330380344,0.5046235593222008,0.5913600803688456,0.5301076914268448,0.5795641197130901,0.49638567913661463,0.589100151765983,0.5543006377063945,0.5351477088481226,0.5528036748251263,0.5155548544670749
0.5540931197285407,0.5382362105997104,0.5225949415361951,0.5795994431658825,0.522429407219469,0.5500504028817433,0.5024173934863343,0.5582593076540725,0.5070103387751393,0.47570920488504065,0.47578318206160625,0.47244533641297554,0.44079598792527624,0.46932624730214584,0.4855573094787173,0.46498694319558687,0.43603171600864016,0.4197782452108498,0.41939872410471385,0.42116519892776894,0.4761826814320473,0.49039032656420595,0.5302887445085849,0.5973058430437597,0.5313378133334863,0.5440525301332145,0.4856301589007289,0.592024821931842,0.5257174142718689,0.5417940809226505,0.5469022519552874,0.49244507778902596
0.6011525677078601,0.572247251689878,0.57873879928942,0.5806525006258316,0.5003568471219957,0.48722634414665883,0.48243076917264316,0.5159748496760443,0.4869604683160469,0.45748206038126316,0.4322699215175699,0.45980070196404776,0.5025600733523047,0.4846213115757861,0.4974743780777345,0.4858032192942872,0.46831821534431184,0.46049512234335416,0.5137566193775299,0.45971515537618374,0.48332272263216275,0.5141444784657369,0.5060601189582283,0.6045798802147947,0.5442699548768399,0.5282092967407673,0.5469900698641913,0.5269354509279168,0.5939799974743032,0.5874660624324739,0.5606344446241946,0.5336151846587298
0.6093610552120795,0.6123921847550039,0.5859233342795586,0.6097899859962438,0.5067822309307071,0.5582225012026559,0.5121616327237194,0.5418103284104291,0.4898937386630637,0.4535500281237385,0.42511717148446176,0.4566621476406465,0.496274931285659,0.4624792491770904,0.48811883696060626,0.4705639410862268,0.49120056943299556,0.5152421948443168,0.5360201941731597,0.5159242800884561,0.5613201719496784,0.565184330166087,0.5542532240955313,0.6161982781364391,0.554550507252879,0.5393898563646498,0.5771824071982281,0.591107165363854,0.611917240022994,0.5942790087244074,0.5628610088083289,0.5505245260627248
0.5188470479105683,0.605145214028471,0.5592867836623713,0.5660906441261088,0.5059563192435758,0.5350984880173785,0.4634921968536684,0.5652786462816043,0.5270554075280116,0.47541030241227156,0.4492839979555896,0.5033949399823552,0.4876195859398953,0.4637558415279252,0.46954286713800764,0.4457236912033806,0.4548977962293993,0.49948980959359157,0.5082290674999732,0.4613752848606829,0.5019795078466329,0.5377603807455568,0.5606709226515808,0.5941851241894508,0.544871492237204,0.5370729446252236,0.566707840094801,0.5843034313282592,0.5885986537196761,0.5478496467916015,0.5257187584387258,0.5065399309833484
0.5397285059782858,0.5928863710022716,0.5274484667226365,0.5515898230675135,0.4886826944748222,0.5287419244025064,0.48305531891110154,0.5435366458138312,0.5177728501303495,0.5230897062454976,0.4602504837824812,0.49831797628939367,0.48342721220539386,0.48886512359736456,0.4840606652074041,0.4965821088052937,0.4646873130653733,0.4599591772267138,0.4955642287632069,0.47707799106980353,0.5162997222495121,0.5023215830246768,0.5641076005321334,0.5639806098105095,0.5180861643041306,0.5104774228731674,0.5208153491364046,0.5109912006128869,0.5877572102132601,0.5031378499072938,0.537674443229406,0.5228780387428482
0.45900039367179063,0.44745809552370147,0.4125347635282813,0.44079064515127714,0.4895362663178195,0.3493094568857451,0.5480871784910702,0.538854456787927,0.5291374757190844,0.5329073066839588,0.5003275407253317,0.5040186286449985,0.4740387260463045,0.48172238383535265,0.4684004512334765,0.45189125164870847,0.472326324661946,0.4771186654771334,0.49433200992928344,0.4977582751079884,0.5210787288243092,0.5076800033423681,0.5538593477448505,0.5872165068830137,0.5400563325419987,0.5066356604925427,0.5005708385097271,0.5156819261577475,0.5958660757896389,0.5236735991088701,0.4718684005532463,0.5399510038305835
0.498391961960696,0.4703843683082264,0.4058210756750671,0.4413475805391864,0.49158837346394124,0.41152332195644253,0.5080561037291911,0.5078787387816571,0.5190941340283146,0.5073709112248946,0.5000149538042932,0.5116670462241525,0.47893019390205965,0.48936250899846445,0.49300309496834277,0.4735540902905868,0.4887558733070037,0.4984309640540639,0.4669019145066001,0.49478034706141094,0.49691430153002863,0.4683861052109964,0.5004474182217816,0.5812138510247988,0.48487213735347273,0.48471779050466846,0.48981928400742464,0.48239336421054096,0.497891224856556,0.510272099514691,0.4482185893588931,0.5193268800461044
0.600640191765617,0.5580469337408939,0.5447650796530479,0.5964923995679637,0.5057741585148576,0.5537882226459984,0.4767111747262121,0.5544515398940657,0.5211208054842164,0.5349738407138833,0.488117388061608,0.5134195083782918,0.44554480366603616,0.5101729373995212,0.4782899664679341,0.4884508546481961,0.48149470311463116,0.4892276308132006,0.44508486253418683,0.465591550508084,0.4915621572374068,0.4244868574293539,0.4965059675961359,0.5884318732890427,0.48237784334001804,0.48077221960278055,0.4880519425513152,0.5247811092164459,0.5286417089768057,0.4883542352625597,0.4672939407735909,0.4614701386741969
0.5590108390202638,0.609686622269758,0.6141902475202226,0.5967486554894438,0.544908073562157,0.5584155517078464,0.43518101779868484,0.5294484524902504,0.5230197566103248,0.5399456127621849,0.5254279044986812,0.5258367260195987,0.5253463609285716,0.5312034360680674,0.5473585075737841,0.5496993874637386,0.4962880610389727,0.5008127750679967,0.5545081755926033,0.5304287426193643,0.527610604924853,0.5160312846913012,0.5403239027674019,0.6232730943463235,0.5125964354857225,0.5081997212358872,0.5571539328349286,0.5970419609029436,0.5862240186753916,0.5512561824958824,0.5122638014725683,0.5336301498056656
0.60319129509531,0.6090899876822577,0.6044144221812205,0.5656945707645512,0.5284254744732866,0.5296669116167201,0.5202596781876213,0.4729842340671624,0.48631031188242985,0.5046568626982858,0.4837915314444565,0.4953872426796006,0.4928370169807839,0.5172556609688124,0.5238339915958896,0.49463418785729263,0.49682784034982763,0.5282273957631128,0.4941963342101564,0.5014994239594509,0.4948389845757956,0.5089033196343552,0.5614165147204289,0.6059558641965836,0.5514390893753366,0.4721079826493515,0.5553325470769619,0.5741112427019183,0.617463103125373,0.5914127122108103,0.5033577636151482,0.5444415806323121
0.5865887051126794,0.5839552606815478,0.5744916846100429,0.5603008174386112,0.4950303589986259,0.4902108651033536,0.5259363539967049,0.5142390913779855,0.49548608661434806,0.49789142260082714,0.46166122174027385,0.4902865293069781,0.508155302860475,0.481743411582327,0.45548037888508225,0.44720154065652046,0.46460834996763045,0.5166203056526182,0.5251703451000114,0.4926295804236436,0.5199817320224178,0.5166321140856046,0.5765894404330754,0.5860049057245529,0.568935821575728,0.5164831908927064,0.5773198815820374,0.5569643228340896,0.5814241572769434,0.5908208253074888,0.5081380648508632,0.47821366216343786
0.5536063128473719,0.5740909937647095,0.5607939389684139,0.513066635661672,0.5260716011748549,0.5267045512385223,0.5106320159138128,0.5068740570801048,0.4875415574554464,0.4865419476654781,0.46279415234450544,0.4616664030004895,0.4818788872062094,0.45046298060077183,0.49614669137960615,0.5034443180423966,0.5131122857283579,0.4928143464261074,0.5138121851276048,0.5052473317522377,0.5130937182824495,0.5234017166506548,0.5708603911820077,0.5734682444750014,0.5532860950241248,0.5313439613167869,0.5536148355014375,0.5292291875469987,0.5505322075109628,0.5290702420019988,0.5264569855092331,0.498900832181332
0.5760995252742263,0.5765694757428491,0.5305618851248569,0.5418703279069088,0.48579029808772023,0.5293744485768215,0.5290227966058122,0.4774169840989915,0.4464325668110247,0.4527797985141516,0.4405844365519742,0.394932594799242,0.3975515737751799,0.36530533632483486,0.4205975697315363,0.42512832014807683,0.393895425673597,0.3246349187792769,0.37962650503240264,0.43435132359952955,0.48319583775055763,0.49435720861543625,0.5266719800983357,0.5962546383543411,0.5630999331969097,0.5252887702191245,0.5633080558520656,0.5351760299676501,0.5890516534436502,0.5420515374131054,0.5020436160444883,0.5134284306103999
0.5890027200399759,0.6296670886360636,0.5681204714175317,0.5883093016452751,0.5394989870627139,0.5383780032466421,0.5387238425639462,0.5511263912230788,0.4704750676783873,0.49983939925499926,0.507826111597643,0.48412299529775055,0.4710410013848407,0.4859120536260727,0.5184328937581748,0.5093894396355961,0.49015814498932403,0.42472067237477146,0.4450991751740386,0.4450634311079489,0.4981789492618582,0.5236897578302178,0.5002060287704723,0.5840760612382743,0.5646924616595094,0.5299985791127577,0.6003307988435921,0.587567726730062,0.5998858613971499,0.5702079789308229,0.5547344740034508,0.4599771354566424
0.6227548981198553,0.601018245857824,0.5671574471383387,0.5794784532470934,0.5463755625492491,0.5028355444973691,0.5447774125585878,0.5428418669542873,0.5274661485568458,0.5148648892835913,0.51417418935242,0.5245758518725019,0.5577462513315714,0.5368829969989659,0.5491595632202357,0.5353448217716786,0.5409065131962691,0.5368852128919633,0.5647205154727651,0.5559928431450172,0.5535588078531086,0.564702547964666,0.5533840377529341,0.6095336751224825,0.5638267899790558,0.5238546230266913,0.5838693902734796,0.5962410594935846,0.6242080474450729,0.5901220941284235,0.5487738238157699,0.5138131488783205
0.5640641374561123,0.568256911384714,0.5283451589622995,0.5157116877069834,0.5107018087793359,0.4861506266313971,0.5055469250957768,0.531078175894018,0.4665128490923438,0.4872398652319358,0.46933005906522535,0.4838130108478016,0.5226623881813997,0.4750352799134635,0.4758380072033218,0.5032883764368783,0.47513271740843804,0.475925834876719,0.4913819588441346,0.4476077931195105,0.5084461847163901,0.5084832997143738,0.5436005690955658,0.6107923325528809,0.555093816689505,0.5346848325993792,0.5573688232831591,0.5910561404332562,0.5286734512468496,0.44381090532931156,0.5213189277324167,0.5163073339523644
0.5931988761778052,0.6108675463186979,0.5614945557715445,0.5768517474512962,0.5177189135226644,0.548542383060648,0.5199883675546968,0.545865982651637,0.5126749303094571,0.5144255031925273,0.4924278701474886,0.4973041279983193,0.4693601278188014,0.4674689550638009,0.48335325651449923,0.4926216522071066,0.45585991793734465,0.45097932770053034,0.44021239927860156,0.4585536181122568,0.5095583553571958,0.49462025833295087,0.5420340055559301,0.6111398262803714,0.5585503633776528,0.5557255443566428,0.5911112527211065,0.6055327917872925,0.5755224018088685,0.5478343586737915,0.5327593603604407,0.5062058360607244
0.6090713543049017,0.595926614327618,0.5781564717028556,0.5319058745522885,0.5480819517679785,0.5072313369240578,0.5087982847133279,0.511807280373708,0.5375182312626132,0.4948456855067518,0.48525200983960237,0.5119247896125648,0.4835797472877596,0.5023149140935884,0.5274323905048292,0.4810640574169953,0.46881370796193883,0.4580762622025265,0.45938380975182447,0.41817137797874304,0.47575155181422163,0.5098201353469929,0.5134593206735842,0.6060779509244085,0.4947984357240733,0.5636438813289624,0.5772266023086633,0.6001596365805897,0.5733037897445313,0.543793524139006,0.5495780348881643,0.4995813809479514
0.5936027127984908,0.6098128814176276,0.5496835927336299,0.5450898628748335,0.5475359351524414,0.5105649952781657,0.5127840695508683,0.534622310398523,0.5275926013267168,0.5135945762806959,0.49049887735777276,0.5469734191249985,0.5316379836201743,0.5196279881093597,0.5074858733627337,0.49679980980224797,0.48823759403459316,0.4941934464020685,0.4605780229106759,0.4443901910785561,0.4738908153358552,0.5325091053342116,0.5602187999744116,0.5960103392110585,0.5678325237616995,0.5668852814375703,0.5814873125587906,0.5689129375978245,0.5590289168711163,0.5329536601948354,0.55876970682297,0.510812292749525
0.6045981626419005,0.60643604734766,0.5204053333323984,0.5055805165197991,0.5395424887052298,0.5083456370021684,0.47963242256205835,0.5551922869626852,0.4651267409426552,0.4603131101072114,0.42917656911294844,0.4954560418661931,0.485963279156743,0.4282831468123149,0.44580875781545265,0.4494452124793747,0.444275142602834,0.43384809592008955,0.4283179883646124,0.3999753746008227,0.47291102406518093,0.503633922312371,0.515154391151079,0.5273099361854707,0.5515025558701299,0.5209335523590124,0.5372072303486077,0.5580091854091347,0.5349221699179675,0.5160361669306581,0.5633416771330269,0.5132165994749579
0.6032496639738896,0.5973302925589811,0.5376320568390255,0.45821248594727226,0.4984806642411126,0.4976028588138409,0.4820031469512671,0.5158776455967706,0.48677802871457587,0.45840214640376603,0.4801362066940468,0.5017700361745931,0.4732490405390405,0.47645364972996335,0.4982157802294294,0.4721597051606583,0.4830735251978666,0.474119290151396,0.4724079106118823,0.44945501971111795,0.49101946451068945,0.5076063967883699,0.5519064482954157,0.5875747102881169,0.5144277571027531,0.5284507517747284,0.5121884961338973,0.5831145487096462,0.5766945779396343,0.5502947470616965,0.501914672214951,0.5157038242690793
0.5597013603951956,0.5952716517822015,0.5187803571155648,0.5339892889604948,0.49557917897830456,0.5295024435170658,0.527600690212255,0.5296236059530601,0.4902957184265059,0.5079893104533456,0.519677231803652,0.48167192437326345,0.4824977818859527,0.468036861032804,0.5376899406940725,0.498782091187913,0.4298730728450569,0.44162449517176955,0.4248966083157053,0.40140963771061566,0.4384447770651679,0.4959301827722339,0.49593312088718733,0.5890138223440992,0.5295488672401228,0.5442641572297091,0.5843255414843169,0.5868407712314475,0.56963940918359,0.539052723337771,0.5245124022936951,0.5387423603357879
0.5570185176031502,0.6157203385588442,0.5244654884653656,0.5203909299618363,0.4870988980571982,0.5299753967049026,0.46542214431785395,0.5092471760515598,0.4519249814692112,0.42959702059039906,0.3861626318278752,0.36604517970087125,0.40917825244174494,0.3668953706661867,0.40569108446337687,0.4238108522800507,0.40044838768365215,0.39051328143085084,0.38341555128598076,0.36859621525894054,0.4327047986659125,0.46024814297115135,0.5045038266948909,0.5955717737804324,0.4729543642621818,0.48257791278276585,0.5380812520595974,0.5994021284974662,0.5792791737637895,0.5239959200329545,0.4845449023747744,0.5255599808015718
0.5650986674585851,0.5952205483552101,0.5770311679862904,0.541113796185601,0.4967917694050908,0.5483748042519428,0.5271261921472624,0.5254891592453851,0.4686200523702756,0.45604816005446097,0.38669543246501314,0.4041164202754208,0.45468007212389255,0.3549614131301358,0.35769903533217656,0.400573604124294,0.3602773821987128,0.3624537740155161,0.4028733592576396,0.3907756594219681,0.4448950699580301,0.4931062469947606,0.5138644477713635,0.5775922596042,0.5294932471643464,0.4954829169847631,0.5095118530175802,0.6102670341436833,0.5916428299470933,0.5729090254827031,0.47965997954316586,0.5885370309370489
0.5853685357339585,0.5841987623770937,0.5725127935343687,0.5646174398013478,0.5242072965272859,0.5273635207147677,0.5080339861436775,0.5603342055432797,0.4511371475395862,0.4585078603750474,0.41138361285954045,0.39907653205051036,0.4284951207606826,0.33232628698437805,0.3438265228928363,0.38661340301179437,0.3671516653088435,0.34346100721744793,0.4133990751518634,0.4128737151692132,0.4535006070594285,0.5009254943046619,0.5092528640387521,0.5813870904663213,0.5439109738022757,0.5292138162291375,0.5290867177796916,0.5689302675440346,0.6046458313486347,0.5277180871516121,0.5503621881195073,0.5436003312471742
0.5414833924842684,0.5758614063803696,0.4874469228109306,0.5504162316700337,0.4594300985936962,0.5096164778159905,0.5001518613228136,0.49102736256906654,0.43618804312472326,0.4636537847650098,0.4657772493339906,0.484781294970928,0.42761717896830304,0.43972313014463016,0.4597345872376383,0.37689775944887915,0.4526060560003262,0.4052781190749813,0.4941053258790202,0.48220890905560415,0.49701379459929623,0.5062211737510904,0.5523811037444142,0.6100113420505923,0.5914908591257941,0.5634763246357576,0.604318146734158,0.5895648770823283,0.6121634872486579,0.5733205859765296,0.5277339145352132,0.49341145145434956
0.5745430683551472,0.5717507239044958,0.5555133799396592,0.5337722168530005,0.49854993441234,0.5032707105684155,0.49953068676863205,0.45082099685670846,0.482916120328356,0.46606161949753244,0.4856011202868802,0.49772071064934015,0.4615654874362947,0.4905693131756653,0.5035770774272563,0.46417386181585474,0.5189455532633623,0.433600958460166,0.4914029862939021,0.4998425656926956,0.4999346895101087,0.49181666156716,0.511982518306529,0.5869766629663452,0.538358673596776,0.553799597083851,0.5882442476342127,0.5798847232185219,0.5781638835230147,0.5471602761284167,0.5326903642892052,0.46953054847093223
0.5715064142052111,0.598029920983157,0.5647909751466337,0.579052014995077,0.5204458580842015,0.548639385437606,0.5142197378376298,0.5189585957444147,0.5322496782171301,0.4969818876591906,0.47259124015781523,0.4848597316004712,0.4831698008627602,0.4614692647896618,0.49554365472163314,0.49959214509462635,0.524406764733486,0.4443051518427839,0.4517885646231713,0.4996884924405872,0.471867451382644,0.5148256614160751,0.5213262965662182,0.6013075641337321,0.5667828621861283,0.5538755668734263,0.5962101348732106,0.5864954712282652,0.576205110363696,0.5585529030074506,0.5501859000870811,0.5639546089342546
0.6107208373366477,0.6224573696266323,0.5741175757623737,0.594056238832867,0.5430073732028008,0.559387466565208,0.5528865448485933,0.48396124385355155,0.5422279228632111,0.5368630528432026,0.4964930725888653,0.5178618248054552,0.49663293515543794,0.47866720148909525,0.4851943943659178,0.455247706783158,0.44892333899058523,0.4350430468868807,0.4651701159267367,0.46862778642954767,0.497153105438752,0.5146908899781023,0.5681786368477652,0.6187709975133555,0.5859649681730659,0.5274959865305328,0.6209792651594556,0.6222434606449528,0.6152568693465124,0.622545458104674,0.5532867731898713,0.5540086901442163
0.5985699148502296,0.6075781968080195,0.5796043557930952,0.6022298755539198,0.5461863876676195,0.5306115084659617,0.5340912132732357,0.5415855495208751,0.5262658358866393,0.5311090790993077,0.5213249664691608,0.5229840277955662,0.41402929202267175,0.4558578246657647,0.42310053552934923,0.42039798233661385,0.34710247879867184,0.34054824494660263,0.3790517582392982,0.366056506759626,0.4617909316894466,0.5193700180986154,0.5386761107808768,0.6056582435411791,0.5196631071599638,0.5679588512592896,0.5811820991814814,0.5966065756256829,0.6189112987669535,0.537720029029772,0.5695312551385096,0.5654239508216005
0.5477958854763968,0.5997594912418259,0.5482526811356232,0.5759105901621052,0.5568637330923322,0.49648811044412694,0.45873106253714674,0.5451716057619918,0.5515113188329711,0.49166668989560447,0.4395832255355466,0.45801259947208806,0.4987779185620986,0.4671686135987635,0.4845403264967593,0.4930101154747885,0.4328635599737537,0.3719616879400761,0.39741594099822797,0.35774142199547243,0.4039389649454286,0.5389691498810057,0.5391519361797463,0.5961184610695764,0.47018622389845904,0.5428398443234781,0.5342913704522806,0.5897799391957962,0.5881213800395018,0.5255078756052374,0.5509308617488575,0.5790502558129064
0.49581652749965527,0.5372485576655488,0.4929160591687004,0.5145329274431084,0.4956492951040005,0.47024535097523645,0.43255390861474396,0.5275556525397875,0.48472092533694755,0.41293755814272987,0.3700855186991073,0.3922445750185122,0.4410052757989653,0.3656776061464725,0.39101272639500223,0.378452693854173,0.32917204711767006,0.3064903039741965,0.3258985301221712,0.30731140812946434,0.39347761561088823,0.49744932184863255,0.5333429802536875,0.5441793635891305,0.5009819528542423,0.513637028967691,0.5334410220485352,0.5197409365526606,0.544060941421416,0.4868263123976226,0.46604048847301194,0.5558755469678672
0.5534495424154542,0.5420459032189301,0.5091669463694263,0.5102497473772417,0.5121863517661753,0.4702292208021218,0.4963801381487177,0.4477083783492659,0.48354640624771345,0.46952040156110925,0.432853798817919,0.4536335468202991,0.4706375671460175,0.43549240745345585,0.4571107311799051,0.4231938209454572,0.40087196575701983,0.3837923609977506,0.4380737863116713,0.37922991450280613,0.4870329058742302,0.513585076900148,0.5281737832451104,0.6138702904294672,0.5067116102221912,0.5530099635885942,0.5602316554939485,0.5268071633238901,0.5717739276362624,0.5200888358094086,0.5075105066135598,0.5039579807746708
0.5346191800532218,0.5686541430963876,0.48772020638325186,0.47349405534685207,0.5250061897636183,0.5323843105364678,0.5098145805990896,0.4253832490053761,0.4641386085914089,0.48385605261443837,0.4853033832039111,0.5045520540703845,0.507410934470592,0.4987676019995034,0.5013114437569285,0.475737075615756,0.47167100869833906,0.4836992967045233,0.5004815525443899,0.48505809219958296,0.4993172315203271,0.49382647451859213,0.5043413228211716,0.6071434921334811,0.47283343978629255,0.5430123769256443,0.5252113454029667,0.5219480750860918,0.5428387269285961,0.49684252364330384,0.5283735718536772,0.4838155998748865
0.5869707562721673,0.610831076170275,0.5781056321117619,0.54035979048561,0.46070161249813896,0.5345938098165183,0.5085373718508203,0.5226025219373533,0.5043843484081932,0.49765839132578954,0.5178668241707189,0.504051854980454,0.4713194907814465,0.4877376628787484,0.5091462377462718,0.47492342915758734,0.4383400730055664,0.45311586980886076,0.48600337860694387,0.4982477944664463,0.5024798640084273,0.5557214261708971,0.5175141871158471,0.5932964302004208,0.462137898602396,0.5330784810104178,0.5232815629546222,0.5283801943863778,0.5540574667206629,0.511024886104688,0.48546237358070277,0.5092060348519221
0.5992418395913078,0.6093354335177841,0.6009279364044938,0.5842389962806407,0.4952378881359607,0.5401285952738025,0.5475891493785525,0.44304125875394673,0.5059228995330698,0.5112891828239472,0.5309366069919783,0.4873832626312929,0.4723776365221264,0.4839323259503767,0.5064164031842264,0.4787652935034419,0.43732787584552035,0.4598897802390969,0.4927411820016587,0.4570116745306878,0.4827153005812771,0.5142893297613091,0.4957385370525961,0.6005263674626564,0.4620853206286688,0.5236893020018573,0.5228523190652393,0.5950401949253674,0.5788425294523081,0.5147806030531283,0.48497376417821514,0.5466184910986549
0.5917285665639849,0.6171405467808451,0.6110366029227412,0.6003063344376487,0.5716054359713066,0.5266706074913584,0.5399979252117935,0.4960608474272406,0.4869886532091299,0.49451229430613913,0.4776480223636672,0.48660544207207856,0.5116599516343784,0.48689126990226217,0.47957773970359263,0.47601636583953727,0.4781057515146206,0.45842062950375817,0.48006596767428567,0.4880400928656369,0.4916968548354316,0.4702348700283487,0.5087364886165767,0.6126640361416184,0.5145115093061429,0.5382132141100648,0.5627000374878677,0.6064307275562731,0.6075252552123133,0.557511823032435,0.537126746646387,0.5007970504376312
0.6054786374580932,0.6159622195502046,0.570407933279096,0.5785745083692668,0.5469320532965782,0.5044456695360203,0.5066814889132589,0.47812190456742537,0.46560077687132967,0.47291233979619435,0.4808946077419681,0.46205569260302753,0.4658537155162847,0.4545146815650118,0.47360179451439205,0.4753942341687425,0.43830240861008857,0.41528640645316145,0.4231173659545078,0.42512215099287337,0.49385531370239144,0.49024442271429547,0.5169943165774357,0.5857367247444851,0.5276016624402285,0.5604148401212239,0.5640334513041636,0.6074682003250974,0.60948543752671,0.5544556489895955,0.5543045796416248,0.5092056710285212
0.600891239105116,0.614216420241378,0.5825140134578025,0.5522935503156865,0.5155067010138413,0.5748677764434992,0.539991764538975,0.5136287055621315,0.47223366218628254,0.46973362967715976,0.45506760375156025,0.42902546662547547,0.43561627500528716,0.414728755899417,0.45548969405835726,0.4824910439637711,0.45300265439967236,0.4014912929770371,0.4013600122515053,0.4039768432774865,0.45424695677822785,0.44873545509835655,0.571067468559938,0.6169784794332764,0.5504247933385484,0.49121141959641423,0.5813634561615265,0.6054316635267442,0.5993804209044671,0.5614502250891295,0.5187395393919865,0.5806850912630941
0.5448635413975369,0.5704359958551348,0.49506494309463195,0.5463115691337931,0.5036436911488463,0.488069116637393,0.5294069487908583,0.5209669360307861,0.48901451247770955,0.5157037694435632,0.4678402304999765,0.49442093138699933,0.49258012418621827,0.45225243016554817,0.4799799217973029,0.49939355848440353,0.4587622083870888,0.44130703346755434,0.5042139785062115,0.4331492491053038,0.4981359334693562,0.491568581416098,0.5556596496471614,0.5967201593593037,0.4885511286847529,0.4854294336363947,0.5302757999725876,0.5898524197891085,0.5758058522196942,0.529315769330247,0.5291640773584249,0.5028726784539739
0.5420655796735736,0.5749835943302263,0.5231189205630805,0.5148230882036757,0.4651083057590802,0.5295766315698799,0.5454061286049204,0.5047282360559812,0.49665034815393044,0.5681429138911769,0.5043119592104659,0.4747758962594744,0.49052165509343515,0.43770438845912596,0.46738997477869554,0.4735488332531431,0.42910741632592925,0.4307371617842876,0.4949669736529302,0.4585385809836231,0.47489804355608556,0.4653994969123535,0.5323835008312513,0.5937153736457995,0.5001159309438642,0.5093229637330489,0.5246263698176373,0.5931200011789012,0.5783367502453265,0.5391640696740986,0.4809843980544534,0.5651891459318329
0.5941705947743066,0.6106101336132069,0.5682096711564919,0.5067389601405952,0.46135342269861024,0.5785709170653428,0.48525994172682335,0.5328989676269752,0.5251499182876028,0.5462028781703279,0.5391019236338104,0.5319219335670671,0.49987467598341445,0.4957796056638442,0.5322424343840185,0.5114290770578022,0.4771400965037602,0.45030863376429014,0.4834763605719298,0.4833418667544376,0.4871739945603586,0.4981898004737936,0.5126918292483076,0.6012714681421342,0.5205285200198086,0.5566671009263449,0.5585081649278086,0.5921107066281788,0.6022510504682379,0.5592121026495234,0.5216393892619626,0.5575169076355607
0.6082634104794578,0.6127930824021447,0.6087085455725086,0.5675426774288536,0.573284124133236,0.5543153425812193,0.535710368301341,0.5012979364301874,0.5327286042824574,0.5008069979266089,0.4639035791847236,0.47077682143600774,0.537217235018158,0.4368070959711419,0.46926966872650533,0.5036961580284538,0.4729236093537343,0.4534899565986434,0.48032782327887596,0.41128977345998713,0.4614559699285915,0.5416937947892746,0.5391933394060845,0.5745966447452688,0.5542980011336808,0.5638896076633658,0.5625456325250319,0.566119439631063,0.6007675400604428,0.6011371079899461,0.568978761453369,0.5259383275719121
0.6133889501604509,0.6214195824399462,0.6036256845648508,0.5898256315578824,0.5676862783674973,0.5290869366645032,0.5353736227808803,0.5076246791954272,0.5104467015203841,0.5319112479370227,0.4756214666145133,0.4893857109038044,0.5093964804090154,0.41487515445028933,0.4379247976806037,0.42239266698004513,0.3852141377983193,0.4163700765765331,0.45485665423836924,0.34806462634907753,0.44721774653441887,0.5206056527274552,0.5563739104036073,0.5823267045379423,0.5678805747209726,0.5400799187838727,0.5551289986720297,0.57829088703063,0.6032998492369838,0.5938099930510189,0.5455244392112361,0.4774218523835812
0.614495113311905,0.6184823549164681,0.5956965404307509,0.5886479628686513,0.5524930060972653,0.5292506790084786,0.5203157799730859,0.5523548694884576,0.523853533041135,0.5178839101138005,0.46838914519703506,0.5079936341413255,0.46427382892129854,0.4189429832675034,0.4130341182242183,0.35883185640019893,0.3238768327913397,0.3289388607456264,0.3935147481808604,0.3594792996470327,0.4702865620896678,0.48093589299944306,0.5324014322237486,0.5617065720618217,0.5505509768207686,0.5162634133761395,0.5841691667338066,0.577335156716933,0.6190804678438262,0.5910310959203305,0.565824082701465,0.5243822230287788
0.5586019858836742,0.5723076399543598,0.5088771843957732,0.5907655966722122,0.5041645890134401,0.48095937055182075,0.5503167190318541,0.5612978280988675,0.5536133468755744,0.5040318239340001,0.4789901275251791,0.515958408158148,0.4386421840780246,0.5050333053097494,0.5237180083958085,0.48103199895807053,0.4135106081231344,0.34825965644321316,0.34924982493022994,0.34880478062694725,0.440956783988253,0.4542316837690225,0.5221158780782226,0.5994786481335029,0.5642795761992081,0.5743776806554453,0.5710199648625343,0.5787809582163863,0.6176323199015876,0.5807095564861918,0.5406705225009337,0.5238118396549599
0.556200050176121,0.6034200840514284,0.5437128712319754,0.583917017964156,0.5060960604507725,0.5650951782322559,0.5592778019094624,0.5557451836728234,0.5449992381861418,0.5179548361516603,0.46665858964392093,0.5117771556877828,0.4002418133351042,0.5020827691698707,0.4833040876578282,0.4958192907889827,0.3844962503964308,0.3253192016867,0.31579298909187525,0.3847628701343725,0.46225009664257355,0.3962191938994752,0.5351718529611701,0.6135727306352772,0.5172338147157115,0.5593454538538094,0.5916797160934141,0.6065715392979053,0.5546576468340232,0.554553855774359,0.5418445364434187,0.46140822636438844
0.5658855607103431,0.6140920210494463,0.5965616281311618,0.5288076541450882,0.5554965305287307,0.5180397475648492,0.528308626068113,0.5514134491779578,0.5468856497559974,0.5366973847361984,0.4736733610360748,0.5198070964853689,0.4637649119174317,0.5000182974272708,0.5144472711560284,0.5349037740669339,0.4567105794612387,0.3466431879426116,0.37328420269809914,0.4170617189587697,0.468485642039678,0.44106267927880466,0.5199721993516392,0.6122505976082354,0.48368685030501957,0.507932381692931,0.5650127840443616,0.5932738414005085,0.5557950403323925,0.5495051287628094,0.5254809205081111,0.46363245536247
0.4790757578203494,0.5402989501280739,0.5090237637705368,0.5405077273861455,0.49497005627770807,0.5380124811920388,0.5455177723463255,0.5688519978916409,0.48913833849324245,0.524198743514607,0.5368999737486779,0.5081024708620596,0.48051782372614005,0.5221461617264523,0.530807338043626,0.49906607059177377,0.4719311865149818,0.39532029054911033,0.42019525353378917,0.43040373739192544,0.44584310199778043,0.48085147615201324,0.47429283053654825,0.606099408882298,0.4674643989759829,0.47987689253599053,0.5355174150490641,0.6067295029587478,0.5544671283795035,0.4703322191540728,0.530609582502672,0.47155592133959184
0.5640432678328232,0.5546472503794218,0.5608952862317705,0.5064839882982587,0.46797076246688524,0.5383065593347393,0.5411049408377162,0.5661637959566856,0.4296953769541348,0.4876213287762626,0.46796909353807603,0.3235610890355443,0.362397193688978,0.3964182328961678,0.5050190843343809,0.5431933375037219,0.5142266272032203,0.3972696970665064,0.37548625011978626,0.43154469145737046,0.4405501579459084,0.4768083956790715,0.5044055930290103,0.6158477753774391,0.542557371197761,0.5065152016695388,0.5321174551551606,0.5958577875077844,0.5777052791871197,0.5225989777965195,0.4801137681431326,0.5309427713145579
0.49101593170670665,0.5552722786722101,0.5666102949035049,0.5179906532653556,0.49571237761371917,0.5029579095705092,0.5106814980507826,0.5165517448398285,0.4646390690748891,0.521131238756581,0.4893628141323459,0.39004403512029306,0.3706358999637148,0.35522782999325264,0.3905072816016953,0.43825988147957257,0.4100975182663002,0.30376113624457335,0.3446955011297074,0.4250610539476709,0.4696321524941571,0.4555216595216598,0.5426109213243682,0.6049489704034093,0.5520070299612931,0.5259805562032802,0.5142091643592581,0.5959226807597121,0.561480671037417,0.5077979876844307,0.4892930001147469,0.5232837062977693
0.5564406117638863,0.5940297614185002,0.5417025347905549,0.5612009496199529,0.5374479827038603,0.5033477513398332,0.4832534952318581,0.5127454664471974,0.4276492607820258,0.4981138767309376,0.47281245667940514,0.37457384800677407,0.3418134780200263,0.3391525344567817,0.37612381024288666,0.38495332956081624,0.3801273193048734,0.29235851458231876,0.3371199404907113,0.43724824327530226,0.48760169625661903,0.4556218752610683,0.5512906145770899,0.5950686253079814,0.5630265991167713,0.5213182977729138,0.5617443958777174,0.6035150411202063,0.5816953206874902,0.5674249853769016,0.5150752239411474,0.47466363598217653
0.5808397519249835,0.5765895535929024,0.529545427043361,0.5524088541467912,0.500541419674047,0.4951331096536083,0.5378001007087163,0.525898907579651,0.41028232474340787,0.45542425568740347,0.4256201211951342,0.3335219736757233,0.3924630991467977,0.32145465354291464,0.39658976751401814,0.4326122832043644,0.4526241156974807,0.3833789707543818,0.4456893499611601,0.48331770611901553,0.5195260268237193,0.5015739162186559,0.5202908526872783,0.6063262070087811,0.5410310778897854,0.44306855087689967,0.48793096411432757,0.5816551542581252,0.5874249639752438,0.5477142548958994,0.46659864111312377,0.5219704654957339
0.5688312008190572,0.6314779145445877,0.5409361170013063,0.5212245786400472,0.5097460071844722,0.49290353357741035,0.5153389249204854,0.49713744377825647,0.48937098614413677,0.44360790088520086,0.3925608403678156,0.3975376958101275,0.4900620924862276,0.3517040401258465,0.3813350945991622,0.40019838365238436,0.3482754804945914,0.36336275379443395,0.41463673072770385,0.30046225934778414,0.3906355332489476,0.4821786578360833,0.510929585929511,0.5733915752321099,0.5317990319158022,0.4966364469920528,0.5543866896169263,0.5603976059162407,0.5952309836553284,0.5400370610117263,0.5019311623776266,0.532933848380466
0.5591975363218844,0.6208257975578558,0.5376819417729735,0.5341161044582653,0.51641301028902,0.5410217632590816,0.5306416001276616,0.4920147528724728,0.5030831092270492,0.406662760332115,0.35028661436768505,0.35411550788010765,0.47024744741335567,0.3215833319196417,0.35567464616859656,0.3811506255016154,0.34715665953879365,0.33007934188135607,0.3729837138034741,0.32964216456617973,0.40449992917068023,0.5112570243155776,0.5273477077074072,0.5679079124717967,0.5547878569107905,0.49485424387997873,0.5477190079779473,0.5789837851052272,0.5870399173913754,0.559736803084965,0.47973711130412683,0.4856726492069004
0.6027818242288315,0.6066304349645532,0.5805997481202907,0.48404378500059353,0.5129207975441193,0.5790713760054591,0.5564832586779055,0.5319121954308328,0.47547818476533776,0.4281074374940164,0.3950329209508929,0.36851731753173156,0.3555830731572606,0.32547152331867585,0.3845666590130437,0.4104110755623173,0.34525698708188146,0.3187600033090779,0.3361489542787086,0.34211468410347956,0.4026356619448016,0.41706880576137323,0.5349642676227765,0.6051881297536122,0.5524453092583669,0.5223598378286739,0.566024766879594,0.5994274965393468,0.5864414945117553,0.5664060525032273,0.5008256190748289,0.4890641811651026
0.5753889703184827,0.5891482033019755,0.5493311161146515,0.46869629609206737,0.48044894681436773,0.5191323005686321,0.5207324955884889,0.5004164577549093,0.4929071111260523,0.3674107028142191,0.3481655592500953,0.33328499581035015,0.3690926031536477,0.30452869125094645,0.33290374799195055,0.41682671644283936,0.4319256148640958,0.3555425689734756,0.3491161188444728,0.3916334280743709,0.39198808004338537,0.33693640809858827,0.4865171982144866,0.5771495575880894,0.509431579420546,0.5237810275309185,0.4666380891861244,0.5240345725791902,0.5301215185507829,0.5119168947455995,0.4548353864600769,0.45591928515585217
0.5563414199287342,0.5914719877361619,0.5883710779741265,0.5250690502125577,0.4575384495988599,0.5226822401139172,0.5303210608246525,0.5644410797595287,0.38106680426423883,0.42457223655205595,0.3809872716696617,0.3190887294067666,0.3127533854761034,0.30155097817762405,0.3400724541241802,0.3840485387389287,0.39229538384518653,0.3285586633662196,0.34731984757797857,0.3951328103416902,0.4353990166458237,0.4158313872318663,0.5270748763285386,0.6085593977850291,0.5500112696655518,0.49275266658741246,0.5025227282828546,0.571092411515869,0.5786344924275534,0.5362091236806247,0.4809741618421525,0.5055189715718298
0.5855887742332031,0.5843383841411305,0.5990813648498203,0.5685913747816496,0.5215384805605949,0.5862996503912428,0.5382307539333051,0.5395963104439057,0.41009545250253376,0.4898661211686419,0.4632070220151259,0.3947987318132597,0.39741676041763235,0.3970003062936379,0.43507592790304567,0.4136150805912858,0.4258299641409932,0.3620660175985793,0.38868776494701046,0.39721411273891366,0.4863828119337546,0.5088254108235735,0.5463613521852297,0.5933330217849276,0.5781404311254704,0.5381146137498746,0.5751649659375361,0.5860934363055008,0.6271498671463077,0.5801801283199745,0.5251200702655778,0.5492653482775909
0.6056709989493532,0.6058084051273188,0.5384052720524402,0.5655027085833199,0.5299637436702864,0.5498015242188778,0.5272500620999069,0.5530644044838741,0.5460487577575018,0.4761184305330983,0.4313824522609605,0.4658493681181432,0.5158073008055786,0.47000657721091466,0.5013998906119816,0.4803134647917652,0.4574658568486758,0.48268691792639057,0.4906903580497815,0.48426234862031453,0.5327675794383149,0.5278075065076838,0.5292637727699296,0.6359988997359892,0.5774959327646485,0.5651137470641522,0.5883354113451645,0.6053834991550727,0.6082501291721223,0.5263969322777253,0.5318179597658713,0.5754924454966988
0.5843553379007885,0.6173330246485639,0.5655032027249712,0.5588154598929415,0.4847782382056927,0.5368047387431735,0.5639751365115935,0.5035404009200743,0.5491445133477112,0.5731844369691158,0.5413425433322644,0.5077453013975816,0.5089438956150298,0.5042980110342697,0.5101256087549949,0.4515551294800827,0.4574969459836613,0.4753723180011909,0.5232897921515428,0.4925073403647994,0.5105607961823101,0.4892526576288654,0.5382724302284102,0.6191834477099042,0.5336374869053988,0.5190645948615668,0.5269888182327683,0.5707019510810684,0.6060125134284775,0.5265577996948655,0.48697554441695834,0.5669234151293742
0.5899364902618461,0.6144376576014615,0.5827026666899838,0.5609323480390876,0.43686584203834894,0.5649547430803351,0.49875963375864774,0.558095301607857,0.5424453437104063,0.5329518598895048,0.5119163618960368,0.4716624573907264,0.49275453057103924,0.4354268823006918,0.4602016455410052,0.4494778403438558,0.3922740686490284,0.3541357352065723,0.3890964056172413,0.37884742116928605,0.46135437021908776,0.4755879542669903,0.5429852005562872,0.5756464372131286,0.47202627858794727,0.4966757960635261,0.4922204764700078,0.5443732732814904,0.5539518597921902,0.4896037664086344,0.44576039604207796,0.5279627361897075
0.614354837471543,0.6132238015948744,0.5740945274217976,0.5670706212617773,0.4322008295412828,0.5574509259896073,0.5662382976951336,0.5651026926615057,0.4808731350651076,0.44992597642113374,0.4183623674584631,0.36897690044298104,0.4188066762672984,0.3311877196644619,0.361956367796949,0.39626094364861936,0.35560357846567064,0.3403747025403473,0.3368970189827831,0.39666913069712667,0.4203832478254151,0.4491378449338384,0.5557806227933375,0.582178290433888,0.5587960514057502,0.5310118391090158,0.5833996121276288,0.5999631820903888,0.6041005011554623,0.5676491028157028,0.5097846133302483,0.535686712173093
0.5163927893625291,0.5387091299276162,0.463719001139254,0.5455442024498974,0.44916457835875445,0.5287546300645818,0.46745732708461335,0.5584341510238121,0.4731379482074649,0.4187030295317682,0.37429808481433297,0.366386276387363,0.38132471618482183,0.29989241278985146,0.31757250259881314,0.36855324840409603,0.3294662954845665,0.31657558672452013,0.3206730606789457,0.3424840110607008,0.3907220758666412,0.427166000316908,0.5312231755589977,0.5543449253747995,0.5570389041426093,0.5304287259162556,0.5446630663741872,0.5833582873376411,0.597289678435278,0.527458401561219,0.4839434864051108,0.582071814829071
0.5511943437949107,0.5984172620058341,0.5459908469545989,0.539808347526957,0.5254112047826629,0.5428684169315309,0.49736286985605727,0.5386504301963154,0.489233627526661,0.4583784394634304,0.3982309474642376,0.4021027306138491,0.4627437129990759,0.33327062310189715,0.34566486965780274,0.4207246967744435,0.36595801160755087,0.372659233574356,0.37454415025234067,0.42477070511398135,0.468739347286479,0.5017210724789449,0.5577951463464124,0.6015083350667385,0.5712628336063434,0.5153545079089599,0.5776978057222552,0.5755169502723207,0.5944128885812394,0.5841017610864023,0.5067683204712945,0.5308646415366376
0.568777933724156,0.570015297070792,0.5160671108757139,0.4520047181025449,0.47992043147625757,0.5157168851384142,0.5680767284015101,0.5596328336057481,0.52582976844646,0.5479120489246212,0.5179907019412368,0.5211012081889335,0.5119434196850663,0.49965528432000195,0.5189374802385265,0.5255711907394754,0.4794280032078478,0.4973034422026841,0.5320268711435404,0.5104485443643572,0.5107411767872284,0.565176600357176,0.5615980864061055,0.6071761168866228,0.5797370422567456,0.539662332447136,0.5729737206794426,0.5921656135221874,0.5791500733970114,0.5636524599018728,0.5195840179288337,0.5536673131878
0.5479643234961842,0.6135746810310105,0.5184207942621141,0.5584799654331111,0.48584088048494184,0.5329347093025478,0.5068666737702506,0.5821325683112485,0.4627588604802548,0.4963988947680537,0.4673704564852604,0.4618126721739211,0.44805375255885377,0.46014631973170994,0.44749855685031414,0.46284265936908925,0.43293027357436487,0.4701313644892892,0.4626692987803668,0.42226910881327345,0.42653875535184577,0.4616059686070427,0.5220261211276328,0.5134629229132395,0.5074875221323054,0.4943232957218143,0.5078271362637466,0.5588691307619694,0.5513584988624803,0.5129957492768821,0.5162061992318385,0.5704486607920564
0.5863379398738722,0.6152803255691504,0.5555066218112087,0.573124160589156,0.5095579093937106,0.5663667709068886,0.4741748173035383,0.5880220357398319,0.45418700791370525,0.5035442421696157,0.5071729968665588,0.4828751189054138,0.4448331104508577,0.483813111064279,0.4866048215949982,0.47998246797779104,0.4662573112796632,0.45219200695632594,0.4759896323005267,0.48769467653510556,0.4757555736549785,0.4706063807974922,0.5339374733901819,0.5565482692815147,0.5549834874507825,0.5376779127528328,0.6083896347412862,0.5265586159988696,0.6099532351951078,0.5800108670348223,0.5383716827969887,0.5477108971795295
0.5455125208116642,0.5670502294600398,0.42189199387003384,0.5406531454808888,0.5330097932705928,0.47543824725472766,0.3918295989591333,0.4701260873173963,0.5042532625720099,0.5055934004944487,0.4953974529155199,0.4841993274420674,0.494789014560255,0.48712356478047614,0.49164185560200474,0.4689043531868379,0.4568692176964111,0.49463460433098894,0.509242202784697,0.4839218441220886,0.4624534725456481,0.5292724805504087,0.5471819801428117,0.5587266313481147,0.5287506138510948,0.5348359802117654,0.5619929250485106,0.502285633467894,0.5624105898179093,0.4889293470648604,0.5302671750136577,0.49176466207541847
0.5850751713204679,0.615633214422584,0.5406330133950007,0.5771250342334451,0.5573211536395312,0.5848171618492671,0.502068466299906,0.5253669797910501,0.5153963138185546,0.5185611521426504,0.47716044638851646,0.4467724280218917,0.5043843902809201,0.44890916240623696,0.49887023594628566,0.5029447315175696,0.4837844709005885,0.49407583641167196,0.5039979249834305,0.4939952137085037,0.5215252993433221,0.52624061421805,0.5340460368895278,0.5830364024892739,0.5482450719417292,0.5379646434618716,0.5842432231970559,0.6068937120938737,0.5912709402522617,0.5480831622400785,0.5590187535786346,0.5062201541861028
0.5929185604488698,0.6033612129420927,0.4901152880459524,0.588762085382505,0.5399670365010883,0.5307350246694347,0.5012413206871695,0.5068449702585748,0.5246119295922483,0.4610145780923273,0.4736766359523238,0.4751599097391078,0.48867120662815816,0.49257611776225874,0.5281279117774337,0.5298153091936887,0.49985632891957243,0.5087587328527792,0.5117235643176772,0.5115160925467985,0.535308242254789,0.5364014784311879,0.5353213632213343,0.5862989025761794,0.5445170172358132,0.5225012961521669,0.5965925339821135,0.6096339141362668,0.6150139326449372,0.5528744663208217,0.5502468384375944,0.4910146698932029
0.5887492703145203,0.5838733033539324,0.47979445165174733,0.5339163256106559,0.5485802325418254,0.5160515555283364,0.4988252023114639,0.5367736291625044,0.5600057532054863,0.4435560763528386,0.4573249039864915,0.49256964893628896,0.47733645864283064,0.4864537302405684,0.5181446973192022,0.5080904946853617,0.48486167778035894,0.5019120488827099,0.490299162614092,0.5215502246257144,0.5124858715551934,0.4971396713990591,0.5267056586651726,0.5938287577052596,0.53031647308525,0.5091456039980128,0.5622414610964517,0.6179961312372045,0.5786300509945936,0.5804259702602518,0.5533227199741472,0.4734482728321283
0.5775530893693688,0.5946763001764795,0.5227323290408746,0.5516372006282607,0.5733992307950507,0.527979808276949,0.517786915223373,0.4857791933374967,0.46941313245069843,0.4814754855339769,0.49403088633660347,0.478565684767373,0.474232882439793,0.5247910537129119,0.5637968528074513,0.5450769949274209,0.5287722051783573,0.4990285852929872,0.4985933748004901,0.4986263895411687,0.5052057266383477,0.48445079105867256,0.5473887658454609,0.5995993623367029,0.5451829523753359,0.5483022727093423,0.5827012490630707,0.6040227176691513,0.5971197825597587,0.5548744491237835,0.57049928414948,0.5092567378000822
0.5715986520338714,0.595904059874514,0.5394495806316766,0.49520027261630517,0.5157616646091508,0.5205928856291069,0.5036666167447932,0.54145406295475,0.449412325179232,0.4518438650428053,0.42566741491614135,0.42603615813483914,0.4465708430135253,0.42395781077384526,0.49960477405777226,0.4939001113621561,0.4723050217876288,0.43947429568859536,0.4392702362151299,0.4394327261292045,0.4699439621363457,0.47425399623321557,0.5073360290156808,0.5912037460931716,0.5242383931178876,0.48617404920500534,0.5584354240785693,0.58447784915858,0.5768959362094574,0.5355538553795713,0.49000602239369745,0.48551667763823947
0.5769813689342342,0.5962213461270858,0.5409353187117085,0.5406209899191435,0.5738355871267825,0.5041211214623491,0.5342703442980127,0.5528645516582755,0.547191631536356,0.4669612124131804,0.4576271415593462,0.4754796545444943,0.5048905880299828,0.42984157853779037,0.46889013191055107,0.47374785688299,0.485550427989783,0.45977585176990693,0.4631764125881471,0.46670055352043527,0.49108983703233444,0.5091336271724445,0.47508502396027485,0.6083706094839788,0.503044546127598,0.495244558831984,0.5552159446600993,0.5668442452021482,0.5865795771732335,0.5245431171708258,0.4937087406118666,0.4863979137671749
0.5679893447113212,0.6041014281295609,0.4900487495151476,0.5826540770919905,0.531952547699951,0.555994454712585,0.4929729164798096,0.5071410772139991,0.5091637013895305,0.5031270844622604,0.49351989113810174,0.5144727873688411,0.4813358694458092,0.5116019718086292,0.5323639201816708,0.4977098083401643,0.49369795607256595,0.5079084580379,0.5267779275383498,0.522090212283527,0.5203307160201107,0.5195892088956933,0.4899090893220725,0.615595054291843,0.4768039389071327,0.48306438031910465,0.521585378059991,0.6079960204368741,0.607103538985116,0.505249783493793,0.40523305520899416,0.502283609342122
0.5461729275806603,0.6069625610912991,0.4878631661116774,0.43429099986702185,0.44808857771007093,0.5379810896617633,0.48454170679020775,0.5152631018017282,0.4868582322552956,0.4954951197355663,0.4823040191419097,0.5340412289087818,0.5118874214212411,0.5137103398474254,0.4923333132278428,0.4260861070638823,0.44630663374280455,0.46841452447228915,0.4916326585496341,0.4915701603691553,0.49601411123785816,0.522200115358004,0.5108869734366406,0.5858625350886923,0.5030277642568625,0.4701741430533226,0.4920130102929622,0.5655389232364155,0.5431862926777097,0.49130942478440276,0.40465915223097104,0.5316770973136921
0.5697409440976828,0.5599833408478506,0.572311974363225,0.4133254550595904,0.42247201934471856,0.5646587180683901,0.5538440328029036,0.4998240603861678,0.48986865199070684,0.49588624747831384,0.4286801400860717,0.45194490786105185,0.46770513172819317,0.4587910976223803,0.45959356768386833,0.4571004511933488,0.4322267473274295,0.4638369395917054,0.4830398322228277,0.43690334236184253,0.49151835634639984,0.5097036479737235,0.48706905912379866,0.5466572488496206,0.5070649701039034,0.46873241492017026,0.5168520046311911,0.550619528835317,0.48075423407508405,0.4762149453002067,0.43116593966549055,0.5552691022436524
0.5946847318216619,0.5826645160114928,0.562372117085651,0.550508002689428,0.5407430824438283,0.49357797502081957,0.5453350197353865,0.4800151208148428,0.5339788371455856,0.45107672438386437,0.42659796870709543,0.5304966065792361,0.5259533942831164,0.5276856217595214,0.5423983916464294,0.49926475686740424,0.5011483493079534,0.49953634600942964,0.5155605606524741,0.5004381840339235,0.4986282412104717,0.5497748886561005,0.495723045488361,0.6121866820706187,0.5112332756364658,0.5329552942341343,0.5348690755343474,0.5947797904272942,0.5525534122036416,0.4992697851490514,0.5337045153899945,0.5458526460917572
0.5582749890129116,0.5718523987993614,0.5704576262625783,0.5730180639020628,0.5114094347090521,0.5471857912236376,0.5357202695335985,0.519210471803016,0.505397195270382,0.489909137176296,0.4749962320161981,0.43460600758280044,0.4934545237020236,0.4115799861318193,0.479890597517796,0.44888463962684055,0.49102239165537964,0.4891384524794481,0.4920829277716561,0.5197162098664769,0.5038206196502155,0.49481942483956687,0.5297328575799403,0.5989621279126834,0.5484034453198342,0.5466136977294971,0.5425710130500084,0.6072884672763793,0.6070965878179568,0.4902345210830738,0.5666656895045571,0.5565263933961737
0.5530820933963043,0.5925462581533902,0.5461300167600502,0.5677311829928511,0.5122773995683699,0.5302887969352543,0.5229115811452535,0.5674543344977568,0.47891371417283046,0.4679645157552284,0.42758916864403657,0.3756377627622474,0.43117485135467404,0.35140459617375835,0.3992317984059673,0.4367457391407777,0.4407892067647528,0.3651374065489233,0.39888637695589113,0.46147702396113977,0.47158966014001197,0.512019027938194,0.5070901212307902,0.5542207298563167,0.5635640043873781,0.5451836886463916,0.5700724722915502,0.5907606825300149,0.5882969420782819,0.4744768496391223,0.5150565556754907,0.5503890050586681
0.612602893670489,0.6177877583824396,0.592252625800555,0.5380638617916732,0.5132995647842704,0.5618586372497263,0.5226937417336512,0.5203664509746015,0.44178502593978575,0.4198223657059768,0.379833943356183,0.37015404279019215,0.37299836356996496,0.34712668499367255,0.3785037173534897,0.3852883966366559,0.36729169341851947,0.3419415229364085,0.3219240475078911,0.3456050728699356,0.3789635044142681,0.39587555988195144,0.47214730056340204,0.5649340896134242,0.5168244846205746,0.5328771214440335,0.56791794550725,0.6162735205771995,0.586182650628594,0.5215355603803652,0.5067269185196912,0.5264866993940137
0.5934185543432046,0.6150674207719621,0.566531662583954,0.5297062725205403,0.485271361956725,0.572826022829991,0.5212265004923294,0.5482208937785656,0.5003211374187447,0.48827335846595604,0.49740885088513076,0.4925201246677388,0.4974160527263767,0.5051504476621796,0.5057395412945227,0.5080111029743988,0.4428736974017688,0.4526905206822467,0.43050410284720453,0.4298695427540668,0.45903004955785665,0.4939502758207117,0.4422020877703983,0.5712771449590965,0.5311116194639035,0.5723951014683529,0.5969209941692761,0.5840413489939145,0.5945326402924391,0.555478520520195,0.545154876842823,0.5481049504211662
0.6053020823189962,0.6126336937368558,0.5928921679308609,0.5744348698615643,0.5116112234106797,0.5649846054236904,0.5509238435557507,0.547469408028654,0.5402238194521808,0.5159715102553559,0.5417715431090625,0.4975586313802169,0.4961439395781411,0.49507528952867286,0.5259690655802156,0.5084454188717484,0.4681302925415318,0.4820523726633532,0.49429414827788737,0.5251603600717124,0.5376770437717837,0.4945091442387681,0.5479509915213291,0.6134037285479486,0.5935346637890235,0.5721944242891017,0.6056370659368927,0.5737745256743602,0.6118285658876091,0.593670983410807,0.5393887795000971,0.5339466225985903
0.6107306321143108,0.6144972236576246,0.5601124624515545,0.5924489780808356,0.5394097986558732,0.5249666990818371,0.49692498690092574,0.49688363424327064,0.501547625404605,0.5226152393002552,0.5321213486107705,0.4992605128869585,0.47780383114788716,0.5006423479654688,0.535135437896874,0.5353881102211769,0.48401216681983905,0.4795197878975994,0.48919732272843935,0.5322975459621846,0.5225333035701427,0.4912563664319695,0.5589997805706894,0.594162150473522,0.5359396558940189,0.5656656160404968,0.5638694799390092,0.5920947113960796,0.579890044159825,0.5718462741922579,0.5671708706435836,0.557118809794241
0.6002410142038602,0.6150828142107883,0.5403242308297824,0.5721924904100022,0.5079744489030942,0.5063037132647795,0.49744540169558926,0.47221192506863674,0.4642154353293315,0.44129892202273857,0.409557701808332,0.35209332052188863,0.4093381026628131,0.32243924049182454,0.35061591978766365,0.3823267722494259,0.368881938057101,0.3181499644967677,0.32087549762774026,0.35264872569911265,0.3765000211996747,0.41418529192072745,0.5000315768380712,0.611166387950223,0.5489564543177454,0.5169403041318845,0.5664081433382844,0.5747862650510561,0.5798315111037169,0.5455491157739559,0.5319504450984843,0.5205085210812155
0.5948205666975379,0.603274427076966,0.5467303924806955,0.5805444533896023,0.5303108905315135,0.5076632875475826,0.47909232584563327,0.510092053557803,0.4793691074752391,0.4319744826574378,0.3575782929557857,0.3342546066502899,0.37957229454205643,0.2834720508958609,0.2933044816486163,0.3062894529333761,0.280023908088896,0.27977810348201954,0.2827457555886362,0.2774685517333991,0.3209816730036595,0.3982973017862671,0.46136534791348777,0.5382250595123509,0.5485987269961056,0.5126820704055427,0.5798193404127804,0.5821425948891922,0.5810792213084859,0.5647349193589033,0.553276236417504,0.5272694821930834
0.5441239583993503,0.5892822914874725,0.5385308646151579,0.5147223649999794,0.5332418710084446,0.4954717568157309,0.43697292269895316,0.5064448927856361,0.4936851818086936,0.3668281455462511,0.3473593362450567,0.3406875973599774,0.45610562442640806,0.3081600180691906,0.3415209071032216,0.415299449994308,0.36116525634104285,0.32122280553768606,0.35883346196706334,0.32515307155108025,0.41286038307342143,0.39447739083638733,0.4485086124904112,0.551254270795658,0.5354158363474487,0.45902326762014845,0.5225105418986816,0.5997332929286825,0.5633614342743158,0.5097975917006115,0.4811376818349597,0.4974156989318572
0.5390673007848508,0.5718871133538026,0.5200489731141136,0.49943385881091323,0.49082920359764576,0.4790139270972127,0.4509186566688254,0.5195703698777974,0.4061903006951218,0.35918739292074753,0.36086781493903736,0.33242689792983454,0.3791428522552624,0.32328447297637525,0.3508318485133708,0.40699372209914086,0.40753968553585646,0.36601639330166247,0.3733331937171971,0.36383154754957403,0.44286462897394324,0.3932229280685819,0.49087374989477917,0.5764229250618353,0.5363845996293346,0.4743306770663111,0.5285189101908078,0.6069495981705963,0.5519210976110679,0.5026475929700405,0.46893735677893167,0.527652427201799
0.5352770194423578,0.5712975925943536,0.5148223886372367,0.5948700063843153,0.5034806466596057,0.4872577938210706,0.5423431900158333,0.5164637297138464,0.5355354423553085,0.4772550610168225,0.4948933143343401,0.5013752808867484,0.537936256571465,0.4935139658900055,0.5122468028283503,0.5165431905643278,0.47823947102199205,0.48887552148380764,0.5198913144374587,0.4679658440987032,0.5020159705726788,0.5245163295370755,0.5563239216901636,0.5964676268379826,0.4779415803404069,0.4210654764578819,0.4858348986315312,0.5643029912145836,0.5329300240687312,0.47217796852742594,0.43302948733903507,0.5284422798523881
0.5973806454221098,0.612289885262767,0.562746353997598,0.5858565332395689,0.5282640104528764,0.5794420550314651,0.5497214496168515,0.47678482224534874,0.5469145315895269,0.4886296793773941,0.48417656554446115,0.5044102501585822,0.5169826798139552,0.5239491789569559,0.5562217764849812,0.5325492689031939,0.5196467742393256,0.46637317044710425,0.5225583303972938,0.49233447665359914,0.4975888937541695,0.511198485886505,0.4961904252891708,0.5693989997189163,0.5218300478740991,0.5339120558205731,0.5658072958189384,0.5521304214475629,0.5938603966123894,0.5137032318391161,0.4981138470172181,0.48891825932930855
0.615443818672829,0.587783134390011,0.5881847333675427,0.5569245418658931,0.5517476918878794,0.5587419684969098,0.5818182740087019,0.5221465559089492,0.5298882835060291,0.506234607840406,0.46890518904520967,0.48847402033349685,0.5355953760279341,0.49291690140491656,0.5121798700663509,0.47744564475122897,0.4837685225973704,0.5264770095662094,0.5232282035125155,0.46362902850479826,0.4952292539244811,0.5501517427347933,0.4966010333926545,0.5531874613332066,0.508746956118481,0.5403857865268784,0.5484363501843541,0.5923061079672487,0.5885020636657615,0.5666851975492854,0.5090638275209413,0.4975515584565393
0.556709716294863,0.5863311665500776,0.49955280640289174,0.5707552031033853,0.5351096248177428,0.4771047427609155,0.5083006903878551,0.5112995691747988,0.41190962799843417,0.47274078861501273,0.4461339634048547,0.41533879624358955,0.40404108979104153,0.39742109732472325,0.48385457310007113,0.5088909484918158,0.4593466854445091,0.371773208859027,0.37098712886810425,0.43899495834801716,0.42493513303947905,0.4388591090078042,0.4873397423790562,0.6047778998336176,0.568681364414372,0.4967867061968661,0.5646263914950174,0.5798320054172731,0.6070642630190868,0.5537387899370945,0.5314621463706759,0.48462159331398585
0.46336818139199054,0.5243278124285056,0.5425236909821172,0.44418240438379125,0.4444271321188119,0.4657417476705363,0.5193402235640908,0.5089443440678648,0.37149065706448736,0.4431064135199578,0.43236227912548914,0.36719176369612583,0.3746985432869465,0.3903787555342071,0.493911770830652,0.5062764274637662,0.481760732733074,0.42386481019695527,0.37071421537456906,0.43492460385451254,0.42799490671370444,0.4040066545494764,0.45866717321385614,0.5852728745568038,0.4956232287019222,0.44020849143911783,0.4875920634950896,0.5941436552257563,0.5261848833506886,0.450116750909026,0.43438081234317505,0.48807032225276253
0.43525900472646784,0.5070042429234516,0.4772468674360442,0.46156669176825754,0.4537095182326999,0.40822079590165966,0.43331938993091546,0.521645289202322,0.42282253653361573,0.48176823513669187,0.4791804463500663,0.44275275213517973,0.41430611407468976,0.4583431093867489,0.5234213389092507,0.49563181238256643,0.4907189568637621,0.48140666520401526,0.46274638070026614,0.49919155199242643,0.5005737273960283,0.47101810987772685,0.49173902418669,0.5938056931997259,0.5053292998181399,0.4739670743952561,0.5040044909650992,0.5558197352470199,0.5179033075233584,0.40746260306795284,0.42429908083565643,0.530318027953612
0.484649856250174,0.5204081005364968,0.5126592971772561,0.46273046336935253,0.42622415413471354,0.5030703572717417,0.5641670924736986,0.5355443235286254,0.4082388014595624,0.48153196500307627,0.4653093949046904,0.39474987043457016,0.34601912552742087,0.37967623947776297,0.45162255266819545,0.47404303549797955,0.45239319793883226,0.3872995195306185,0.33582576800151176,0.41692923141924365,0.43797147120259894,0.38806618588786274,0.4939704821231006,0.5684741074382575,0.5342407566496561,0.48840686251363746,0.513443160423923,0.5650334480935366,0.5415819225958686,0.4481654300928029,0.4215357168909962,0.535689717839408
0.5432104321961974,0.5802908741778371,0.533967373726233,0.5321209245583255,0.4690146004212332,0.5291473736638873,0.5122987871463646,0.5343046653338215,0.41476918743226127,0.4868588399974659,0.42948454559549926,0.36901139130909844,0.36871334528504535,0.333742188859505,0.36262669448702656,0.3944552596542353,0.38776011216866885,0.36128358884095024,0.3451434635320888,0.3708825188865262,0.4084990064749943,0.38718656027327947,0.5002564994664757,0.6015825121271249,0.5294270766196397,0.5444161487724074,0.551135878322594,0.582497817445855,0.5603359456276691,0.5357925428676931,0.4754527942526512,0.5068496775213369
0.5551949106523758,0.5970454780590546,0.5313954577764631,0.5425933427957037,0.47454448241628794,0.5157396791715874,0.47169352576669815,0.5394189419007182,0.43594405564012967,0.4310386321614818,0.33086203806840453,0.3420437338498558,0.3647577767892257,0.2920117543688034,0.3054280109472456,0.3378658136269528,0.3232915613199666,0.29338041800471365,0.3184025117432352,0.3160931592903961,0.3560684746951587,0.40734862061364296,0.48399249045763904,0.562827782754271,0.4837500317174238,0.4486243213707266,0.4975542365161192,0.5606492447095863,0.5743622323268925,0.5019692749086446,0.503116307951987,0.5414876152235312
0.537456997082908,0.5724121648691382,0.5118734585145043,0.5141677028162169,0.4086509086800506,0.5143490133901185,0.499714230243903,0.5379130209292178,0.46761179218823823,0.4239091771291281,0.3595332742261938,0.3862935504375804,0.4030715040448455,0.33564445465953197,0.345496516763436,0.389527896841067,0.3386260778462549,0.327833907949187,0.3373177837681435,0.3496037929077963,0.40373813107943296,0.4151154873205871,0.4840089806666684,0.540190498121544,0.47411592813101877,0.5185495046275373,0.5232281289432177,0.5373897177342736,0.5465342601897347,0.49555588222040475,0.5060109960097132,0.5406352331310383
0.5948131817039228,0.5867212561577598,0.5681873372019531,0.5594522778515736,0.41028972963986277,0.525759613420458,0.5630988784542171,0.5089220259019809,0.45020522756396675,0.4270648839598685,0.357245476002179,0.3987108012020722,0.4482490836880743,0.3596251005961468,0.3578299590187979,0.3861900971107133,0.3411620872388784,0.34533289321905725,0.35156615808149155,0.3122460820175116,0.39234558744103776,0.4597390857565381,0.47925375376417473,0.5110428506444513,0.47895614175809437,0.5444267588360601,0.5663826002666219,0.5775545300121661,0.5909830440243276,0.5018209912336455,0.5105223245644182,0.4716810751409512
0.5601809720066689,0.5925331002164465,0.5520199699088841,0.5747468298886295,0.5423748793406173,0.5175132381823538,0.5281855415538929,0.4844620167267697,0.49075434639032495,0.4117959387710656,0.34692001652315396,0.3773118127177196,0.4118880810907137,0.3049561172907029,0.29414787368966927,0.30178041775508746,0.3045480245913983,0.28140084634235923,0.29383739080729854,0.283993449198017,0.3430819253585576,0.39949772270110884,0.45379330288495506,0.5332719783898793,0.48657370644035164,0.5277845160390239,0.5616599471352476,0.5611210527748347,0.6047110335508282,0.553228708663802,0.5379886331621633,0.5220769888556344
0.5392365498201823,0.5462896064741878,0.4887170133920466,0.5463292028868356,0.5249444430372895,0.4993634513545849,0.5102292135392075,0.510020864920647,0.49726374079224966,0.41860725377808405,0.4325666237854675,0.42092783280169416,0.4901017166565493,0.40265354787732544,0.41289558132101534,0.42216898526084035,0.44672530723520515,0.42719707953990715,0.44573964934726973,0.41837116048347606,0.46805855465897134,0.4937634284150026,0.5378119933794416,0.6064905586083968,0.5302433521465438,0.5165024826116452,0.5452508433427129,0.5703143575468023,0.5695495597517495,0.5507344724139868,0.5378357752514427,0.5009644038530463
0.6034767614050432,0.6123282821961139,0.5814410495590052,0.5597717362476206,0.5482495997804497,0.5370093476930781,0.52768424049414,0.5477409585090294,0.5420475327702492,0.4947436984550963,0.4951339851012623,0.4943083925010782,0.4645436298943056,0.4872897708052703,0.5241884960424805,0.5144543696481133,0.4799232883974158,0.4349416665306201,0.4292520470653513,0.4481632617310684,0.45736956201540946,0.47188936285434346,0.5366494859989962,0.5912450625797211,0.5624458283460803,0.5342719940344183,0.5834508504248519,0.6096673807411341,0.5934734383034458,0.5715035723514564,0.558549664402504,0.44559962628595623
0.5798802411695017,0.5952040599261703,0.5637412396157718,0.5746117565248284,0.45071786522189244,0.5274233840571959,0.5202810571892745,0.5310839195943561,0.5598306924506108,0.517916718413008,0.4997823775240903,0.5244571126940358,0.512946288388539,0.5408447571481294,0.5390368303041614,0.4955583252196902,0.4934061254806414,0.4446862850366554,0.47016307491474185,0.5490115686733782,0.5575968480237268,0.5161317114360282,0.5429926140711071,0.560371716113866,0.5693256407119235,0.5505568213466985,0.5815590352107021,0.595293790247473,0.6104642369313094,0.5152911374009643,0.506224500485362,0.5590728060666867
0.6144135221965595,0.5772225601589098,0.5687636083645412,0.49777626842181566,0.4532318126891243,0.4599584917144975,0.532333219715922,0.4730846403745828,0.5498090912858945,0.5386509490250582,0.5435952609739275,0.5312652604058107,0.5382522365247512,0.5431831290258776,0.5529327540640299,0.5335596608192507,0.516687204595463,0.541783437438397,0.5307492629950004,0.5326816182534793,0.5456711334241756,0.5070004287561966,0.524776420207367,0.5969119994309984,0.5671928911461181,0.5795454264218864,0.571366460050766,0.5913183462631582,0.6012026980546928,0.5641065911483546,0.5006064568357292,0.4820465219191842
0.6032859667769803,0.5808635793271711,0.5656878333320842,0.5146235459304335,0.5449204572930841,0.48068905085063895,0.5675088844463124,0.5091681638707157,0.5448832095852288,0.5314004222044483,0.5184896157866767,0.5223191693999487,0.535146925239141,0.5607748922828203,0.5482073304032002,0.5385221497299489,0.5202842969617149,0.5064966339354722,0.5144909711904252,0.5311480441753496,0.5301965734560952,0.5135908399030353,0.5453946235587459,0.6076220228841477,0.5559772478005779,0.5660583123392656,0.5890510527194167,0.5595854220568535,0.6058387236751697,0.5879753961206216,0.5666999077044689,0.4983473633298732
0.6184428409830433,0.593822080205193,0.5869543360930927,0.5565678008656004,0.5102468666964102,0.5228057626202118,0.553937640923881,0.5261991386279643,0.46989480987288984,0.5094145266945133,0.500035244672658,0.4946363815697624,0.41738913041573944,0.4914701132278363,0.4989365341585859,0.4839484745141533,0.4226644064840478,0.4067803131735619,0.3430901018231547,0.3714957628424255,0.38232104639084646,0.37979310874420485,0.4562509091788437,0.5760200753869437,0.45219805984925343,0.527422175809098,0.5469259358432629,0.5875791942099569,0.5715215066770406,0.5486343554356432,0.5391034737011935,0.5388705821059728
0.6194680362655254,0.5835031140251384,0.5939902365755368,0.5470776360931611,0.5033336580455104,0.5306138290739852,0.4976263761924641,0.5480560016621723,0.5120355532831299,0.5160900948692783,0.4582367258140831,0.5028264048397317,0.44856999777254386,0.5089673225271156,0.497701987464273,0.5027894622013958,0.4612053126784466,0.42001870437736355,0.3526197032096305,0.3671529730824124,0.3861869010668102,0.406444829229393,0.4282676542671417,0.5734474126703367,0.45464530115961466,0.48883392075219845,0.49820312586218307,0.577276098655415,0.5485325435358487,0.5432856603872157,0.5102099861239421,0.5250874444499019
0.6002403992004658,0.5909573328088711,0.5573784347106121,0.5678558185621468,0.5197564492931557,0.5271689006859226,0.5001322631788352,0.5247785790890301,0.46591065919573244,0.45936719941652,0.36901085482044454,0.4036641125751619,0.4462340218753175,0.38207097243389443,0.43634466392072574,0.4771428444904907,0.4494698292934504,0.40831409245958467,0.42849830701650854,0.4002551186281743,0.4346075591354641,0.4830035878587507,0.5020550616929528,0.6106522189311384,0.5622606611529258,0.5447584655409664,0.5578950779570335,0.5955598586065464,0.5530289581488251,0.5665722263027648,0.5467558535893992,0.5259816839459488
0.6000086441363621,0.597482443502496,0.5651759078561942,0.5476714262432851,0.4882502815366125,0.5233109596300171,0.4216491209212537,0.50948293630556,0.4708466691109396,0.4403979681504143,0.41467374814341595,0.4703345288844633,0.5039227916441521,0.48665558155565497,0.5143381139932218,0.49363956111862867,0.45265249621494436,0.4812161070750064,0.4753945372010555,0.43718824433428277,0.4899248050655425,0.5271552306130366,0.5485265545472923,0.6188345971872723,0.5745846694090903,0.5105339546986972,0.4867760172832254,0.5568604604153318,0.5056129131995678,0.5528071441027267,0.5080771235037799,0.5523875324367945
0.6164238954083223,0.6047274750373589,0.5947114444135384,0.5975398204599776,0.528847193077692,0.5872155117612177,0.5857066655741985,0.5866184047054959,0.4909848673817241,0.4424753686013467,0.4118548038912196,0.4880797241780252,0.488845449046277,0.4804414693429245,0.5102477034562415,0.5119035662398282,0.4858274158920481,0.46276196669458974,0.44877658536436105,0.43031102763337575,0.4905967040870956,0.5265089917709118,0.5361510137325167,0.6258892983593286,0.5482608251569235,0.5433185156955518,0.5269183720428291,0.5896716557826233,0.5694435354185927,0.5755923959724298,0.5439489760490028,0.5347843370384208
0.5913808907041971,0.5884385002250101,0.5903770344512747,0.5931914248996265,0.5329523220829444,0.5651782949859783,0.5373897718611595,0.5503317855483553,0.4695440040702022,0.4386577966893179,0.35902489448998126,0.3908362721069099,0.41635762534842996,0.33342242921625626,0.3269641183424952,0.36767791309031767,0.3370046555233218,0.355256069116384,0.3577828146935544,0.35462688520810715,0.41400789286526823,0.4519542871141047,0.5257596474803723,0.5721294507277345,0.5335129146887269,0.566901139621305,0.5880491149685777,0.5694806866944325,0.5942145080487015,0.5514769366482104,0.5553241015572954,0.4752558775605954
0.5884548053845575,0.6262496048219516,0.5758710607392705,0.5632435480857839,0.5487936192472714,0.5143799989075611,0.5234171607851383,0.49232863427530016,0.45362159157757137,0.4143802864115022,0.34718062162312135,0.3742708906455605,0.3965784708211882,0.336320029557026,0.326127397367105,0.34881018832648253,0.30322713663966255,0.33384039304095303,0.3454967015588661,0.3522452020067052,0.4031349268373403,0.412307580051821,0.5352536823257515,0.5446197195226412,0.5207849341358645,0.5663417357816213,0.5905741407757394,0.6054133767211469,0.599616947562526,0.5269508196090253,0.5567738963304996,0.4550643946911431
0.5890467291764376,0.6187323543729917,0.5680718161751136,0.5434298362162262,0.49670751208396813,0.5170703252388337,0.47606475698988104,0.5023118315552988,0.3891690133061954,0.3794074613904489,0.36819108276593965,0.36597093306106754,0.3463415475063825,0.343777747271136,0.34968813473572913,0.35845800975542214,0.31344967405685625,0.2739522803276949,0.29053433186529815,0.3166458975063463,0.32797484461773313,0.38062749574912735,0.4823214281196167,0.5700288080333586,0.4879337592122293,0.511950299515169,0.5615852737228009,0.5939250645029962,0.5791888477783407,0.49518438341775406,0.4582582954426083,0.547944218362454
0.6067787764355053,0.5888371930720644,0.6007743609157358,0.5885581302057821,0.5088224471750297,0.5388750651564987,0.5051679684410771,0.5446305300181313,0.4712124804394155,0.41685623124044874,0.3758289431681382,0.37394235654157165,0.41499505839146994,0.3702286554397943,0.37729774066739274,0.392081614328726,0.36677368725469534,0.3523208640690487,0.3326877202427674,0.29396856176888697,0.3410889492374777,0.4684999865437078,0.516369602367478,0.5842720401268063,0.5243142310643082,0.5397280182770069,0.565049006377503,0.6044835988038252,0.5846935767073812,0.5798421953477413,0.49460611596321447,0.5768791766595229
0.5858451181349951,0.6036518000242741,0.5775022734951376,0.5428156102661377,0.46942642962186687,0.5215200398552345,0.4751347366665392,0.5016290791000387,0.3958744889628352,0.3593793960110008,0.33705978335266296,0.3147935887165671,0.3817876416175497,0.3075458353878648,0.3239377218956073,0.3639594640115333,0.3456901530275165,0.34759657745466327,0.3328307676496632,0.32114435935438773,0.379772602092308,0.4562650677441279,0.4969424457009394,0.5608815448478457,0.540189640573827,0.4839094737886404,0.5784033301729739,0.5784937697516066,0.5995624249066499,0.5353457441968184,0.4754898231418767,0.5169525137889863
0.5814450361824709,0.5827411281433975,0.5629369967010867,0.5125277001189056,0.46817565229565156,0.5045489954511478,0.47913900018968586,0.5457996616858533,0.46695431061250625,0.40435537381229675,0.34197090256810575,0.34096363202306396,0.4448136601012698,0.3108928420620088,0.3281833507922162,0.36309497155603426,0.3287846346647461,0.3241017807383226,0.3380938562566023,0.3123587963047033,0.37757341144274303,0.49983495678106343,0.5176755409136914,0.5608862925955104,0.5174040810434692,0.5205321677519561,0.577605947924796,0.582936113312598,0.6012119829425016,0.5508651395817468,0.4768717973638053,0.5367786093849214
0.5793642946404693,0.5905253607250779,0.607551095147116,0.5890645630867793,0.5029545884996426,0.5163445194375744,0.512144047140918,0.5301517233264669,0.510174337612668,0.4746398264429359,0.4032955471191834,0.4071076126959096,0.4155216648338729,0.38012301128355075,0.4033766964260694,0.3870580189893187,0.40602257585029133,0.3692346225605801,0.3628005108736338,0.384210891428187,0.4527477602796654,0.4618771633493921,0.4972558473554456,0.6205669558305094,0.5188059246536808,0.5225628032323758,0.533817478806526,0.6073869661156733,0.5642955487432668,0.5736410167186368,0.5028609721171008,0.4698133194062903
0.5823324637869823,0.5883782296558838,0.6016559386729735,0.5256124727067889,0.4183877356377357,0.5326098896375019,0.5045397144544914,0.4995810737549262,0.34575442463436595,0.4488625939959341,0.41585757600890366,0.301543425032209,0.29008348018669095,0.29452426733015913,0.3316420992617802,0.34341274340343064,0.3184508566540742,0.2658435283977347,0.27901641438094793,0.3267276115951522,0.38319981652614704,0.3478430107906512,0.4737996456106357,0.5924155480834807,0.5162599533892769,0.5163953773181392,0.5466768338612218,0.5707263548993916,0.5668034673576708,0.5592337421111769,0.4151380931913817,0.5212801303172304
0.579641811159371,0.5924752021672541,0.581618995230044,0.5320872837338899,0.483747821954603,0.5479170546036857,0.5400907969665181,0.5547349915772365,0.40396665651384417,0.3928358549143058,0.3708909757340644,0.3215438253652433,0.34516785744759354,0.31661061830791054,0.3547312123086036,0.3573043618882433,0.3119450708695179,0.27927158257644974,0.3122707520656399,0.32265638527436197,0.39964111031076355,0.4124589194539576,0.41439069314267585,0.5871889307343977,0.5347003264140694,0.4985786029809461,0.5346764551591799,0.5205043361967938,0.603714919705792,0.5598961131818132,0.47115235476714207,0.5272139475684918
0.5949169205158904,0.6031202419567603,0.5966969158450166,0.5701601028307929,0.5565315510515696,0.5638625734580414,0.5617753676364234,0.5753321959967839,0.5261182566375509,0.45437188235281134,0.41675597852710594,0.4486834662692575,0.49300828490441334,0.47998375343050287,0.5398387401859934,0.5415316672239511,0.5206841814316011,0.46971982686597824,0.489894164572259,0.4944877056164319,0.5321985824506612,0.5475221923651516,0.4652677387202539,0.574105090983527,0.533962718907863,0.5258642172818316,0.5645085155596207,0.5764916184125394,0.5826439121151171,0.5574607636972243,0.5182234660339562,0.4843893564575306
0.6066698859974831,0.5895363178452075,0.6142425164244321,0.5639248948860177,0.4763641872945466,0.5491955318680287,0.5377406016190781,0.5540240211567211,0.5277507849441867,0.4652879242256663,0.4596115317466543,0.499245498733251,0.49725829161463797,0.5094538101048073,0.5384147874856334,0.5028511301874001,0.5106400912840732,0.5043007010730034,0.5458736314298627,0.5215276245832337,0.5380176367926025,0.5425751062780465,0.5363415633609211,0.6018629850253192,0.5398517914208895,0.5436839092507589,0.5522930206122101,0.5848144437620668,0.5966529519399955,0.5637041240717193,0.5265797224635052,0.5009888422247661
0.5913136283007095,0.5692583587269683,0.5371501363821855,0.563244920603881,0.5493101549683449,0.5209578031125468,0.5323344597908083,0.5332748289942322,0.48389976294459036,0.4966322229659128,0.5028266278079566,0.4950337654935259,0.4748454206195522,0.4933498134218326,0.530564091715838,0.5233284533309867,0.4925763911582925,0.46906244575191164,0.46626642897960185,0.47935483848114224,0.4890243365607403,0.5139429565280754,0.5261555580721009,0.6125359848243547,0.5310890025012579,0.550434688178991,0.5558803359731191,0.5656487926989935,0.5855456270553916,0.5531604501681882,0.5205513540288186,0.5476263474957002
0.5521284990549283,0.5896760028275801,0.5158225715829806,0.5365530813852465,0.5647823983787013,0.48623504876126533,0.4941216056425121,0.5282534821067073,0.46480487093493317,0.48458992586289845,0.4699315020372507,0.44635498817083696,0.44396168918911694,0.44207480314202363,0.4796033128142392,0.45746916902362444,0.4496870845857685,0.41260785204551775,0.44795464133525165,0.42572050976089754,0.41733186824598406,0.5131763254403514,0.5139166779548672,0.5609525614223763,0.5349975924085606,0.5414672539447415,0.5605439980736656,0.5587960382950703,0.5934137890348834,0.518821127392019,0.536877536307938,0.5274692589779258
0.5661590047557792,0.5708307577718373,0.5370646772774982,0.5416706467136781,0.5238223319464662,0.43572823762785845,0.4989661501863507,0.5349188274619219,0.5006965249642024,0.5210411639347746,0.4759745782613147,0.44228594376640823,0.4752588366955495,0.46127785224086665,0.5058747316575715,0.5113603908741179,0.48495462564797487,0.43339319073796173,0.5130099137675133,0.4858741596884617,0.5261439839552147,0.528504719573907,0.5226534892718036,0.5948256741260187,0.5432709414947398,0.5675470847621172,0.5659661331322732,0.550736227132414,0.5909403049152375,0.5117058988139028,0.5613379862107948,0.5520526313908353
0.596272780444522,0.5835894081125802,0.5434189018481873,0.5796624712116163,0.4709986253937877,0.46678104854029556,0.5511695486031529,0.4895467182374527,0.517384829035982,0.4641475328969424,0.47769066174466884,0.49508704688148225,0.5024810340073521,0.4905126639924084,0.49510905260816024,0.5087832764746706,0.49277478622139953,0.4953274981471364,0.5132836287095881,0.4797270254151184,0.5099471112400362,0.5498388443535628,0.568136504290541,0.6251324068726535,0.541315386457321,0.5713857789661525,0.589071683956922,0.5818713259993726,0.6051817513485629,0.529758910305387,0.5758335358066424,0.5486962839380078
0.6189054524844941,0.6014564259198943,0.6030364762931303,0.5766797874382371,0.48074082471344337,0.5442201229739217,0.5914834174297745,0.5345994260791215,0.479815894943703,0.46627879352206025,0.42424501862057223,0.44142684575726776,0.4710002532787298,0.40505572282120544,0.42258134506410444,0.42031205455030146,0.4030783813180044,0.40170406282717536,0.4098804278680639,0.40625664938940365,0.45609047291816224,0.511936904984943,0.5802442938608511,0.6072314539250842,0.541008031582466,0.5516759465129377,0.5887456476673516,0.5786172944383422,0.599182125939689,0.6003690565075946,0.5161293253950593,0.534584198759457
0.6318903187767269,0.6125844477331718,0.5943964601503449,0.5645711356449153,0.49262816712241403,0.5313668403961055,0.5642189581276627,0.5457554701623397,0.48079325168528597,0.5044433322425789,0.43944885109427073,0.40486283359451264,0.3695124578431153,0.34853064672826345,0.40472974479243523,0.3935059789183291,0.36178327384325804,0.3452110594209792,0.3419177612619209,0.3524751599362714,0.39770810138154483,0.4530948311223874,0.5691914526251084,0.594482606503891,0.5545294848396464,0.5095362122174798,0.5734405319052261,0.5917155657537766,0.5970384601487175,0.5758660851273769,0.5098779136403659,0.48214630775591566
0.607825682486141,0.6194899911648865,0.5858552875057258,0.572910160284976,0.5651575700843728,0.5391214007636514,0.5313059105188456,0.5298388275615148,0.45084697413418784,0.4589402714745781,0.4204615362665463,0.3652879680458845,0.3727779047076837,0.3299004228008925,0.40369327592427817,0.407281442397276,0.4058794570241148,0.35724758025205083,0.3520908921788966,0.3845723760890179,0.48263282842720384,0.47046814423282324,0.5809730283037658,0.5992894955318621,0.530687517367021,0.49683778749434077,0.5614925557715615,0.5738824063622743,0.6011609398454936,0.5609388916251951,0.534288975190461,0.5420379228960726
0.590364886309513,0.6057228629345067,0.5710514560448811,0.5745936998552078,0.54466646593389,0.5432619494933064,0.47642522150205313,0.48970716923050034,0.4563033287219922,0.39556053807629793,0.3657464091086316,0.32490469244883546,0.40146065815826054,0.293215068857292,0.33222879576633596,0.3526040889190023,0.3543131931779629,0.34159340786284237,0.31877042996752336,0.3262929977564933,0.4068913384830538,0.5082634218724792,0.5225694056950424,0.6020791752270014,0.530689127639966,0.5446675714605422,0.5764165425010451,0.5981730424835511,0.5698108304836994,0.5474240796554767,0.5120897641563675,0.5191664497693078
0.5494198501076037,0.5832150295599877,0.5440505401676824,0.516428568060431,0.5115734930835754,0.5183381625822784,0.5392161889746749,0.48079320334365955,0.48360955375612164,0.4472213704805204,0.41879239747068203,0.38397847937611396,0.42856548021348917,0.3594141096622168,0.38413731883765706,0.42455510718246076,0.41899817622864094,0.3974658562681009,0.4273609660863886,0.4287437640110578,0.5171295071154067,0.48372531024332205,0.5563710734067873,0.6041979712902491,0.5674927054259643,0.5556782338685688,0.5871460668236873,0.6125964601646695,0.5862142520592527,0.5629423174973535,0.5328003439279685,0.4427678686800026
0.5965738988652028,0.6016519688862928,0.5785667530702719,0.5748611902758591,0.5517499378082312,0.5300710893420653,0.5148123311327262,0.5317873200444978,0.4863456578395033,0.5034768589514085,0.48048097011806123,0.4404469721673185,0.40602868996141134,0.4339175575445155,0.44480333643492137,0.44612012168503357,0.4272230643745925,0.38334603635959785,0.36887786395527733,0.412289785998635,0.42879145750027364,0.42611283549831447,0.47565258792873155,0.6152687202095389,0.5717385161910113,0.5448398465919332,0.5716475991587889,0.60827571794745,0.5954949511974064,0.5717472420642179,0.5152909272790726,0.4668383620668056
0.5692011526497667,0.5831137485646264,0.5604373558062326,0.46972207905148716,0.4356727985300831,0.5084094397852508,0.5179301929796923,0.5157589165700021,0.41469058224313576,0.5009912909503695,0.4770574356505945,0.42346983913188646,0.3831355360970223,0.38178073169310256,0.43338731227084076,0.4592924121577719,0.3727542077833977,0.28408937578220855,0.3332371076358545,0.39321947806137814,0.4252652701444954,0.40997239352196685,0.46075871518336653,0.619491359655774,0.5424901746737814,0.5108556103854545,0.5371250859707475,0.5755736944627706,0.562090265674941,0.540226713370052,0.47596300541293485,0.5383113177869455
0.5465568392133564,0.5645987390077813,0.5724781888270082,0.46540902702567427,0.44196076368695864,0.5424445906179383,0.5362994846391892,0.5405287851794665,0.4255516171543137,0.42932110615892277,0.4156745618453886,0.3845810884534029,0.3999936633510345,0.361029594761986,0.4247247878261297,0.5180325083406024,0.41605074032026185,0.3612245512924327,0.3842128584560098,0.4254717015748249,0.47166276252520356,0.4537810167554223,0.546954467424536,0.5877209552776126,0.535578914539844,0.4958805119436602,0.5171936074077168,0.5854135345204841,0.5450157876911154,0.4983628101619775,0.43505076752393484,0.5199726118329868
0.5521022120135111,0.5726792668719807,0.5345866992041479,0.5090869776493383,0.4344951218364654,0.5200554928768972,0.49310319243303463,0.5024683599432707,0.437727834380778,0.4252617565617005,0.42190117393195553,0.4003872987509468,0.4361025711312045,0.4118702922326287,0.46876119829076873,0.4951924032031904,0.4556281958056527,0.4586239746889777,0.45303707025095863,0.4421439062004943,0.4602422505495202,0.4767923825945563,0.49137157881780386,0.6028603858925451,0.4678807587559396,0.4630025847397428,0.5019672299872637,0.5452521359719632,0.5330695895074167,0.47964279041939056,0.43347477960405467,0.49381202085569625
0.5487021966109444,0.5870199137890975,0.5302262861155201,0.5222042148251281,0.47695715161342395,0.48235777010036485,0.4588991222119699,0.49182973741794384,0.5199419232957815,0.45583421810416425,0.45364114031805614,0.4807536438526258,0.517960813152659,0.5081330941973823,0.5410769964089951,0.5300617175619027,0.5054548642508404,0.5185595657219682,0.5213493647898935,0.5119847292523799,0.5170821887967999,0.5244350630101157,0.46265435692684054,0.61978795793957,0.4563529480811439,0.4627422990942252,0.509478450846271,0.5575881005078064,0.5538947199521868,0.5380578977189993,0.4787129843954287,0.5123634399307777
0.585295096003575,0.5998062716167899,0.5354581441576869,0.5383112658931593,0.4728857155886772,0.4758957980568142,0.46441391097681023,0.5049537645390073,0.49085112782409557,0.4166950428976324,0.4153566380972091,0.4350117804383404,0.4874932163499817,0.43100574019955623,0.4363610715330564,0.4222354890884741,0.3905434936706743,0.41744941121382684,0.4723912428354723,0.41632961170558325,0.4852471538907199,0.49255405373625255,0.5547635940572689,0.6161212948594249,0.46524933830106335,0.47522307531916064,0.5000673603810134,0.5535584470721838,0.5755598904901734,0.5548360265877212,0.49130727772211297,0.565125822527284
0.5606690691875267,0.5883110064774123,0.4804846687443218,0.5327887197776151,0.46368997762420144,0.5186204298493278,0.5153034987650356,0.5306524176372502,0.4961107133324658,0.500152543767531,0.47213314352504937,0.5079394143783483,0.47982563803846046,0.5079623915034911,0.5155352422938028,0.4466828487921172,0.4002485456031038,0.3873276134589437,0.46371820315387347,0.37686596736520384,0.46034362904045206,0.5346935661068319,0.5296815146248999,0.5940347556242007,0.5166984947387957,0.4690257218504077,0.5504342484709691,0.5818442026547209,0.5432187063305781,0.551970437186581,0.4750565335990919,0.5390190419581845
0.5926998884119368,0.6192071144458853,0.5407187434986689,0.5528260429882874,0.558051151282754,0.534265867099024,0.5656537717289525,0.5112723551335904,0.49590343747974563,0.5031030360139063,0.4503454323108843,0.4802701116556963,0.5363213067756137,0.5249705740202896,0.5480206383055739,0.5365935419686659,0.4851624045874412,0.49966492133773427,0.5136595143408638,0.47961544811903534,0.4954787866235394,0.5373621120389633,0.5187354892482988,0.5815115823644162,0.5635258318792827,0.4899032030122565,0.5753108893318177,0.5971667780501487,0.5798160381291736,0.5586776008713156,0.5071602501925716,0.5572270348857947
0.5882446974923834,0.6070068863245831,0.5268224466283687,0.5580879278717817,0.5431032950316222,0.5008716073197162,0.5249299506826143,0.541139391786533,0.5326240434905466,0.5079415021678368,0.5092431865918212,0.5130772288054273,0.5147699028938602,0.5256752133578521,0.5384705339989352,0.5041454249854923,0.5075841398776842,0.46284711528351036,0.49557472254768575,0.5014215220221971,0.5060715896973876,0.5402593371344289,0.5394472563865249,0.5882930360709536,0.5203824633632541,0.5314593518832578,0.5352047741683253,0.5133253612627507,0.5366795037435131,0.5426480155096922,0.5419641583283311,0.5187117364937855
0.5937449946228807,0.6109599288003014,0.5840970770051495,0.5746933469088882,0.5540631595746897,0.5553799770052752,0.5689378691446357,0.5527426324105043,0.5172753067236284,0.5409098302229388,0.4933796662254598,0.5117711029448561,0.46201291566827274,0.49523155828268794,0.5051738008657584,0.4773811417741335,0.48339547970974867,0.4568279834319294,0.4790275015242942,0.48651486369272723,0.5165612506001441,0.5300323438278092,0.5471739311013447,0.6231745059810863,0.5734152245963609,0.5496650539467867,0.5902143482813379,0.6010782808596106,0.6192822608878966,0.5852689899976588,0.5550687846233963,0.5262127168000683
0.5551442692915707,0.609513555600561,0.5627096833188064,0.5980459957264546,0.533426788491766,0.5545848350022173,0.562667457892972,0.5504138251762484,0.48473916296720204,0.5025279264267141,0.47379439115880717,0.49447596379188324,0.46530859043599027,0.4898393896253341,0.48854230618758704,0.46210447028758844,0.4459562553857788,0.48200611819162964,0.4854827559521838,0.43802114597409214,0.5050221647325562,0.5382910718137306,0.5302306121790609,0.5994805765937542,0.5814268243167089,0.5594989074344398,0.5772330104989882,0.6045349288016652,0.6142707537896246,0.5527075552155708,0.5414853755490712,0.5526960587274076
0.5721526728877308,0.6012742542138073,0.5667886198737456,0.6065261759313177,0.5137164020824458,0.5234535680832934,0.536397614360947,0.5613871913504616,0.48782981091433003,0.46348267932943515,0.4641282578640941,0.4735146624005481,0.5366921859734698,0.5049398984767521,0.509648418303275,0.5129685675374991,0.49367315399158623,0.5153319946394495,0.5471285780056927,0.46489186942981353,0.5314170106662608,0.5709126629471291,0.5773314181515361,0.5948312058150503,0.5745204229303846,0.5170794821911324,0.5885239781173351,0.6205613416112491,0.6033088149401402,0.5711050384734842,0.5258698137715286,0.5688301792649145
0.6162735852924227,0.5794991739419001,0.5803503718030206,0.5877200237974656,0.5691877097024732,0.5281888848885861,0.4780782071150407,0.47002565552238207,0.5013290290525461,0.511621411519242,0.4928114997166588,0.4915699164565485,0.4732928145149503,0.5218173653888176,0.5384201716268725,0.47595318321534685,0.5363004591046128,0.4858570359514216,0.49488305741227523,0.48827569734819304,0.5151739812873962,0.5331089802081586,0.5607492816298237,0.6083881033477889,0.5745312875491754,0.5264709380284737,0.6021340058100093,0.603058450935425,0.5883837609204726,0.5760380058317255,0.551727342019445,0.5706024544966677
0.6033481407164251,0.6190649022908583,0.5987831349801928,0.5768694152108067,0.5249214856297096,0.5193250495439099,0.5263163203993612,0.5094414485114042,0.4871225852293368,0.46342915029982884,0.4759087766011617,0.48906980102868103,0.49646128675567514,0.4796762946155019,0.5102008121349638,0.5125367983673076,0.5077008598100028,0.48482269163649266,0.5202495270445955,0.5138246379449383,0.5235022873365456,0.4938358689415661,0.5589594158374599,0.606648631599532,0.5461130034353979,0.5690648327389065,0.566941866286357,0.5905602118853236,0.572738669745634,0.5885312233491111,0.5430727477978394,0.493623956544425
0.5909439830243534,0.6033974420048446,0.5534408244147218,0.5606697276636432,0.5047808801114602,0.540130324267865,0.5067187335746465,0.5406804560236723,0.4948125378232458,0.5375598496019901,0.510778583529615,0.5376739843875665,0.46832473714058476,0.4696192085666973,0.4768117435933773,0.47030102288604236,0.4821467044340802,0.43285753404252536,0.44921013521011827,0.5225148912596503,0.5263364002221745,0.4267477732497487,0.5189182479269544,0.5947894637843018,0.5584191353494999,0.5392880770826582,0.6015557992634625,0.5991518291126569,0.6118524516875806,0.5445469584843672,0.5395574013121889,0.4787453532805535
0.6048924562580108,0.6081347404564544,0.5647187867967188,0.5371496825569974,0.5230690253498803,0.5144747698818872,0.510023483584399,0.5362679864729011,0.4982285200121383,0.5338998529244215,0.5108107456936903,0.5443010412979503,0.43963923823629014,0.4950074473476627,0.4815135451533371,0.48781926488634686,0.46785460785761823,0.42052150399216565,0.4024421005016415,0.47187381175255794,0.45479018460511117,0.3937080611255314,0.5029417714049884,0.6010509129658873,0.5128753364557227,0.5376052531855737,0.5500810355488026,0.5553009656193956,0.6145708420540736,0.5538899867078445,0.5309741976789898,0.5051540034257594
0.5915886342542329,0.6146483886938282,0.5238776805336629,0.5917428839868683,0.5233667650261398,0.5306722192399252,0.548776485697891,0.49190206843577333,0.5337396478907782,0.440667047642118,0.4074327035446691,0.43463616764636126,0.47788155433988816,0.4132903749839179,0.4445194843952713,0.4976555065882572,0.4743522527582255,0.5035521833005153,0.5097463762242416,0.5244005206486445,0.5028798802698301,0.5161160233190931,0.533115025048619,0.5986324663521089,0.5040317602009693,0.5022976134788966,0.5337772192254396,0.5780753439732106,0.6066611698845197,0.5391299351224346,0.5383487399113762,0.485715664435847
0.5902585084307052,0.5843543477605733,0.5294214888643589,0.5941179188986374,0.49948957448350495,0.5459329550646738,0.5340886408565072,0.49442463835572636,0.5015258906927325,0.4404359464818311,0.43727458336769714,0.4476637845942102,0.5262794582677927,0.490565952350311,0.5294645151151476,0.5534951169667417,0.5224596528985467,0.5231128011838038,0.5140188031114177,0.5156152483220054,0.5048085363953473,0.5383015454034855,0.5315030870021871,0.6226461372696496,0.5480451965979898,0.5159281689515559,0.5597510146895266,0.5993110644096958,0.5965144164093913,0.5696802669146572,0.522956828099842,0.5529990722523775
0.6135559691725844,0.6168178046471396,0.6112923264520544,0.5824916199083291,0.5077242458428207,0.47853330185862986,0.5640680782308761,0.5395306520191437,0.4528450091462027,0.4953362825539157,0.49915160938992664,0.43212459991478747,0.39347975750725817,0.46467034503136945,0.5533612302793781,0.5450897664378567,0.5227662539268791,0.48499455863821145,0.45950110621937956,0.5133812948487809,0.47739190975842843,0.4788056896060445,0.46331174062393615,0.5865587171761584,0.49674445370627823,0.432513018062959,0.4920024985793067,0.5567070399820194,0.5360301780381617,0.5430729069134995,0.4754274413789137,0.5321431027637984
0.593339472365795,0.5977567591042944,0.559265101865997,0.5512457194889778,0.48674234270483446,0.5087254004405128,0.509469764484343,0.5142205703581241,0.4591861750840269,0.413234863133202,0.44455808670601826,0.3848592765684749,0.3817134498226133,0.4171488325931304,0.4966762170169419,0.4932673106070178,0.482527164728836,0.4323110944004013,0.45721687104738895,0.4936219610646779,0.472424791782475,0.508017157039063,0.5409345593838796,0.5893169418959386,0.5486988891474971,0.5076633448642146,0.5586076452726537,0.5758418333840389,0.5905048432540551,0.5964620207525193,0.5101458685980056,0.5109672110923995
0.5904338717431176,0.5880303263554402,0.4977789350628345,0.569950929949622,0.5414617568906289,0.45209254637132873,0.4691121819266568,0.5497566659765872,0.44651078494075275,0.4264166558936727,0.4001576621503257,0.40787192027206476,0.48008415587898723,0.38464466154949345,0.46232277680343686,0.45076131317395957,0.42357316398389283,0.45525009038699327,0.4756776314568852,0.4890023143909176,0.5088029158835355,0.5136169051412979,0.5226221927807579,0.6121357043309432,0.5436819499120381,0.5426843016924455,0.5664080961843901,0.5804146787077237,0.5945157271010824,0.5405369055279823,0.5513922394149633,0.5461095960936719
0.5979090939902446,0.5847093562163301,0.5069052637639055,0.5312569746411322,0.5327487846142003,0.484931885266273,0.4541724533399865,0.552932054407182,0.5440565258417711,0.49893788243084397,0.5002783602393933,0.5225253172698132,0.49593186591680805,0.5241663793530743,0.5375210747769914,0.5486119934576572,0.45394753159374496,0.4084390795861517,0.3856620248216663,0.40377917881640063,0.47488495777742784,0.5063267236646924,0.5336490988849913,0.6106997759721366,0.5481167857839987,0.5654172331239176,0.5754179664389842,0.6025527193962196,0.5973219090361992,0.5270164307968589,0.557738034381301,0.5345294204824574
0.5938032261303599,0.5775474726015579,0.5724902113342472,0.5501252669802356,0.48908168034686667,0.5404724376485622,0.48184366760691555,0.5327156242484123,0.5226663595059922,0.47917631555927925,0.4543873572815315,0.44134756547893156,0.4479985054523855,0.42753103263978154,0.45554903771031663,0.4361189277295347,0.4249363046113185,0.384041313357751,0.3819341625572339,0.3759051680952424,0.4151956461441717,0.4615707939456368,0.523308227450271,0.5856686757103788,0.5505428271512928,0.5180160430235209,0.5469799651745673,0.5862022316478056,0.5686295829841441,0.558928336923017,0.5125025805921634,0.5475203781956334
0.5486336556278166,0.5785427084069128,0.5827207449432306,0.5271772219507965,0.4599457289340945,0.5128488236292774,0.530730596137613,0.5390915336933044,0.4867800764891406,0.4875278103295326,0.4500087494295803,0.42628688206939086,0.451926556548925,0.47069241116738136,0.5117746181029756,0.48028751918480306,0.4682374752740244,0.48208546685195053,0.46377013156146973,0.45580769963189194,0.46905430221980327,0.4826848190718445,0.5200292466395604,0.5869133171690836,0.5195704319947541,0.4334104421735346,0.5066268858960683,0.6006616935941573,0.5665599568814491,0.48753867255977357,0.42302552185441195,0.5220828959063729
0.4980418570853767,0.5585972801233579,0.5201936477568622,0.5378107679923738,0.5185751844533412,0.48789930471073584,0.5371944119891212,0.4497141113357591,0.4811753100545801,0.4713495009329077,0.483789751447313,0.5016936214434832,0.4514192028690302,0.5015359145593765,0.5255039878015967,0.5362487924053345,0.49727506784470715,0.4239599414071473,0.43370013501617427,0.409845208777158,0.46464805723755354,0.4788497140220514,0.5055023347016966,0.5751181367711873,0.5106626917565603,0.5214276927911252,0.5353399788969571,0.5629220246690356,0.5674470006524167,0.5113237682815674,0.4986076940680913,0.5050785893160783
0.5996197342208657,0.6119908498528458,0.5830505401158121,0.5336792455103948,0.5219975753068641,0.5158401698927613,0.4918842412017406,0.4474613320050477,0.5047975556033282,0.5254623143343574,0.5031196651935468,0.5175942676075261,0.47550721243781885,0.5088184900979064,0.5417776943907456,0.5128749430333218,0.49979270533629444,0.462076989719651,0.4862596884257873,0.45262031158295685,0.5035184751122188,0.5021974045191733,0.5415387794464528,0.6169838671823815,0.579197398694905,0.48707878260038673,0.5528962742871484,0.583033077232896,0.621272496789179,0.6067599954227844,0.465202660187327,0.5122424948128803
0.6027801483790656,0.6066451923686295,0.6082878367125704,0.5978648457321473,0.537243817089834,0.593905996404107,0.5139019664217148,0.45143718327784843,0.5315141061436176,0.4838106759272361,0.47306341442800176,0.5024601639688273,0.5314166910461229,0.4994287862518021,0.5292446545433702,0.50843042735801,0.47640955573815263,0.5143123842034126,0.5174608273837611,0.48228511791199613,0.5319007629845871,0.5220142604369591,0.5207744427738917,0.6102994357865679,0.5706688522346163,0.5120045692855546,0.5662666996266968,0.626167691953478,0.6042219283487761,0.613011704915045,0.49921275110296043,0.49682343173122967
0.5794318075947757,0.6009811381306999,0.5363683540818462,0.5911899821261817,0.48877374974808435,0.530904169022388,0.5171754109480462,0.48090722852975415,0.49046881628882305,0.47004176467360403,0.472675629905734,0.465680720148574,0.49030388200393,0.47873159035961393,0.5188181572777041,0.48594354833081643,0.46858927993854993,0.4996294727855803,0.48950404882263043,0.5008762291983173,0.5235357911938634,0.5038991232506904,0.5163611242914976,0.6166024494115564,0.5938000339013125,0.48332974785272426,0.542166001116967,0.596473328053699,0.6111899526647099,0.5837561646786211,0.4848569542656058,0.5263401127872773
0.5941466232202358,0.6103840934885375,0.5728353601061373,0.5917530067236184,0.4935956893776257,0.5215283010006113,0.515372404736723,0.5480109448601183,0.5204499932720211,0.5192618628225485,0.4819510192545372,0.4203226662405159,0.4837824234865414,0.3834267353515937,0.407997914049485,0.4192096976541823,0.38040449181096037,0.36846703341782827,0.39570875361731833,0.3784625827120195,0.44890666484830044,0.4855265844458961,0.5562268414201871,0.6168309400815936,0.5428844973392092,0.500889085381581,0.5831098238415339,0.6024110116567386,0.604069134157946,0.5923612702382052,0.5048334779334622,0.5530284967920336
0.5957145273918842,0.6123527557429752,0.5590725854891355,0.5791331274122264,0.5299362202732278,0.5251091322619696,0.4922996483481661,0.5611470554322281,0.4407999981466776,0.3873370940147418,0.33577776190855724,0.3112026498986021,0.3689121958573467,0.29413561568163815,0.33218844210303206,0.3496600089364959,0.3206931067178778,0.28601049395104217,0.325494406478723,0.3399458396307629,0.38581735859121713,0.42903057553363805,0.5236207098307214,0.6040473738944123,0.5743245461285736,0.538980244291523,0.5874729224048653,0.5904112157540758,0.6070708856539804,0.5477813694498828,0.5069113060315795,0.514850760598396
0.6021935968555302,0.6085313004952916,0.5838783240914776,0.5221555016575004,0.48344608410488354,0.5171631328906144,0.510177165812705,0.5405468598257123,0.395696837860583,0.3549383236969047,0.32627057500049883,0.331463839990362,0.3634240184865094,0.3387350512494948,0.3776111137387226,0.3815731734857564,0.3615592173257562,0.3135621281571536,0.33799075517645216,0.3602133001130534,0.3813762601649897,0.39334762304175724,0.5100232079690009,0.5914260028471748,0.5322294928875371,0.5058915092113982,0.558323334848821,0.5129893051621878,0.5349573497723098,0.4861003108480266,0.446586499667376,0.4992260863263309
0.5213272052884347,0.5904696112899607,0.5854028455662804,0.5706924343126909,0.5345398686698436,0.4943104545129993,0.5391281018652992,0.5967274857750958,0.48587375118054416,0.49718092883485937,0.5143558272892036,0.4662607546241688,0.45011543440045837,0.4815757739302833,0.5056171897441817,0.47224368354752205,0.41793003266986956,0.3547812820226304,0.3475019600711247,0.3917382584538465,0.3956288334483299,0.3906330687277621,0.4384549797140494,0.5781192561462347,0.47722574031836756,0.5042471766392411,0.5491360194877742,0.5666898371389031,0.5213874939018217,0.45565194489994987,0.5383372114932324,0.47074943578108935
0.5901403901075397,0.6069296754555218,0.5686194876501102,0.5730747089527762,0.52769278985642,0.5868662294583885,0.5255810533683496,0.5972943532965616,0.516090083398789,0.4969340733005503,0.4705721365381452,0.48400033158480205,0.436711102170942,0.4754839404084411,0.48489834917845154,0.47586910527887955,0.4163525673608558,0.3450342108153066,0.33687037637547834,0.3735928465489592,0.3953401588264828,0.4503377458468452,0.44182201043602815,0.6070203461401288,0.4852150505896909,0.5250283677828946,0.5294086290986064,0.5702972805671384,0.5920006134365198,0.5757534668854499,0.5158298820668514,0.5586400774586867
0.5801311847403398,0.6096797703560117,0.5499030189879369,0.5633087498649366,0.4768219099341399,0.5845054329789678,0.5166912458777607,0.5579020860434964,0.4135840346539358,0.47075440576635946,0.4674035464332402,0.3893753546677304,0.34074618609929785,0.3603516819901874,0.39326857481323035,0.3976953283928655,0.35338181411241515,0.29259152151862794,0.29612872598814344,0.3263480259782608,0.3829088586248803,0.41120960583306093,0.4658109689991045,0.5812372907270138,0.44986964537836266,0.5121520758341174,0.49675123767896256,0.5426312386025882,0.5366436946336944,0.4890552288961241,0.47474276730465487,0.5112802080514983
0.5921776401793556,0.591416227969362,0.5698718585051143,0.5210393307233105,0.4111210733524376,0.4507237226961819,0.48037152488417867,0.5038913800992135,0.3408541581434492,0.4058342545154711,0.3377026414110816,0.2895624257153574,0.2846078108384967,0.26088573663121567,0.2729697980377395,0.2819630736121957,0.274049012144433,0.2679917451659448,0.2728356251537541,0.309239045513493,0.34710580555413756,0.40709207263914743,0.5208300486202647,0.5938001932121343,0.5128974259794375,0.4850083331976863,0.521962323902931,0.5817117313753432,0.5711462809265702,0.5027792379627567,0.4173704285823267,0.5262232369034564
0.5983852360691124,0.6004124275719999,0.560582425277647,0.5433031563794,0.4950267771168201,0.5283402389148142,0.49458341756565977,0.46240524954550716,0.4256327021993228,0.43233235349750077,0.3687289274073839,0.29223146308190157,0.3102070414962742,0.23892758700566114,0.26564108310562584,0.2805950902502121,0.294984420408766,0.2675856662851553,0.275154032654652,0.30574526519039497,0.3618012537456378,0.3961037204596461,0.5050137098703641,0.61398547803564,0.5548328478661132,0.5326790671403994,0.5847854447197746,0.5615877006188033,0.5486007487212211,0.5382562618880653,0.5001703382583825,0.48355615228074095
0.6127596065501068,0.6107332995990948,0.5698158422999997,0.577716268465225,0.5300105402051699,0.5237696089888572,0.4982083829363607,0.5165498504688859,0.45707671523168664,0.41947805652835257,0.3363283136190085,0.2917842538420857,0.29328666268441655,0.24395644118997892,0.27850894265510606,0.30565847333697765,0.2659733503212529,0.2534812729787891,0.2322344056934662,0.3009652212735239,0.3090661391941536,0.39007152218707736,0.50828581640542,0.6157243458502887,0.5042866960727477,0.5474799526486644,0.5503926695423196,0.5719940046552101,0.5639538143912197,0.5814323506632788,0.533970251981126,0.5218084101278779
0.5968751543649748,0.609414195315928,0.5317311398146815,0.5784515251888696,0.5682233629566326,0.5180303528175197,0.4650572663327919,0.5100149915859672,0.4371555783878687,0.4171780948797928,0.3574778838721053,0.3486108089588298,0.31940953710575043,0.28763923032710537,0.33188838847791824,0.37711664461314093,0.3176218853688321,0.2786850852901458,0.2771371607899427,0.3540966275560899,0.3912838533826429,0.4281705253484833,0.5550167550931456,0.6281979443967949,0.5105183413749363,0.5041276352550537,0.5862466616640679,0.5425740094005674,0.6007835696553504,0.5667758223110543,0.5268838158114547,0.5464362427410783
0.6068154085610977,0.6016717771472018,0.5742271865349958,0.5828103565773242,0.5315194561215432,0.540366034899928,0.5044446376123234,0.515256873124975,0.4389581609697339,0.4412988458658418,0.34233422117005735,0.3757546547605351,0.3741087412044454,0.30526759389872604,0.3259020131028803,0.35650114215707307,0.3214925375267353,0.30837651181098286,0.3249084492736273,0.3544419065546503,0.4107911286875535,0.46384104372996154,0.525972792497847,0.5679139686582712,0.5140630347430306,0.5277076940267028,0.5419243719321879,0.5871078586076588,0.5799144549119685,0.5213115041676152,0.5393991224033168,0.501642784723814
0.6154262049487105,0.6166611993455662,0.574929890657566,0.5831097737342047,0.5124956031077637,0.5638247043886492,0.5245531314445505,0.5510022626553864,0.4801902977769552,0.518374413192037,0.5413536106932479,0.5108605758097987,0.45415745324300766,0.4728459957566439,0.5009146040131589,0.47856913613834773,0.44001631006755004,0.4415140771971695,0.4604777371175407,0.4207348403427063,0.46809018972899613,0.5116400872965989,0.5469136725169568,0.5664117783235437,0.5391447644039369,0.5951699959753205,0.6128471520772959,0.59954724841669,0.5946269139654758,0.553188921152185,0.5742202297358551,0.4789061938981356
0.5846176161774695,0.607435870734096,0.5510980177464543,0.567820124338191,0.5020814956696658,0.5822715824771765,0.5021430642261129,0.5169184223670812,0.5122152510041982,0.5121261673053741,0.47367621075218064,0.41658894284761205,0.4566195289138743,0.43545099070664633,0.49768691232209306,0.47177959806622677,0.43084562267771315,0.39995755902553565,0.3797839587628997,0.39966856203549955,0.4350497973475471,0.4655877755374775,0.46240741868597374,0.5570146576081041,0.49639936199415224,0.4643087592005503,0.5680813526456888,0.5715509424422897,0.5723487975284107,0.526318667187505,0.4837579710222546,0.4926566870420968
0.595483162215364,0.6229902522692248,0.5787985837001628,0.5420509875365226,0.5085145009783827,0.5527876836108271,0.48632140213466757,0.48515091163657253,0.478437214852265,0.47841326027136927,0.4356096734303883,0.40393035688457246,0.44320112873346,0.39611810554916865,0.4207400321104388,0.48474233205532125,0.4643715725755598,0.38368494654500745,0.3927272160427811,0.4610642137488883,0.5029155303452212,0.5202961478940276,0.4968283677449728,0.5760878526076478,0.513513818535446,0.48348948228062333,0.5744359723196778,0.5736029988634891,0.5952524986778054,0.5373237057185004,0.4902147296445986,0.5403683097726837
0.5938026262523816,0.6089071347682874,0.5822196389636157,0.5506571501921568,0.5618171808757892,0.524916244553098,0.4911895447980504,0.5059500557018408,0.519526398512641,0.4889638515419387,0.4537413368669738,0.5063742132630047,0.4932947942241823,0.4433925649935401,0.4656192803150438,0.4856829613876175,0.4851873355274087,0.4644018408529911,0.46325790808263984,0.4607292537075839,0.4555277039512606,0.506248984363977,0.49140593202379396,0.6046885112888895,0.5122770663400826,0.5133965909038012,0.5966096755705796,0.5979402583290114,0.6070718703014477,0.5598455841611334,0.5607932561452422,0.5378537270278446
0.5712292668494494,0.6056617894596137,0.5166845180100708,0.5335263318647273,0.5121730360499224,0.4819296629011507,0.46490197932314753,0.4451726209637788,0.5059066058725633,0.5017203000155603,0.5039690231093311,0.4548706799132842,0.48890579274173407,0.4142347846654293,0.47710455038079014,0.4726408111572116,0.40969644520784926,0.3595333512176271,0.3725823546816324,0.37879635927575717,0.37348406977552645,0.42468868126382187,0.4272113702192812,0.5917924548135426,0.46164430289476305,0.4650283650008924,0.5688642416595122,0.5891629861085225,0.5816147609052114,0.5693170662909683,0.5169604135410876,0.49724987379927843
0.6023806076311147,0.6266417002286315,0.586374708578649,0.5541335556635358,0.47032192428787883,0.532248244546643,0.44779964608814726,0.5432371673778662,0.5089772629742249,0.4843847733085561,0.46054067239372626,0.4764431858893054,0.4797835788238992,0.4842706712783943,0.509878973014773,0.5052749776737196,0.4023252100616308,0.32161482826170723,0.34225576631728866,0.3127977759923456,0.32974989074466005,0.3885084068110343,0.3850675706959096,0.5580057841376742,0.508834281266646,0.5098292627497535,0.5772719136769209,0.554026047951105,0.5773749722146739,0.5475195032778316,0.47689393388878126,0.4897120652512223
0.5506518301808351,0.5998632371346614,0.5688202824480948,0.5341557993406795,0.4756870483539411,0.5150562767963778,0.49598280322720406,0.49854659809136076,0.40164982956387496,0.3864992458528614,0.3517031348407884,0.36346161694777884,0.39256646992580285,0.3768020836559117,0.46120067766760925,0.508450395089698,0.4610809295827852,0.3666754441920344,0.34086596952765824,0.38805042076833823,0.41492104380160744,0.3829938715631221,0.46163524293548014,0.6174885484073308,0.5294427225942984,0.43562599767215765,0.5421049371016158,0.5798955141055314,0.6064591020868557,0.5377302057473816,0.47370625170316305,0.44957332861510013
0.5703247138145231,0.6078739091795412,0.5460014818044944,0.5186677905513148,0.47515843585771766,0.5170423139569571,0.523427158439508,0.5189738154121863,0.41768088483654603,0.4298967997133667,0.42847329155208347,0.3928868275863978,0.42052381362332003,0.41586189897384696,0.4853220727365572,0.49100769323680893,0.4859069721408085,0.5113854511277572,0.47161519791768863,0.45447948583409037,0.4835246581623558,0.4960765799886041,0.5327762260268203,0.5984581794133791,0.5403058385701826,0.440534273826433,0.5120743710210753,0.5690337859765902,0.5922784384047162,0.5151011195242793,0.4539427066752129,0.5063977260890389
0.5104309694881716,0.5870353624900296,0.5146641102020286,0.5582965832204879,0.49536913988751247,0.4883102686980096,0.38508242141591065,0.4686637746519088,0.4767883129871363,0.4876387490219104,0.47119889072919313,0.4755460285641405,0.44557308638742715,0.4674138128161046,0.47433262920086927,0.4474304738951759,0.4282902967772095,0.4734460243158773,0.47993086525870676,0.45826447394416225,0.487789681674178,0.5108182735064459,0.5334224089686525,0.6062835633743521,0.4959199740990813,0.5115640439963371,0.5545766974909742,0.5726629488780264,0.5823660022454138,0.4968682696070897,0.5216073813832458,0.48383965524872796
0.5445201938198947,0.5770305323395664,0.5118972001432475,0.4960439911120597,0.4432650628394503,0.4760556110321238,0.46338289667168503,0.5305613747196051,0.49719399977877105,0.5038688467358612,0.5103309258205678,0.5247607630986283,0.5144751479010662,0.49248807569273173,0.4945530325391333,0.45570208447066307,0.4790842791330753,0.46891887727712084,0.49336712163827645,0.4833989675485583,0.4973653172185674,0.5508960485887869,0.5297917955432103,0.5882420989189933,0.5110380260177476,0.5443712155675767,0.5773334826127998,0.5748890174712468,0.5650969370475101,0.5234093037926353,0.4977548670486083,0.5563887702899781
0.5224373858490561,0.5963367554058185,0.45197193757068155,0.5275718471166345,0.4762825534939898,0.37845917731406364,0.49181216341016926,0.5105770783561902,0.530395294013257,0.49792589305852364,0.5117592146065207,0.5138309335008695,0.5605905924926481,0.5038571788902503,0.5116408121361752,0.5028897089122739,0.4910323236457825,0.4972567564270904,0.5231806774870823,0.47314702834416034,0.49348949684459054,0.5264175799497637,0.5686395838549563,0.5697046986132603,0.47234056082689246,0.4821664695505948,0.561938538960201,0.566972417550625,0.5421404042887252,0.50669966837773,0.46841558191354776,0.5784094125653342
0.5330668103069338,0.5907282399826871,0.572069407693746,0.5787198670835084,0.4962799618751224,0.4965603089544627,0.5238454086696728,0.5201010477558076,0.4476022541712186,0.5065196075596904,0.503513097265342,0.42215277146713465,0.41037721933399984,0.40507691596598694,0.46799579854809154,0.4584127244681786,0.40880711100784156,0.3472872969104126,0.33579388579745156,0.394162469810125,0.41908058939833753,0.40477309400504585,0.4721921197107438,0.569720687452986,0.5171613671582578,0.5014256668688423,0.5229092970352295,0.5771869081073061,0.570823756754474,0.5156647686903284,0.4911741131471164,0.5656426993051045
0.5510541928279103,0.5985548603212059,0.5927340127559312,0.5906794640470984,0.4836862676384702,0.5197008178645971,0.538491608762753,0.5339273067160625,0.4435635296575766,0.45680185250844446,0.41899798495625157,0.37787816903828036,0.41159949183419947,0.35399336342145,0.3965325867281099,0.4021973370923504,0.37167215081919547,0.3394571802546144,0.3503608337156974,0.3705785786610789,0.43640850258186986,0.46071351144321543,0.5308303669591733,0.5838875241838234,0.5025307998655892,0.501883144102149,0.5296097770682561,0.6061871648889631,0.5876006167331942,0.5549509455706827,0.5039047581454122,0.5463112951505906
0.6070103677598352,0.6180985854766471,0.5829168347794075,0.5972215164179034,0.47903375950678273,0.5448062456696725,0.5084356999585695,0.5033327017209125,0.472398119788735,0.44749091507162453,0.4344681468432787,0.4419844591096829,0.4368682864359185,0.39481054506812346,0.41961455562917277,0.44127548358698454,0.3943898016794342,0.37008709490006303,0.40949045840113346,0.4002527717637168,0.4805169232097278,0.46360530493374325,0.5269764276047539,0.6101400887857465,0.55266898017757,0.5456206572943529,0.5823351941704598,0.6088965773163788,0.6275677502042506,0.6057423900624022,0.5194503562220207,0.5088257628621388
0.5980588330051635,0.5998396480632275,0.5879449979671045,0.5959667543445708,0.5370151417199567,0.5575636093887908,0.487294259020795,0.552881452109278,0.5701349772270847,0.5364127926392607,0.5330187323867498,0.47208049848367944,0.4089283534225344,0.40123908166953565,0.44442628862341393,0.4779901091639652,0.41176224043054616,0.3338066220923221,0.3174550988368648,0.36307260809986347,0.3807891645627843,0.41308934465232594,0.47283279882637963,0.6052111036073419,0.5892246450313099,0.5228256216586412,0.5888939493142712,0.5790948109442293,0.6032262694780379,0.6231096210635213,0.5155136401792362,0.44615041697456037
0.5976127609429113,0.58365466859842,0.5883670146393625,0.6093031554816744,0.5480470677015532,0.5334225110900479,0.5478991566470747,0.5211777615379442,0.5264248646362137,0.49590683155316306,0.42420215141250783,0.438975225333152,0.3426999170252621,0.3554903938772028,0.3712417598294473,0.3870487472136362,0.32778060828466793,0.2654267268287336,0.26250457971304414,0.29499710518299366,0.33382339477411177,0.3374125093140109,0.4618487180753524,0.5852864800600762,0.5816339196944476,0.5483056322358637,0.575212173820803,0.5905246532789683,0.6026376888197749,0.6106860775918,0.5467444846098649,0.52446563390201
0.5854756856509553,0.6066968680709335,0.5543382401834391,0.5526201716505581,0.49243603611796793,0.5619526352437682,0.5664148214171736,0.5457073001829231,0.5136310258582462,0.5126021312880031,0.4632056412575941,0.4561103920786172,0.43726753305181176,0.3721391776721141,0.3762783904337431,0.3649070786487833,0.30617363118107777,0.303010529214717,0.28421224032130005,0.27022460815481186,0.382950015239851,0.4378650052831689,0.5077571869337968,0.5300302331034303,0.5387109736218461,0.5421314228296873,0.5551419931564479,0.5777098951031577,0.5882693668251934,0.5566429478106025,0.5320127697299816,0.5503419311039618
0.6129192914935567,0.6165791313506037,0.5513257873523886,0.5900181541243608,0.5213749518062051,0.5468484394265356,0.5255946004966837,0.5549330960984107,0.5009220603535187,0.47591050017557834,0.41539056100562455,0.4547534074101975,0.46449061020697713,0.4055706388429127,0.41249436222887587,0.35790468393988084,0.3056661957432172,0.3100809931656718,0.32137228308140964,0.29762338492322243,0.3943926041409419,0.4529404424017591,0.5467898948803659,0.563784736995703,0.5503978807611178,0.5672368555751038,0.584753115956193,0.6055214069761032,0.5889150780237096,0.5576653942636259,0.5566559483760423,0.5591459665265468
0.6092599585533176,0.5955027829570868,0.5653974151616321,0.5223369333201003,0.5673537119831346,0.5966933798298211,0.5893330187322867,0.5666902836013459,0.5113643188259044,0.46447705230760333,0.43729612838490334,0.43266662334411715,0.46839392345213193,0.4030185417821646,0.44494703785122613,0.4334870430191064,0.38316980451340843,0.3661424183172518,0.4310404889276175,0.3494198975844133,0.5107980668291994,0.5250309709621561,0.5654640374909279,0.6233116211287779,0.5873452267103463,0.5721204999906238,0.6166411513258113,0.6051534563301555,0.6065484581814256,0.6116655368763437,0.6069488343761148,0.5381883954350288
0.5882331959679619,0.6212081520680043,0.590182039362566,0.598181858582003,0.5243611426451432,0.5540366840639135,0.5235963010104963,0.531310909064916,0.5483432865837329,0.5173473248344094,0.5093157229886279,0.49906600716727445,0.4842465825769277,0.5273642911008022,0.5409687775449405,0.5100231078691487,0.4762249214896662,0.4855274239170302,0.5313289465573799,0.47763114215596436,0.5283681788538176,0.5136381492816958,0.5639565594595802,0.5983881858549069,0.5968861146439163,0.5688219862209809,0.5786997263260004,0.6106411904368819,0.6174608292092566,0.5751099450635125,0.5634343514196374,0.5341138317256072
0.599712698790006,0.6124356968998947,0.5686039571893031,0.587733748814353,0.48105989212395406,0.535848066259016,0.4833300308561084,0.5452048633336266,0.4124448211522522,0.37038106839037555,0.3399792295883693,0.3461986833813143,0.38219577758636364,0.3353938013655459,0.3420237260419955,0.3630417006516393,0.36069324908452444,0.3752401259426451,0.3735971895767804,0.3547425320958193,0.41108690610797716,0.3934229315583466,0.5091088431813007,0.6063546773277804,0.5275555934758203,0.5556934550568027,0.5606765356963581,0.6103283019918618,0.5962396570009164,0.5656728830412291,0.4908321847090666,0.5479322075181983
0.6137638536055396,0.6015283977149481,0.5641260620286467,0.563206373691207,0.44209585544897334,0.5725010940189618,0.5181055475740662,0.5257945486214007,0.3468993027947244,0.3544804326777228,0.33259456887477407,0.278470313908545,0.31774443964901133,0.26529117741531294,0.28721866940753404,0.29565857598411527,0.2968931634836817,0.2859949777614902,0.3228401724208508,0.34014248917852524,0.3809559946609579,0.4149060406818356,0.4374550228132914,0.5911536636035202,0.5397751219650753,0.5179021646127366,0.5698690545393651,0.5758568634617619,0.5984435186586728,0.5912874139003533,0.4643701869249912,0.5293119196620172
0.6099967233995789,0.566348096342698,0.5726473040230017,0.5970759434732159,0.49810674209213457,0.5713904346604888,0.5081518722473806,0.5033193701271325,0.4059118608113133,0.43705084847430603,0.3825853264084437,0.32332794479004495,0.3707384455832228,0.28088276603295137,0.30535796147792577,0.3115122951735963,0.3384708232944202,0.34374970538388516,0.36848583016644126,0.3570340396778936,0.4151937887304411,0.4818926395242913,0.4889817817860052,0.5865777597231397,0.5140166264135713,0.4872745868418465,0.5483043493904585,0.5650413127949117,0.5851948433308031,0.5901516085075588,0.5116037750209228,0.4966559508432879
0.5875953513402709,0.5861185607200479,0.5954559246814389,0.581191365035346,0.5340790140082464,0.5852089232968636,0.4818834173062654,0.5271579374941296,0.482235227082539,0.46919636930753655,0.4456387838061073,0.43452340345041607,0.4343543495090442,0.3668961299769631,0.4068240186413451,0.360400333039567,0.34383175514576503,0.33235263747232174,0.3274093406489718,0.32371767078427804,0.39046815049510586,0.46863814778893315,0.49628097046883024,0.5823518956263461,0.5096355632034366,0.5292097950737201,0.5598788577528351,0.5854457928632429,0.6081212921152802,0.5695749359968756,0.5573762044606517,0.5011878021012736
0.6165879160507259,0.6164110606811563,0.5670212397516468,0.5777103706706108,0.5271490603792977,0.555722422174814,0.5134676650640719,0.5637766714366385,0.5054599705291658,0.5124822214542926,0.5246671031914262,0.46424913086763214,0.4654976499282925,0.4497257099991484,0.47450312832667446,0.4146549282563872,0.36670693593382714,0.3271763612326961,0.3545137513691605,0.3605678070298386,0.4090099007499174,0.47768661504897225,0.5341528072184141,0.6153501111187998,0.5553406696930333,0.554126077868336,0.5853165560090816,0.5887784360104656,0.5983813243277518,0.5676849678716474,0.538986268518821,0.4848004912241804
