Fp1,AF3,F7,F3,FC1,FC5,T7,C3,CP1,CP5,P7,P3,Pz,PO3,O1,Oz,O2,PO4,P4,P8,CP6,CP2,C4,T8,FC6,FC2,F4,F8,AF4,Fp2,Fz,Cz
1.255737526615877,1.2235481974173004,1.2297572911359838,1.210925771728216,1.1938360954676948,1.2346970723010826,1.1925317269189994,1.2285160380724758,1.143035594830055,1.1521088887313442,1.1286632931387557,1.1153627643161876,1.0962231640330728,1.1038395121912703,1.1252745476795962,1.115812590731293,1.0809693093638297,1.0502649312831378,1.0525001063000365,1.0830936623135587,1.094266558075858,1.1088000512475698,1.149806995674327,1.2406769602539947,1.2113030847854969,1.1995137962929647,1.2127573106399963,1.2475357887140301,1.2433790043569766,1.1982994508744862,1.182740594628459,1.1659329736653632
1.2128430315357595,1.2193303663438948,1.1941892057797403,1.2146616844575246,1.1750331681779456,1.2148161226978536,1.1691598390187798,1.1922542186659333,1.132525270169992,1.1331303180826884,1.1160123106749429,1.110820562049117,1.0957144421866578,1.099828681856941,1.1181394896461971,1.1036132764694164,1.0693716650426301,1.0430959687709227,1.0530230249852333,1.0673595156032722,1.0806587246797066,1.094674990980032,1.1344696529578222,1.2337047750298715,1.2044137699781288,1.194337864364088,1.2025884397029671,1.2489869070486272,1.2478404578767224,1.1761802163969846,1.159047817922229,1.1517761722208937
1.2115085002417554,1.202904494434768,1.1992803992442687,1.226456348393524,1.1813070015123748,1.2056366830105438,1.1598223108232242,1.1820028433865648,1.1245284436945493,1.131234160762607,1.1217366618964546,1.1147547410483125,1.1057666276228395,1.1087868172773436,1.1236894590086486,1.124006927836268,1.0848253065819613,1.053918206094368,1.0601754373770786,1.0758145240529808,1.087253253012961,1.100304913316926,1.1428839238499555,1.239929334103612,1.2032671598286404,1.2014538274797901,1.2174068527818749,1.2417272699290476,1.2460022038568488,1.193353382199216,1.181125526766556,1.1578661938833497
1.2065914034952556,1.1932007328084584,1.2001364558692182,1.217748185747983,1.1792109215330748,1.2173704424360023,1.1648565243797095,1.1894663272063093,1.1296012648821319,1.1433674124018791,1.138982587071433,1.1188127664714471,1.1007268182024292,1.1099859614602228,1.1202838915889177,1.1188532028724338,1.0890330937008683,1.058136619700587,1.0557698226950853,1.070682773604684,1.0927656380055213,1.094970485079171,1.1397585209121506,1.2311547726795788,1.20198922640476,1.1882030756388866,1.2218441989413436,1.225135891105793,1.225031044170523,1.2133866877908215,1.17981709576121,1.1511009674468338
1.2137840273836127,1.2074131962927293,1.2064035069423593,1.2302335244565819,1.180116662792164,1.2128288812351276,1.1691477802504837,1.1764243427229766,1.1431178298448657,1.136371351689823,1.1352383059462363,1.109907891297361,1.1121428215394433,1.0977262008595365,1.1120370501992238,1.1213514135937028,1.1081201340220008,1.0647451042500253,1.0641142765870393,1.0669870900078573,1.0871315025025852,1.099241570919544,1.1469798683538082,1.2405173943362577,1.201341372908119,1.1935043748224454,1.2266148026514627,1.217359371505377,1.2293141266774241,1.2225527819496693,1.174830189506995,1.1712330539079663
1.2034507734192368,1.2131354409392294,1.2071978886753518,1.2073368061140528,1.1874624986515643,1.2217054993339667,1.157099244997385,1.1860070160115521,1.1460183780065094,1.1268751096661498,1.135254134020723,1.112239809392356,1.1202345669031581,1.1047941243475288,1.114085764698231,1.1090865624206758,1.0978428313242166,1.0733316253371217,1.0685874560925213,1.0750258171316411,1.0978210956181946,1.1089168326128385,1.1490216471994983,1.2543330337428469,1.1961548558874053,1.201598435291552,1.222013757586556,1.2355482199012537,1.2351138642604285,1.2350254836986982,1.1664055970008782,1.1676439543188035
1.2069440343495395,1.2088128190570289,1.2037790492984306,1.2160582016987873,1.1769266168828703,1.2206793847658877,1.1583232327844881,1.2061588239544687,1.1371495011807502,1.1145543622076126,1.1350251878512347,1.1184468297755954,1.1302781468256478,1.1086573076632547,1.1164344133767603,1.122823730562661,1.1195280428342211,1.0948776635941806,1.0861504401641993,1.079239268070782,1.1060386305678065,1.1211225465410322,1.1492673102369808,1.2543848151477293,1.1885300155319365,1.1870398701580054,1.2196318836218671,1.2282063227562645,1.2477493376335818,1.2264644184935594,1.1752739725544044,1.1711084977128734
1.2245161636125548,1.2260480005338072,1.215747696671132,1.2409788669543276,1.1930612461406933,1.2328577459485817,1.1580970198623288,1.2128694108904652,1.1777903160828014,1.1355290457819176,1.1526539991196876,1.1373404425936717,1.1582955325685342,1.1323074763117926,1.1321503714180448,1.1319511377206717,1.1303423812029816,1.1059658768797682,1.1060217100548961,1.0849001304879347,1.1292014244941266,1.1487460692449187,1.1533107961593194,1.2494539107469553,1.2051258420215334,1.1764103594799666,1.2343271578023345,1.2258047225398923,1.2619743935694643,1.2514919423833335,1.1961628188991456,1.1849123838159497
1.228637677316582,1.221628610472882,1.2177462778056072,1.2451173611557689,1.1877093671365648,1.2231940834279582,1.164858677000572,1.1977086579400391,1.17689035738188,1.1232425059460687,1.1378721693873641,1.1307136455115263,1.1871908396399893,1.1227652874266452,1.1241379293929086,1.135347625637743,1.1541790816653505,1.1247039185787155,1.1288362819779947,1.0936369302372178,1.1484243284374849,1.1686775282039716,1.1622184968792386,1.2559396818734956,1.206225390550718,1.185265254223823,1.2339731127674827,1.2223668462032395,1.2694366012129639,1.2492770123113053,1.1845192170231968,1.18965087962748
1.2347058158487425,1.2209987939758769,1.2105544669032158,1.2468605892689009,1.1732146672974566,1.2019104560735236,1.1724633016121613,1.2068455975109051,1.1436615508510584,1.1103009143925953,1.1265484550557017,1.120740587727988,1.183592260587413,1.126704576838389,1.1307872702818313,1.1460427227778072,1.1528873291537076,1.1409249536904202,1.1433482922079097,1.1008018511947388,1.1526674085591726,1.1704075837002268,1.1656963230670503,1.264044879166061,1.186483783043728,1.1672831547488314,1.2364341885570524,1.251053957675844,1.2719044133263893,1.2467137236452022,1.1675734403692368,1.2178664641395787
1.244171448003808,1.2260870902969532,1.2335166547212508,1.2405657051553345,1.1561650838049826,1.2299216515416964,1.1953576567525355,1.2087453955365786,1.1450299193696758,1.12293845068796,1.131011352377749,1.1219237487320042,1.1741453177953634,1.1253393275464532,1.1339307520094422,1.155087436904519,1.1620460537373642,1.15436318241606,1.139969351498954,1.1223496252273866,1.1572988319674653,1.1701457330722713,1.166595519727586,1.282783189934391,1.1819574325205535,1.184511577089835,1.25164849298133,1.2363258187406263,1.2636508474339614,1.2642144662755392,1.1722864788355902,1.232778637212502
1.2536808475701051,1.2391240287973142,1.2363246177285894,1.2428910474325876,1.175252164916181,1.2222357262330594,1.1847617847163743,1.2110279854037305,1.1463260960908892,1.1252026468399066,1.1346306342881791,1.125240497279291,1.192170286256619,1.1288774238213937,1.1322670913037218,1.143765314009991,1.174685900486391,1.1553741986090873,1.1626288971617933,1.1365771894540508,1.1583285313105935,1.1704039499368226,1.1673765675990904,1.3089281884382575,1.1782292581202687,1.1767879119274878,1.2460333881185648,1.2500894147325883,1.2604225573456393,1.269266156333742,1.1817530005815557,1.2416250814003378
1.2696867925999071,1.2607028745154147,1.2356243425995437,1.248511238639227,1.1738817757749025,1.2240634588837098,1.1814195103482485,1.2144816794298383,1.1378659997090907,1.101050451783772,1.110099549521543,1.1048225591711194,1.1875482915994429,1.112633477737276,1.121960047749849,1.1313039618014975,1.1611898237198384,1.162852102775846,1.178891141137154,1.1506295227647856,1.1656042230513224,1.1823231499577223,1.1802001542699552,1.304100743528974,1.1907338035203108,1.1778040672295218,1.251761886480949,1.2087511967327158,1.2507569064625246,1.2364951920968938,1.193763863291771,1.2210967075453965
1.268590130191409,1.2612318577106467,1.2565414788881155,1.2473901311633793,1.190758598317635,1.215142584841366,1.1807597279444826,1.2143979202463473,1.1286320380434538,1.1110517348761817,1.1054830142295606,1.1128112548077882,1.172990998423482,1.1258409024650813,1.1430288513311189,1.1502318599446832,1.1607868639072305,1.162229777158719,1.1602826162634672,1.1552591873146119,1.1546377097667233,1.1674870981063805,1.1736859540532951,1.3052744830741085,1.19530326821551,1.1990606772490948,1.2357890230621262,1.2297677175724653,1.2671919198882775,1.2388776731790427,1.2047563831515402,1.2184881916456567
1.2481631784478195,1.2881573783111273,1.2525064007651032,1.244841040932469,1.1865378451399184,1.2149094141067358,1.1933374320652064,1.2150477301627498,1.1309630849187164,1.1113904624086992,1.1016532242912769,1.107039906819743,1.1643393417904364,1.1281979148076082,1.139221520805509,1.1401149527260312,1.1482716914185482,1.1608421993300495,1.1636352035311595,1.1586457942883968,1.1558064507262373,1.1621201832511303,1.1677221519746817,1.2889091363164231,1.1910767160283227,1.189801575938017,1.2294249201223721,1.22641960431784,1.2470735117937513,1.2250300448882299,1.1897348096285474,1.1919093625706036
1.2436675300956832,1.2717520509152718,1.246888596984715,1.2474584560214173,1.1770808263479724,1.2090067957158184,1.2010859726007392,1.1972043931739738,1.1577872836129457,1.1213566407112758,1.1079938131582845,1.127506265262628,1.1574762136657095,1.150095543273987,1.160334075554855,1.1587940585860357,1.1699200002398338,1.1759899166046448,1.183270172253028,1.1686811862489794,1.1742166499132394,1.1566260398958632,1.1909674886425046,1.2803521913639386,1.204640090398465,1.1982111813539098,1.21714229498751,1.2389266847635112,1.2549193776815213,1.2152924784908985,1.2040698818702242,1.1967528137622874
1.255718637557879,1.2688424503077829,1.2627805383175899,1.2472662182673673,1.180063232989333,1.2194455365391865,1.1851240464652084,1.188574609641571,1.1616424825950455,1.1151268664451859,1.0923787008825936,1.1235898427704565,1.1510712036621373,1.1358283928132462,1.1532355167614359,1.1581262933426268,1.1646975538112627,1.1632076953801427,1.1729527909313313,1.1486960008937026,1.1622871773937533,1.1518060531979109,1.192499523749748,1.277848344896163,1.2105522317741488,1.2056407964742222,1.2203698964289253,1.2511152693684426,1.2471463109670857,1.2270821680687116,1.2131203548711376,1.2118254491751206
1.224356905363636,1.2858325153038659,1.2322853055898386,1.2332947727794281,1.1733265600412148,1.2177193692862978,1.1821868895927565,1.1796516103365342,1.1480066236991593,1.1120285813946205,1.0854857071320934,1.1251114064790786,1.1418678250573564,1.1270093774480328,1.1530960928757095,1.1567738252108029,1.1575099771570891,1.1697667890761037,1.1680146699692269,1.1520371334489021,1.1624047280721208,1.1566049305553117,1.2094397949936087,1.2992245772979019,1.2380974954829747,1.208032346398739,1.221669350517125,1.2573677143631365,1.2520807551023387,1.2213539752687195,1.198912088658352,1.1977785726160204
1.2183137874766288,1.295838252442032,1.2181561961737113,1.2317075993440945,1.1735154670256236,1.2132596790274226,1.1777040564488488,1.1793388885084801,1.1505799780565782,1.118169911625706,1.0889071611479761,1.1316110064554803,1.1332745921439227,1.1357812554701356,1.1531476449206344,1.1487675697259236,1.160265515739632,1.1676608224996616,1.1587665834339564,1.1474710138701956,1.1412470444023963,1.1396007718598806,1.1894774936556347,1.2874099593124904,1.231167352326092,1.201018433557882,1.209754003310038,1.2482309725044216,1.2580172925369166,1.210971476409927,1.191847312582873,1.1815899969035848
1.2027536271099,1.2599992530958444,1.2125685176475305,1.2194559740166997,1.1756677506324833,1.2180766543836712,1.1651813893424654,1.1891139239401538,1.1593533754679646,1.1136092903814792,1.0938000614532244,1.1367975901478853,1.1325243940932361,1.1298158535336904,1.1396517848233585,1.137068791365991,1.1424414403665928,1.1628263077794587,1.1506850687616046,1.1201911515345095,1.1300172901640553,1.1309195725770582,1.1766474177581092,1.2595330080693938,1.2430320825828485,1.2131096479482977,1.2203537728544003,1.233375542702945,1.265126561821613,1.2044773761511864,1.1930504195287186,1.1707778008956191
1.2110044578390133,1.256025257327769,1.206988385433294,1.2225289080440702,1.1845885562400518,1.223908365087207,1.1651922843702958,1.1995182779368128,1.1789359328735132,1.125542633554213,1.0986735498011968,1.1543848174511062,1.1356862264102596,1.1330760796673705,1.1408947001487946,1.1412744973979407,1.1385687259318682,1.1552174833379107,1.1452606593601053,1.1203933124633851,1.1409506184355305,1.1365970207004912,1.1943974184406585,1.259680514208899,1.2647605357096727,1.2095258571173653,1.2168549953012626,1.2366275774568833,1.2766829366351164,1.1891095220736798,1.195219963783861,1.188738686682219
1.2180230252470154,1.2683125188598257,1.1879629071302613,1.2311324605856333,1.1832331756641654,1.219747375934053,1.1527206093821087,1.1952760550959929,1.171557176523468,1.131042826833132,1.0931663088881436,1.1501766900815256,1.1305180152760888,1.1343688702459873,1.1554000793456578,1.1500360578033175,1.149812983373458,1.1522598918189708,1.1458890582382366,1.1005071654720202,1.1396956134913792,1.1434625139856038,1.2054597965703897,1.2317061893836525,1.2548331035509284,1.199547505569341,1.2215391053440054,1.246062571384771,1.3082956629331124,1.196602041037003,1.1964397002080662,1.1759988450484256
1.2284730014717307,1.268192393557607,1.1997623225345062,1.218760707069137,1.1947076148925804,1.2119779636678976,1.1629575316635432,1.2028382259775905,1.1802564749152589,1.136455772700249,1.1089374930598979,1.1504171406048433,1.1268889494481684,1.1384982507768746,1.1607072821628364,1.15797766470049,1.1532899942903043,1.1512843715433518,1.1342453332657565,1.0938795351587145,1.1247144312172537,1.1281993737987308,1.1864715432322144,1.2233363469889311,1.2212113709684507,1.202642202322996,1.199828549877271,1.2442858290223928,1.3074209100956498,1.1961412173118986,1.196777924337146,1.199782209756702
1.2541611801171662,1.2668922573347068,1.2075823163388586,1.2291703780047687,1.2020275177799604,1.2140914295287597,1.149767460568753,1.186839618795309,1.1746621137341624,1.1293074111700692,1.1015064166871744,1.1375620249164133,1.1229978959444271,1.1280263441700136,1.1567934277264575,1.164029557010204,1.1696181114921684,1.1496426445109837,1.1341563707425342,1.1128477802215098,1.127601630464333,1.1311833227432098,1.1894422772233102,1.2448404498798353,1.2179556072805882,1.205541408780931,1.2145018395599516,1.2600959970376278,1.317753471174515,1.1888272023462971,1.2004078298545835,1.2082938087029498
1.2597099682288972,1.2667782107558492,1.207703370348683,1.2254285844983184,1.1947257815765915,1.2140125412834055,1.1675141945997736,1.201112545623575,1.1789901626881405,1.1432592616492288,1.1253165211991436,1.159339224103463,1.1269953402879,1.1362275609876962,1.1588551640338274,1.1571031006733865,1.152970676739548,1.146173099773959,1.1325588932706177,1.1150233783691865,1.1272009130335794,1.1412276593506412,1.2135421036492875,1.2657607065213272,1.2210977250446389,1.2064609973908742,1.2288105840200387,1.2614015200465327,1.2749765374991826,1.1806463741478659,1.2002971409244263,1.211120723752783
1.2535891368262104,1.2659729757950842,1.207449140439796,1.2303869717043003,1.2135666854326372,1.2230985766068843,1.1785731538037885,1.20477999223339,1.1643835660327366,1.1317842542076284,1.118137987835795,1.1417139452070006,1.1373261420398424,1.1261901434428196,1.1646694996759013,1.1751635420449373,1.1584504905710447,1.1595446389449604,1.1463794341655593,1.1153106242732427,1.1330199426775458,1.1412989206811828,1.189553904526945,1.2484573927576474,1.2198377114338759,1.1868401882069617,1.2294503516432005,1.2654622954435502,1.2917242643988083,1.1888577920403969,1.1884128351026024,1.2269712146417378
1.255896497344527,1.2712531544656593,1.2121342927117034,1.2144791279775824,1.2045190987743624,1.207159470885933,1.1871120503479033,1.2032607970609404,1.1779324755805793,1.1381706604991377,1.1276092895632832,1.1403953406589649,1.1344887293650805,1.1269977305101155,1.1536810935566837,1.1698853747441078,1.1558242945684682,1.1630955242147474,1.1412845067446473,1.1356122533975448,1.1323625304143612,1.1503205136248622,1.2030030204061386,1.2436839488728364,1.2288984905078078,1.2022893971937028,1.2362154512228167,1.249855291737063,1.2879231805460463,1.1849580617384874,1.1941325007853665,1.2008799449529024
1.2553845357411113,1.289998506906424,1.2282329125708396,1.2183857636110615,1.2275292136160896,1.214308913074001,1.206117392658726,1.215237496339301,1.1798622795706044,1.1440854320029297,1.1420557011915815,1.1419905957635015,1.1358453119116476,1.1230537047904072,1.1576943072458976,1.1574620585244826,1.1519428476159772,1.141284505577348,1.1377785677136654,1.1460808236571292,1.1473457034955508,1.139557193837641,1.2084980069702593,1.267924799177609,1.2182259918982843,1.2156458524907925,1.2417814033354093,1.2477503725387415,1.304524019821274,1.2079892785737087,1.2155586961078704,1.1990192254701963
1.2650195432942448,1.2925260464288837,1.2337853926030933,1.231522407048373,1.2349434508920976,1.2064915361483224,1.1958208440915947,1.2468987777741827,1.1656674075526494,1.1478374910690885,1.143445480485016,1.1328775852885309,1.1405367968498608,1.1170746917618846,1.1628371603283143,1.1658766419735265,1.1541454807181941,1.1331786463449347,1.139371849518529,1.1586693759573812,1.1615782988778003,1.1448907927057153,1.2077238029383155,1.2754485019129589,1.210619188237109,1.216726666073605,1.2445684796492198,1.2656356335684373,1.3132880798371505,1.2153799784895045,1.2337184050253944,1.2080410637328658
1.277605916233254,1.3262249136689572,1.2578680583695647,1.240305225698086,1.2541642982623227,1.2053997375560999,1.2163015672525457,1.227452174768412,1.1548004746755012,1.1631627068905446,1.1745159748277159,1.1424535571168521,1.1272132446599026,1.1284034618887568,1.1848793855842112,1.1712219292269994,1.1652965595620324,1.1440285773115122,1.1273696536994842,1.1674379120252896,1.1538075408229298,1.131474356496732,1.1965180723901079,1.3012698202228428,1.2046323582810727,1.2183332905086037,1.2512393554391934,1.2589093076383455,1.2888813828880057,1.2163461309238572,1.2619732323319626,1.228975879322312
1.2910857857791918,1.3273311219832218,1.271620811128252,1.238111259705832,1.2529054009105784,1.1975668097704628,1.2022390831319991,1.2277999723800461,1.1631772678512422,1.1654475109072229,1.162297035773322,1.1432769956217426,1.1533997531368219,1.125501437047586,1.1642644957135362,1.1702660246072711,1.1748858108464262,1.168296089367862,1.1306494471734292,1.1713434405333816,1.151957727670194,1.143690274349804,1.1974756455191198,1.3135610192146006,1.1868346386555813,1.1939425764792635,1.2394203729582414,1.2639015107889615,1.2741234544886797,1.2288663875839416,1.2424393986479956,1.218056597476979
1.2718708420453275,1.333136828631746,1.267987190636189,1.224362821968604,1.2674999718929751,1.213752038751498,1.2133212555780892,1.2117897559573236,1.1540017184536178,1.1505724533175428,1.164868297319547,1.1273126434195209,1.1323838255490062,1.1063860598009034,1.1411172249563455,1.1448705284926923,1.1618605449133015,1.144824062840888,1.126375462954421,1.1644265117222865,1.1473811802204064,1.1309479733897747,1.1962934465877668,1.3054973320351817,1.1849584476519588,1.1896081704711678,1.2391125584325802,1.2676529305041118,1.291523367675051,1.2284715786240645,1.2406825184480852,1.2298358295274339
1.279757735070148,1.3354315245768338,1.26611220374922,1.2151888438770457,1.2603824307154583,1.2091849002469564,1.2290654140539317,1.2244370005253695,1.1561556587547566,1.1566693502919665,1.173202537186448,1.129970127372907,1.1466560176911678,1.1168772915443386,1.1602519234333617,1.1470448104330324,1.1581265513860235,1.150113926554816,1.1413590453471945,1.1759054778492568,1.156193230748097,1.1468751115619764,1.2030479203324462,1.3140406594711365,1.203197399458068,1.1954175502586672,1.2452662153372471,1.2554269059280716,1.2942276124060332,1.2324681200365855,1.2331263048208163,1.2050154087625131
1.2693616968212713,1.3331350177426622,1.2561617017047912,1.2175258145417511,1.2474485440698686,1.2227915061018375,1.2249306392032278,1.2136626622698659,1.1480593770052396,1.1624884668060596,1.1836827685651201,1.145791110478221,1.1322440511205758,1.1266121897003456,1.1696252927903081,1.1558271515828904,1.1562264826135402,1.1338382471494566,1.1407987832004312,1.1814744072534429,1.1654957567022075,1.1326294155508476,1.1968966330270363,1.305845482874753,1.2082618125857993,1.1988455304539498,1.2484962542937086,1.2576460392051494,1.2863819630322453,1.2617090533077393,1.2306281840965303,1.2033292931778108
1.2598300087777687,1.324837737640746,1.2585396122136936,1.2120367162154055,1.2427325717580224,1.1909338067474966,1.203695007656588,1.2227535924863215,1.1371039085460053,1.1548063262567203,1.1658774235271023,1.1492145055287408,1.1428887312862128,1.1260780253372356,1.1749182846808601,1.148985610841507,1.150888075198091,1.1305492577142238,1.13057958629216,1.1713074590850616,1.1541557087122218,1.1410584694694503,1.1922368324808765,1.2981743712346128,1.219269411067339,1.213950137048911,1.232901239044557,1.2418388046658435,1.29025894296513,1.2305023571502083,1.2485224664731729,1.2000183493968144
1.2700736939440949,1.323959557241839,1.2725188263101443,1.2301299500131222,1.2615776002208254,1.1940121848989231,1.2036794420961718,1.2091777398234749,1.1556324802520115,1.1509986852386767,1.1608019882821432,1.148639286885663,1.1621543833888814,1.1305539021886797,1.175045758364691,1.1436203530738158,1.1526086496477617,1.1479356271685295,1.1405576961025519,1.174368199253632,1.170690431816106,1.16161307500902,1.198394753487325,1.2955604201406736,1.2092976239055335,1.2058215006233777,1.2444873417857891,1.2384447161176146,1.2882027650414263,1.2280106248497509,1.2478542997010493,1.197771924172307
1.2628289030820516,1.32280047862023,1.2799466070523187,1.2044617778167064,1.225444540793124,1.1819651529992532,1.1996623195415173,1.196587224431785,1.1383502970381854,1.1367839348675937,1.154383086608037,1.137256016091178,1.162455235811819,1.1147156743680393,1.1663135027488536,1.1336442392274324,1.1555725426755532,1.1497060000494976,1.152829473499053,1.176658162746574,1.1677520888115978,1.1681330354763957,1.2041178006480309,1.2850422536011246,1.1828621525705998,1.1948874775982465,1.2251164026729242,1.2365736050856644,1.2789086926754472,1.2321077557911715,1.2245849967815032,1.2136438270150294
1.2773236018547938,1.3155497820862274,1.261248945722351,1.2087552060534994,1.215117281819399,1.1740209970909656,1.204049861148566,1.198294729364019,1.1697437015323506,1.1379697549584789,1.1591257052357444,1.160233517053387,1.181717501819454,1.1310404393041191,1.1773426616056328,1.1501088959512515,1.1795526610351237,1.1650201997783725,1.1637435069026232,1.1780591340730928,1.160143360816884,1.1652672279972867,1.1904124680839536,1.2510877043342543,1.1870556437329796,1.1664068068819733,1.2021558688816187,1.232119992357048,1.248526657662382,1.1986705947150758,1.2011539037511945,1.2021902706179388
1.2954518390914165,1.3152840368638665,1.2645047038316048,1.258562654988056,1.2136478440466087,1.1849042406564678,1.2369729040241995,1.1817798730521965,1.1717273414918046,1.1533703890593459,1.183985007703345,1.1603137913890362,1.177231122093399,1.1449647472671398,1.1999802072631363,1.165511736469395,1.1945212799248677,1.1828314641632007,1.18670961752179,1.1893559467455173,1.1773360641876036,1.163273704960577,1.2178417944709994,1.2589530626288439,1.199037124583312,1.1647713653207032,1.222928418081182,1.2556021953466197,1.2440279262980594,1.2230674027262314,1.2089446530770869,1.2213682410395685
1.2849477123948445,1.3132174653311572,1.2703420078583885,1.2542287382317028,1.2248895391859438,1.2006833438131506,1.2134127161221329,1.1859365825942332,1.168324959803745,1.1397920074459633,1.1620868060987513,1.1513938668670856,1.1492628099972066,1.144133328581768,1.1906416785044922,1.174677962764107,1.1805124514446323,1.1542425019608018,1.17579824865154,1.1663647919757807,1.1531463704163671,1.1619393296683245,1.1755090316431895,1.2686470387397948,1.1958215242229178,1.1632585644360132,1.2098339882107778,1.2492843581063697,1.256616675897271,1.2496000674132028,1.1867878606012394,1.1959190641811632
1.2778646435514776,1.3227477442684543,1.262979411307703,1.2377422934828943,1.2325535423902645,1.2122929006751426,1.2217155115382308,1.1990171789499566,1.188619414890993,1.154478797482352,1.1733744794828127,1.156878075844505,1.148076112988513,1.1587980678728491,1.2030701616301802,1.1756226484491894,1.1775926277082636,1.14791877097075,1.1611912799795894,1.1727475634752134,1.1696389375926237,1.1767522890188316,1.1967786085719627,1.2382167038461012,1.2138997733066008,1.1795990463862422,1.2228691637975502,1.2610764790065883,1.257187613118871,1.230453036625765,1.1943732453836586,1.1969655417457852
1.277814877963976,1.310378375962321,1.284647749201725,1.2418662311877389,1.200990618599512,1.226258636736349,1.2253603693628699,1.209560795268222,1.175314086016101,1.1640941135562737,1.1792096455598713,1.1622972599641483,1.1583982179199706,1.1641707296607298,1.2167009902138144,1.1819629731439296,1.1910541469523959,1.1548906233610872,1.1707895077943997,1.1852021553171401,1.1710635509568452,1.1874409928509806,1.1948152638161575,1.2441875864558922,1.2239800291494207,1.1857921890568166,1.203268513906704,1.2620663887692014,1.241360669954848,1.2265439555747573,1.1864567398956096,1.201369535385555
1.267244971255051,1.3090156086325957,1.26586677050084,1.2630187103368213,1.1952763125837014,1.2206147482466716,1.2244947048133534,1.1830750344331407,1.1922959987913557,1.1675645533852608,1.1911842719276067,1.1764660247784806,1.165985407002022,1.168432046197689,1.2097978520729,1.181069381378626,1.1942539773900762,1.1665266997592016,1.1836033395989716,1.1923552764452234,1.2077257264439003,1.193530441505635,1.2017921525375965,1.2373476438609712,1.2254216571461842,1.1875143021397232,1.2058618034908,1.2461337361348352,1.2291876777290491,1.2180957853978163,1.196113178278709,1.2014094033345957
1.2677459769247736,1.3051163760978903,1.287441132745121,1.2537659093597167,1.1839345093767186,1.239231520924663,1.2328585985247356,1.194510611164161,1.1917812377736126,1.1878202243615585,1.1914341112008997,1.1790689087801034,1.167746478191584,1.1854402436312983,1.2209497641322464,1.1972747554065832,1.2163542650349695,1.1824119562287252,1.1958368524204592,1.2113533299224348,1.1940071815099125,1.1849181719201147,1.1868866087167695,1.2572158535415983,1.2124929728804639,1.174954124048643,1.193588944208421,1.2561896115133493,1.2377515952781672,1.2212310465487426,1.1781394219585304,1.181931432616411
1.2614796158766144,1.2921546659503713,1.297000979326977,1.2552502829126693,1.1778529425388373,1.253476138757152,1.2385075471831535,1.189236526690446,1.1905137141480626,1.1936806573020398,1.2068533986999184,1.1740704541151181,1.183195623452853,1.1889389263756187,1.2281866748783117,1.2030524150642041,1.231426563772026,1.188289081688724,1.2095291171970926,1.2054217417493829,1.1865014704099635,1.1912358666294496,1.193137584364216,1.2643591131875551,1.2114320918018153,1.1665056089107002,1.1945222802343236,1.260602923688501,1.225213774595255,1.2431435982828236,1.174023350968978,1.186567259205144
1.2430557660920212,1.3006461410022014,1.2797973742430262,1.2429842888222562,1.179889540906982,1.233436548651682,1.2231383500396567,1.1932502544484953,1.1987552866677593,1.191745820435694,1.2003039720568733,1.1729526579418699,1.1543471682656041,1.191740482178658,1.2028905866936803,1.1916888457950823,1.216228606920332,1.1840473585119153,1.1882314585465408,1.1961502763032292,1.1848287231388612,1.165072712536406,1.1925342300854247,1.250679589340709,1.2165389666600104,1.1678724549031676,1.2035977960883437,1.2458914192465376,1.225375710539151,1.2360195653985797,1.1900791341143713,1.1857773715475375
1.2480150168836022,1.293465044944419,1.2812833524260046,1.2490133488520068,1.1902108877657842,1.2268580696576403,1.2218812751787094,1.2009742775106984,1.2024404949998633,1.192611622333834,1.197506035137192,1.1605685756660302,1.1474655674617795,1.190932463706661,1.201139762963063,1.1886509746899976,1.1976006381215276,1.1728230985204522,1.1900330663957623,1.1893008467199457,1.18156790639694,1.1513887817583714,1.1849676455957199,1.2634870639684421,1.217219088695702,1.161689575919408,1.1938850971128785,1.2487539234773029,1.243012716020628,1.2494924475804494,1.1975918859124632,1.189551292657707
1.2450624958073735,1.284453591610125,1.2833075487478645,1.2580961135427797,1.2059752375439388,1.222985454491104,1.208140615169435,1.201719750659145,1.1975268168963575,1.2065151018279106,1.2065489853013405,1.1674091316072561,1.1503762650422586,1.1899807604656683,1.2039081821091286,1.175584662789504,1.1705548990984684,1.149659346010446,1.1923794401119503,1.1804801247001102,1.185486374824766,1.1605649707442418,1.1903401017102464,1.2750661222934085,1.2230669675068002,1.1860448146238214,1.2129915605834947,1.2628460049544912,1.2596840906304154,1.2350292554282518,1.1994228324705878,1.19086081765355
1.2714489007241343,1.2940990019989809,1.282744335128449,1.241096039553648,1.1992724398176382,1.2279689927451345,1.2040035584913438,1.2249835484225955,1.1773921111787153,1.2182306111506649,1.2069420894308591,1.1722613703666218,1.1546087814658288,1.1895206100241245,1.1935402646980922,1.1760539101926417,1.1767448870080006,1.1799840892264064,1.1869639382026294,1.198226369515573,1.199743987794189,1.1655340766752273,1.1955259610132507,1.2726399397766377,1.2261440027769315,1.1792795800508538,1.2197553750537604,1.2596515054574546,1.266108536918272,1.2330151558615026,1.1909983062558314,1.1708677812772144
1.2681936319609406,1.2888869870614028,1.2746088458746558,1.2363072449827308,1.22222747891914,1.2460795310270207,1.2112026775602938,1.219118168642931,1.178701711487968,1.2212106753055711,1.2171042852286684,1.1867874393150448,1.1663806185053875,1.2070849296963728,1.2057926318052095,1.1822154285721058,1.1915237872863134,1.1901115063842158,1.181670693457517,1.1998302333432302,1.1955192320461854,1.1643924142832154,1.1936989560436684,1.2508430088308895,1.2223206983995587,1.1821459336691529,1.2299844635386967,1.2642313964293033,1.2505987352687606,1.2225150253570258,1.2045454222965428,1.1697689105617324
1.2658854247646816,1.2720555412188184,1.2619830030269075,1.2463834557611257,1.2037933639961123,1.2055451391465584,1.2123062071682114,1.2131942258334525,1.1615673094894197,1.1892864810092607,1.1909760384021626,1.1677721779295709,1.1752472360213622,1.183983835728386,1.1823074306049592,1.1605626623791345,1.1835325759040833,1.1806792462632054,1.1795147540714799,1.1966981456777481,1.1869581680926016,1.1575999982821557,1.18299602143815,1.2593826828200365,1.2065006518546162,1.1968468865281126,1.2474570415580895,1.238458402338651,1.241689229584064,1.2426314348870742,1.207428382435532,1.1882617029005305
1.2619977878832873,1.2905102383012028,1.2641734949750107,1.2626612919571272,1.2131849985431478,1.199683911904318,1.2126576581494266,1.1934274002178251,1.1591705215499044,1.1908003662742261,1.1823939518706057,1.15860151190645,1.1615258385729557,1.1784214365191845,1.173470796662851,1.1536290110183924,1.1542200716012436,1.1780492273238465,1.173422984134572,1.1825607388667063,1.1715165736918214,1.1344966928160083,1.1590243418281858,1.264264083269592,1.1828127331972818,1.1774469441838606,1.2125557699604994,1.212233120089392,1.2225343477489554,1.2200134995253347,1.1933495013857616,1.1865128733459602
1.248986925130114,1.2904232025779787,1.2588084844085128,1.2534022013613422,1.210285449001407,1.199151542857745,1.197891649821578,1.1924766021408058,1.1403363533781794,1.1875925273473473,1.173762568095893,1.155121603674918,1.16394621347784,1.176781139551569,1.1757630342725303,1.1555823549413824,1.158608296668074,1.1638111630467607,1.1730646778180798,1.1688530492710971,1.1598636918693712,1.126551536253526,1.1648775272234062,1.2589012791391305,1.1705526448553023,1.1720403657428597,1.2054996041735062,1.2295873550825214,1.2333168383394932,1.2215382435209168,1.1926876312911006,1.1651019446916802
1.257264860633774,1.2892738632280787,1.2554822418084435,1.2539945798119463,1.2219506204941792,1.1857874094763785,1.2003509643453416,1.1929555570318242,1.1440734255993117,1.175008407375011,1.172235238472064,1.1494681092959855,1.1542230168094256,1.168743087923896,1.1651176828783871,1.1374298078994205,1.1483116541492535,1.1479018725963712,1.1529407788058017,1.1568231360046966,1.1443250257746393,1.1281432951400556,1.169308300457239,1.2890827387583454,1.1712626260269277,1.1587181657978105,1.204019683974896,1.2536745942308516,1.2457186858952731,1.2318805113201736,1.1940157436253773,1.1723711691101273
1.2754351793014445,1.28074469197682,1.2484420493809707,1.2432543476671776,1.2266136123909084,1.1983153099019657,1.211947822962844,1.1887718672047098,1.1323593937835255,1.161805683988802,1.151434725164693,1.1322748531155467,1.1535330738900527,1.1600044358133585,1.171198014700791,1.1407710777002371,1.1478280681912312,1.1477228978517926,1.1557877517220996,1.1642360647652672,1.1518378464141676,1.1420840726925003,1.1897533001075238,1.2815294555668968,1.1848572182162966,1.1820244004464635,1.2020620891332032,1.229465286688199,1.248198874723103,1.2238351060626969,1.2064356157030693,1.172883736797225
1.259000061825196,1.2645097646212893,1.2276911713908147,1.240169195685885,1.2208990011531233,1.1881689978515477,1.178563008639134,1.187733461012079,1.1506811935560979,1.1486061286029847,1.1490346420832558,1.1456274274222873,1.1875912722988429,1.1767454842964045,1.188400466073397,1.1562841685693626,1.1664486938815442,1.1646206866720106,1.1780286884273012,1.1516962848186332,1.1628558475015602,1.150961417817004,1.178055933982933,1.283516845184763,1.1985171144271545,1.17494359572378,1.2076128614443038,1.22107727490119,1.2373170045752462,1.2203832359871165,1.2016984566325664,1.1773579517934911
1.2839329962422399,1.2645463438520048,1.2392832255412705,1.237754383412566,1.2116214807677927,1.1955833968464253,1.1781343427939874,1.2013026842719685,1.1354141476730502,1.180077534299061,1.1697205512378634,1.1556389640083264,1.1518657359387179,1.164780918551678,1.1818794561456278,1.151344852123333,1.1791046524797497,1.1663798959117482,1.1521835046755695,1.1697706850225031,1.1616245359313009,1.1235646749989383,1.178636552821983,1.3031788494152285,1.196475594172744,1.168963670975864,1.2016428258996414,1.2232041974904608,1.2256726209207751,1.2089923129414013,1.1980974428932045,1.1578074116341874
1.249651993686702,1.27020729808502,1.2441626925977842,1.2213701863508608,1.1977104296044223,1.1873713514584099,1.184897908695437,1.1775145576153219,1.135594505316785,1.1689052077618765,1.148357762389067,1.126387506479473,1.1530851585937927,1.1254832031309154,1.1446230479239863,1.1253182327589915,1.1675157479696376,1.146952302618459,1.1562894756794952,1.1776542040056692,1.1581989862712954,1.131786914775682,1.1732124933882742,1.2883175002768434,1.1918589070771601,1.1719962238735742,1.1994748806164044,1.2246286758465863,1.2123013838196388,1.2104601751666206,1.204422677596968,1.159761181487137
1.2082287458425338,1.2524615819224625,1.240585714595583,1.2089255722288275,1.2036685655630246,1.1906030007675303,1.193653181980772,1.1850957034170548,1.145476253763979,1.2071506840361925,1.1808169010107818,1.1696553042907174,1.1658969095234712,1.176789052208831,1.1865198905781535,1.1634524791752474,1.1869157083056805,1.1731876811885587,1.1701759422904034,1.1812970781907126,1.1543434399178405,1.134941002132262,1.186687274904927,1.2958472453009315,1.1920559051480142,1.1656907702513246,1.1968726886891523,1.2468860823352117,1.204406254574652,1.2085451478364018,1.1884714866517034,1.185858488160314
1.200851944224371,1.2572315017528188,1.2536331908506453,1.211531822633072,1.171768345980228,1.1706334239840492,1.1729726546986075,1.1890523327370255,1.1234441484901607,1.1442407052781405,1.1370924103114313,1.1097123261337056,1.1302112693587965,1.117347155837158,1.1327206869229798,1.1319320831797173,1.1486432042482988,1.1343277001195005,1.1567118665105405,1.1732637635935392,1.1487078796787342,1.1245717442723537,1.1840607107207801,1.2879441121657598,1.1872903502694017,1.1331165418783278,1.1866721522773804,1.270576701303346,1.2117471858694484,1.2105735375326232,1.161613785714801,1.1517251740101144
1.2025017543707583,1.258428773620651,1.2577232698158232,1.1969518454463484,1.166903339459988,1.1762091249278361,1.1557214285379993,1.1991265865237966,1.1141135502089974,1.1304655201616003,1.1255911456156762,1.0984541347390986,1.1227085316393766,1.104192168378535,1.1212423246206789,1.1205054481968997,1.140385293714093,1.1209612788331813,1.137913789019899,1.1612148596751184,1.1440844862360966,1.1433466115881483,1.212463978372211,1.2921457115987716,1.196947471969664,1.1511780418048227,1.198286736634742,1.2822328542213635,1.223479231791004,1.1931405190816615,1.1531185951564766,1.1617372754327484
1.2116715231009947,1.2498208189960642,1.2508315472119191,1.1757401329674937,1.162275640412724,1.180674275478017,1.1550427504881569,1.189572130258538,1.1018930917250775,1.1073909466824274,1.0929672496582559,1.0797142651661606,1.1013826833010478,1.078048987375429,1.0920200554805073,1.0977052455976228,1.1079714806462369,1.0992638002482813,1.118193086254071,1.1463985256311553,1.129931139565171,1.1267675454852655,1.1978015772204915,1.284870180127596,1.207266214746611,1.1466784523990174,1.1962027362720007,1.2860779478526743,1.2212089834641784,1.2063611292437844,1.1703118103913197,1.152080331111985
1.2221414433406406,1.2377854037907547,1.2541926800478382,1.163786237382213,1.1435471656775846,1.1767823190241316,1.1568624135727377,1.197051986508841,1.1075088281508902,1.1129546586532166,1.1050437688823007,1.0756583951750582,1.1013811098123305,1.0674295232356625,1.081953327409602,1.0824116196603402,1.092933610234131,1.0907447016982457,1.1077069958350274,1.1233491015846624,1.1296249413099912,1.1223410545466075,1.1786523463937104,1.266495844794305,1.2041653946123132,1.1476487901609989,1.1994779208850943,1.3064655143930548,1.221933564078675,1.2035692767735862,1.15212558024126,1.1616895211004763
1.2090208856391182,1.2520938361493543,1.2450168574889178,1.1636361330254605,1.1352429464872709,1.1750932611672162,1.1645838227312983,1.190954103172275,1.1061004328607005,1.1109136719206587,1.0978430524862564,1.0818841842060405,1.0963731495810454,1.0759385248093079,1.0916445236762553,1.090894873050143,1.0952917421618409,1.0826444351699043,1.0941697359489504,1.112525743285937,1.1106401063791196,1.1215795465154823,1.1699980214566421,1.244923239952766,1.1994608244446856,1.1448289276014672,1.1916425258693706,1.2880590224522603,1.2255425284883812,1.177872210770887,1.153021976282964,1.1732855065654706
1.2084923325074308,1.245380919110178,1.2397985726082392,1.1508119016268583,1.128165737701889,1.1784573624694772,1.170768088599106,1.1921911303088861,1.087288839447622,1.116400797505958,1.1087436822331291,1.068658797222173,1.0710247229133238,1.0635735394159977,1.0737285767096307,1.0792444134731793,1.0805309143817772,1.0639015692246565,1.081503802418912,1.1083337414346357,1.111150633485842,1.11192323832974,1.1737425871534153,1.2406745957879661,1.199345143598346,1.134235004374095,1.210891153686221,1.2871506811295057,1.20016252431741,1.1599403496410554,1.1361792229193521,1.162847465984314
1.2244715929277108,1.242694539203976,1.2578846482171178,1.1743759919398737,1.137104941843926,1.1750779810364782,1.1786230531754447,1.1824836683883744,1.0905719394514974,1.1010195560315585,1.1041566564151823,1.0640785323720836,1.0715122141193294,1.0653507062937984,1.0751349379794637,1.0812444278825786,1.0839279276576652,1.0736230588012592,1.0834701642199183,1.1063622626628962,1.1081893335653334,1.1128891373973875,1.172312169816327,1.237468063875494,1.1943474775745735,1.1422511320181303,1.2109366632798626,1.3020587989887478,1.2102452795228615,1.1724949364792183,1.144390705905331,1.1829330744688764
1.2113444002419427,1.237032532069407,1.2323080123384913,1.1610994899484757,1.133311419173685,1.170380879716015,1.16815181591349,1.1924992492123987,1.0987263685875723,1.0891206640870033,1.0966902997534307,1.0632589799648409,1.0716523389150785,1.0644669720853617,1.0743484390775664,1.0868024259442115,1.0771268465047559,1.0653432652024746,1.0810943401739497,1.1019266025046943,1.0994038711811427,1.1154676002909674,1.1656272142389241,1.2341212516943998,1.200325859070822,1.149783390124617,1.1981673683236163,1.2979693179089011,1.223023782597731,1.1814216222107679,1.1361635053096248,1.1820615064685969
1.2040918148358848,1.2480859958129653,1.215212093176671,1.1713964866760742,1.1348400277945627,1.1866923028951017,1.1593244224840482,1.1952047952632805,1.1038763311337991,1.087900395280909,1.084412921324066,1.0686039105851945,1.0810641976542854,1.0691120199162862,1.0838580876614028,1.0968501988654382,1.077943012529701,1.0747005512049095,1.0858270673477977,1.0896018095419806,1.0926648110775625,1.1327639039695072,1.1688623524581223,1.2066019920022237,1.1972282019712017,1.1620002530037818,1.2109387305155774,1.3106975937084409,1.2182928778215334,1.1777553678322403,1.1468069635526734,1.1711477094112326
1.2224396201284606,1.2760984080475155,1.2118428900858402,1.1892219008171399,1.1342188621519758,1.1697931747313512,1.176299927244536,1.2026899579809136,1.095413643978846,1.0871611143887703,1.0801364651877479,1.0588058885570664,1.0818435470599312,1.0630042914761793,1.08037470954918,1.081358078706999,1.0721080724887493,1.0670766754207894,1.0798457912435413,1.0890867258852117,1.098318986321059,1.1219449138584348,1.1685859618694765,1.2048496659434216,1.1971588111152838,1.1645409759914245,1.2160892562839518,1.2931294590134963,1.2142335044117751,1.1707063042451742,1.1544470923551842,1.1837915514255368
1.2204468208314094,1.2616783362777846,1.2066692750086963,1.2022047866553383,1.1273452284434544,1.184223693961268,1.1720812550944073,1.1979173075138347,1.1092195411837518,1.0887798032914433,1.083752986474747,1.0648163888301128,1.0915249347156721,1.0696580067823709,1.0926921119372641,1.0987127714679257,1.0835354093834053,1.074270301461283,1.090925558417725,1.0921789660334984,1.1061334203398279,1.1255673525574612,1.1754708530563307,1.193254101705464,1.199551831644085,1.1786338780023549,1.221369513325794,1.27632032744914,1.2356399419395114,1.1813254340845645,1.1589826262897178,1.1853077968362618
1.2325738717063222,1.2632632747625399,1.1926274449253838,1.1961678490699401,1.13745850367757,1.1778045777362816,1.1681287412597308,1.1831124316185826,1.1390051087201005,1.128731251907224,1.122545198194082,1.1032826026927143,1.1206655451859824,1.1072624934240058,1.1358789607728188,1.1388986137719617,1.1174871149648136,1.1041359000653963,1.1248238818848062,1.1160112705129448,1.135220400082685,1.1544706346877915,1.1724291662331956,1.2128421114410455,1.2075184076279877,1.1933100391172728,1.238724738939779,1.2931852754105013,1.2334250049414694,1.1654668172839295,1.1709611780523828,1.1875966265426185
1.2416988976391152,1.2577531969281894,1.1925020937247377,1.2026291162707858,1.1555736530283391,1.1864732929500204,1.186460074452259,1.1987567250993552,1.147442484160547,1.1253315081264605,1.1209451907043322,1.1123650084016878,1.1231716453267637,1.1168341412643323,1.14072785854671,1.14332046579069,1.1147033724517394,1.1062990894872742,1.1150027153577766,1.1065119817559337,1.1127315182493098,1.1366274603954114,1.1559335481020179,1.196655842751879,1.2102719535300552,1.23870932764925,1.2704799589482034,1.2916684302983814,1.2276680947601253,1.185017815583439,1.2003712243218763,1.1914903021337822
1.2768171803347463,1.258255406350343,1.2041207672185246,1.2245480894198872,1.1589779955514428,1.1833280399390202,1.1843310406480014,1.214376476752632,1.1458416315698852,1.1201426664483036,1.1269835722512243,1.109453253578115,1.1228291805893387,1.1210353105153101,1.1420325659342172,1.151872698956961,1.1272595120134095,1.1223024667876709,1.1298023804657962,1.1286400074518683,1.1373608959442265,1.151981898236224,1.164948370816861,1.2126784704098015,1.2183257314249296,1.2374934601700922,1.2754160856107073,1.3070268775660028,1.231288944348552,1.2163948893687817,1.1936986368126743,1.1831215209404624
1.2864108486108343,1.271756811505813,1.2184120910616607,1.2232107720945582,1.183991692989174,1.1874088933151024,1.185607685968528,1.2029969710845574,1.1646869130625632,1.1211666389718948,1.139840239809917,1.1387658671208603,1.1606249199062768,1.1496412130881999,1.1754457619328431,1.1780229144245788,1.1564599449089243,1.1422469209195791,1.1667853565473576,1.1520586469094647,1.1528163369357156,1.1682677578349892,1.1729402585970061,1.2162643450930517,1.2224176139855178,1.251561497544725,1.2939670453132757,1.3087570204330385,1.2450910662882855,1.2237685761523236,1.2159859742858043,1.180856024612308
1.2686586487059588,1.250649332435493,1.2049644385399407,1.2309961922960633,1.1785364576021777,1.177965311424913,1.180483641883764,1.19825951729025,1.1696526295111058,1.1322711100913703,1.1282092356379565,1.1494884196377795,1.1475061810943337,1.153994189852322,1.1771637859652635,1.1768463721730875,1.15819715756456,1.1420945599538048,1.1655492503609335,1.1470079390891614,1.1477624503566737,1.1697339479574977,1.1682190905111984,1.2576563436838541,1.2048683340713557,1.2518051484254418,1.2749726820499379,1.2976135226518986,1.2453073956628664,1.219978170447076,1.2109275966371995,1.1931003570911418
1.2740234887654374,1.2610428739818682,1.2106503207378683,1.2420650298468212,1.1809621395599412,1.1881780724540172,1.1982518943391287,1.1860467698331496,1.1584964782354346,1.1346151235472497,1.1230639473157886,1.1432276172373703,1.1437209826331158,1.1522807326063849,1.1783607572488723,1.1767628110485737,1.164750032411614,1.1454631286555093,1.160563235832984,1.1507056695318347,1.150768661398246,1.1610113726704676,1.1593808010664182,1.2562155803248565,1.2063802794589686,1.2486113081235566,1.2801025063152596,1.2881617731118133,1.2545534215419716,1.214969863484864,1.2269865535573417,1.1839031958792798
1.2628906471902748,1.27430440231728,1.2255098824742068,1.239290533335952,1.1894634976853171,1.1947847126182143,1.2052337224703888,1.1914457416416764,1.1458635658566398,1.135260711674022,1.1234200861335493,1.1319452405088808,1.1434782287895213,1.1414511949939627,1.1642522577568053,1.167191911316835,1.1770568355800795,1.1520368901690232,1.172554693017598,1.1570233458763965,1.1801401765985737,1.1835141305451085,1.1894506947219192,1.259070540959745,1.2145421213845475,1.2400753006668235,1.2765231340480583,1.2769413738808137,1.2561576493889524,1.206643626894313,1.225118098723483,1.1946358120581881
1.2633270390082108,1.273847929929933,1.2228360138543273,1.2459595951693925,1.1995543951950125,1.1985310278821488,1.2092773083941615,1.1646896363539445,1.1373601810915588,1.129471996297231,1.1341837573720541,1.14110925635688,1.133039859410974,1.134397830998926,1.15563895324303,1.1597559276440224,1.1534922972245878,1.1267455190291078,1.1473425158089396,1.1239757622821265,1.1612357727615286,1.1465401158184485,1.1812856803259377,1.2746762669377727,1.2075322099685089,1.2258867763453953,1.2681470308001885,1.2796087468210076,1.2475212209663453,1.2051937681258793,1.221130751042684,1.1956391655148768
1.2668140555824912,1.2593129751576349,1.22769060204076,1.2422610180491622,1.2025731050724677,1.209076720578562,1.2598878684124912,1.1638651984665664,1.1580175278212166,1.1473166283981728,1.137642274641603,1.1546250696665916,1.1574642604497531,1.1435533496469417,1.1615954866701386,1.1646248766262854,1.161425848783606,1.1425881063974601,1.1618651422426467,1.127676279646344,1.1651771427036246,1.16410876859117,1.1739300082106991,1.287134588304086,1.1788629488769913,1.2174349108106552,1.2534489551737917,1.2808842181470332,1.2526199804857459,1.2106065691390393,1.2142845896184016,1.2041876895029453
1.264809973674972,1.2493016043151102,1.2309885995408418,1.2540817296791216,1.2052235198937762,1.235428166738721,1.2368510211452968,1.1685076669166512,1.1506148348852143,1.1362144695081333,1.1317745046153211,1.1459223454771175,1.1648282091347952,1.1410566771223165,1.1506183972190127,1.1672597964225304,1.1597902761389676,1.1476422142673424,1.1750523431171889,1.1335443686660538,1.1791417689901043,1.1858635011803094,1.1920670448630197,1.2905875565169607,1.201106411069964,1.2248322429767817,1.2486122827390678,1.2963140325897131,1.2652237461419535,1.218023575665428,1.2199958624558538,1.1805137287647098
1.2475510182063736,1.2507467713439084,1.2373499638219239,1.2493459949318086,1.2067457591129012,1.2197675277796933,1.2178857517993402,1.1742789862576162,1.1502520401709402,1.1288789190722426,1.1219966978357878,1.1324603113094993,1.1477034286858678,1.1234249690695,1.1302201838850494,1.14263530968313,1.1531700127783417,1.143519088213565,1.1651869303670155,1.1255861989662423,1.1731747176271088,1.1715489992479333,1.1794112968594643,1.295999464350378,1.2030909935920369,1.1931294580882754,1.2291922087812615,1.2905643414158663,1.2475238324138063,1.2216185985407328,1.2293061403077576,1.1770203955074263
1.2413658396174039,1.266471821899006,1.2196136598067064,1.262188100328915,1.2099620261985538,1.2279906886836363,1.2128525316136824,1.173381403621705,1.1630586446740538,1.12912220248421,1.1179746636150503,1.1351104622560306,1.1490847699111988,1.1205615252328385,1.130472452489449,1.1440452886754635,1.1439890961569465,1.1341459008564445,1.1483373106574777,1.1283668683253472,1.1541095623783522,1.1704716490653986,1.173131795743028,1.2927093687300746,1.1760991713417397,1.172968680473152,1.2073871193978205,1.2747046972882679,1.2450013381030964,1.216390203310117,1.2088553528654726,1.1865176858900142
1.2299192354145914,1.2741273101140527,1.2258695741155132,1.2412480953758873,1.199233300212869,1.212577936253975,1.2129548188395456,1.1884477438254573,1.156071814113673,1.1295328847416617,1.1223498316370613,1.1273662866648742,1.1221695180432567,1.1048184500876905,1.1219287504185789,1.1350671729696038,1.119748710683051,1.1134394285896962,1.1286219858588065,1.0957676502921432,1.1404155483910081,1.1496725356664224,1.1810246290635342,1.304655723690767,1.1838733459592024,1.1615566656722787,1.2056206876675046,1.2585703461228261,1.251842946804602,1.2231814032421708,1.2029117110743641,1.1798515655414377
1.216320386517737,1.273130616134149,1.213350147478378,1.2425136795782241,1.184566735481241,1.233019441943145,1.2085209102422394,1.1808815163949085,1.151662222839776,1.1306314700807603,1.120953746453242,1.117377261873602,1.119782400655325,1.096105085558806,1.1117626610887243,1.1295020469970267,1.1131755414545237,1.1131042879565256,1.11910770868232,1.0929167864609657,1.1362493897050954,1.144036530818463,1.1619717983718758,1.2854624831265211,1.1829539311955657,1.1510633582099496,1.19509616714518,1.2616783203973803,1.2487181169521264,1.2113995819677759,1.192418718415433,1.1799321590054368
1.2300782819361327,1.2536503375085837,1.2206955737126992,1.239440583172655,1.19559525102766,1.2358030700405573,1.2196182408114709,1.1807327488001766,1.1528764087598105,1.1164492963696309,1.105338069956094,1.1087524356414176,1.0942206728926438,1.0927258631139491,1.1120471048861393,1.1237218289723077,1.1018302205671733,1.0836231178092581,1.0939456664093419,1.088973406617755,1.1175957104439553,1.1244738525119597,1.159585348114321,1.2626650028190902,1.1836156227895622,1.150689132784594,1.2158984097471535,1.2605686091678736,1.2343311679070725,1.224190200729021,1.1851967188812316,1.1705107960151142
1.2325907721972027,1.2465307268863945,1.2154802797217792,1.2198891245726686,1.1760725652987634,1.246835523646125,1.2256254638983612,1.2148200434855132,1.1862387240154264,1.142258811482518,1.1312687713593763,1.1303087596782626,1.1100307824905034,1.1054253459145702,1.120783973573532,1.1348409065467104,1.1107003566938736,1.1012074661404307,1.1006124394604089,1.1006482822271673,1.1254881841673696,1.1247791083542626,1.1696753566988964,1.2597576715621301,1.200266612642034,1.1800046632987082,1.2156114008411003,1.258248027357303,1.2401359631794373,1.212112425544258,1.1628276453195283,1.1686419977356297
1.2335991848184278,1.2565125353566156,1.2262785942512107,1.2323287872134654,1.162980261992314,1.2427662880762123,1.2108224682840607,1.2331259065694238,1.16582765519458,1.1376368247494335,1.1319111423460049,1.1208006250236846,1.1117927511553973,1.0985370711444107,1.1240148524181655,1.1363198041843496,1.1092430516385607,1.102316892095808,1.1023434927074494,1.1045072549970396,1.123986765442351,1.1321906126344208,1.1630793856734754,1.282394365501139,1.1998267761712285,1.1773073218869097,1.2133300763519235,1.26741251948477,1.265029923942227,1.2394899959456978,1.16038382601787,1.164354406246087
1.2273313687002438,1.2386357858017565,1.2347564714512296,1.236550497678054,1.187837208553046,1.2241377902334938,1.186185617512262,1.2279789054582335,1.1766150913204954,1.128558450116727,1.1189957736564924,1.1230259322476321,1.1049723676786563,1.103685229330832,1.1300518963280044,1.129074446650324,1.0936256406957334,1.0950497096702938,1.0964343920461128,1.081361575335005,1.1173727134908416,1.129117625282106,1.163881314360843,1.283887122350455,1.1835513990935744,1.1892390257392909,1.206670912875708,1.27860806796429,1.2419169705322928,1.2283764299499575,1.1829176038870304,1.1682252151463488
1.2262431961113929,1.2584292548892289,1.229452043713419,1.2025462835349143,1.178274228845341,1.2154378837981912,1.1809119209308903,1.2129302593805276,1.1661896560408334,1.1345373085444612,1.12267964507114,1.1152377973994028,1.09631859819279,1.1005443668530261,1.1324631666354452,1.1414444532932893,1.0980727756313235,1.0847259417736503,1.0875529779818793,1.078546629505885,1.098534821631522,1.11815598936414,1.1735483677143899,1.2935093810312506,1.1971145031886028,1.1794215633704397,1.2010684005604517,1.2822650807575926,1.2396901592725387,1.212230519426721,1.1641645333115118,1.1757654757270397
1.230841546539973,1.2529284709577073,1.2367256536909115,1.204999647297584,1.1835306233593565,1.2054161355017479,1.208177873274643,1.2105935685252949,1.1611914599297863,1.1418700106811226,1.1264771092160981,1.1183663556913168,1.0928729161116915,1.114366992749878,1.1546898489753012,1.1409059242171253,1.100289240544323,1.0849745956939938,1.0806203690353304,1.0684527749916082,1.094767065571062,1.1141945438095873,1.1823453450484478,1.289837026555935,1.2070075747367945,1.1899489376208228,1.2008825046593612,1.2723634495655816,1.2297008236217184,1.210038283797354,1.1581392668227584,1.1816379892775872
1.229113913959799,1.2475957510428943,1.211801491405801,1.2013289355015941,1.1720041099302252,1.2017006302718154,1.215729341547153,1.2089314361114634,1.1886099431286283,1.1408206311639033,1.1298078183979259,1.136226950512029,1.1188578805883898,1.1283318059251268,1.1581385566217592,1.1595655967848126,1.1055208069550766,1.1099211083652198,1.1094722247549733,1.0831764186018784,1.1186171305844812,1.1495283177001334,1.1824363328658976,1.2803338748460906,1.222782867703618,1.1807996392585656,1.1853763505459864,1.2771249019924389,1.2367571927130268,1.2034863254311765,1.1671351017622986,1.1814241576716624
1.2303013596944792,1.2476811720301118,1.2352109441947883,1.1867729399546474,1.1755784233995858,1.1987750105682284,1.2119836813231943,1.2076575230134676,1.1850758707028957,1.143070303642634,1.1281020658062961,1.1407529662978733,1.1325331752397807,1.1399795840070905,1.167108391500118,1.1754289527450266,1.1084158354017895,1.1152050699533718,1.129308466769499,1.0807258730985387,1.1299103049615258,1.157042645543164,1.1891272018449806,1.2680555201798422,1.2406512223464503,1.1986068938037557,1.1933159346811166,1.2784433101654695,1.232394870841602,1.217905663520366,1.1536047746379874,1.1776939884363489
1.2414322868279801,1.2685385673778355,1.2303513326626323,1.2098282091063803,1.1937364480226094,1.2030170031799587,1.2198776567204477,1.2186779723026224,1.1852519113004711,1.1694692018649748,1.1510608918732044,1.1548414215915794,1.1310787462085439,1.1418525982164685,1.1738644743926792,1.1784750043121204,1.1357843522190714,1.1209798432161597,1.1312807697791951,1.0989988978963454,1.1267018545286012,1.1509699912689222,1.177271970953194,1.266118629718714,1.2340706840279638,1.2129546004262317,1.2041777804238871,1.2745946718592283,1.2469806404665498,1.2208611403969067,1.1882905593341404,1.1820553092024584
1.2316691563261168,1.259057431161665,1.2350249514464888,1.2023701451883304,1.1744024206065904,1.1953431579163196,1.200886901582041,1.224190493219696,1.1639990648877994,1.1568694423725046,1.1274366632818833,1.1334215127591223,1.1274170749037902,1.124752852451942,1.1610079075275068,1.1592956860698629,1.1315563587314887,1.1332222986004932,1.1302015223348079,1.0966349819764933,1.1430949989732284,1.1448136301653073,1.1917514542246517,1.2611428133926241,1.2531951678509854,1.2235416479393904,1.1983839741832925,1.2583931488831892,1.2429570478012988,1.21487385970672,1.1794580782156248,1.1963563630221052
1.230756248826083,1.2882397123290639,1.230890643000185,1.2070181874264785,1.1978007856951278,1.1989737897294626,1.2064014360298034,1.222954670151992,1.1520704083570696,1.1646411910301195,1.1457060388315354,1.1437852395831571,1.1351333848278156,1.1344417737313814,1.1687800568225548,1.1815862974889335,1.144542120083198,1.15178171139832,1.1323279761315739,1.1165255201227302,1.1471193916742124,1.1589813366798323,1.1901702659258804,1.2616828918326684,1.2329394493793986,1.231135103429751,1.2002796135221996,1.2722776564736502,1.2488304122166543,1.2235860261254488,1.1905122752230395,1.187343529335355
1.2338417360671667,1.2855702568132805,1.252901751162931,1.19548074869435,1.1843048014685766,1.189623835560584,1.1991783508901346,1.2051384502186888,1.1524488495509588,1.1585805006494143,1.1263618181932082,1.1358855403907857,1.130150518786762,1.1342842313498143,1.1640009416355679,1.1613145889934016,1.1411052413491967,1.1443746385225513,1.1245186970129435,1.1087896266348298,1.1379256498136756,1.161559904612201,1.1963886756240725,1.2489722026488768,1.2160679315619618,1.213876084905292,1.195043423454,1.2499974434329153,1.2235674243792993,1.2114218649626367,1.181221052877373,1.1977930212629688
1.2588138987258017,1.2829336364439752,1.237964754001978,1.1846921780132746,1.2032787361568043,1.197106518305744,1.2181207486655599,1.1937636231837632,1.1674180130371714,1.1534918918895827,1.1099898738672769,1.1271434538783198,1.1403495285489404,1.1186109845145742,1.1450627451656012,1.1535310575869788,1.1330584282131233,1.1253743180449627,1.1410764693757218,1.1041350177462126,1.14150935136536,1.1663569882244293,1.1876434322920966,1.2379335921371422,1.2281073287827804,1.190464562322009,1.1966105885568363,1.258894991131432,1.2327335023250643,1.2198918522260422,1.1960370968810314,1.1812835832086694
1.2462583428510041,1.268155745225546,1.2330350947992263,1.1995109272190791,1.1951648596273043,1.178413658904638,1.2114197063864127,1.1898226964394294,1.164680985919888,1.1581963928928614,1.1210063949831461,1.134518791009644,1.1352156398133266,1.1235852406523625,1.1487597396457523,1.1613362391286028,1.1295342275629954,1.1163881585290465,1.1173576735943447,1.0988649122552754,1.1343779129310787,1.152886595811435,1.1706535482740599,1.2287073065631906,1.2462116047322283,1.1972859985523487,1.219800300434782,1.2569020665527955,1.2476301418969193,1.2240936667247733,1.199409732180739,1.1761556255496555
1.2387361294877337,1.2918039578498546,1.2228024767085628,1.1800464619412316,1.179312664460134,1.1798670988661097,1.2056481739620986,1.2198774327760082,1.1651717076698591,1.1404766001701234,1.105360611096563,1.1439705370132545,1.1337214371133637,1.115355623082038,1.139892886652821,1.142071135077405,1.111210834522823,1.1045754585139145,1.1070057739406711,1.087698174769827,1.134920514034531,1.1521012434859592,1.159723469619847,1.1914203627857247,1.2308693539561901,1.1923203156513866,1.2010018908328428,1.2347210406202307,1.2177974361039294,1.2123690890729857,1.1899649692175938,1.164717357496652
1.2501255607330648,1.2974113641916876,1.225892468477746,1.1941532695726758,1.175890330969615,1.1833813396745356,1.211362776874449,1.219044443592062,1.1637537447903001,1.1482510823141476,1.117716485281345,1.1464493872808528,1.1262383316239193,1.115712232893945,1.1445877851021584,1.1462031661111762,1.1145129344429374,1.102539909051599,1.1070316463698662,1.0990650719036106,1.141011370337696,1.1349200701129263,1.154969167036124,1.201202613141939,1.2124827869927863,1.1869776855038936,1.2175207999530335,1.2242400394890232,1.2301690161223136,1.221324806104346,1.201799137374303,1.1771931039188297
1.2604935076456858,1.288759323589301,1.2366569430457623,1.193984337407615,1.168076995411058,1.1951652225008769,1.2311850792494243,1.225744107148222,1.1464934023093563,1.1558138929924207,1.1026943466430412,1.1261128758918524,1.1302171844329623,1.1011075771720102,1.13192961444694,1.1272484124134883,1.1277553380189886,1.1065160444056485,1.1090851931970003,1.101760470130549,1.13539626955926,1.1324626166411087,1.15729991461826,1.1998048305036215,1.209596486149413,1.1838962498860544,1.2316656748204675,1.2242728204149824,1.2689666701570883,1.2240764146298813,1.1911805861127565,1.1764340980129697
1.2511346691958978,1.2771586343054695,1.2192196833135756,1.1807108196506848,1.1863683197327504,1.1745264384350516,1.2406631291549333,1.2227016572289187,1.1443875375651331,1.1585306241209583,1.1126440645953801,1.1214077760340335,1.1052413056631991,1.0975043399104711,1.1217662375426232,1.1140582379338557,1.1047627430417362,1.089228483201091,1.0783405028896496,1.0785151400314759,1.124490954617292,1.1064357468620216,1.1515813993833464,1.2258087275575966,1.2065638374053833,1.1792833326100376,1.2247366524852865,1.2302243412654867,1.2544577890618822,1.2234214096784803,1.1861000508345914,1.1740281927415095
1.2544821215556015,1.259395172418501,1.21228138670212,1.1710723564145862,1.1609312377165297,1.1677946552377292,1.2312516963981388,1.21252794563364,1.1584676266215672,1.1467670957193996,1.102977112878247,1.119152902799886,1.1057676050345453,1.0972502906601167,1.1251191419091742,1.1208310624128048,1.1079484563242508,1.088745080756394,1.0718246727122636,1.0806039853858442,1.1206053664849462,1.1097160640269994,1.1594734996421723,1.2074823636129515,1.2102014942208188,1.1780158391702737,1.2288019732598383,1.2338315424426125,1.2398912262435144,1.213529696923222,1.1730183375623393,1.1993723605210689
1.2645875146961556,1.2646466952670912,1.2148340043224228,1.1716492611440377,1.1719794369260028,1.1768517472742002,1.249715990506038,1.1937780983637203,1.148903623644635,1.1200195214938036,1.0894862406914847,1.102555726779952,1.0983651706427109,1.0978061951351792,1.1293909428572808,1.1237020370974888,1.1019676527295075,1.0790862616171542,1.080296542205674,1.0838223748557938,1.1319801054686038,1.1082115486108486,1.1800614513817298,1.2371549340873986,1.2283763759597834,1.2012649628521948,1.2464776646065665,1.2407748787705246,1.2350382503769568,1.2319713205445928,1.187886779011013,1.1972311122179806
1.2468895634635437,1.2335938325743856,1.2191987371279742,1.158187998190557,1.1817928344615192,1.173428662316675,1.278443692573089,1.1890431760773688,1.1635038064114345,1.1444281882724374,1.1025663319763912,1.1184871055603296,1.0993051890595436,1.1067955328859955,1.1456599943984362,1.126637379265793,1.096047367352725,1.0771995647159127,1.0876035986006676,1.0895836961637069,1.1357089356475032,1.1043701344519674,1.1824099587220045,1.2518614521089997,1.239299100848993,1.2042383642800056,1.246588919729878,1.2347201400803078,1.2416539221035534,1.2610624055840352,1.2088613253152094,1.2264426250598273
1.244594643392867,1.2319366256226665,1.1951139946349958,1.1585774482695417,1.1671196969320166,1.138243450747999,1.2451028802802653,1.1837691517635196,1.1583422748685337,1.1350116534330994,1.0941019373108913,1.1041588721502915,1.0935118773452601,1.0967300581598518,1.1291548126662465,1.1184687576140127,1.0876298964552988,1.0806190350041829,1.0769292246437323,1.0825193563349724,1.1249042292297808,1.103296611007512,1.1699964780107819,1.2542612961433364,1.250127897145513,1.198619123359405,1.254837784357499,1.208783921841976,1.2412662635777383,1.2451074566373812,1.1845180808280218,1.2183930987309015
1.2258396408837313,1.2451249465065901,1.1916759592189254,1.175519007003758,1.1601149762891876,1.1557551139917823,1.2219941155430774,1.1817923180557062,1.1755331645391078,1.1347661837581553,1.1265490294870586,1.1184880207621035,1.0999788358195322,1.1281559276639892,1.1667247147743247,1.1283401094103154,1.0930972559302885,1.0788903159589263,1.084990102004059,1.095507429294553,1.134415894820344,1.1190601915877378,1.1710735501094311,1.2649734533969839,1.2472095768952713,1.1881177582095648,1.2439884530559717,1.2011360208087847,1.25028551708567,1.2332309381113977,1.1713359165987252,1.2063981366344996
1.2180566920930425,1.2542604659596335,1.1961906880467295,1.1951975655403633,1.1749693163841761,1.1621041152407863,1.2315019307593271,1.2054649155195858,1.1817416503365632,1.1426694798518795,1.1298741966906387,1.1149008651218857,1.1067319747289908,1.1218790942847205,1.1673773607298359,1.1456205061437312,1.1050916751317033,1.1015880689070572,1.095226975052002,1.0997469836082276,1.141306107374369,1.1143098355116339,1.1688015256558049,1.2719344229440308,1.2646780085996483,1.1891200158549158,1.2601280260577035,1.217300323168399,1.2646252846822115,1.2461446836961512,1.1782130267192843,1.2096483316689335
1.201616210004683,1.2375177878840102,1.1679470009959507,1.1691215999783826,1.1566709034162053,1.1688488907525743,1.2342596452884802,1.162183884119481,1.1524829961835374,1.128429282666669,1.1294593190137714,1.1046067602392056,1.0983576959939847,1.1256181979689401,1.1613058806894907,1.125769917149237,1.0929011121147176,1.0725912810022895,1.0691239940629316,1.0872504135138383,1.1219738415716267,1.1012063060287445,1.149898977111295,1.2842032548979054,1.2395511001926245,1.1663904967038883,1.255111508599427,1.229318990074946,1.2572732909929387,1.2417875684539337,1.1656471085943407,1.198622273073919
1.1901535985474077,1.2273348922967369,1.1713828655945397,1.1689638527029445,1.162111065762132,1.1536547974565698,1.210457880859328,1.172283562656272,1.1612911029239688,1.1365545879343688,1.1618660992931604,1.1109249812044877,1.1066277326185974,1.1401705822805372,1.1862759606635491,1.1398914879665576,1.093163860183701,1.0727993675971508,1.0738450050232788,1.091620709117882,1.125061978643227,1.11103120955,1.1592324983463653,1.2885866375265231,1.236610274337558,1.1736532542643772,1.262806617420168,1.2229233009207932,1.241211164565859,1.2440376171258078,1.1581946733357575,1.1850669552437363
1.195813158454116,1.231051772195898,1.1642019503916077,1.1827554511750404,1.1716266744548454,1.1522532934690932,1.2039267256399986,1.1820391559377323,1.1730094009996632,1.141330637561207,1.1593684776140152,1.119646399395237,1.1252634875538232,1.1599251145747487,1.1876962552744827,1.1409893661886472,1.0928774586030063,1.0897035868132505,1.0821515749696435,1.0899433696794238,1.1190167308265633,1.1173408076974047,1.1645535841146633,1.280077031725229,1.2277253106022832,1.1673328011338784,1.237547758522887,1.211989958767561,1.2220919520083962,1.2326001119854768,1.1782588017508349,1.1740017475636129
1.1888589588538319,1.2544780046992383,1.1725119194241251,1.210636313400028,1.1782407570090236,1.1463551488276098,1.190919887941337,1.180373771765814,1.1782011990365568,1.131883576611469,1.154001106772929,1.1397966525055592,1.1614135281905706,1.1758724759950956,1.2034264630347666,1.162055585099609,1.1063019508302876,1.103401404803826,1.0940882662466804,1.0931664896918762,1.1090526435435522,1.1207430283945887,1.1411650211381192,1.2678255671147047,1.226274651569013,1.1712121507940496,1.2572620845590268,1.2312188152379187,1.242827942976781,1.2416233363911389,1.1875031471044257,1.172635799176218
1.175230079864977,1.2742706844655418,1.1820003580177523,1.194543723599972,1.156249704755047,1.150016163696733,1.163143475959842,1.1642625191550893,1.1400144755067718,1.1000586942268002,1.1288955713387494,1.10543143624563,1.1285457420821448,1.1307324249858532,1.159977410128077,1.1239105434569998,1.0863678969957147,1.0897869224114751,1.0856380425396064,1.08135965727676,1.1091160073367436,1.1100121532403966,1.1381847706129127,1.2734878939900387,1.2310513503955693,1.1423890537047123,1.241436623197251,1.2309451797966267,1.2388865585572326,1.2361681396941717,1.1581504984101703,1.1491946247969493
1.1832849351886998,1.2668252919589715,1.2035755554381893,1.1723957224581976,1.137154414264699,1.1587042961574934,1.1458423624097298,1.1782498524662957,1.1172542782237926,1.0903813596236094,1.1069840298305302,1.079083880709217,1.1078367774629876,1.094369512942038,1.1237039085851936,1.1040305638851635,1.0662215081306108,1.0591882716237102,1.0561048502184596,1.0549005262412448,1.0924235707514498,1.0962347186407253,1.1022072017933255,1.2686791590725406,1.2255500013145082,1.1256080474528432,1.2120276834616244,1.262036093944553,1.2450944010351968,1.2233814674217482,1.1255308672315911,1.1387645014747292
1.1732213281951918,1.2817391626836792,1.1861650388621516,1.1962324941665494,1.1454121686713576,1.1731309465485333,1.1275306495664794,1.20029954989089,1.1177319653542654,1.085232110800163,1.1079475099462297,1.0651205162173047,1.1113958133546342,1.083197646221833,1.1165450566425732,1.1104290540878192,1.077787295789766,1.0809828519823281,1.0743942458602778,1.076978117593814,1.1078161350348343,1.102632221650986,1.1099334393380111,1.267189936480197,1.2142839706931212,1.1087737481610054,1.207524561338808,1.256377589754626,1.229137919770937,1.1974721281102982,1.1329645898059904,1.132289363940281
1.184013331943795,1.267194801213205,1.2132951411046404,1.1774556119824402,1.1230982933097537,1.1670074348603772,1.1374882719249757,1.1944751385438712,1.1117593921614166,1.0904840120455226,1.107892951180981,1.0638000176813722,1.1004120900885457,1.0797909189694281,1.1148189807989521,1.0978949529700919,1.0646544172911327,1.0670289845316672,1.0595785056472526,1.0631270465388045,1.086479677725151,1.079613029892813,1.1029444799654722,1.2753066266540742,1.2036469140725425,1.1083506386116848,1.208442713368896,1.2743477909150103,1.22278644383788,1.2232480168624509,1.1273732045466875,1.1391133085330103
1.2017181353088284,1.2731941694135276,1.2121402014544362,1.170153088514631,1.131751496545184,1.1704998601406325,1.1480076463283722,1.1896305767765565,1.1004458380920952,1.0852092282883954,1.1010201125847192,1.0664202697546779,1.100203962237838,1.0770638371116152,1.099868323105435,1.0924932305012003,1.069020286702794,1.071507353964868,1.0656486247987746,1.0613248628839596,1.0851276405199055,1.085123714927121,1.1024826735503694,1.2582106530071528,1.1961897672802924,1.1151978228942174,1.2001901105742958,1.2775353745136613,1.2124263674828333,1.2184580699120975,1.1249710539121143,1.1442951052201948
1.2045500508305855,1.2713488036657297,1.2063065803717428,1.1747520662400972,1.1497981541218545,1.1667665080032905,1.1410360110612394,1.1759366041244064,1.1008380938816236,1.0787509192509765,1.083954172011713,1.0655351681601963,1.1015228879783574,1.075785119907998,1.0892341265242378,1.0928274274384704,1.0654841116677582,1.065788721715887,1.0562131251164513,1.0591362382329714,1.0867743143991109,1.0810956653474504,1.1065410456403035,1.27423870114119,1.197353060273186,1.1273670855571978,1.2002467989410222,1.268263614619589,1.2059909487909997,1.2293846822224936,1.1283412535729938,1.152107904797897
1.209468419614982,1.2741496837732798,1.2195438118509057,1.1729591738570126,1.1488425624849512,1.1961110666312675,1.1635904250466376,1.1992452025831766,1.1027277567313098,1.0895524289640632,1.086140281614972,1.0660711308285005,1.090552575739998,1.0718377728094715,1.0840512554541906,1.0884660285320542,1.0688084186082172,1.066297037639872,1.0728979592819259,1.07185023088609,1.0998903945499117,1.089214541755821,1.117635473792704,1.2747268445884752,1.1967393027592332,1.1209763339660859,1.1927065512706272,1.2671654866801816,1.2181134997710459,1.2462482432062323,1.1288999226472762,1.1728593048258817
1.220142010304885,1.2730144938322927,1.2188661264363503,1.1641251278655484,1.1471139921215932,1.1772956215393036,1.1624903705459693,1.1943368035629718,1.0868378872456463,1.0841129651649224,1.0657991983290775,1.0629818988186344,1.0832773026692246,1.066955568521123,1.0703078107263586,1.0779998884801933,1.0669472907610755,1.0669839827864374,1.0771782054111252,1.075263290036409,1.1043772255780913,1.099479138530151,1.1353506882696294,1.2563300006464497,1.217891415437818,1.1275643519002634,1.1958178470187963,1.3044965603088263,1.2118922515096464,1.2337375834813036,1.1343520662484554,1.174819289332569
1.2215211492050784,1.2549526296941673,1.2281571834566352,1.174558870111463,1.1561670923444223,1.1941124527573146,1.167144473355517,1.1852544809546637,1.097552744128356,1.0825843933510337,1.0624528098693424,1.0600426963622769,1.0745844604322294,1.0546441271538103,1.0584475809239136,1.0675108698469442,1.0546431649523185,1.0585708382014112,1.0629400588202622,1.0623703142301217,1.0851339239333158,1.0914181699216672,1.1171270646373739,1.2424990054112823,1.2224941523076176,1.1247300537882472,1.186473787509559,1.2939295806351332,1.2218063172019473,1.2312371642568223,1.141355812078835,1.1771454433552069
1.2438126386373993,1.236247670818889,1.235881779637635,1.1833932330786747,1.1801641104301022,1.2157348798688572,1.1678906010784689,1.186539546275132,1.1030485018213567,1.0851568686913458,1.067956719721649,1.069653394888059,1.083289706083466,1.0588271028350789,1.0620176803860994,1.0713926553321151,1.0603626009138594,1.0613718817338118,1.065190673450296,1.0719904634169148,1.0958072014454578,1.097568563344509,1.12388795126793,1.2507835271782648,1.2124662063359017,1.1526965203150341,1.2047429979616537,1.2990285644744284,1.240022084576998,1.249122542079127,1.1646008799511958,1.210683420815724
1.2100138484583582,1.2321161888874532,1.2117030830704478,1.1775219973387077,1.1798074286668574,1.220494260320925,1.1867922378888922,1.1918744829504964,1.1334159013551632,1.1108932878075466,1.076636496769032,1.072199412253261,1.0904091093102073,1.0627579560258427,1.0673242612927685,1.0790157256015287,1.0658145823025351,1.061943432438825,1.0711245266540026,1.0694994152049926,1.0991889190288613,1.1019736630481705,1.1300326375611691,1.2344652779706629,1.2172297724745553,1.1654912800881447,1.216695896464661,1.3022014829012503,1.2189239915873311,1.247920286753542,1.1627369511127057,1.188852507787593
1.2074240312448505,1.2408727499162213,1.217125169378783,1.1776149066897539,1.1626727671071055,1.2211565851443142,1.195883481176571,1.1902675103192826,1.1326515280813196,1.1025352090154068,1.0792193731456663,1.0790158203955214,1.0951261582588228,1.0655212299658388,1.0750437851255232,1.0823438216558494,1.0701119454031205,1.0667784353915961,1.0758106583289473,1.0732008373011939,1.093213323226609,1.1115223629412558,1.1215181089719841,1.2403743763272714,1.2282700282597991,1.170299507057483,1.216502148283998,1.308508754900821,1.2228132747829994,1.244999774715367,1.159565982310642,1.2001086809883985
1.200131940498704,1.2421005641952805,1.2146514905346337,1.2086013057815248,1.1900817319514239,1.234429914068166,1.179700891127616,1.1835039509823326,1.1523585769071383,1.105580869843207,1.0848620001567633,1.0887058278364596,1.1092935013413365,1.0735033707883839,1.0786291914182324,1.0813377017664523,1.0703348171504132,1.0651538215926455,1.0809218526549769,1.0772452613709675,1.1087519154621703,1.124087130408246,1.152258176869372,1.2147560788904772,1.2360537227587278,1.198604950467052,1.2460477135700518,1.2902334279099121,1.230992723727322,1.2637989394596252,1.17418164798252,1.2071455766448844
1.186363458309535,1.2409021235624402,1.2089643309206655,1.2004509974314215,1.1727594644134087,1.2229938621348018,1.1620453143981242,1.1888448232966082,1.1335303460590112,1.1037224260611003,1.0668762944619186,1.0769719501583088,1.1055276598413284,1.0644031849315356,1.0715784427769113,1.073651855237431,1.0751804575792443,1.059046514634576,1.0826904264417938,1.0815293819356788,1.1220038943231951,1.1439227662317484,1.1588402564223634,1.2172835333486052,1.241472343782546,1.2056211685367753,1.2455340831425736,1.2669560028480862,1.2352745449622953,1.2394992527972761,1.176125767174741,1.2087200275354966
1.1976036260189522,1.2373611873451595,1.2233524497927262,1.2045968001864382,1.176558499894924,1.2085094454630818,1.172713125594116,1.189119364598544,1.1338653473414881,1.1227160997481322,1.0809835326358108,1.073512089020074,1.1090259299222853,1.0640600458392138,1.0766987301142765,1.0811083108127348,1.0819972927945773,1.0713207663672175,1.0954062602764418,1.0887140301288512,1.1304886239941205,1.1599671423429547,1.167603517705687,1.2353839194966045,1.2237088065214965,1.2062212027820896,1.2507948614817346,1.2680728869474558,1.2402826597520762,1.2650424516292231,1.178339632771887,1.181200984420071
1.1935561726603128,1.2605758433964458,1.2436371697119233,1.2088928030515258,1.1699030290243826,1.2056178524276782,1.1752348950908225,1.2008771537213674,1.148517639848151,1.1128739035959747,1.0905619176543422,1.076713240926095,1.1145550725343605,1.065861877976358,1.0815077141349423,1.0942625453683934,1.1040819858121675,1.0910362720344307,1.0991910317930391,1.106210106995961,1.1241912406913945,1.164026450581211,1.1530742513272485,1.2344426190783107,1.2206734139190971,1.2096473279047857,1.2582381700859602,1.275514701697409,1.2591055406911638,1.2718107787665223,1.1982549248803909,1.1750561946503992
1.203275117255462,1.2704834750929164,1.2580013739077185,1.22275749455035,1.170942360472527,1.2042766774613272,1.181977327438269,1.1960587577540567,1.1552394656783744,1.1194881328028752,1.1006480576205258,1.0920754413096463,1.1281401900071906,1.0958151235822322,1.1276759245021626,1.1346778639775685,1.1284863740121833,1.1028808828552235,1.1202324831474852,1.1237760067134612,1.136238320940853,1.1730352313652381,1.1540783277851825,1.223553431439922,1.228768735436779,1.2001501643974342,1.2445516681265134,1.2955264817724255,1.2525578581753738,1.2653037454970317,1.1882254424881489,1.1718983327856791
1.2206569402096386,1.2575301648089434,1.2587534689656943,1.218099110526287,1.1825294721154096,1.2264333950910224,1.1828156218504313,1.19754703642402,1.1738823002071364,1.1232542123339782,1.1147026261501363,1.1030260282671909,1.1541919459079837,1.1102373114939732,1.1459900495925937,1.1456142609765314,1.166650953359303,1.1191426210144422,1.135668178190544,1.1444406706419012,1.1403590276741717,1.1735887329185601,1.1525325199631669,1.2449989573584235,1.2324627425405414,1.1980036202944588,1.2295208697173017,1.2502517393555939,1.2620481451579264,1.2659174099705925,1.190814055656117,1.1737417193756563
1.2139889667629933,1.264929626051449,1.2369535308794295,1.206510996958063,1.1652006433534878,1.234689672837149,1.1843961748845169,1.1932417810481275,1.1580124198575055,1.1269651631955706,1.1278318065878143,1.1265885430108753,1.1655501686630974,1.1242364644243137,1.1567979560095105,1.1569074593169166,1.1744845782980364,1.1259265516178985,1.1459387489166903,1.15093178985042,1.151849605063556,1.170275871015431,1.1474380833010183,1.2599455411136082,1.2159154435025585,1.2045173168213201,1.223529350967355,1.2589631323998534,1.2678941113419595,1.2633583196291152,1.1923314231261437,1.1810393084471846
1.242356287608036,1.2587275339665007,1.2584549704874965,1.2267383819909188,1.185189253056751,1.225872791296299,1.1859642129586976,1.2141596282838927,1.1736059677263062,1.1557067772261862,1.1504049059792418,1.1440497244984968,1.1708785715038363,1.1498802259235776,1.1803551058341852,1.171255568455418,1.2012966394517168,1.135873779344049,1.1463741990866805,1.1616014947976967,1.1531595490047044,1.1689121878442748,1.145809915562947,1.2347263194809028,1.2093416414438094,1.2201853666657898,1.2046047891397513,1.27652995635862,1.2807013221875734,1.2448734028762143,1.2077614765498033,1.1734966607007584
1.270595634542181,1.2617266460538112,1.2712106731474404,1.2308301168692097,1.1859767334469304,1.215293239796717,1.1728615196667331,1.1950793686745984,1.164786860156431,1.1528246405619056,1.1507784854758634,1.1521495242763173,1.1704061954365947,1.1551940323157306,1.190140965318547,1.1729642873799753,1.2150559340622067,1.1440884558058257,1.1355220964344301,1.1542293274304594,1.1398379251021586,1.1585746107127344,1.148387926276469,1.2514085114353999,1.213205391540881,1.2192762582630658,1.220933093888496,1.2736704947745592,1.276000649943294,1.2357525686990052,1.2218987557573748,1.179957198303375
1.2746733658204075,1.2680064832581852,1.2644918357386823,1.2424985559692958,1.1904210020833046,1.1936223292392847,1.1668794536395188,1.2025366624728715,1.1562611214924285,1.1327789945065239,1.1387122299501526,1.1466773490878523,1.1861187668707946,1.1531828733017333,1.1819191060760776,1.178664173954549,1.2085876142477274,1.1725190540210766,1.1659663531903357,1.1722610102193523,1.169734767247814,1.1721609423303192,1.1509380503304125,1.241155683760125,1.1921109078234848,1.2079701364919013,1.2271520338971322,1.2729493017117894,1.2977636648978466,1.2331792655891378,1.2094772081595841,1.17045833378307
1.2884662637215198,1.276740954754882,1.2686887529972843,1.247017135783419,1.1783797228138992,1.2078240796122497,1.184960338757101,1.1941577273617847,1.1653973087978198,1.1474372003962243,1.1426660182506876,1.14040453348191,1.1768325362273186,1.1407869682901155,1.17518536533,1.1695468786931704,1.1865970703220017,1.1466323161001133,1.136767393748656,1.1415944506980507,1.1324704510231087,1.1471633598426503,1.1351407960654014,1.2392888520727863,1.1930246035838363,1.2143590928420522,1.212505636382084,1.2783605896267152,1.2721920494774306,1.2382683483121384,1.2029772881234353,1.1773441974265046
1.314802734782672,1.2738046199736335,1.2860579738883247,1.24662737882786,1.168879356505963,1.2077503322316843,1.1752262674134488,1.1753120680844749,1.171243566529282,1.1351113682032765,1.1475955544782086,1.1453885304329958,1.1761060397407597,1.146521611224103,1.1794451824529415,1.181301981281222,1.1759012093433503,1.1487106072416458,1.1436961688474085,1.144524506821462,1.1258431213658129,1.1402466643907214,1.1329297448361648,1.2710406320504168,1.1848561077353215,1.18785301227071,1.2230595514029428,1.2844999949808316,1.2717143651057219,1.2300268682923416,1.1871310339977599,1.1525959182911085
1.267224938558002,1.250962559603536,1.2461598954593538,1.2488955158881152,1.187273702755012,1.2135994006224873,1.1637182764583027,1.1647401670228148,1.1840391894896576,1.150960127507749,1.1671819138430115,1.1585395898203195,1.1713345844323797,1.1647515176418048,1.2072855953318626,1.2072409168296998,1.1921259780172375,1.1274897868502936,1.1293128016614924,1.1388533288292193,1.121568708877888,1.1383162228026864,1.129688871222651,1.2601340327305948,1.1901075015689415,1.1916858808475739,1.2149229517390816,1.2624267589940172,1.2771970695951091,1.2100985505800455,1.1863400964350428,1.186844906505226
1.2716159178768185,1.228501531220667,1.245784253139286,1.2669278111609563,1.1876586285482624,1.2105028779202307,1.1732094129709953,1.1583530310893593,1.166671169652147,1.13176335763513,1.1282590875969853,1.1268493030459412,1.156257193407997,1.1199702520150694,1.1673213776365823,1.1804024914968756,1.174817518624051,1.110058999795019,1.1140014940030611,1.1302267561312511,1.1253966288010757,1.128761072030206,1.1442633578671955,1.2467545720238369,1.1740916976933384,1.2032851840479937,1.2148885223908656,1.2732778682114632,1.2460770088928532,1.1837632905469853,1.2015254156053277,1.186404489677276
1.270647833636883,1.22779957588595,1.2384540028483295,1.2800183742294742,1.2125436071467812,1.2299364538184094,1.1806747866982097,1.1629506895123132,1.1635844533107282,1.1442313246720415,1.1377495383865062,1.1193058586997466,1.1361187563834472,1.0972454451518028,1.144478581613245,1.1675809156412955,1.1714927479362849,1.1086581465929704,1.1041938846707007,1.1095784174850802,1.1259699720092984,1.1249275143515343,1.1368064289404278,1.245968599232527,1.1823265077834961,1.2069036094261767,1.2314026182600863,1.269029136128164,1.2523993833263218,1.1906756612424618,1.226574822212892,1.1961872736483106
1.2561595484623735,1.225691989896156,1.2304025833733734,1.3011476849112602,1.2184081552920158,1.2159433503119228,1.1692994228354006,1.1606089371710449,1.1726471827567786,1.143021728561796,1.1151577675969175,1.118488426694788,1.1327560000817811,1.0985980680381957,1.1461170515999288,1.1675712257913649,1.1537104751112244,1.0923968645141964,1.0869638713837098,1.1134691541922535,1.1155306992022953,1.1133666883194209,1.1372217893035463,1.2395050135130061,1.1756970918489205,1.1910971234877854,1.2426959325616902,1.2934476704098516,1.2397605856204772,1.1969685167673452,1.21344268687491,1.1982085584279079
1.2588368163306454,1.2285205800936982,1.2418512948905462,1.2970550205953622,1.2035116766458323,1.2205132835420263,1.1691108889493687,1.1773637961098917,1.163480078106955,1.1400815779056788,1.1103507540385145,1.10638162770321,1.1225830990390246,1.0949771532932846,1.13027514939354,1.1444532791671838,1.1371517259526769,1.0852363948580084,1.0823422189775616,1.0993866289506409,1.1049774180565188,1.1102617056409065,1.147769881828372,1.2431963528939318,1.1899482575663927,1.1903675560950138,1.2490485895004015,1.2896400672153434,1.2607744246006183,1.183752684110125,1.210932719162821,1.2086991989415843
1.2599834644519912,1.2366592086792265,1.2220716550267163,1.3074619810953023,1.215326663967024,1.2209878476070475,1.1875434407934229,1.179714282650919,1.1677128899148626,1.1493180771847935,1.115737832029306,1.1055452422457148,1.1131218025697243,1.0881776173944944,1.1266074959071364,1.1528151821760362,1.1380115854884345,1.0883289948075001,1.079890940881106,1.1098459751098462,1.108395001463741,1.1079343931835535,1.1555138953382278,1.2633547727254844,1.2200978510442668,1.1822487453911847,1.2503167095882968,1.2724091032518832,1.2573673989567036,1.2125036914469898,1.1960696103981558,1.2029834744435555
1.2523247681364533,1.2339091709813568,1.2217650797606987,1.2788608485145627,1.220953823259851,1.2362990130749578,1.2038412053882888,1.1832533902597644,1.1704166225365946,1.154624935307476,1.123260711783995,1.110806038724523,1.1094657050082917,1.0969053918189258,1.148945293354159,1.1633333999615099,1.1377858076458993,1.0843409769657697,1.0712815137912317,1.1013337330061868,1.1129744021904946,1.1150488493246402,1.1736745292283648,1.2736659084585522,1.2106251827859908,1.1854444012727106,1.242369561354076,1.2756687580889097,1.2773153836940576,1.20304281079375,1.2104146250482577,1.2101047402858356
1.2644435369709912,1.2119040272911494,1.2538835353704887,1.271516405229627,1.2166998043652042,1.228404764037815,1.2099785723015895,1.181190296679313,1.165766459254502,1.1546760489783214,1.1221818257186897,1.1068550775054715,1.1002629474170211,1.0957526437522127,1.1416328531728386,1.157733655358582,1.15121078659932,1.0781029305337804,1.0914935450673116,1.1198236068767833,1.1321706228479922,1.1331507634379856,1.1733528929424968,1.267814171054079,1.2238257762660945,1.1752883125957914,1.2445532546286318,1.2616744881930033,1.2565804498834388,1.2023323464709108,1.2004016936783681,1.1954663775694772
1.2528467868730453,1.2459293829883407,1.2671986621978397,1.2565620952079333,1.2242880866084638,1.2147771459472574,1.2322904385459574,1.1883217660650307,1.195075420677477,1.149288666536401,1.116145501433806,1.1165956070469565,1.1332408160421121,1.091830221805092,1.1306532890731769,1.158584840382337,1.158496803456527,1.0988013064649418,1.1011177656719446,1.1180602824122767,1.142688090941096,1.1483850832257037,1.1896815688374902,1.2611307982693043,1.2055356795639238,1.1814261553668675,1.2496849354657045,1.2595725645747387,1.2476900452285433,1.2217431875937599,1.21945108243171,1.2012936224368282
1.2614924762647735,1.2398720173495363,1.2627348066716142,1.2690869655740251,1.2289231832567165,1.2129998401640347,1.2301736392692695,1.1925222036129755,1.1752526720695016,1.1500667448960262,1.11931389791425,1.1441187876420609,1.1162791676143415,1.1132087579260008,1.1426510928273832,1.1505225825648546,1.1371360749740362,1.10372647600909,1.1088133724180103,1.1030365060445866,1.1427996401743301,1.1400069111340851,1.1896643344644182,1.2674877912952276,1.2099794175917618,1.1922141797078083,1.2625987364815932,1.2728725467943245,1.2593996675572348,1.2234667984632792,1.250178019988507,1.1995982543202197
1.2695044934668176,1.2710281714794103,1.2565845176429722,1.2311937775864983,1.2210890966461783,1.2250425322130074,1.250012034842172,1.2105999135037326,1.1640838516257679,1.1501034338387004,1.1340371949549817,1.1117294433937102,1.0939284245898875,1.0818459071466366,1.0995444305734419,1.1049975597585215,1.1139928338713487,1.0757656372610245,1.0934465319558013,1.0984145003926113,1.145373706548915,1.1212750777190768,1.183482264687642,1.2669240086339821,1.2165035937953836,1.1847088929594298,1.279023594070227,1.268004424368278,1.255540662295367,1.2488083822007576,1.2380655126825741,1.183907550797163
1.2705940007546839,1.2779199993493962,1.2594572339277845,1.2217645006394149,1.2063313401210904,1.2266106538285975,1.2563068832537831,1.2015810732459642,1.146691718718178,1.155781905014703,1.1290645688861398,1.1229052485515516,1.0854945587907259,1.0862876047236565,1.0968097804519072,1.0943461514860597,1.0979377579712755,1.082065153714308,1.1002949522806076,1.0980324171605778,1.1294206412990395,1.1407658653250146,1.1883486971087276,1.2813773723136057,1.22547471558373,1.1918403913026856,1.273359091900381,1.251003230298768,1.2646039337595998,1.252445802636713,1.216160058703987,1.1830436236907231
1.247609960520614,1.2950844749719708,1.236046802942601,1.2215123716675191,1.202307999728734,1.2274839163815319,1.247567378270819,1.1749350089456143,1.1586747223373892,1.1411593847351607,1.1305290912555976,1.1221400875101781,1.0907661667111472,1.0924425353275533,1.1063924843960133,1.1055553961551219,1.089473607308519,1.060084943064659,1.0882058196615154,1.0768203369838891,1.129310413034912,1.1352181314698029,1.2078089139982708,1.2615975510360211,1.224721360407213,1.1925962022673986,1.2582610387962678,1.2656629612469497,1.2721001285268287,1.2314284147477674,1.1975290966505556,1.1684890398636303
1.2526689613954813,1.305102842979,1.2472753109363246,1.2259068854275803,1.2038839235832473,1.224404477037167,1.2384297482878321,1.1823304775567367,1.174040685489408,1.139934175548339,1.1268486827306248,1.1271730180545658,1.0933132271110115,1.097525440273979,1.1061408980827423,1.102807615060317,1.0835044039106005,1.0605561256528857,1.0904818612857714,1.0749747763930546,1.1295595944888763,1.1397479726626505,1.2023329182120228,1.2754316499027596,1.2165975333561148,1.2057291902081182,1.2400774887666315,1.259822831335951,1.2697613420788207,1.2445648276678836,1.1991316196080153,1.182061936364025
1.248894016910295,1.3093745553555973,1.2533021008620924,1.2150476907974945,1.1965549117596532,1.2302444680327758,1.242616130876762,1.171112953015258,1.1782601218084752,1.135034481151842,1.1292426938299776,1.1361193768792177,1.0894979417162491,1.097510965649583,1.1095358541084936,1.100669743140031,1.0894540624651454,1.0603193365016896,1.0918001490084788,1.0831945629093118,1.1343343165406339,1.1314407876081993,1.1828244015304323,1.2974116777189355,1.206487121801064,1.2103928336503216,1.2508857869295662,1.250506176023958,1.2307329441347468,1.2578852314528555,1.2010154884864415,1.1779077059713081
1.231246144720773,1.2963410531860848,1.2718835383712173,1.2230556814967781,1.2149590721451449,1.2088578108532555,1.2205241591326048,1.1857140769546402,1.1627522626458273,1.1217481619777994,1.1221907365732828,1.123062675800409,1.0983420758929536,1.0927176864963664,1.100381054672176,1.0965809809109979,1.0868645701341464,1.065784491860181,1.088300069849894,1.0742687660518067,1.1216270793330771,1.1513337571374753,1.1721339302836427,1.264468701996346,1.1860655589697846,1.2028407407668023,1.2517366551137792,1.256845407692727,1.2314113623997978,1.248553211110914,1.2003478067126883,1.1809873948252572
1.2474515680656078,1.3070686938469367,1.2779867108604055,1.2106362223368294,1.196153089850012,1.1951842478169319,1.2153197687779822,1.1661352798962366,1.1649438035202644,1.1127428873331546,1.1056949838448074,1.1334612891002924,1.0910639568175415,1.1029931340589691,1.1033621960431474,1.1050994214503613,1.0881850109121551,1.063947571605965,1.0882382543709828,1.0721379516484428,1.116714198873415,1.132570784832415,1.1656691906004661,1.2730557929652582,1.1909953200839425,1.2085341877967606,1.2498197649724987,1.2410409612402564,1.2211127486905515,1.2409742510562796,1.1950148928639026,1.1780432952920161
1.2319227604046374,1.3003163402738869,1.2494057814522188,1.2354541640898444,1.192962396456596,1.1947981928438631,1.1865727216519908,1.183412794044058,1.1648591171119087,1.1134879567497873,1.1158392405999487,1.154524705991182,1.096763655187429,1.1321287063817003,1.127598178534279,1.1117819038232128,1.0782986114747446,1.0697219421826316,1.0752202964996518,1.0634488837673022,1.097381284927837,1.1092176446626913,1.156434178464453,1.2784850139241588,1.178594375978552,1.2023874516237067,1.2264613514141414,1.24020561252944,1.2253372470450183,1.2187223786636325,1.2025501133933003,1.1802453278251357
1.2241289998556761,1.3183550765088616,1.2442174620839963,1.243546186585195,1.187071744490879,1.2013867832278597,1.195934890016403,1.2087565217275849,1.162075412338857,1.1264359803358335,1.117305501617735,1.1279010751076557,1.1037880198062768,1.1036909239766457,1.113771697932623,1.1041276708898504,1.073741826988113,1.069519712527372,1.0861508351695692,1.0601196122343712,1.087019650449925,1.1338655831814402,1.1667876347642456,1.2922063864266862,1.179834112996751,1.200930582989278,1.2184876028795224,1.2535664671599154,1.211851041260689,1.2194398684958736,1.1901354919671374,1.1945690660764903
1.21990653674996,1.324703648188496,1.237702006845077,1.2286207357826566,1.1831084546179915,1.1854881237804102,1.1771692017819706,1.1915693045297875,1.180921029418029,1.1239209413142477,1.1116067094466617,1.138580832821118,1.1125452280781873,1.1203731910090688,1.1246577031282103,1.1246130039650188,1.0903874887729064,1.0760014189518559,1.0778722561837555,1.059685034396656,1.082876071711646,1.121198390078703,1.1608581297814269,1.2759830519816466,1.1862766030956657,1.2002357538398138,1.2109984179768636,1.2482176872727881,1.2252543602756694,1.2152042451494272,1.1775902627478203,1.167237058182217
1.206855928220699,1.2881047466729927,1.2303280765041296,1.216567204970326,1.1730211982223737,1.1595636356785142,1.171194076397235,1.2055125987327666,1.1580728721418452,1.1293302199571837,1.1014262912423423,1.1156618829067873,1.1086196580428527,1.0968508326256088,1.1090214302312267,1.1119928906911516,1.0881961105954812,1.06566613786077,1.0775716100600763,1.0599827119984655,1.1002437801384435,1.1325663970884239,1.1613176546554191,1.2830074551029984,1.163854637595619,1.2015274924081538,1.1835555611817992,1.2563820109909423,1.2231764837378036,1.1917380142365448,1.1690771441974228,1.1880735178392554
1.2323230233652605,1.2590397568106644,1.2564366774967493,1.2123514360382852,1.1584944054207822,1.1655719435391663,1.1314936984114057,1.1870670288753744,1.1720640534644429,1.1219147354300314,1.110590623539519,1.1073762341170836,1.1133105044644476,1.0984815912778552,1.1181539970900198,1.1218027973818727,1.1044441804931298,1.0728396543843106,1.0884955549022037,1.0762383738941204,1.1159379603723447,1.125992606171296,1.1500738116701847,1.2983222108908405,1.1435718246221727,1.1588070349797275,1.1852156130619778,1.2518139616891,1.2327806053221726,1.1999008427781992,1.1543673467095468,1.1701232052367647
1.216795187629401,1.2601846796010332,1.237750868918325,1.2008477929055896,1.1456715854011226,1.1339029049171168,1.1267428571590352,1.1625481749459965,1.1420842782126706,1.0846723786945074,1.0818080371685221,1.0864105520549063,1.095681863218605,1.085688917832606,1.1017254870684776,1.101265044146142,1.0881065116792,1.0717648454593138,1.0735093739165869,1.060061699523532,1.0859445429152703,1.1040753705042161,1.1461048981680106,1.3170049380965718,1.1376956764696506,1.140537823818822,1.185552793393956,1.2506684772498897,1.215140967733076,1.1769427122705012,1.1276954745147523,1.1616726718010877
1.2222259226708472,1.2464142554547022,1.2447771408577493,1.174372853236112,1.1398990677396776,1.1150782167016025,1.1169778888752482,1.1842520813822695,1.13789533052034,1.0809435521421966,1.0707589932241606,1.0849559088361613,1.1066426874958009,1.0745110882567022,1.0945924419327682,1.0870107866163676,1.0783271315758027,1.0620293009138275,1.0719553171217027,1.0517190460606136,1.083625329253795,1.1132984952763045,1.1420125597235353,1.2989121650664388,1.1400869835716674,1.1197619015420694,1.1776837052327804,1.234746893186081,1.2090558357823253,1.185116922892104,1.1357906951406163,1.1516168822687627
1.2092788164893593,1.2266210545316063,1.2157781857018448,1.174954219110829,1.1260553593956313,1.1228733168445266,1.1251952186264789,1.182685110861136,1.1388880891189652,1.0748362630077923,1.0733470484329553,1.083384620414956,1.1116117532888234,1.0743380196977563,1.0983184078422061,1.084847640781371,1.0739271228615197,1.0568285698733522,1.0728907157085703,1.047604117948266,1.0855923965090475,1.1123893593533645,1.1425466999865583,1.2972491740861578,1.1478786806602053,1.1143626837601697,1.172858736983812,1.2270336559027235,1.2292795365597815,1.1777265450549155,1.1251012117322494,1.135209214704661
1.2076394590613828,1.228301295243749,1.2116864207936504,1.180756990767395,1.122907100855938,1.1444575951195468,1.1418770262745654,1.1785475278546809,1.1535223520729154,1.0871637859323833,1.0850397473146105,1.094964193899296,1.1234921899174168,1.084191994012563,1.103817803230735,1.0881653306283434,1.0694962175102347,1.0582215878180625,1.083972810529743,1.0506696315915738,1.0988488440816624,1.117970347669782,1.1605097807569131,1.3092665949394164,1.138962149145888,1.1051314798851188,1.1860143783095025,1.2461104234614298,1.2336991507507673,1.185690420806947,1.1255812870457844,1.1502189852514666
1.2095411974557109,1.2422292254559935,1.2033019114200119,1.1884135820236406,1.1337813010273876,1.1399335338189678,1.1405997168686177,1.1722265690420877,1.1328127979000397,1.0789987016227645,1.0856171343320262,1.075068889260503,1.1163273406133247,1.0749831006869919,1.1054834334282253,1.0899639640969552,1.0746882578439516,1.0497515107009137,1.0753910527595236,1.0547634574537672,1.0927042816131416,1.1027215266924708,1.139547080668235,1.3046861022239162,1.158552438161724,1.1172898393232629,1.200399069617735,1.2536717943174642,1.2314077702254924,1.2002668211189644,1.1406055235236237,1.1268894038056494
1.2138974400433094,1.2418506201269244,1.2145847997436272,1.1795469465454727,1.133469781508819,1.1719579057820855,1.17622216882476,1.1556013566443972,1.134568343164055,1.080753020596834,1.0816755548889259,1.0738764563198977,1.1017533110174793,1.0702185829361368,1.1022423326998678,1.0840216531807334,1.067198664911924,1.0467287574903195,1.0723416524571725,1.0497291523033474,1.0943140529289443,1.1013164843443912,1.147269734920448,1.317905721640878,1.174405544000094,1.1214432783799895,1.2142705362860398,1.2538054898250874,1.2455699981718378,1.2117449421588693,1.1391542934736856,1.132534717765321
1.2315075255175791,1.2404759782261248,1.2120210133662102,1.2005990113302067,1.1473044515859525,1.192746971951742,1.1833646296332867,1.1545936766753802,1.13385383946094,1.0760424370895572,1.088436851677145,1.0855473509387636,1.1168193541729752,1.0770250624451634,1.10847311801139,1.0901525176093156,1.0783759607224566,1.0566104220786074,1.0847303073630812,1.063239626419684,1.1094883010101966,1.1237232767264755,1.1484588476146518,1.2921141845204138,1.1716437870211145,1.1248637785080986,1.2154811691822143,1.2427358625308147,1.248448160577713,1.2035024783139587,1.1399902188611473,1.1480700673431101
1.2446994571125156,1.2687215931803553,1.2247404578270322,1.2132659757309425,1.1516037294257089,1.2136016916948158,1.191907440375139,1.1649258595343943,1.1310730225556167,1.1018347383495217,1.1084305063723405,1.0920578971595762,1.1283641801424824,1.0935057016251644,1.1241564711008503,1.1026451815285094,1.0895024797177775,1.0769975543234735,1.0971362411137318,1.0725377269812726,1.112195117794652,1.119230310835633,1.1605050353025097,1.298642949405038,1.176898693376559,1.139187817126337,1.2223410417239684,1.247575355571085,1.267242916907722,1.2129682556315486,1.171219920755289,1.1595453234077566
1.2359976714263865,1.2649527326768117,1.206044187150696,1.226289013946975,1.175808076422337,1.2213619213079654,1.1993665766679253,1.1806788911055535,1.1403349599586419,1.108211991401118,1.1073327110027473,1.1058775436574964,1.140426601608474,1.1100201473297078,1.1289392871662203,1.0995159217065829,1.090479084311886,1.0848857789326447,1.1049860723079523,1.0660732115374825,1.108922381135951,1.1222540250379958,1.1732891394638993,1.3027305822254973,1.1889596720876532,1.1614522006048273,1.2179702808878219,1.238226656220023,1.2427600183328522,1.2244551073061984,1.2003418358576698,1.157036358993729
1.2179675729892763,1.2549580621082894,1.2091977673013754,1.2377961281326113,1.1965734708886708,1.242270009322841,1.217747749414773,1.1841389945513363,1.148123889507919,1.1132135770383578,1.1036663889769016,1.0976098977488555,1.133811994448153,1.1032245636130615,1.1345643147431976,1.0937541260451882,1.0896207259676878,1.0835573662103828,1.1107808247288538,1.082068287933629,1.1232258137018492,1.1377428012708255,1.1741107781961728,1.288842658220033,1.1871831828478594,1.1669763889937954,1.2111932199221893,1.2307575532689077,1.2446544502092929,1.2114348389278826,1.2242244258814805,1.1651147440242626
1.2122518189860896,1.2631602910192266,1.223246922483451,1.2456476158142098,1.1897206682776278,1.2639060190562428,1.2134647667506915,1.195214751017846,1.1440635481238304,1.1459097460970704,1.1237229308653858,1.1145229094961464,1.1235580811731702,1.1093029932386815,1.1446941778376394,1.104757147348984,1.0956982316963424,1.088484995188997,1.1078867315054417,1.0904543920285608,1.1253591132091185,1.1169120349407258,1.1663305961580681,1.2695959645706902,1.1745595816273497,1.1717515237250622,1.2179296479769783,1.2521431824430225,1.249397854451914,1.2265336227156336,1.2312198621773216,1.161812536695686
1.2399197736143914,1.2640582797144226,1.2094365049761746,1.260279426797482,1.214103195693684,1.2427022632885392,1.2116449953242807,1.1947222456153257,1.1596519712471578,1.1571372764187229,1.1267458896074625,1.1338869011334398,1.1481495360579996,1.1207633476904395,1.133901213654009,1.1108493266151638,1.1168789620567552,1.1090622514005828,1.1342596851581161,1.1163170106847864,1.144051502373068,1.1455909934849324,1.175608983098641,1.267155328153645,1.185145889712955,1.1840899879617848,1.2145278644225506,1.2514420814176728,1.2553905307358764,1.230986397154666,1.2518171673475242,1.14869731925958
1.2584513070440473,1.2902672874658907,1.2292419885065171,1.2612063043887798,1.2017800222636201,1.2643276004899628,1.2226704546721334,1.2018299965771049,1.1640691989045566,1.1435036000055472,1.1290795807593876,1.1141433061953605,1.1430729591691198,1.1198105321802756,1.1487150828250148,1.1136845143595775,1.1265000223410007,1.115813589376214,1.1289753962832618,1.134233492176969,1.1475130069221395,1.146375625315545,1.1603121121165438,1.2859662642975065,1.1579256281418204,1.1635420384202444,1.2078580743569711,1.2332139782180358,1.2394711192889634,1.2286384093500224,1.2157059728258859,1.147490078390503
1.2733651124509058,1.2894674987012191,1.249584904147862,1.272864366037157,1.2060280442812983,1.258793457915443,1.211171818154794,1.2047515261476274,1.1498660915110988,1.1410325767217224,1.1174875277644578,1.1159402154267448,1.1490234770880658,1.1176990922407917,1.1441334009015647,1.1298894354889382,1.1311372250124556,1.1261491710269513,1.1364834052856747,1.1354252882868274,1.1625171823238456,1.161634079648083,1.1756398567006106,1.2634997506001129,1.163192052082437,1.1687993920363446,1.211612979957564,1.2114226418411382,1.2481063979554778,1.238039271085433,1.219483930432246,1.1629315308363537
1.2569992088177437,1.2905480345327682,1.2392083173698292,1.2854865997344618,1.2153472558818357,1.247873351024046,1.2238486512641082,1.211701689253606,1.1567176417586915,1.1447723576405415,1.1085336784854194,1.1207181516454578,1.150199559139891,1.109869641132767,1.1219580812406893,1.0994518579975299,1.1359157500888557,1.1419074287123068,1.1637185016089626,1.164086402702423,1.1826656653618794,1.189337650693231,1.173670654402827,1.2499906640784735,1.1439570197672222,1.1599868926858765,1.1859488007036287,1.2107490154939669,1.2380373593145935,1.2144292913622556,1.2172293468701747,1.1963119123462247
1.2368919382903603,1.2852072215155836,1.2305887815697272,1.2699872536655645,1.2157784801809646,1.230197459963698,1.205915922636884,1.1963901027497248,1.1630757906038336,1.1398058600029233,1.1044217385258213,1.1248023264374267,1.1587056659223052,1.1154235889299577,1.1230824343717725,1.1052271070259574,1.1433752922596452,1.1437899493467016,1.1771336148083176,1.174285946279468,1.1851904444010681,1.1965956066163161,1.176552038575515,1.275436181001797,1.1158621725960989,1.1546916955856599,1.1679816836117913,1.2085831049522067,1.2213472264697594,1.2336195496468794,1.2104952600426728,1.1822496336439279
1.2283614878697233,1.2844104730608927,1.2520415678317849,1.2757870238848286,1.2204049542892756,1.206315527023596,1.2088824050583638,1.1731379131932616,1.184629222256942,1.1376256335068486,1.1026395157308282,1.1276217145164305,1.170891203498877,1.1114171820477574,1.1296962681026184,1.1035297243761766,1.1410618271186868,1.1456490123978398,1.1589039039472684,1.159489279541945,1.1785541798866583,1.1960560021448619,1.1649472557039837,1.270362000997377,1.1225037633268695,1.1530466876031569,1.1852852819363182,1.216501271683338,1.227980711876822,1.231111824526757,1.2216123148957085,1.1822244609040629
1.228877320092073,1.2798847141563228,1.2553813000793812,1.2525881061867579,1.1899790782968522,1.1995824860743451,1.2083655123888468,1.1806871394634306,1.2048104687236012,1.135654387967243,1.1100670853344186,1.1240792990703414,1.147752799944495,1.1104646395300632,1.144685788287686,1.1044006105638082,1.137126714497628,1.1303300484312413,1.148219125573231,1.1541510259991818,1.171898894755228,1.1895950194826899,1.1579864888115516,1.280447098128841,1.135777775527007,1.1517567741138777,1.1692344549664657,1.235089700889396,1.2425776896082898,1.229026614966812,1.1901593902697685,1.1761658248187088
1.2578419556802107,1.2911869874862412,1.2771964837583096,1.2713750449053292,1.2052300744324935,1.1857299466143323,1.2333215649158737,1.1802893336164137,1.200324201404475,1.1630001593703532,1.1416369406100861,1.163843067418382,1.1693610287091207,1.1401340699971074,1.1771833823506601,1.1259984252652828,1.1507827941051858,1.1477410343060466,1.1606056192357097,1.1608407066322057,1.1863080402546573,1.1952459542592702,1.1645445830588144,1.2681015839981395,1.1506566071283533,1.159768006561752,1.1707689313135874,1.2247629568361098,1.246872178906005,1.2260818050097224,1.1913228347551332,1.1880474021020788
1.260792696882313,1.2961595749089307,1.2687518271488012,1.2389390976731338,1.178490547666304,1.1723939787144144,1.2404525561102002,1.1761594785995348,1.187476530714004,1.1542448449262488,1.144736149843682,1.1623068949530992,1.173748699017461,1.1469834830306236,1.1857342265270543,1.138724287164349,1.1590826832256234,1.1529102685742454,1.1674134041875102,1.165531825424936,1.1891678730993986,1.206703914087015,1.1616498557077362,1.2649431052259417,1.138645259230098,1.1728443988744908,1.1798820571915634,1.2412606230936898,1.2327186216185049,1.2206003458461467,1.155822564059563,1.1952415794758933
1.2566172160327749,1.284916891393765,1.2770935178620293,1.2335687999232372,1.1870122015602744,1.1721888271212209,1.2350435679501608,1.175574596073409,1.2121668005939532,1.1548225720309095,1.1648511284876584,1.1867062087889342,1.1960926145375939,1.18075272484332,1.213935012359224,1.1664772752656083,1.174120518337658,1.158442291014792,1.1646155256897557,1.1329706137111673,1.1662325149325838,1.1944416328676974,1.1555833424632163,1.2615708046875764,1.1189808904387786,1.16416305424782,1.1672250390590302,1.2252433984263684,1.2174031643134489,1.211460162516904,1.1517631149154364,1.1908668214167835
1.252652979894596,1.276976914175151,1.2864051103771332,1.2346818752282662,1.1929421831808642,1.178138877819765,1.2411682743110928,1.1844556093420089,1.2052069753267103,1.144610750457038,1.1481051772618884,1.1612166862482796,1.1778695377825703,1.1434120436741066,1.184022338843,1.1428496518170388,1.1544009848858972,1.1371812849136107,1.144366971906885,1.1186514674875352,1.1442994212440059,1.1708806436145678,1.1393543243909154,1.252163478314346,1.1198540780375656,1.161270862089029,1.1769398401828979,1.2193149809120278,1.2281946784212334,1.1944489027411314,1.1745151409052634,1.1859283771259035
1.2355614804781512,1.2663122114004806,1.2780906364454525,1.223626591574332,1.179714083877945,1.1542339546217422,1.2247084445133531,1.1869908462896157,1.1929623137116432,1.1557544943671183,1.1491955430046734,1.1652650196851588,1.1682641293154838,1.146254615768288,1.1812293930326725,1.1446649298769636,1.1551075242383158,1.13749733700044,1.1441583920355092,1.1241308420100193,1.1521351529398036,1.171608696671068,1.1427325904638697,1.2858333569034586,1.135923252854415,1.1624072631893438,1.1620716094510077,1.237041983649501,1.227881351176274,1.1981444704740756,1.1345031353229273,1.1968332622864568
1.2576642066430848,1.2691234905581743,1.2787681887730413,1.2227506649833717,1.1973530120208413,1.1629584483421855,1.2155651869542206,1.1732437475858715,1.1985090452747231,1.1530461115810027,1.1467632298694714,1.1557783244968958,1.1575678508153315,1.1347182033164662,1.1710950708324617,1.1370745645702023,1.1511154411025146,1.1434019439329437,1.1363096235313461,1.1242661976373498,1.1412400048585145,1.1492453525372934,1.1297651325769151,1.2980795841250397,1.1492038476872102,1.1648305846310507,1.1592178492261884,1.2561187366560345,1.2328883256482168,1.1953409520961398,1.1550991379776645,1.176716421223217
1.2678818389274793,1.2429178738000066,1.266372706861171,1.2154674288942475,1.1744808108790286,1.1746050603242975,1.2222146465774568,1.181441013794331,1.190375425746961,1.1333296000632547,1.1444999729324408,1.146472692699492,1.1602240802709927,1.1332784119815378,1.1765349641683278,1.1465064333611559,1.1510200486466806,1.141802150438776,1.1363136953923327,1.1175367080243617,1.1398137906551358,1.1323480700997572,1.1334453314503754,1.2988391552592506,1.1732049086738658,1.1685638144520116,1.179430238868178,1.2444954784746143,1.2304066197764079,1.2091304071526974,1.1497945528070295,1.1572033271239373
1.2766641190894144,1.2284393223710932,1.2697716734623878,1.2069254366936297,1.1675727616575524,1.1639467039323284,1.2232196639019726,1.2038404232713893,1.178084059452981,1.141456796442557,1.1430469098767786,1.1353928789454817,1.1456369857138484,1.135826703956025,1.1768460319177871,1.1451536326409832,1.1510731844528266,1.141442146722956,1.1311946871857064,1.116397397421873,1.140212019223666,1.1284068103583877,1.1348263661091713,1.3328552099787694,1.1881074776641847,1.1912102563816134,1.2051876688910528,1.2613896430694305,1.2464644833913876,1.1971339529394918,1.1467167241391343,1.1456051082251697
1.268538897322308,1.2300576329826787,1.2460457405831262,1.2172374585441128,1.197656583965318,1.1969673339748765,1.2133083066590393,1.2288207525011408,1.1407481606812107,1.1419984139712789,1.1358377668650723,1.1169586131620324,1.1307356654575182,1.1250683113349553,1.158138515113202,1.1411144191888256,1.1418898643361173,1.139448946432957,1.1263330066036152,1.101564957030428,1.120764558319605,1.1190417848362009,1.137585864312539,1.2933156322203763,1.2151376159404828,1.2067481036276475,1.2191084426842151,1.2486772823717875,1.2346819523564276,1.2060655799063438,1.1633725711588916,1.1488544028628545
1.275319568573664,1.2342959521504675,1.2652970629472617,1.2153763570361964,1.189043518770462,1.1834032771898741,1.2289969868427986,1.2196658356179673,1.1522722593153236,1.1559012847015042,1.138343841611261,1.1269621222370698,1.1535004086968152,1.1378984693309497,1.1565490630845046,1.1513940456797218,1.1636382583742286,1.1375265238118564,1.1350473140437078,1.1232066105769762,1.12043154701385,1.1278905368577545,1.1295098034885205,1.3238423980778615,1.2014470913167634,1.1819974620595177,1.2070823019248482,1.2337669206427835,1.2499884995088084,1.2282723903392465,1.164552640959311,1.14610971391595
1.270871441250105,1.26656073291166,1.2574254002581087,1.208190698953903,1.1848802876284232,1.208073748518899,1.2161591603544029,1.2300754852408768,1.1277243393926062,1.1471623425472202,1.12760878666601,1.1077091879442045,1.1265448766946389,1.1126445694980667,1.1342502838283517,1.139521480126297,1.142632424398188,1.1195065065617533,1.126868311087954,1.1226242784655056,1.1267080347641505,1.1300289723912673,1.1322993399179897,1.3146983125032663,1.2018530940170224,1.1836801811101554,1.2049745573197863,1.2455694315183097,1.2509532229511644,1.224280440090836,1.1753833770864057,1.1522065534923045
1.2644414553042727,1.2715018867454262,1.2513954063209325,1.2158643021372684,1.1894205153307154,1.2003637311123696,1.2210787271406545,1.2241780081178733,1.1358325195004617,1.1407792899559253,1.1240223514624237,1.09972975004158,1.1212513900192158,1.0975001560883162,1.117341790246834,1.1135167383269626,1.114524093385143,1.1042723723987429,1.1113851590074924,1.1056630167580113,1.1088061883599123,1.1233676472501832,1.1216903897038053,1.3415981822178062,1.198237386603782,1.173543807030114,1.2085348633752508,1.261309234221924,1.2603912595367208,1.229387341381168,1.1804297339953833,1.1345773635544079
1.2731390977898764,1.2844221161275977,1.249194728198193,1.237600722014032,1.201735228814326,1.2144605843664438,1.2310798364485624,1.200597847011376,1.1409061676039414,1.15409919965596,1.1288801674676288,1.1022775937609108,1.1154620344802997,1.1074365645662452,1.13411732891552,1.12120036518553,1.1031548098352086,1.0868979986675789,1.097414489562094,1.0968090231208103,1.1044013578313527,1.1311376661576271,1.1320946299591303,1.3276060113930264,1.2375996623215555,1.2039189462245659,1.2299598128757652,1.2797825947556125,1.2705134155550624,1.256498549257087,1.2014596205053878,1.1534036846832187
1.2813876164302354,1.2555816911133661,1.2333307373901008,1.2159888315175285,1.1814952900206492,1.2071951011153732,1.233453764839316,1.1903473086920953,1.1414073572799799,1.1769244401429069,1.1532222556944258,1.118957896006861,1.1141333531474398,1.118390240538952,1.144102089023632,1.133049193122863,1.1162318512786624,1.1043297701412227,1.1031092648983616,1.1002951570987236,1.1162647134892894,1.139598306903857,1.1409388569720147,1.342701178819402,1.2349283259114416,1.1965250458191807,1.2278790457337123,1.2819244372780567,1.289112721048111,1.2752684543893102,1.1896475554243364,1.1702401432295952
1.2682394802807537,1.270847614623725,1.2410940476239043,1.2070147236537265,1.1776330021989576,1.1938972614960714,1.2255393721711327,1.1790420057462698,1.12046562052782,1.157039191674518,1.1332437323729683,1.1069991380664364,1.098580953908649,1.1100541884230364,1.1383164320368464,1.1258258214985188,1.0922576693737982,1.0800210181425598,1.0789681280998973,1.0759414511942942,1.0954246099127398,1.115701909330918,1.1373531804684693,1.3271410099775058,1.2257978004281824,1.2051591610029144,1.223833894179508,1.2725383530283565,1.2814583430529172,1.2604397180136646,1.1915133949898402,1.1955035231419886
1.2583443988673406,1.2862993349697833,1.2383118912976527,1.221474636720248,1.1771207977615883,1.205756397221521,1.2308005677153138,1.1722309417121504,1.1124784113992128,1.142678699742862,1.1269783643870168,1.0965611305363674,1.099150569581024,1.1022810068849336,1.1358898285240506,1.1310983692304166,1.0983038812127799,1.071258597803783,1.0857645166426615,1.0816324197727931,1.1053654418147614,1.1102651891384467,1.1545667963055766,1.3122135757570699,1.2252414525394382,1.1971605205904512,1.2374097160995496,1.2644771380927997,1.2772718963374914,1.2354161836652466,1.1883440051057457,1.2083260258097213
1.2702412064949538,1.2771603936149487,1.2585268806443888,1.238595921191993,1.2039567954630805,1.2256731209754048,1.2357949173843357,1.1890287691017578,1.1201413793430794,1.1592141172569659,1.1264511234603358,1.088131411924353,1.099712173508525,1.0847563061474172,1.1186695389456867,1.1289017036281803,1.0919624064645648,1.0699524878170292,1.0751245574518988,1.0761764114472803,1.0992682619308136,1.1115020855554563,1.1472129340263333,1.2879484426328416,1.211292343238681,1.1872991212798925,1.2249530736599417,1.273531641794078,1.2935430482489478,1.2534685883297527,1.2049739316680634,1.2041559189484663
1.2801147252775986,1.2915258965463574,1.2635857966705148,1.249782894562183,1.1801149109013829,1.2168003714905191,1.2299870118987484,1.1547342423206206,1.119069495243553,1.175595871283821,1.153899301562929,1.111698179382403,1.115809123523747,1.0952229847386576,1.1265018884205171,1.1403762933481865,1.1018019342465741,1.0636504761610766,1.0722814323481074,1.0736574654000095,1.0957619631515214,1.1228329130932655,1.1483364086627894,1.2771541239428819,1.1931315009313825,1.1664377992407777,1.200378008707429,1.2734834617857749,1.3030874931155627,1.240564802100618,1.1989356918218854,1.2090380374122587
1.2603112212878997,1.2807349072973655,1.253741443720315,1.238148036788548,1.154185683667705,1.201942623099474,1.2493746279623694,1.1380489487845245,1.1262821778010188,1.164748638608901,1.1386292408847598,1.1090609075324986,1.1186127437635982,1.0987655651580737,1.1291968859249912,1.1421853970562776,1.100571861329778,1.064241917392154,1.0812671160273073,1.0852274368517973,1.0974822180691717,1.127393748994811,1.1702189640572689,1.2850777833993137,1.1930185828476056,1.1684320773002217,1.2005216730551438,1.260468644914433,1.2911394328159869,1.2487199137068365,1.1831783286869046,1.2178436775600505
1.2713232913118528,1.2796419775080392,1.2538077192864379,1.2441714286873118,1.1628267572702262,1.186998350113581,1.235724034987473,1.154895855005431,1.1338641921669008,1.139181194350629,1.1193410750868542,1.1081315663618134,1.122675673212349,1.093927853946357,1.1273992896614857,1.138192673625517,1.098402499244905,1.072609883419969,1.0840976023120446,1.0924963438161996,1.109005389841458,1.1223039375155557,1.1746098630614827,1.273808276849673,1.2072244748798133,1.1785824472449271,1.2096757614531666,1.2684784363628534,1.2790428414541273,1.2376228300390935,1.1913743512165875,1.2263758681526202
1.268961173585904,1.2623815815448585,1.262968514208014,1.2606784337049262,1.1637148152534604,1.1959605655397163,1.2441249749116254,1.1639232525165912,1.147163901722544,1.1357298947508434,1.1176597237912378,1.107524464874251,1.1220183893559934,1.088185350928173,1.1192721997937596,1.1344834425008994,1.1052574575689582,1.0796461657482004,1.0839774811998226,1.0932665835099757,1.1046460564836156,1.1204285317165512,1.187529929783918,1.274693054625149,1.2316282534244987,1.1821415505164221,1.2383257878154728,1.2506937349912521,1.2787306089741597,1.2305046587644661,1.1852571839684645,1.2370289997408845
1.2762517766892638,1.2685267609768456,1.272783533831536,1.2667072745502348,1.1681465310015169,1.185989049938108,1.2287833873581344,1.1577898240218942,1.144029185901882,1.1321963933810761,1.1082872149861858,1.1116116372533968,1.1312690327373156,1.094133947835894,1.1265989581370217,1.1388965961969928,1.115454383742043,1.0862355341978533,1.094177513505858,1.0904172039397848,1.1104633885690853,1.1407633340778423,1.1956372619206703,1.2714690464064209,1.2099984103309638,1.1688211687720533,1.2281343052061435,1.2353126781199875,1.2705711446351586,1.2287170261849683,1.1870260874025313,1.248486771553617
1.2667994632653838,1.2590430345706387,1.275651065849355,1.2709096251902026,1.1830733059390524,1.2078323228743288,1.2100350431974762,1.1692833243260383,1.1467201622251069,1.1289013332954085,1.096504569322851,1.1017167187276569,1.1246927833305942,1.081445063012651,1.1059075112351675,1.1294522409091168,1.1038339867530809,1.0796207953266845,1.099322401482004,1.0960699825759197,1.1215595744473053,1.1469399412456076,1.1980990070568247,1.2698443163071227,1.220695984168478,1.172825946061037,1.2272897368341578,1.2386110200703178,1.2875136618643153,1.2376362005072188,1.1804124116390404,1.2395707159437448
