Fp1,AF3,F7,F3,FC1,FC5,T7,C3,CP1,CP5,P7,P3,Pz,PO3,O1,Oz,O2,PO4,P4,P8,CP6,CP2,C4,T8,FC6,FC2,F4,F8,AF4,Fp2,Fz,Cz
0.5346447403066956,0.5148093607154709,0.47373804594985863,0.5181323697506564,0.5106084737057426,0.488587180419462,0.46718181508754986,0.46262083633898243,0.5151354349648546,0.4605359236995905,0.47105124709367713,0.47848716432351657,0.4837683752759594,0.45290130512795296,0.5039231623611562,0.48251466394412884,0.4926091585581308,0.46042715322354094,0.4733403255736068,0.46827348639883376,0.4561388920856979,0.4643714590871619,0.42301816586143415,0.5208226922493954,0.47476589801200614,0.4925809410380764,0.5181214118136922,0.5347890197491878,0.535204373403372,0.5451060257640112,0.4997923172191795,0.48056530729841995
0.5363262628812906,0.5241891374922576,0.49109144173415353,0.5162861061247169,0.492884924340386,0.46197449497513526,0.4827882963986387,0.46313334330217354,0.47595135419506285,0.5001091965701613,0.5215641522039937,0.49125695796232083,0.526530560381708,0.4860939841819004,0.5442446773492234,0.5181533406292511,0.5155285517298897,0.4986972063042333,0.520983126048947,0.5044534888856708,0.5152245446926005,0.5072436500611106,0.4903482910513954,0.5276684161235919,0.5111752176262304,0.48835441120640355,0.5267824854620325,0.5244103453367939,0.534035287412239,0.5501884612135645,0.5170292452730871,0.45617670191178905
0.4975437743188077,0.49805747734446604,0.49009599825130024,0.5054213891230281,0.48161616379066186,0.4758586168080543,0.49123347693295605,0.5284492444805706,0.501603151554755,0.5046569804776496,0.4922748465858363,0.49561896153718116,0.467687304757538,0.4835111672791408,0.5088500314638177,0.5021215724830048,0.5184998096670662,0.5097202365978802,0.5094678521497448,0.5169597406291231,0.5216844733800187,0.4961683183164903,0.5204203138605231,0.5307269498193631,0.5162126113046432,0.5301667030691922,0.4913173394834423,0.5085041774402735,0.48633883455389243,0.5116447015486986,0.4873384466793832,0.5290162489062626
0.5530907748654397,0.5524063986935192,0.5135591276723498,0.5435672387825922,0.5520039552010286,0.5352717428685809,0.5143736807566235,0.5601406543929786,0.5760725824749816,0.5538402033339745,0.5779642967468337,0.5895450126682461,0.5455438755364654,0.5680049122435522,0.5707972928374448,0.5582382078566622,0.5698839727622165,0.5450076399589545,0.5245462332782713,0.5558408245207805,0.5695560007852534,0.5216681797320252,0.5721605776356145,0.5796934514974963,0.5679563835270397,0.5819006276493888,0.5699872869795323,0.5495039426673117,0.5607152705458581,0.5711801886359037,0.552849659969603,0.5448594709274273
0.5558669170696183,0.5537385988469433,0.5189751477377154,0.535065347022155,0.5623334846272648,0.5172412136917401,0.539138779797754,0.5534555963721492,0.5731636524693181,0.5609507102853725,0.5561814237469703,0.5538293011222907,0.5369956713094619,0.5386865394724694,0.5452411223529018,0.5219444082360327,0.5630829667637747,0.5304395300872116,0.5270376689923472,0.5567977521207126,0.558609490318884,0.5529461493259115,0.561183526451493,0.5857069256374412,0.5408853948390225,0.5806259546507383,0.5619982486442252,0.5505271871108673,0.5573105035480816,0.578085661849107,0.5753633219728784,0.5733583885478208
0.5680833600052302,0.5857820119091898,0.5614556106352243,0.5907636105144659,0.5869227790373649,0.5405460875423164,0.5119326704307668,0.5476548457751184,0.5845626034135832,0.5595114845308281,0.5860709611599957,0.5810560676502247,0.575263651508116,0.5752503473846478,0.5810080976091132,0.5906052637036113,0.6107757423886827,0.5616572229847127,0.5110568226248744,0.6011906337808078,0.5532070127992734,0.5354550420710019,0.553281325101217,0.5555217707573923,0.5517689396323161,0.5790355967225779,0.5615203197089126,0.5834625581431657,0.5579982276357073,0.5977453957873177,0.5717014904221783,0.5030996620620493
0.5880697511770588,0.5837498853947063,0.5655092766372547,0.5924692950026459,0.5875862747851689,0.5832170777487762,0.5428621943940989,0.5637838823653212,0.5459580969636113,0.5674196726911248,0.596634572057947,0.549256093756033,0.5489795195609511,0.5190543735925337,0.5624108631083661,0.5447577001703628,0.5719303873733446,0.5386049617954262,0.5003743364181134,0.5679855421646693,0.570685615061678,0.5727223763043751,0.5735872701220195,0.5802962327863663,0.5678124816470511,0.5242329502269624,0.5577726342881139,0.5945258843649129,0.5849073585871728,0.5960833335741025,0.5760764230035343,0.5674429732425834
0.5515845675155225,0.5479867956102703,0.4966000782337046,0.5573727181495343,0.5596040538172785,0.5756900403266585,0.5571432733506575,0.5097914713313003,0.5391560960570263,0.5473436332970453,0.5652237477833186,0.5462922692619266,0.5623919818638685,0.5289988466589352,0.5737575008063069,0.5187616006704475,0.5454684819866523,0.5180622165894767,0.4680947658373475,0.5626664302927544,0.542796725789434,0.5618381281415519,0.516785690806592,0.5731676153539876,0.523328306330825,0.5195451496321594,0.5120774935516699,0.5557844286392111,0.5449692920894452,0.5753153675035292,0.5425688153352577,0.5908007207195801
0.5946964580599537,0.575871503300682,0.5285595302133718,0.5864489707186895,0.5812561942266665,0.5983405313280531,0.5825674762098103,0.45880403653833524,0.5319345563025932,0.5315095551747253,0.5487699818368108,0.4550710946619501,0.4992201662393296,0.43595585165758793,0.539670442478925,0.5158694289251803,0.5495694851907648,0.47254136269624697,0.4546529457610218,0.5520388334863181,0.5543027356856132,0.49155654770931395,0.5400495310710322,0.6082570198204945,0.5895819317280803,0.5423111657193418,0.5825078567287595,0.5878505496430739,0.5898155459304493,0.6076987598087475,0.5357004963957589,0.5911810263610067
0.5908005636320123,0.5645120620904148,0.585833572587035,0.5463800736070711,0.4742717691783406,0.5722745189830164,0.589875666893478,0.5723039066889636,0.5861857752568044,0.5801735463212181,0.578573670376243,0.5470242272260483,0.562766348357127,0.6037873996484516,0.5774065792378132,0.5808325181064259,0.6109575713147039,0.5945536058290486,0.5085983511123027,0.6034499791669717,0.5959906972205425,0.5546529371701185,0.5574866044464926,0.5774281565591022,0.5875994257880817,0.568199378194776,0.5587318022470193,0.5766874475460085,0.5864754944719641,0.6052755216772289,0.5485864383474579,0.5658630361685691
0.5779287672273201,0.5614669629475525,0.52506176011348,0.5444100477112385,0.5241803909552513,0.5413144848273241,0.5082593616185506,0.5289762009225865,0.5671404186596866,0.5344924663448991,0.605198826058564,0.5561067258373324,0.5517455531456994,0.5782702594401598,0.6077705864027692,0.5747270247567281,0.5860711284959709,0.5684289752726016,0.5418977115349862,0.5829243885403992,0.5722903995949001,0.5465564479478603,0.5477648484520198,0.583331099459818,0.5620706551437563,0.568096645313804,0.5512724938355421,0.5864154247539115,0.5795768764857737,0.5710654211165191,0.5549605080512184,0.5607811093683069
0.5574056143147051,0.563521060884816,0.5349251798761763,0.5623456708990774,0.5482380887014875,0.5165592467011876,0.4827457748397035,0.48314043502461423,0.5525670670314509,0.49883289808763576,0.5628572024677942,0.5386922550670299,0.5389082054309604,0.5555792608750253,0.5984563702847356,0.5410511047521045,0.542893344317829,0.5094575445082052,0.520486250706071,0.5541675228921478,0.5371583704126259,0.4941679834729675,0.4985930503342818,0.5622338570203625,0.5544484987112058,0.5679097563322371,0.5588361631881137,0.5603759726973545,0.571475012951833,0.5693032144129064,0.5553416495699424,0.5475123540046875
0.5656084239473411,0.5611708984440518,0.5646303069858377,0.5534921298500995,0.5487997249105458,0.5661027230751222,0.563269639911271,0.588105845556029,0.5407411429031679,0.5676401496680992,0.5749067631612553,0.539752179543814,0.5195308867182444,0.5575457579365506,0.5771943917872157,0.5371036495080609,0.5480141901995453,0.49960064636193785,0.47604915464396985,0.547656974252529,0.5291505289955579,0.5155044719858978,0.5277165498472234,0.5554774795560761,0.5742070631096041,0.5674979019779688,0.5548653149925854,0.5767290161027698,0.5743784806263487,0.5646451444894207,0.5658676497706565,0.5759379867929151
0.563011932672892,0.5444206376324978,0.5441319725431454,0.538103847167251,0.544728134932672,0.5360811178029543,0.5157274406068775,0.5741251452844683,0.5310157708687284,0.5650157857614864,0.5650015608232805,0.5683973354696251,0.5411364599430462,0.5585375932953441,0.5368073519583161,0.5289099417007946,0.5477244571246014,0.5387524382678939,0.531198157539404,0.5524869364998689,0.5434828939340443,0.5383279241982151,0.5139406245793297,0.5578960837673984,0.5313459131471916,0.5474088939762755,0.5557643787196453,0.5507933515103414,0.5642852746069937,0.5822632173931994,0.548341485748632,0.552580682502925
0.5569871056676833,0.5366634506356412,0.561908041247848,0.53561799921893,0.5323054699669459,0.5728728321432184,0.5697659778004533,0.5799564178207627,0.5620191243004492,0.60057501911064,0.5911543059039889,0.5713628847349157,0.5481158601375583,0.5653470100256359,0.5787637687022633,0.5473328136875512,0.560502013056485,0.5449091963543587,0.5491545605182213,0.566966139133492,0.5549244437283087,0.5425816848737126,0.5240952464734896,0.5909868677762792,0.5493922645374834,0.5629057698550592,0.5445075141763817,0.574206527949266,0.5631436199619091,0.5978011448472426,0.5178980664433029,0.5217047513552255
0.5864648705537212,0.5733975790871688,0.580652851601281,0.5602857625643924,0.5512650927953112,0.5663860867863227,0.5865678662415383,0.576236190392877,0.553921891946417,0.5894003266399052,0.591854241716062,0.6022879677617922,0.5675263855832057,0.5788511461812339,0.5829747760453208,0.5687719410249916,0.5891966353636885,0.5559916100341542,0.5777936125173813,0.5731715407959773,0.5180329052851603,0.5700200869234938,0.5696581365680556,0.5675784867885277,0.5891537162516893,0.5613856842314945,0.5637805158692978,0.583438769243148,0.5699257217935358,0.5782840123794842,0.5448945474491885,0.5587044875790864
0.563524344737586,0.5576469599568318,0.5808320816110432,0.5742350847892471,0.578629173779932,0.5908902323841992,0.6038547842651998,0.5792799553788281,0.5812279879242098,0.5749622157774293,0.5742900266681438,0.55390160840167,0.5332754875035877,0.5504541059290466,0.561429021935472,0.5587991782867533,0.5692436197046185,0.5525483959159317,0.5704431793390798,0.5731331413599984,0.5606239086594773,0.555428926484917,0.5730686694821209,0.586667704369827,0.5812428722498805,0.554908754722211,0.5553769631862637,0.575657344243285,0.5577408615038989,0.5462264410069096,0.533401073195401,0.5878506603492155
0.5144883504483099,0.49344136153425283,0.49355815511427464,0.5311238704841884,0.4935993717024481,0.5279863873329462,0.5197849050366622,0.562050219928428,0.5128058333524108,0.5348907766845765,0.5332536138371284,0.5491245584324014,0.5109623306046399,0.5343842731296082,0.5522204171713331,0.5129836073194947,0.529615725132803,0.519205675825949,0.5431192805249213,0.5398062797049875,0.558212237135313,0.5379106388618089,0.5612018401139451,0.560743058809256,0.5109284423629347,0.4958516249125823,0.5027679181461017,0.529718541632323,0.5157394358774499,0.518259240421417,0.5054808079555894,0.5601258614568628
0.5422242542565777,0.5291936209787286,0.5248567425755929,0.5602857731097501,0.540405610155099,0.5385748863798343,0.52674861654849,0.5596515526269943,0.5608945874536407,0.5078985572928237,0.5472464104419196,0.553014981083124,0.5248018656631481,0.5148681050454232,0.552290115728876,0.5368059467783375,0.5402312580931161,0.5100552854326821,0.414294939441152,0.5585042155601078,0.5535531694062834,0.5335526978590229,0.5533905216058801,0.5732034630609778,0.5384828239183629,0.5682081196671669,0.535977735399009,0.5701910906828136,0.5581972331777257,0.5739204537394189,0.5364597006631567,0.552167497166952
0.555783538993889,0.5593907993136248,0.5524373819854856,0.5527125311122495,0.5413826308042595,0.5648147949430329,0.5350298734489136,0.5758202581495969,0.5167388877616204,0.5048078480968705,0.5711252467749777,0.5363170314533573,0.5053705826185454,0.5185343257303912,0.5552331698103447,0.5528289723916027,0.5515317865028131,0.5151581634452478,0.45829035269193086,0.5466025917382609,0.5219477215353138,0.5037942408380135,0.5142063241083584,0.545602426282505,0.5415601052048975,0.5298153565847522,0.5671299355993347,0.5280847930003018,0.5651596101262959,0.6192304921129389,0.5463147667572603,0.5255152948590724
0.5389974201662899,0.542974254380147,0.565982652119173,0.5052480397150344,0.46941561327664044,0.5403238440036405,0.5703940499304887,0.46937610483337566,0.500870485804959,0.5077005976290102,0.569878427607299,0.5026914477295936,0.47779905352419677,0.5161315445681928,0.5436102733109673,0.5406837503384964,0.555268221401152,0.4994795510260667,0.49816980130606997,0.5723794183813115,0.5301087223555484,0.4882765212056065,0.5010078647402436,0.5582297121793721,0.5540895199349681,0.49263173108010105,0.536624655764543,0.5590420986791357,0.536690666631793,0.6001783828136764,0.4810292200894365,0.5208728196397902
0.5347579173833306,0.538884300342153,0.5333094823165748,0.5284046812460421,0.5236379333205854,0.5268896017817839,0.5428649619901762,0.48250491324350536,0.48118268836301425,0.5300177958365833,0.5606714366194705,0.5189215387539602,0.4694562161079661,0.4913653019183281,0.5192906448902643,0.4926226678037122,0.503740182973363,0.4577893864498601,0.4487783078490988,0.5086217665229109,0.4148454898081286,0.42314468250032794,0.3648660721308049,0.5001483661886404,0.4642350622668965,0.537468059054948,0.5683027421937537,0.542170173791471,0.5624031811170956,0.5808025618738424,0.5316897385895367,0.4958438238634567
0.5635312669512972,0.5730034276887689,0.5645106101727392,0.5614269089928176,0.5513004458112687,0.55744223573154,0.5642790882832662,0.5507152489601139,0.5324919333640745,0.5563980555044888,0.5965305470450547,0.5737512104412041,0.5056254192805999,0.5702807621984357,0.5984946282610635,0.5845546357189509,0.5694271348575588,0.5214711212254103,0.5020642703712966,0.5145206146831006,0.42518439838172645,0.4074451249113504,0.3542203048758888,0.5577634853003687,0.47557190764412727,0.5724321459563664,0.5713362198556958,0.5367500696937921,0.5707653779096982,0.5960329059685349,0.5595689820550711,0.5714237212474026
0.6010691652967421,0.583017495228848,0.5118271181896135,0.5869072979228336,0.5721588293850143,0.5567192505782395,0.5770529251237139,0.5446104225539615,0.5339887559053759,0.5715347736571779,0.6035613260813554,0.5636957949461895,0.5352022073154366,0.5635882173450417,0.6057488647636844,0.6009360662769256,0.5960338581245289,0.5546579040827416,0.5504649113772317,0.5601538497000642,0.5568290098386683,0.48850786623574055,0.5036906425686865,0.6073018473499016,0.5713697606383118,0.592528095307189,0.5818111000605944,0.5594726096360648,0.6050054320317709,0.5885603448319768,0.5716677869594539,0.5582639900296299
0.5569871259456461,0.5122882729961118,0.5113927335886497,0.51998398140274,0.48361369722473896,0.5476882313322127,0.5674618055889893,0.5406522284591673,0.4918397101671891,0.524314359840109,0.5847360964383522,0.5113840306418123,0.47983878912859423,0.5363178511199478,0.5952812959078564,0.5801606445147932,0.5780855762790836,0.5341021501636661,0.5073084589390666,0.5544946117571355,0.5205289231830891,0.48677261779244707,0.4842502258277019,0.557668413408579,0.5587524804823321,0.5261394946442023,0.5475311271157978,0.565846578324431,0.5548633886867028,0.580564182291744,0.5069569419202508,0.5291112640534185
0.515193134463963,0.5145763613696913,0.5089626391371378,0.5215993554650549,0.4598496767515791,0.5546562577725825,0.5717810076300194,0.5337369534992948,0.4586760745725019,0.5444590259460352,0.5694071519642746,0.5157658291345032,0.4660902750387,0.5582671098569876,0.5792852844159818,0.5610699040703553,0.5646743429490848,0.5155637009377486,0.49298721876022333,0.5320740080087537,0.49064346315307455,0.4458736046185148,0.4282339088878652,0.5493775545483502,0.4891511175441272,0.5139488792150863,0.517746795139974,0.5219273801515407,0.5329325301697573,0.5420810979685237,0.4927178143098703,0.4859252461759018
0.5384465392479365,0.5293541875476848,0.5088082302540621,0.5267706666021882,0.4992730210432743,0.5597631774024657,0.5918419818275366,0.5261280826070356,0.5348529296984359,0.5854226159657984,0.6144544148144401,0.5854084542832334,0.5537427618366939,0.6019152705884941,0.6123619118158223,0.6004519016288185,0.5847196141431911,0.5344444721598609,0.5087205182103661,0.5252815414911893,0.4698959140361648,0.4971274866811409,0.4236563030916658,0.5739869881547996,0.49129808438147327,0.5084037642071397,0.5356263971546447,0.5483389307968438,0.5476239344368204,0.5504734161784869,0.4892537691652809,0.5031581690761703
0.5898283320091892,0.5753040069580799,0.5438995132320558,0.5620874585544564,0.5657038267637239,0.5679601235180635,0.6152064792888801,0.5465616842943513,0.560261108349093,0.5951527137387426,0.5943801440961496,0.573851328290256,0.5581052024008749,0.5827162830432566,0.5958402612734212,0.5844695999843543,0.5948075385197877,0.5808475322373816,0.5525271246808039,0.5973184719355902,0.5474654860522065,0.5482379386150312,0.487125030087367,0.6080289731054332,0.5830235194049206,0.5834903168041113,0.591595312692914,0.590062616955864,0.5914954191292612,0.5944205521679159,0.5609279509418167,0.5694869993561927
0.5272193650480885,0.5757630736088587,0.593764682666755,0.5752473114427661,0.5550000308917346,0.6022011833073176,0.5832363039431168,0.5602162435714149,0.5643952260718884,0.5765146669242776,0.5972497810968849,0.5756672840776307,0.5635418026558713,0.5850488516654343,0.6051185957724764,0.5881716566697611,0.6037876208517299,0.5888432475404501,0.5525007434332883,0.5915307423307341,0.5787071463185031,0.5802850929687962,0.5800257073948943,0.6186549616316943,0.5581857792905887,0.5339975781077362,0.4666387899615344,0.5223201456971865,0.48306524732067263,0.518781496090596,0.5860924721312237,0.5821504553053177
0.5878438165235469,0.5753938225459208,0.41711855681873977,0.5531044172014795,0.46657337750800654,0.4962968965737637,0.43273258355317135,0.5525341471956726,0.414484056230854,0.4185694926153475,0.490553228859513,0.4632493350993964,0.5634721253020291,0.4761204574560776,0.454328434396101,0.43829572302899655,0.47114459253472285,0.4797164989265063,0.47564167738020874,0.4883941578061609,0.503444523476445,0.5603303080312911,0.5882988525915592,0.526771499374401,0.5871995068630064,0.5782738371488206,0.5785592841443323,0.5683067511083083,0.5801665326112148,0.6018908450905585,0.5263603929274211,0.5756800694967581
0.5995268016721225,0.5884384951401931,0.5193440173977805,0.5842729278763514,0.5904357195426686,0.5421522547712224,0.5241070317288239,0.559506442543155,0.43712601698060444,0.47326569837921406,0.5093933744509459,0.4901280301366979,0.5580515564710231,0.524223952257594,0.5220007086039162,0.4856452305446975,0.5193592830092301,0.5161887454683307,0.5217903635150576,0.5021129927095608,0.5262060426332812,0.5554436624248688,0.5359896910890695,0.5324954884548031,0.5864806518139977,0.5887463310143648,0.5761801692416516,0.5480238323481834,0.5915312116011726,0.6040510922250569,0.5800521086903653,0.542241765623758
0.5793092257465159,0.5882871072711159,0.5693479018949883,0.5762501716876063,0.5674705468603503,0.5580804287484389,0.5803005504126001,0.5601151119965826,0.4801432942584503,0.572650710512073,0.5974886242011525,0.5745627074458766,0.5516455589308582,0.5789812623544653,0.6048728839236929,0.5903195636741517,0.5855207462717733,0.5725021681245952,0.5219766059234391,0.5789218711329267,0.561723939533271,0.5086701707590972,0.5236206734696999,0.6038308094198833,0.5619972784539528,0.5720302495065592,0.5636207697116057,0.5848094826174196,0.5720358552233425,0.5810652672990597,0.5913818352171339,0.5033217641208809
0.5775075533057346,0.554530994387244,0.574439165956336,0.567741877247794,0.5591622461015987,0.5612635751912544,0.5762172707811063,0.5446303186441892,0.43470757220901773,0.5739702345395136,0.5835900572558452,0.5974768111600066,0.5468665368511973,0.5579453186993186,0.6073229930040632,0.5851938316907694,0.5980774944371621,0.5676577896654956,0.5388250600999719,0.5874839102730625,0.5283125153423993,0.5212445375423679,0.5161395044920039,0.5615463499438483,0.5528397521074518,0.5697112306986065,0.5719866273923849,0.5664734436724016,0.5655322413488058,0.599329384833788,0.555014138846229,0.5236747339420981
0.5664243745763313,0.5513270141025451,0.5209819471424461,0.5526968849090172,0.554217154677136,0.507063064448901,0.5311263959613355,0.4933526277479909,0.5805634710571754,0.5402159528715156,0.5811296721103631,0.5918211882138187,0.5603403451738992,0.595201889367232,0.5800463789241576,0.5883654148143755,0.5945849680877082,0.5658436995959731,0.563345942506825,0.5921311929946863,0.564589161194233,0.5528429450370147,0.5323683884101915,0.5843347404672702,0.5629806182722275,0.5465493406256521,0.5733484931907722,0.5436189674028231,0.5831746846559254,0.6113541456720739,0.5555414380320359,0.511973475254599
0.5559314869119356,0.5544415973316209,0.5424832887120862,0.5461759746564913,0.5468070198342347,0.5146952361136184,0.5454380810518011,0.5054476060340094,0.5066162562997458,0.5564312150541494,0.610255562025707,0.5673910037719138,0.5614989168240547,0.6018354735318457,0.6075299243955806,0.6089836234274499,0.621182385516321,0.6021279839697831,0.5667150935867701,0.6030088583148907,0.5660548590947652,0.5337879684792239,0.5346032898715926,0.6037858869425615,0.5714982899903119,0.5558050632895726,0.57704093575181,0.5780205571816905,0.5799102349652757,0.6041806038089652,0.5518990659050851,0.5432950376333814
0.5724606185123696,0.5453913738405343,0.5446867752172367,0.5312037337836741,0.5570085885036928,0.5361555940759104,0.6101467215778407,0.5687399493563859,0.5873389493047034,0.5787419563606776,0.601751175409969,0.5885558155119098,0.5589268319697761,0.5763659897018516,0.6165194380495881,0.589516115895902,0.6015381911414458,0.5683765695226586,0.4792189741967544,0.5951586827115396,0.5822244078658004,0.5864390360508022,0.5613380951696967,0.593118629668619,0.5807420854513133,0.5713315451936517,0.5747687892170162,0.5878084779441995,0.5911977860406323,0.5940129343081013,0.565743482407479,0.5799529030797561
0.5615090627384757,0.5668346956439317,0.5320631768268277,0.5424400761572279,0.5561439023742015,0.5690808431556394,0.603410294366809,0.5742362654658741,0.5549299100697461,0.5948078948215688,0.6043963797048149,0.5173013140836519,0.5402016161599108,0.46741034775453255,0.5843573017062837,0.5507630463335175,0.5915523563958194,0.5628598796959002,0.5639371562207025,0.5823626031661039,0.5702976985765789,0.5638196457787531,0.5830248795938271,0.5816909054589534,0.5692901350019159,0.5819961631310065,0.5864857363681415,0.5642169830198723,0.567249333578487,0.598894050027622,0.5648641836057041,0.5672474469191809
0.5646099337670735,0.5605852332683862,0.5713575520462882,0.5608350010611985,0.5724099706367597,0.5671271985205869,0.5919458532317541,0.5688155287724063,0.5529642962954315,0.5704657042056547,0.5981759050932759,0.5477794490882194,0.4979343344037418,0.5151117761444645,0.5847567038240113,0.521652625560347,0.5483059427526561,0.4635402655757585,0.5055974689771949,0.5510902328391656,0.5332757427106809,0.49039279976758704,0.5132143372067892,0.5651783576477973,0.5466662063142147,0.5458343767319281,0.5732711528832938,0.5584585800094041,0.5817881493462802,0.5965610922987844,0.5787954842240127,0.527379561961729
0.5932454044171452,0.5867222420991133,0.5670166659786994,0.5643144977265669,0.576065555897494,0.5657820732837728,0.5824350348055775,0.5565920217103808,0.5701362474856092,0.5609569213096007,0.5490210809315315,0.5776662307398011,0.4073669874823935,0.5202819725251807,0.5973903840016255,0.5003701798004085,0.5080645867713182,0.3902513679444351,0.46798442029507736,0.5399182743446346,0.513958858626719,0.4625204106717491,0.5191738839257567,0.5908306209342429,0.5399381751689487,0.5596043489380756,0.5480156438360304,0.5799261992917444,0.5937108795441302,0.591957267528418,0.5865957725493464,0.5443411831832589
0.5819548292669128,0.5735948722440487,0.5874846979757541,0.5810050720545237,0.5545416947365644,0.5814404085856685,0.5749458195435051,0.5208916155693263,0.5609844840994226,0.5778139287844267,0.5665181509786519,0.5654517105745945,0.4607641808670489,0.515306259672372,0.5621010817167428,0.5243873409032553,0.5693996343324194,0.48033994826732285,0.49795810289787934,0.5749815777968087,0.5601949042526713,0.5264851758088411,0.5550607889067988,0.6002565447476442,0.5755386928957792,0.542523232947823,0.5642177897750226,0.6038828080131672,0.5959817377574071,0.5848742320879416,0.5761715514683671,0.5185990019907606
0.5972870000391866,0.5912033948391987,0.5885776340935527,0.5863715770782629,0.5885694716930532,0.5690679400544036,0.5884473216511833,0.5338503472010149,0.5397477451855615,0.5685851841030531,0.5890225916766666,0.5604154310225438,0.5094473806801484,0.5167397289256029,0.5007863443319067,0.46821272155867866,0.5130169806555439,0.47613603409560284,0.47654631761268385,0.5495187736776757,0.5399810790314944,0.5548581388295452,0.5276436909317206,0.6014547534012652,0.5627497422848604,0.5679284271968998,0.5830965183126745,0.5821997879392186,0.59870804044957,0.6050749011258562,0.588193426183055,0.5680175091058796
0.4891753302686836,0.5322071010903578,0.545642573925406,0.5520329736757542,0.5485695398741407,0.5365094141470962,0.5520496751867724,0.5159744969423151,0.5834353354971753,0.5564711750503455,0.5880156866499132,0.5890673209564273,0.5484724424065353,0.5784985615757876,0.5463117885508307,0.5432830236112357,0.5549789566493154,0.5417420746186492,0.5101470909361383,0.5665954926149426,0.5513841148303836,0.5523663488965008,0.5414406034721324,0.5931308891363363,0.5525400115782606,0.5250396364722495,0.517810280416079,0.5449290595920538,0.4991876448574486,0.5367973499473673,0.4896827291642439,0.5731933869833014
0.5633732917119062,0.5430998304571466,0.5303417274089772,0.5402174271050706,0.527100843549912,0.5204023088482379,0.5500514583779058,0.5466969217472843,0.5487362670746491,0.5658804532631168,0.5794110134453502,0.5572708919565971,0.559036908139819,0.5542877751329086,0.5947329294383543,0.5529552344939317,0.5582624548783622,0.5378892150150544,0.5330715850358256,0.5531005875304018,0.5242383615163091,0.5846229879503005,0.5081620897883788,0.5704742689931165,0.5346724186403851,0.5513628342631574,0.5605239647948128,0.5603105504488405,0.5820031028676486,0.5869648414606892,0.5325156098729427,0.531364417722396
0.5638839553715475,0.5438840117786049,0.5505043035148578,0.5337788739990498,0.45207135687697364,0.547978641194624,0.5692523450091329,0.4542511437222262,0.46437313442258227,0.5182700423552243,0.5732508921349962,0.5033923119366582,0.4977002807881093,0.5278833627028864,0.5723706613593911,0.5385611937302367,0.5299772909251301,0.46931721614372174,0.5125951194426638,0.5483632145255831,0.5010269863819412,0.5366818548681511,0.49522000139315897,0.5749369423867401,0.5342321284601974,0.41492398072777975,0.5056068035136024,0.5605097792170833,0.5496319065646098,0.5919273110618923,0.4897371028630417,0.45215204726328423
0.5098221187886071,0.4833616374649267,0.5287869014452545,0.4690170741801109,0.38867027323323994,0.4945917851807803,0.5609078371110423,0.39836487046572056,0.41311469006489154,0.4727516850577071,0.5844776097662422,0.4855801605145644,0.41601582630798595,0.5128585806987884,0.5492840719171651,0.5213976679343455,0.5433867673009618,0.44336446394095413,0.5050163118372705,0.5163242841569363,0.4866764708242996,0.4306166452967163,0.48664299853452686,0.5793063268308936,0.5344225301646571,0.45739141409217837,0.4976734820713361,0.5494768702112844,0.5085839616145617,0.5594784801890866,0.44230945005176625,0.5011434665828227
0.5243418506309164,0.5039824813357243,0.5250274566894865,0.48671307743948417,0.4433732798338019,0.5152394926982378,0.572502039387962,0.4906775927446997,0.4532531496877462,0.5363030286102654,0.5914093255944494,0.5452489033848898,0.5068510364207988,0.5445636109042111,0.5819106575451799,0.5437105256566999,0.556278108554439,0.5290330705640306,0.5122213693428679,0.5489074189738093,0.5216467393354045,0.4742882268338589,0.4689629675522201,0.5667530883702144,0.5427040487084949,0.4655025918042246,0.5140687036052274,0.5444342959172241,0.5380970833683638,0.5661287093198692,0.4670217086371764,0.5270374426099141
0.5807135549346556,0.578101914281408,0.5752858217760444,0.5620159538779561,0.543039147722799,0.5510193941924194,0.5893153556339115,0.5627086304352614,0.48864367395081243,0.5678501612943357,0.5941026229039118,0.566225597087708,0.5071882282134995,0.5631528382775397,0.5926296663583942,0.5756169867346249,0.5641850723622024,0.5152905523526883,0.4720484414758284,0.5283565382661667,0.43585584691061424,0.42925684229889016,0.38495590518025613,0.5150614314112586,0.4759313110268,0.5711259795111383,0.5676566866424392,0.5465382582563143,0.5750817179668274,0.5859282971420692,0.5433668944758855,0.5740970164571793
0.569136491746775,0.5533353645126013,0.5892385450825711,0.5504581125492102,0.5418793241204117,0.5673547321330561,0.5610452989261575,0.5587609410614441,0.5299264248714178,0.5769180023132549,0.6116880403701632,0.5800515305786852,0.5020168122726288,0.5637031522500848,0.5822189481643297,0.5573644624652085,0.5481730058698473,0.5046612733748358,0.4854469196264655,0.5119911723069591,0.46300129692152014,0.43490633106088544,0.4085611272270433,0.5368873555738964,0.518390406152853,0.5321913116350452,0.5607599880545007,0.5600940992484794,0.5804367959861075,0.5704532795761244,0.5375227837719813,0.5191253382501883
0.4998942257754287,0.503358579042859,0.5469161956795503,0.49468697743011475,0.5151172017086308,0.5257027549505044,0.5485815243045148,0.4851799296342741,0.5628980479286004,0.5144379064026946,0.5432647143965622,0.5526333821875367,0.5390730356482761,0.536678659433522,0.5584736149251881,0.5123128463186164,0.5128372822376158,0.5203346414475288,0.5449017752075807,0.5207369403907617,0.5129582738855981,0.5068255810178616,0.47467726179991787,0.5209926073252165,0.4924084840179466,0.5037548558820762,0.4962602671444432,0.4938070547303511,0.5142828400322895,0.5471424931692809,0.5247704982929721,0.5081058456616003
0.5233959631083138,0.5245652283855992,0.4898146731801234,0.5009566831806892,0.5317106453884691,0.4985591322865216,0.48831432266387775,0.478497279760861,0.5649109197707863,0.5111254790650919,0.5429925028922656,0.515144553663492,0.5376588424872595,0.5024450445327235,0.5577085588014821,0.5285385602016286,0.5292312295294823,0.5216105780824687,0.5208259107203843,0.5084040017257088,0.4689920757492564,0.47052037935923446,0.41705830085159057,0.5360999066781792,0.5106136476487739,0.5264841841443408,0.5405667282960901,0.5280008970241389,0.5489137429779676,0.5536472330132539,0.5404097020783749,0.49264604756855246
0.5490054005722882,0.5548241144480406,0.5538376026528766,0.5311495339071463,0.5301312768584545,0.5481916546429343,0.557763492471791,0.5293735400983254,0.5434541309517711,0.5587843150521148,0.580298171564628,0.5599196647277396,0.528242014273957,0.5457197921399886,0.5822586527959929,0.5599915882793253,0.5787796841623121,0.5464627660062455,0.44427363441172224,0.5888032357080496,0.5413764839113535,0.5497548247884878,0.5235472541842411,0.5866484847287707,0.5326063410286759,0.5351448159228982,0.543473764517961,0.5615505474732077,0.5663515050396442,0.5859169028321498,0.5420025958940606,0.5443666643000754
0.525053221165329,0.5376136852364785,0.5523901728479582,0.5299219626831396,0.5262089912902871,0.55390072332677,0.5746821476852152,0.5138538972710983,0.5673456020599071,0.5695881161391908,0.5997399459998988,0.5692118836020412,0.5395652698400314,0.5620886901621324,0.5917123924802794,0.580321287833288,0.5964461555299975,0.5469350259010815,0.4704849743553017,0.5772029119763611,0.5256346253635291,0.540573743452536,0.5176198861372985,0.5736294624699606,0.539632842681271,0.5258804849897908,0.5271255377260846,0.5532586802290247,0.5526580937221462,0.5525200894110922,0.5203412762944888,0.498030816009621
0.565393190226328,0.55475322635971,0.5780707324123019,0.5681664883016747,0.5802292250013381,0.5513254212745748,0.5335665217936536,0.5483734253627018,0.5401824692811538,0.5685129219813461,0.5771660027891679,0.556082908777216,0.5265985479530222,0.5601715233907364,0.5754480357730749,0.5436413462230617,0.5918399146933727,0.5607085342856911,0.47700264622811556,0.5978840217804323,0.5511130514677108,0.5329085696641238,0.5119400852881881,0.5867472957985402,0.5549085938545574,0.573773240699752,0.5778987194122422,0.55123998414714,0.5746648343904975,0.5705961999303049,0.568221613760289,0.5166348262864435
0.5700187032129125,0.5740110987770709,0.5451717631806494,0.5773199338349129,0.5872920430433831,0.5356516365500195,0.5544784464025279,0.5594812414733237,0.5124108623639596,0.5541091396223472,0.581876130503095,0.5615315871761782,0.5770421774249749,0.5693232477799913,0.5939848094883219,0.5717929453930969,0.5890999091667845,0.5608804506301155,0.5489330102103948,0.5573217451825297,0.5282203691285963,0.5312356516226361,0.5202129729840063,0.5792986565887427,0.538412615847875,0.558573999808204,0.5610472318782598,0.5268104034843741,0.5916414541132708,0.5918001093738153,0.5787221444971817,0.530763908739312
0.48304945582300096,0.48298649011872374,0.5039522181847658,0.4882825347065304,0.45912212742715963,0.47356700564631005,0.5315397647556697,0.5696115162743521,0.4238442179614437,0.5336439587388729,0.5663784672490612,0.521746643588965,0.5295220922263387,0.5399816616213521,0.566988933645572,0.5591531074913987,0.5744882593242129,0.5644989993568398,0.5227259714111503,0.5451324367369126,0.5213804820355519,0.5285593001297769,0.48718800847332394,0.5507912403259534,0.47334468900234045,0.4515928970752771,0.46072384668617894,0.49445716564502196,0.47765632069098346,0.5452251544675496,0.46807834229176865,0.5454402571403071
0.4705579405445659,0.42800855304882834,0.46740888700604555,0.45926809381662437,0.4465602190401532,0.42147112048489804,0.5266477324416337,0.5656961078615803,0.38461513412383713,0.5689302922050418,0.5882025462033229,0.49303413538718394,0.4626204077083809,0.5269959923165569,0.6160939871278037,0.5731304763396835,0.6000040835265925,0.5615781864843581,0.5086071341573498,0.5622285661272775,0.5157877792367059,0.5077400889515828,0.4789190528371481,0.5448764271777985,0.4654573877522251,0.4683535541301234,0.48625831461531427,0.4420449428441403,0.47382864574794875,0.5417937014540002,0.45139007496375455,0.544290504104078
0.5963226086144682,0.5923253324843444,0.5550638100011568,0.6056485976606302,0.5748007667732564,0.5818180181593403,0.5528492733158673,0.581036168257443,0.5229223501618759,0.5735706822088321,0.5576448374498658,0.5423846765447425,0.5472762511489082,0.5642255945681556,0.5814832483334188,0.5726653883256015,0.5910375260963975,0.5631535193010369,0.44571823601070387,0.5795500299037206,0.556197127062466,0.5472776459175481,0.5404761699105398,0.6003605020230193,0.5424409372464204,0.5667028153004166,0.5849332617258842,0.5724767776625709,0.5914117838395575,0.6057777964265902,0.586477966220615,0.5557872262445758
0.566877272396059,0.5659951972521798,0.5620056491748139,0.5855380675203433,0.5680723523986342,0.5726097876627593,0.5697114958863183,0.5658924395830226,0.48689358048036363,0.5891376571485517,0.5835321301557777,0.5427712244780227,0.5007671118923139,0.5491221176029273,0.5587647076451813,0.5379760065296487,0.5506080965427637,0.5171369889600356,0.4568037668019497,0.5661979655342582,0.5334514884822529,0.4974258199740986,0.5229570468748697,0.5819288042031358,0.5442416178483003,0.5459400704813359,0.5391127973177381,0.5330135861067932,0.5467953581964242,0.5485093584597489,0.5665513027459557,0.5465432727932917
0.528839044472184,0.5181192028954463,0.5139391456571575,0.5319165470366085,0.5417405411812333,0.5057827459935382,0.5609280591870702,0.5241070807759668,0.5160348700414418,0.5532812762912522,0.5758282067340864,0.5337027533450744,0.5135422329536066,0.5186785821652135,0.5604930693509682,0.5736258422201925,0.5957423804455831,0.5566721008335803,0.5059203316071426,0.5770302339170941,0.5311339815994104,0.5223313466225714,0.4715666013900463,0.5861090315160729,0.562505110764428,0.54754343683356,0.5681782092502229,0.5136492555357725,0.5487177492407158,0.5612292267940242,0.5363343015399258,0.49426943363667003
0.5580134779575331,0.5366570294293741,0.5405485066857266,0.5142573308539587,0.5243910047526057,0.5135592302960338,0.5285902766175794,0.4600984258839373,0.5593345159350714,0.5036785557523011,0.5589259506352725,0.5624351072832361,0.4044494477951296,0.5650586796088344,0.5781505927684647,0.5257134663209263,0.5238044227313025,0.42153547932315993,0.45986343376873584,0.5265794120532349,0.495215839347203,0.39879832135158216,0.49556468343379145,0.5465793288152002,0.5582051340295034,0.5291822133721554,0.5650359212285349,0.5565719183266189,0.5727837787788792,0.5979496077204507,0.5474835515121811,0.4293606116717943
0.5072519372572323,0.4553772210547978,0.41614715038468647,0.4322735053651774,0.45092527667228094,0.41150922975549264,0.4310701111153067,0.43070351881555735,0.49790603944565975,0.46088356938809566,0.4514394255901935,0.5314666264253174,0.3820440408866939,0.5138218485189122,0.5094802177462414,0.43719479929445765,0.45919782059727166,0.4020666683662748,0.43973959580561267,0.4694947274791207,0.44576044678290627,0.3643463348981364,0.4866537040500265,0.4947504357437878,0.49281104520073293,0.5396651922550255,0.5416544691080277,0.48760272536776883,0.5495947528872266,0.5694328969148734,0.48639723322129735,0.4015371013184165
0.5184276917641074,0.473717910300637,0.5348911237615618,0.5030837546665299,0.46446190854315816,0.5240271388496672,0.46499496353206904,0.518386442162639,0.42803082945657717,0.3992894984075858,0.4232876487697734,0.36070540755449276,0.4567536181863825,0.3482329311618569,0.421491801544594,0.4182379714229814,0.4905971943857646,0.4924444130725372,0.48086086333067807,0.4722587165099739,0.42789457055716235,0.4975897377018187,0.47137946484788074,0.549065707141594,0.5127653428741679,0.4904063391102249,0.5199254973820197,0.5757195384959058,0.5253784627118784,0.5797384025042592,0.4292112463378266,0.5413902692007619
0.5389143109415099,0.536659922050175,0.5743145010749842,0.5541429426422888,0.5413233046155469,0.5145926254476247,0.5196339947527957,0.5373339352903359,0.49522503512143407,0.5411531699132639,0.5753968844253091,0.4767103691042981,0.5270049036579743,0.4951578218186321,0.5756972508148784,0.5585370860834876,0.5787869987032537,0.5637235660278649,0.5549144240670266,0.5411361065063137,0.5412119304836575,0.5757352283886032,0.5141620549084622,0.5577031378614612,0.5197244558444493,0.5016430438178612,0.5466235782965565,0.5757202017029243,0.5373551339433279,0.59137364309069,0.5305709980057067,0.5321300034103787
0.5501856277821805,0.5470619687372927,0.5387936900438983,0.547181988827881,0.5160905422890297,0.5588212145949198,0.5568061071219957,0.5251566858989792,0.5085018847654925,0.5631536331939264,0.5733267553365249,0.5316832451217838,0.47552561137096766,0.5397377495016062,0.522306573543215,0.5442864860618661,0.5426340007342547,0.4873144135366647,0.4830640569352873,0.46552332786310774,0.43495637512566865,0.4519662922550852,0.42833438751562425,0.5596649118479408,0.5001808723304813,0.5074443531589646,0.5365853009650686,0.5311733195666634,0.5455238455780078,0.5882289142668293,0.5414404371468566,0.48795037579105893
0.5316229503598175,0.5248060527738088,0.5159636649051902,0.5125032374307221,0.503854308405897,0.5397015330756022,0.5161357355078925,0.4541774667475913,0.4477617761949276,0.5199352345920352,0.538812719467003,0.5302245199768442,0.4879788362980126,0.5256164526098144,0.4972709231858172,0.4827081007098059,0.4884758424295241,0.4688632076222602,0.4751110493659354,0.44077766909432636,0.4337370661566054,0.4610430450432211,0.4312627824776262,0.5236177719082146,0.46199638816213084,0.4912652416167264,0.5142610034044249,0.5187230578880554,0.5340283930964211,0.5612078611224548,0.5183187036702769,0.44960777182675027
0.5517089653110953,0.5372600851593656,0.5641684499438285,0.5501251410944121,0.5414803485927503,0.5548428485658523,0.5504083745342951,0.4394666442678206,0.5184225638081569,0.5172009005633234,0.5340739179193599,0.5284543402380552,0.5547212199174255,0.5246030143361324,0.5219298073835607,0.5241552144965497,0.5393614645984944,0.5226112099931002,0.48646799226720283,0.5329603009649403,0.5157189923749567,0.5194198894822737,0.4738333340161626,0.5493676676114538,0.528162240709071,0.49530214852773863,0.5226770810656516,0.5704617253810484,0.5579417337237039,0.5948501412843378,0.5383536002970908,0.4594683169679214
0.5697587853534595,0.5629641602109201,0.580373062349327,0.5661727978120412,0.5622836482030389,0.5730985957372465,0.5762890441259756,0.5104393094356297,0.5410064404888789,0.511141583965066,0.5274515609948605,0.49028011578985087,0.5341639532068968,0.482760049348582,0.5210645406159115,0.5132732917592322,0.5140562344423837,0.5177021503352719,0.5339142662389547,0.563946666973836,0.5504760417351902,0.5334458186436973,0.5024602878111843,0.5947304425671616,0.5342807033173562,0.49085213568657493,0.5462171274315573,0.5603863350376971,0.554564814516203,0.6016796166412189,0.560670172962834,0.47657804932184233
0.5975707662076989,0.5840897817260374,0.5822406842147895,0.5734665511268944,0.559176798893689,0.5521928848373552,0.5571106521534921,0.5378204277769237,0.4548439143736135,0.5393748072160579,0.6004283346170103,0.5557616049108453,0.5290812462248952,0.5270427800139679,0.6089710205959219,0.5844806261972003,0.6000033301609068,0.5611947530772985,0.5132593286517011,0.5841715566887166,0.5569393911401058,0.5596444327715381,0.5480788897901241,0.5938528180356287,0.5867196202559136,0.5691703326645638,0.5988749954086448,0.5969036068702657,0.5920008226733724,0.6118678388477508,0.567745093206536,0.5398945230821083
0.5799912897002704,0.5881901148526165,0.581030251179039,0.5672049549881534,0.5471154818489331,0.5797191698529861,0.5672954208151196,0.4785672017859645,0.50203885117984,0.5563893345780059,0.6017696089271902,0.5498629689239776,0.5377670754937441,0.519811094874685,0.6033634343480219,0.5914039564649303,0.6025033434389756,0.5704928300504643,0.5107729169128857,0.5843685482965467,0.5440175693709206,0.46200394335233025,0.4665433945891807,0.6153027351181299,0.5844786621631616,0.5716642697789658,0.572106022215175,0.607249754711601,0.6062187061513714,0.5913334854898689,0.5601296675851327,0.5270167023853379
0.5134212663968033,0.5098448265297751,0.46799474795609963,0.5178916959442907,0.47403561390664334,0.49688851962497965,0.48909060436480617,0.4764959831515444,0.5407908151266837,0.4730244046810142,0.4791334640538069,0.4876056067447695,0.5094841407418642,0.40756823790923213,0.4418571875596479,0.41143813430324694,0.490068102523783,0.5032109109778549,0.5173801063287605,0.5586448563108207,0.5119141846360102,0.4619221624899969,0.4422779283805132,0.563489628164379,0.5295344744378915,0.507517915643202,0.5265345234455225,0.5413885324121801,0.547074915707579,0.5683396807233992,0.5057745614994857,0.5230405267841708
0.49040554348975146,0.4708466721750675,0.44261892596148955,0.4531584884718746,0.41762072917240356,0.4363421947964217,0.4475645404032,0.4755330499754044,0.345001707580818,0.446140899241464,0.45152125942644544,0.30708094500775385,0.306087738232777,0.28698586514326513,0.3931413421237766,0.4015609940245339,0.4815224031804972,0.4647614164922551,0.48044080760308777,0.5834992774979185,0.5485541400034352,0.43238380977754126,0.5159188379738812,0.5550589076299458,0.522037720879397,0.46741279348359244,0.4900977222762779,0.5170233732779863,0.5227251346450646,0.5544471322400227,0.47095184155361086,0.5078408560598233
0.48079291486667053,0.471105961875459,0.4480170161524167,0.43587275866847913,0.4034454617189568,0.45083558894105413,0.4198130699470827,0.44525451318836384,0.3102506833696587,0.4581140319403752,0.48583805562233456,0.32765546505568105,0.3279584799580646,0.30984580185528565,0.4973537349578383,0.472693819522213,0.48448934746491473,0.4218292106640101,0.48141440681878345,0.4563086047940909,0.4744820819394032,0.43056126716557697,0.47981846194559236,0.5255257112143785,0.4957610031883184,0.5068333003557006,0.5089143017614765,0.5358242293887401,0.5192011843099025,0.564471435376957,0.46215412304626263,0.46886080917923634
0.5422053789002591,0.5338379934189488,0.5523075049369929,0.5094457590002397,0.5137617471007554,0.516270759772958,0.49153698967659026,0.47887055462009154,0.4777067758245932,0.515281102617823,0.5494644487011782,0.5299908498314625,0.41486376289505555,0.5219537396729426,0.5943605508437831,0.5018288475952489,0.47968408722184364,0.41366316225862115,0.4625506800752145,0.4847562773751843,0.4934271475715385,0.41684713142602914,0.46447241150037716,0.5643104481204909,0.5369375330281216,0.5707615492976335,0.5586624774986808,0.5640034996704658,0.5656684933173135,0.5982127247308303,0.5309579033916637,0.4553400504573073
0.5572371505559807,0.5654298908804751,0.5974216974750517,0.5614132805874122,0.5457240604179712,0.49310356854628373,0.5916790083044313,0.5507231179150032,0.5226310447009718,0.5491463076848698,0.52647281382443,0.5387878219477286,0.544326249629252,0.5130884845318167,0.5266222226183784,0.5151596882816181,0.5631755143717454,0.5318904791822797,0.5312616678151292,0.5644663487127198,0.5507261488078923,0.5435249627038373,0.5516664868132826,0.5850835941965221,0.5710768145447969,0.5640002416330963,0.5736534626325818,0.5690997717416657,0.5792516183867843,0.5870592428283921,0.5830915676486755,0.5684440409133287
0.6055469265491207,0.5877790721866303,0.586547607034212,0.5724929156665489,0.5832960782390142,0.5344046491921554,0.5904688510439864,0.5332534836339266,0.534648110082843,0.556087427066313,0.5699585654508552,0.5596317167799182,0.5716811679005936,0.5485791265985045,0.5807864567412298,0.5547537854627936,0.5822017988926228,0.5724323388188333,0.5777312477684204,0.5714690609942333,0.5754000666730068,0.5626848103914628,0.557754544087467,0.5868712191681417,0.5811292506326724,0.5538990116075835,0.5783516828719846,0.6103286192878888,0.5923768841677879,0.578894731333309,0.5681638621180732,0.5551702465702308
0.5815249490515335,0.5764118133168683,0.5605869277080057,0.5726858291772047,0.5482877747687463,0.5651681620868797,0.5972189974997172,0.5900116072722283,0.5409914345450725,0.5983405436386996,0.5992498110647719,0.5903943755017182,0.575174506972521,0.5889258047032373,0.6009174255835515,0.5855815658335892,0.5915563538950156,0.5505587730012468,0.5787211732004545,0.584799648705492,0.5462920733578007,0.5465147892051717,0.5240756551162677,0.5615619247452809,0.5518085784620139,0.561780719575923,0.5635406116435887,0.5826821945277151,0.5829319988591954,0.5982328604087579,0.5736554891099042,0.572730183078701
0.5747043643676559,0.5700315817402186,0.5410165760254847,0.5758437544323439,0.5503794671392576,0.5729657122209018,0.5704266009504804,0.5425490178342349,0.5002998389842498,0.547088747038676,0.5659797087185611,0.5609929108228426,0.5444471471297481,0.5737036952583762,0.5652868996233695,0.5419165055466534,0.5425020222642024,0.5229501938807489,0.5284898103214936,0.565418493361089,0.536881916012127,0.5377838137941018,0.4947366277891066,0.5660434972434584,0.5522594574165323,0.5439368221183399,0.5715543869634699,0.591102842922376,0.5724683536415653,0.5928688688345428,0.5686970298884929,0.5526400052469842
0.5963164729875999,0.5421153341907398,0.5503450135106969,0.580769593773176,0.5417287285875805,0.5614576933365074,0.5561415251280089,0.5500963400225487,0.5199212467219614,0.5379520596068859,0.5334281849553163,0.5643192119662586,0.4412537107109104,0.5556448370021374,0.5970033948414367,0.5434141047403988,0.5121082816932774,0.45177256378903785,0.48139158702061285,0.5520768250443138,0.5159725484650751,0.42339529967657924,0.4566715995907531,0.6093513511896133,0.5477177416152833,0.5614799477882655,0.5968610725691664,0.5966598539412732,0.5761063071831091,0.5928442861117702,0.558365402506397,0.5419359301653239
0.5574338294421429,0.5478919862206928,0.566249483700436,0.5646297013229956,0.5467072766655392,0.5738471548049517,0.5771203188844416,0.5743915233931103,0.5688693614463142,0.5603394234798182,0.5860620535851204,0.5770136102486725,0.48420447782226167,0.5639945918168402,0.5891437780958126,0.5461342626028057,0.5177562137853384,0.4792676230742477,0.5204280428406399,0.5435383693028203,0.5369420704158405,0.5023542992571581,0.4985597064661971,0.5713313984379805,0.528889444932865,0.5046977312187378,0.5518823238119855,0.5709700676690458,0.551993848840198,0.5951321028475232,0.5432760866353362,0.5160145004084772
0.5337386405379967,0.5490066581421298,0.5607028211754445,0.5365850110589274,0.5547498607768194,0.5594365093248779,0.5753233798202093,0.5271084342872819,0.5374322761796305,0.5339241574115521,0.5540169585333041,0.5175211351487751,0.4866992647125405,0.5086434290183418,0.5615501976067694,0.5575859010104365,0.5741722425233933,0.5371466728797397,0.47461034220989307,0.5683000927908,0.5469920585631529,0.49130374229552803,0.509277836785171,0.5978456172689338,0.5582204371222712,0.5368701210056108,0.5507374028966373,0.5441805251547508,0.5562663028759036,0.5743636886675352,0.5575486478933909,0.48849638258637057
0.5458540448209046,0.5566588173393302,0.5716061227662194,0.5452754688009974,0.5517721270321702,0.5506906410937281,0.48802959242031957,0.5223212598084042,0.5350622360252179,0.44860004203675935,0.46349147225102016,0.4199689655058566,0.4883484906729788,0.4003647860700712,0.4808599392680057,0.522762553042737,0.5741158211213144,0.5467894430670505,0.5343876006978892,0.5686549784839242,0.5176811369079428,0.4900786453796269,0.49698298537252406,0.5902965127659557,0.5565865049731842,0.5333283458072663,0.5645037412241181,0.5515308995339224,0.5732667574544027,0.5897964630207091,0.5596562086620438,0.5114386225608598
0.5758603323532013,0.5704311425281704,0.5708768644366025,0.5792979393447697,0.579110973390431,0.5508300666547461,0.5675071715545915,0.5316894973937747,0.5391194151913963,0.5302709573053452,0.536575765321972,0.46773001428321626,0.5258043293664212,0.4541078677596083,0.5401936026071085,0.5529226915377069,0.5864982860073438,0.5744467995449469,0.5543302724332013,0.6014453745266778,0.5704525388209244,0.5596187271111401,0.5503063896540443,0.5842780064663086,0.5888949110355014,0.5452051544006742,0.5803678114381047,0.5785701479917515,0.5848052131904785,0.5977211492331005,0.5772769778994599,0.5368791019162622
0.5446463658128065,0.532215805166223,0.5917595044611934,0.5426077730333488,0.4990282738232966,0.5152455968492847,0.5373995598525467,0.5692811592278864,0.5447330631666889,0.5749226037241734,0.5595164593066094,0.5718861423225248,0.5385636451141466,0.563329567528033,0.5913548362436011,0.5779869400644186,0.6029708334275404,0.5800470772834821,0.5738041997662303,0.5839903311679914,0.5808200694371624,0.5753056935606878,0.5125424280736327,0.6073913545942146,0.5913111108078186,0.5338028456306313,0.5351120422043449,0.6221313147375156,0.5396919640357323,0.5750798316219422,0.5149779348465795,0.5677718686871472
0.5862893742824232,0.567868517936587,0.5687934249539867,0.5741636412361439,0.5112349573935069,0.5571144612922274,0.578360727371593,0.5747074901523191,0.565442911458841,0.5736938588308649,0.5818018455167546,0.5771131477349969,0.5552497699271752,0.5627096139126567,0.6057998720450921,0.5777274133170727,0.601422474630083,0.5653982190581689,0.5532099931554014,0.5509180424697148,0.5508422804421359,0.572439739040382,0.5448310274945685,0.605841013317479,0.5895455199797894,0.536933152638618,0.5661553559364927,0.6057314305591723,0.5775485151129596,0.6034475712024131,0.5137717728173936,0.5456956018389337
0.5798592277089251,0.5661712730862107,0.5688510303129094,0.56606454479487,0.5643590835643573,0.5602861659228142,0.5790145998027711,0.5516448698122104,0.5573551377979379,0.5634671907131382,0.5853038234752092,0.5539054062917211,0.39648915578510496,0.5483059266187824,0.5889404409945348,0.5336997945556309,0.5755216049310381,0.5402499915062778,0.514015139559197,0.5605974181480414,0.5575144792556489,0.5492128695442743,0.5415784110754452,0.5948938844319164,0.595784235118637,0.5580078454899754,0.5816724481978648,0.6112460242223905,0.5788356947898038,0.6212560564725372,0.5509866176213016,0.5511128319240051
0.5265242235462557,0.5062539997396385,0.5343639634605284,0.5285868394713857,0.49293515014244693,0.5255532661138155,0.5432086204979698,0.43725415645144106,0.4654594876339598,0.47470949838400023,0.483186723683799,0.47329142944824515,0.32836587837997855,0.47157241384026066,0.5343574525171333,0.5425110712568401,0.586440363665515,0.5688272882486922,0.5268237353313374,0.5700335514287288,0.5515735951839456,0.3619490039131859,0.44055413274924843,0.569963828357639,0.5729365964588423,0.5318057322980039,0.5428037823537039,0.5668184592150937,0.540977774553915,0.5870193731581109,0.5180382418312054,0.41275983573651503
0.5153016582652085,0.5104880876544055,0.5479350936426146,0.532479707233864,0.5219038296764252,0.5274185212394344,0.5372730114934756,0.38102462995749353,0.4335361106021996,0.44932608871832963,0.4892288278369926,0.4082621848814755,0.32056996145497574,0.3749031478657844,0.42148534762290607,0.3784158388273488,0.43906407111536416,0.41837866610465724,0.4971968189252408,0.5177850493068913,0.4873108400443535,0.3824869929969821,0.43754249071387347,0.5419123865803478,0.5447069748688798,0.5256243882716058,0.513583279899663,0.5420525202443953,0.5215731360111169,0.5411530290073049,0.509270707120531,0.47256344067919204
0.5453238394675363,0.5389236739675874,0.556786178135497,0.5462517269895146,0.5213196352183342,0.5275785373453031,0.4747339110087804,0.4046508520427263,0.4132673868180448,0.42001544944253116,0.48991352502495017,0.3649860142589743,0.3418406618083782,0.3246848686631416,0.37074751238981596,0.3321252478686011,0.3554062313051967,0.33978923231424457,0.37136764704653297,0.40839521674044776,0.40790775869436524,0.3810828316326481,0.42488066447601236,0.5467668971013673,0.5591968128682085,0.5423351216277197,0.541828149569461,0.5768458086201422,0.5445933954274758,0.5751994120598201,0.5422403514343657,0.5556054747356591
0.5652376360862604,0.555695970806113,0.5419992647027045,0.5530477973412279,0.5414900139989857,0.524395660707909,0.5119819065827754,0.4751758903538074,0.3776668558866937,0.524753989794122,0.5767142007991631,0.47364568896600895,0.3881846243198596,0.4383965793819488,0.5093097213091513,0.48901286681036515,0.4872177503992987,0.43908628719813614,0.4552876773189984,0.5094319177358666,0.48065991236429445,0.41099942903889525,0.49814545027515145,0.5860490679138137,0.5596164544210722,0.5410072676072948,0.5605269306916488,0.5914488157977326,0.5686490704039703,0.5969361979702575,0.5521163820366661,0.4959925921197674
0.4843999968108205,0.482672834889317,0.47572974953311015,0.4566784413188365,0.4537160542854238,0.45607057326622136,0.49748346275209543,0.47159565555641747,0.35457535136264146,0.5181876076650644,0.5498147512656546,0.47331396408840437,0.32055514038089383,0.4351368185442406,0.5502358586962103,0.5513104006636378,0.5538997233660558,0.43166349224872386,0.433873444998131,0.5688701473391695,0.5477944434018311,0.3769465886151717,0.5508591713871567,0.5826048993485544,0.5568561456569353,0.4774864776196283,0.49826667785475715,0.5403213567435122,0.497109565759056,0.5436676833457185,0.4671682749439276,0.4484278270209215
0.5772839445735252,0.5838626381291512,0.5636642171330986,0.5894989187170474,0.5789030245493105,0.5789076004903079,0.585824495753124,0.5025207646537662,0.5278263222498739,0.5463256461803714,0.5753548048284144,0.5336886747300353,0.5285621599401664,0.5302534414496192,0.5918493108176952,0.5708856399351869,0.6030169354532896,0.5665951520576374,0.5182180208469205,0.5736758330037015,0.5479944540560999,0.5144601355832248,0.5373471504776203,0.5692363537487548,0.5772609042196339,0.5673768798695281,0.5880850755488891,0.5687229619224583,0.5783789450350211,0.5957720192505038,0.5792181420754212,0.49141168546603586
0.5695668324392062,0.5772528741296696,0.5616896119145991,0.5670685095512634,0.5608846288683005,0.5644525949868526,0.565801482333111,0.4678077024672206,0.5497853679547048,0.5736867586379618,0.5862231746295087,0.5496475415250034,0.4987768821191533,0.5539897812873295,0.594586817422869,0.5713721345492142,0.5626362259247536,0.503215656339256,0.49047223810294577,0.5238774057869401,0.4622183384186516,0.4614791538976514,0.4418279529592145,0.5530913105868677,0.5450468328614141,0.5515058688603718,0.579272915235413,0.5843631141196637,0.5715639821054405,0.5942343529955186,0.5642733412830978,0.5181148216751572
0.5758197909175056,0.5897591030080224,0.5666475378261779,0.5614842471099141,0.5590915671570322,0.5670002017588928,0.5924017173696121,0.4438134298981904,0.5558358418783743,0.5881483556354553,0.5934345839927919,0.5829645523009066,0.4858446537959748,0.5759266839363291,0.6029932764492049,0.5724814976903516,0.5604377647853566,0.49391319830527436,0.47329537854047266,0.5125756648713538,0.4223385103346998,0.3718032183139914,0.37881612112008956,0.5307048964519882,0.5180775521327813,0.5311410178148558,0.5777966623369964,0.5944120854044405,0.5833727491198336,0.623239105501813,0.5664507740353758,0.462442096052306
0.5452020511980888,0.5323624302618265,0.5946888369586426,0.5583452650689218,0.5507477001366268,0.5827688025678915,0.5600274713780814,0.5957093088964812,0.55488547522475,0.56304543234075,0.5617871020631117,0.5627145629509215,0.5694617079598534,0.5637082091799758,0.5897141656624066,0.5729154020285931,0.590950050349788,0.5780643242660755,0.5367521528365515,0.5696125246061446,0.5674944879001219,0.547552772939652,0.5500604696678675,0.6093600322189947,0.551755705725236,0.5640083668738671,0.5613992847589083,0.5733315509869279,0.5563114810283141,0.5591124969879505,0.5292226725417162,0.5478291174696605
0.5822678420786717,0.5626441664485812,0.5899343720035548,0.5590347414983434,0.5671088440132525,0.5625272341466443,0.5722615034752679,0.5605928345646555,0.5359473536840944,0.5517381545211887,0.5797422885390383,0.555340011438454,0.5750304758907163,0.5583927877495566,0.5736386215206817,0.5764115599560062,0.5927849624220294,0.570951057361601,0.5735251541918751,0.5775950797122441,0.5773350747886673,0.5540018204902527,0.5563169454589794,0.5849070640862961,0.5795739996624583,0.5792833353421595,0.5761934405638514,0.5961711542770277,0.5636776762287997,0.5984731646245129,0.5646349467323005,0.5316622097136331
0.5451012902887589,0.5323396352408611,0.6003911788023013,0.5562566308383603,0.5359474828541144,0.5631938776193615,0.587091617641186,0.47219517501835306,0.44907459963758883,0.4959988425283047,0.5673775589264668,0.5202147947719685,0.5244741008823883,0.5633077484197127,0.5953412131131787,0.5730356783163604,0.5761143084191898,0.5256508635895341,0.547172171578542,0.5386310857383131,0.5307059355428793,0.5359781221063934,0.5351248782128591,0.5659575288673255,0.5413705465722798,0.5536746391689228,0.5478218741944176,0.5639695419745077,0.543956954635897,0.5827903770548893,0.5490709401626971,0.5292225837376279
0.568556149860809,0.5639973015452133,0.5484609212605487,0.5792378595378249,0.5368678682643566,0.5547018586326994,0.4766702791326023,0.3414485290509636,0.4516867746846412,0.36244597910993936,0.4547161230794118,0.40649562736346956,0.5260395020236428,0.46711091471856936,0.5076702358668707,0.531804217272453,0.5526586290797506,0.5244885116982265,0.5250174083539467,0.5675802800106671,0.5582621682863053,0.5553331011610607,0.5715297751627059,0.6072898711931596,0.5824135650816357,0.49299171363335875,0.5822796683765524,0.5893433974181572,0.5793111783967283,0.5895843724250107,0.5340823393109213,0.4604916807880239
0.5030822546118369,0.48276762820517827,0.4903240723233599,0.4842554060649244,0.45587787115261136,0.42670896611738157,0.40854210621134857,0.33304365059441743,0.4560485910514493,0.3541399977997937,0.35575302390425423,0.4041213136662101,0.4412969486677931,0.42057141449528185,0.4042136488929887,0.48065221158890925,0.4698659493965324,0.3872205770602634,0.42003781920838557,0.4736381143412648,0.45948235345453525,0.3749070777393156,0.471132211996342,0.6099753130920144,0.5790371539614133,0.4880994857379988,0.5123168273927964,0.5849574379265439,0.5038744023590801,0.5546279564497807,0.4549823400983883,0.41693956349770317
0.45154828232715777,0.42027941578014283,0.4612608680121123,0.4105212105818934,0.434337639306874,0.4102137611076675,0.4946754927878772,0.5061340743775777,0.3916301150367393,0.5225935882535149,0.49389532378848866,0.440633359154713,0.3203064929147852,0.3795734728691338,0.4403922206969394,0.43710120739276986,0.39478921316243326,0.29001649600495577,0.3985309666704756,0.42015013428170994,0.4250144782430057,0.3517164466105424,0.43976472453163545,0.5766874221466495,0.5396165156848168,0.573006736425432,0.5050289542620371,0.5443924487932167,0.5034637024503926,0.49878611036741866,0.4789329081993552,0.48610114801239124
0.5283103488248819,0.5299867547370668,0.5920315080261412,0.5178119275623361,0.5114021376438821,0.508220114059857,0.5377541906297755,0.5627449783392837,0.4139032267885837,0.5511209435120039,0.5378913917232019,0.4686273060376079,0.4046082309373813,0.4073956888874325,0.4689983199255311,0.4595420091079492,0.4922646648014528,0.3952038731608743,0.44903526608241195,0.5009847314296705,0.4922873475278885,0.417491492464377,0.48179908184529807,0.5846837242095652,0.5407130497222395,0.5837614234521585,0.5545250472714818,0.5795929680207657,0.5501875836786444,0.5801218822835601,0.5215809501910565,0.5678978785367479
0.530701773448871,0.5412017626215364,0.541058291711834,0.5477563158922721,0.5406808815937526,0.5273161563519043,0.5549257926233828,0.5335178395383742,0.46522081407853594,0.5709675257146906,0.5716052218722076,0.5778104028055259,0.5282448175079592,0.5601702594133169,0.5445585685834805,0.5583982208753102,0.573061255103664,0.5303537938733717,0.5155268627571279,0.5338119226558645,0.48068562693753936,0.45898799505306687,0.42749552045352585,0.5554329150408475,0.46542293868756895,0.5239626928765334,0.5099403761785228,0.5769438215469617,0.5348182500550387,0.5923809534368286,0.5435394293355273,0.5123027421799274
0.5706140366031976,0.5626623194049212,0.5566856507101704,0.5508535399871358,0.5324937900066672,0.5599368860754678,0.5833547321710056,0.5514062497524235,0.47873598395872374,0.567962465393051,0.6134271447004856,0.5729202812317684,0.5225544844748474,0.5616088198430804,0.5663370507614189,0.5523840942287808,0.5719407469715835,0.5432742041678424,0.5364577952620436,0.5590289707387733,0.5336584512661847,0.49317738831610275,0.47248458720839226,0.5741662892118023,0.5339246502223084,0.518880953844595,0.5433582675662357,0.583732676740884,0.5577923355701117,0.5646167501240142,0.5524591471313224,0.5383285400881991
0.5400386181026886,0.5293301999260056,0.5078615841596575,0.5013946491625128,0.49006315706779274,0.5160886436652148,0.5429814108497241,0.5779851042837426,0.480944064559227,0.5797050213806926,0.5785050385192989,0.5150036276639472,0.38626676014066275,0.5015918853949978,0.5901770335393179,0.5587599184075014,0.5617381027427919,0.47392312074967596,0.47952023121154985,0.5312056074637936,0.4790428911576181,0.4389066687011553,0.4494301239921652,0.5486347718846925,0.5301078944796217,0.5357413643600536,0.5231157110425633,0.5549983985994886,0.543981234742072,0.5693309559717383,0.5196672255221285,0.5566921682986695
0.5489116887228462,0.5271125577378784,0.5391491207313427,0.49961575941510294,0.46770889342434246,0.5181119949919879,0.5591195266084962,0.5636506283225101,0.5053164627704921,0.573503188050823,0.5804404027012902,0.5602816579513527,0.41051708032232564,0.5430873570550719,0.5866588886705253,0.573829046124163,0.5828343414851348,0.4702390408453617,0.47010083146338627,0.5483973665705729,0.5007712365209708,0.4604066675401187,0.4872786507817716,0.5856035470652577,0.5633574108110173,0.5424500222018626,0.5343701441956641,0.5736896824036681,0.541387459040955,0.5781651800820851,0.501222406511536,0.5436960562095562
0.5800231022382782,0.5713991091081224,0.5623524827261596,0.5535616059731834,0.5404938011799667,0.5467129636254519,0.5146469477521014,0.5445646658544451,0.5088866519926718,0.5445518263053907,0.5180430958264328,0.5336826867509504,0.5296091894222503,0.5447097083604964,0.5439533765571469,0.5443499684687608,0.5702596827590081,0.5457256583678222,0.5385313349104484,0.5262340978855002,0.5385485794599701,0.5485639586422372,0.5385035096508651,0.5706614193707502,0.5071389011818018,0.5739313648879397,0.5740659055887882,0.5848678481735915,0.5801833308298454,0.5871370881859543,0.550451613990757,0.5550748624783348
0.4268647025615268,0.4266160706944369,0.4849469357264119,0.4472100320852411,0.4334399745413069,0.48224418616173115,0.5036510042912232,0.5087255139974076,0.4775126200875342,0.5021678089047035,0.5201707252167416,0.4954491550394794,0.4800716461677963,0.48016614273021296,0.5231293863391412,0.4908072352095717,0.5128452547885743,0.5119177973221515,0.5331797212670213,0.5129443557954642,0.5348743988086425,0.5224693505773845,0.5236245907183887,0.5256523079138425,0.5011659964748391,0.47041084767163016,0.43967440045927075,0.492619531210124,0.43814447632349324,0.453849384292797,0.4405216811492872,0.529474437628295
0.4422571187948334,0.4471233142832362,0.520979802274668,0.47074558930921145,0.4467871149446231,0.5155382690418684,0.5160020747909512,0.5014903220180172,0.5371529195695882,0.5139436671659147,0.532039688915016,0.5223540761034453,0.5374074527669886,0.47428462587099934,0.52379978882077,0.49103886245504147,0.517915733457799,0.49845354647723994,0.5262311178403887,0.4950871139874587,0.4588969019839927,0.4695046025465298,0.4229371566759676,0.5164132784747467,0.4692598460259147,0.4487351533666883,0.4527931449813409,0.48962230597696244,0.45323981934198,0.46991775256798773,0.45092475083648154,0.5198325707008702
0.4971093982380475,0.47678292398681,0.4988348881401876,0.507411618606052,0.5007978141178347,0.5123409031334584,0.4444713717841083,0.4297582731337282,0.49106189224961594,0.46726999265805697,0.5094172579241824,0.5054023286459222,0.5236869913006367,0.4647534756043891,0.514046905174953,0.4911300848542059,0.5369307095027125,0.5253654976485219,0.49598219366002544,0.48335119162735685,0.4441732619829724,0.4485114483609639,0.4314810205663682,0.5149908337308436,0.49109404787907257,0.5301033413539633,0.5124950895019673,0.5052011055922964,0.48822173350658826,0.5496255361419058,0.4736229177789623,0.485928763107128
0.47014297100227176,0.44749189153984975,0.46267887572035377,0.4835999529572187,0.4702743959704698,0.4541967676308673,0.4134001261157076,0.4087764595158625,0.4617383023060371,0.43154010572238033,0.4484337803774764,0.5259259569277007,0.39156315218307775,0.49977182973057266,0.5062947969038628,0.48185812544268225,0.49858553053479127,0.5416315132416574,0.5329888067131187,0.5127262720586651,0.5432990949991985,0.47071147586541684,0.5533516381457696,0.5319314156251154,0.5309307786286493,0.5212247891443664,0.4848387659908556,0.5371114257043558,0.4872316468721713,0.5395919339799322,0.44420659652961336,0.4612163360910402
0.46452244134976756,0.445151542505032,0.4582431687048531,0.46592794562526424,0.4332205375334604,0.48122958501032004,0.44897949714147295,0.46201633833667854,0.44086108539548907,0.5011235628834708,0.46036316813899547,0.55101326533984,0.44138974562419436,0.5362862455986056,0.5301320635760678,0.4975055788307253,0.5094167129639553,0.5183492091274776,0.5384559995242304,0.49746564068520743,0.49409607713565545,0.4547371899286319,0.5212622147353988,0.5210206721150213,0.5182958673323581,0.48578675276044414,0.484954480447352,0.5171776060986839,0.4885423702205826,0.4984785802929037,0.45786252643932435,0.4810586491889344
0.5354973740422198,0.506210588002909,0.5395181846929812,0.5156390214515635,0.49666021051883547,0.5276237763547139,0.5307627921868188,0.5078741459677621,0.45687039381369576,0.5379027610547028,0.5065888627985099,0.47551047584449685,0.455469389686381,0.44312532306622304,0.5214848142589442,0.4823638296931051,0.5108953379102177,0.47875517645159416,0.49596785759207224,0.49858664368184163,0.5067759745810831,0.46939980700230066,0.5154700712325906,0.552818678691172,0.5282842158700561,0.510093784230807,0.5143108491146776,0.567247479750357,0.5401783194003952,0.5408728122847409,0.5168581408919684,0.4863383279584269
0.5559215546683894,0.5438776795818925,0.5807929394718314,0.5614907221099004,0.5627164713545318,0.5882495288511322,0.5843464198053177,0.5419344249623125,0.5419137078491424,0.5645536872261013,0.5628837030677404,0.4875761984699245,0.48022813217816335,0.4067974585418615,0.44975430777714553,0.41992615165897085,0.4656804247875313,0.4379833497322415,0.5097075427516594,0.4942888732842003,0.5212774205501484,0.5311875735840861,0.5261959975307651,0.5643587703330762,0.5267758709447298,0.49391794078043105,0.5451662350209394,0.5700200308908115,0.5640451590291602,0.5597988717063296,0.5593105699117848,0.5111735596788755
0.5231991826499702,0.5453105109206114,0.5804306540468447,0.5889344970789412,0.5520127724116266,0.593177354511778,0.5749742512091937,0.5605004842089033,0.550508598337324,0.5722196458505534,0.5476758063678898,0.5448020463259986,0.5234693346644295,0.44974668269701734,0.47777618578438,0.46223819952261,0.4940245567380265,0.46891622374949576,0.494610270502159,0.4739251574682504,0.4583282277121037,0.49145166533692436,0.4393733084628566,0.5093588719622454,0.48699049084301566,0.5175054253670212,0.5334082963778793,0.537198689500697,0.5379266289282663,0.5419017654339383,0.48552805491462847,0.5724613128698153
0.517886609993067,0.5156574709014993,0.5821020485090637,0.580070929822136,0.5581737818815248,0.5857381182970455,0.5489925307513848,0.5665830975743478,0.5489752421146972,0.5563908843903549,0.5459220465615223,0.5705975610749809,0.5284741078061141,0.5613424101467069,0.5570053795533743,0.5577887890911937,0.5741118740355632,0.5367828051588583,0.5500257842083528,0.5294267290747496,0.5078202091320233,0.524492387630288,0.48141874061139484,0.5428819705744117,0.5530056199007534,0.5728171795150955,0.550272695971943,0.603889840940376,0.5420453092559183,0.5560580532024844,0.4915122689655372,0.5744394032655336
0.5837818959097734,0.5509428152991974,0.5769567239991196,0.5886667718693224,0.5538223574361758,0.5944841535700355,0.546351635130625,0.5604495980995899,0.48046986714517503,0.5531975783042498,0.5401390559861621,0.5327384385865201,0.5249299967610037,0.5144783070509046,0.572721127591998,0.5549569841263343,0.5690081605119344,0.5326059070986271,0.5457003887000723,0.5300188683217919,0.5087159382865657,0.5322728887803674,0.5112405452505381,0.5623049392080746,0.581560744656809,0.5716528754499087,0.5813575344664966,0.5907097331168487,0.5903399584863478,0.6104631645316551,0.5391185095796487,0.5549915121331465
0.5573297998004462,0.5507705523652863,0.6196079462037568,0.583221298841989,0.5683219274309164,0.6069292759280753,0.5887084976313748,0.5829115983682434,0.5486693380285568,0.5667762689894558,0.5763976653469082,0.5581538674145985,0.5774905704029595,0.5777145778609805,0.5930071791232412,0.5782009101476894,0.5929728604395732,0.5902012322400711,0.5804620616826848,0.5831625398756878,0.57900335698664,0.5829978326320691,0.5573365160028376,0.6157150862957819,0.5877157313354121,0.554285920786685,0.561256245063933,0.5967132868717222,0.5679380028816893,0.6019011201959574,0.5503457814632373,0.5682808930611449
0.5550041654191968,0.5440542285412541,0.6097250704233002,0.5672615899191846,0.552757583658408,0.6064627246652025,0.5832503936822988,0.5744124767242257,0.5624997898480529,0.5716303016687057,0.568173551320698,0.5598843653812309,0.5709271963989523,0.5771596288853703,0.6086414923374157,0.5932748028450516,0.5905451430045668,0.5720117997678111,0.582137352446043,0.572160357971208,0.5576307809914696,0.5878842399680695,0.5556621012476649,0.5875246613603866,0.5669777989114732,0.5686295115171099,0.5551943735835577,0.5854035400890062,0.5382051167139579,0.5867666639752095,0.5491221163298479,0.556886362589801
0.5551339553465509,0.5560551334988395,0.6148687121623807,0.555830776064893,0.5637261838661735,0.6051534457388879,0.5647253536844242,0.5809636711519526,0.5556634858428761,0.5715538253754229,0.5735943565092194,0.5612070626191897,0.5629114532046549,0.5648830463107585,0.5825452524807536,0.5575381080644554,0.5532667986245128,0.5374382282136105,0.5143260414685731,0.5484845027663213,0.5564693721639525,0.5758409003818875,0.5631807684168131,0.584413708460793,0.5771528657870495,0.5414153869852945,0.5610352084605998,0.5715156781479966,0.5676344437111512,0.5900070803377948,0.5741478107726916,0.570974759605118
0.5490525114816625,0.5545029590397156,0.6196961567946058,0.5702626215039818,0.5386118448242082,0.61605367464053,0.5876466452666178,0.4980935309378683,0.5429024868288419,0.5643531318707836,0.614013682393992,0.5299089342311959,0.5317021479883989,0.528630305356775,0.586340267831636,0.5657500228272858,0.5672695303466614,0.5451613747411431,0.5139273481636496,0.5670216868252379,0.5619759220906729,0.5355896654436321,0.5425962265787776,0.6025778717458349,0.5570202869014461,0.5271997746335961,0.5359714552001587,0.6053976248578236,0.5639349175056347,0.5698810244011123,0.5319982425867363,0.5593557262602612
0.5434671049285602,0.5443557555825937,0.6000383582849743,0.5447616395212479,0.5066654822048687,0.557074466225423,0.5132685494384995,0.4193297061042701,0.45727349450798604,0.4090484966963305,0.5162468177169233,0.4188503525168923,0.4726737252732776,0.42170585856072645,0.4942838671661778,0.4555226496414569,0.47115093991430645,0.4151625387915735,0.43063217009119586,0.5145775064147482,0.4742153879028397,0.5041040107393027,0.4653611305999463,0.533486373351964,0.5044532087568936,0.49858013266671647,0.5163490325773653,0.5885590152596537,0.5371466353910382,0.551590820176441,0.5239671589275336,0.5037114351151594
0.5441510594481423,0.5503177139406826,0.5568243783721057,0.5449129656569185,0.5176109709359338,0.5488312810719292,0.44488255190159226,0.4062646670940724,0.4400475649807131,0.3754049507200041,0.4219977215448936,0.38278618339585885,0.36120944164455177,0.361097700423907,0.40621874054574814,0.38895332562366086,0.4290493307025389,0.3864655733117094,0.440952335053817,0.43960189134187466,0.4324503780592542,0.4164629918865223,0.45278013093239255,0.5105340548795474,0.5272244771860465,0.5386785317399158,0.5726506758608385,0.565419494428919,0.5696665152466854,0.5596172175737513,0.5651766368031093,0.496195649693429
0.4604628548643045,0.46558715165356535,0.5226950787676081,0.49753716824021244,0.47832032034880534,0.5096138791029814,0.4557177884591668,0.3897849137511284,0.3725437013925736,0.4300431690156346,0.4500530046815783,0.40046113424841207,0.31035264280964253,0.34439832425682054,0.406248570093035,0.37765792331680015,0.39662361427872334,0.34566067843590675,0.3722278517760715,0.40608417332245156,0.3785022388825089,0.3653273994690814,0.4117193681396106,0.4839045430107343,0.4908960584988875,0.518582636189313,0.4969105322264601,0.4860198867118416,0.48530824180937776,0.5145060866903584,0.5131384902409984,0.49755130540770015
0.35610169013874143,0.3294070219111888,0.36103520710692605,0.3602862586558969,0.34885851561445597,0.37851590363954724,0.3367546697981698,0.3680630849823541,0.3383058044873588,0.4179072349524395,0.40618179892911266,0.5634589667517546,0.3606569988150102,0.527242821765133,0.44233193789539793,0.384937386816562,0.379472049504802,0.4014930269769938,0.4539216251196041,0.3578533901856924,0.3413253471465628,0.5100370512954028,0.3652768047340967,0.3543478727663904,0.34612116794427517,0.38924830839745456,0.38292335742768646,0.3504849984053346,0.378918189116768,0.4363470887652089,0.3621937179627603,0.5443989778053031
0.47596812300057495,0.44346438717734105,0.49969000380455486,0.46907094648252085,0.4076169695847777,0.49064763707965453,0.45799051268856444,0.41944567323424814,0.4460807508596313,0.48982898089582766,0.4757536496742654,0.5227995419847786,0.4479200780723832,0.5290001766540062,0.5001307004702373,0.43509703491172014,0.44814760832835104,0.45950536770980044,0.5091154616037442,0.46774970377138353,0.4644446613046949,0.5108017747771411,0.4941874551420834,0.5101727555088983,0.4602138515934145,0.46227129150255164,0.4438576757646117,0.4924529265684977,0.4569367954800537,0.516629596030098,0.43550992688472695,0.5497209769528965
0.5734971483719548,0.5672718623531844,0.6011509257576079,0.5768540230741119,0.5601301194409405,0.5734836622599377,0.5594565949885916,0.5183483193549057,0.5329652499626508,0.545730005387417,0.547026206968252,0.5457653827918901,0.5064306243146542,0.5366329644825794,0.5653067748365738,0.5180743344359925,0.4898750046852307,0.4512491662450652,0.5114821896456793,0.5079281145962559,0.5089604753690891,0.5059891343557614,0.4786043872545836,0.5847755772930703,0.5414879668001372,0.5512630970749627,0.5522055399223975,0.6213851878991912,0.5583219640572834,0.5838726922018385,0.5485768120396392,0.5201983387029738
0.5808072102459787,0.594863291707477,0.6179875327157833,0.5963691820710769,0.5939443871803708,0.587829477401679,0.5658403562265298,0.4937387696853678,0.5368157685584346,0.5512594969220413,0.5603727399129799,0.5616040545447658,0.5532103007569736,0.5569226438282991,0.5913822161156572,0.5720181848709452,0.5706883402759916,0.5307604856586481,0.5182495731178418,0.5498850209326204,0.520118099547281,0.4912703602756901,0.47082303371666984,0.595376341837858,0.5522133496616144,0.5433796130389558,0.5806500202684975,0.6084868905391589,0.5818310386124583,0.5952532530231339,0.5695127319934788,0.5235659508538386
0.563385685536837,0.5962060236981972,0.6238165898423025,0.6019635135551841,0.5738579439997299,0.600347710748718,0.5655023918770411,0.5541747133644687,0.48619330854773096,0.5460693860825419,0.5449161355787915,0.5580829701146273,0.5892871915117767,0.5752942229160092,0.6147077059260438,0.5908221238657929,0.5784968314119795,0.554523231682887,0.530828736231559,0.5628990930917693,0.5522514631450615,0.553228126637644,0.5304968471864432,0.6161823646221511,0.6012344834219717,0.5382746287268567,0.5753276619627123,0.5827277312984317,0.576991677842794,0.5918858411358953,0.5768470393724129,0.5486975851004257
0.5870903027136029,0.5831000663415402,0.6168722689717503,0.5727951133307779,0.5477392386889842,0.5917603010689494,0.5762799671910991,0.5647868020503009,0.5609008762035779,0.5722642202601733,0.5736384363367316,0.5440633793691777,0.5162581679791308,0.5242727025180062,0.5590916853926798,0.5431805085828562,0.5579490807523214,0.5030050117605634,0.4865336252709035,0.5378640618444894,0.49714462715403945,0.44995582276253937,0.4555315220603383,0.5912685071868383,0.5650405351618921,0.5694187760616404,0.5700794782325633,0.603855089831439,0.5713251436156273,0.5824564177201146,0.5335932764264573,0.5252940316917835
0.5548231179876275,0.5291021109049768,0.5993421788746833,0.5086020727898339,0.49750187362702314,0.5791232972672763,0.5907952190026399,0.5728332321860933,0.4964966973515233,0.5625012812981888,0.5549346071772583,0.49951730810651324,0.4728156388549516,0.4973963437279048,0.5277739460292393,0.5064208923224788,0.5234226035746378,0.4616860651015095,0.4351952913501251,0.46733355903592116,0.41664377658850277,0.4180552127747455,0.40501528402814724,0.5585234324038432,0.5291375705381774,0.5491196682617253,0.5236219704670877,0.6044882094209619,0.541833895971701,0.5495350174129334,0.5121820054178667,0.5407953344863711
0.583824599475838,0.5887536259204953,0.5936076230914332,0.5537801591407114,0.5488549148208177,0.58478920407592,0.556697687524247,0.5276369329655154,0.5014722071502076,0.5684486134654863,0.5766650577386054,0.5435507879107297,0.5283687914496693,0.5233594930525066,0.5631877978786138,0.4978045255466614,0.5116492150107737,0.493082867710317,0.5251758834306418,0.5184343786318546,0.5260436026180195,0.5047594985300554,0.517650969707048,0.5966043090570119,0.5729509203348818,0.5500168876000467,0.5725832241286453,0.6119208015257802,0.5810306756647141,0.5888993242467522,0.5510628920805785,0.5428260586995335
0.5452575538299407,0.5430956185392433,0.5852618063430463,0.5631743128478758,0.5316971418993319,0.6034328621485447,0.5531371516297575,0.5632134979105863,0.512874515964301,0.543347774163042,0.5482260792830985,0.5319351252820375,0.540099101751949,0.5206187073094947,0.5545647117621488,0.47880599506288873,0.466909642906785,0.44036809135670846,0.5280894609893215,0.5007984741660974,0.5270403226517943,0.5742386663638226,0.529484737228488,0.5682731543644254,0.5603523139018162,0.5063879531035833,0.5323582867164041,0.6020031141966405,0.5384787151009038,0.5723772782837143,0.5125188515509006,0.5544861326120916
0.5545414943147902,0.5417408258898824,0.5846760977618657,0.5767160894688229,0.5369490848533864,0.5959784962256379,0.5049617025177386,0.4516353228331052,0.5181756584944402,0.47147482614783365,0.5225524086452753,0.5124304925360793,0.5145743597725654,0.5605258048449523,0.5699382213585052,0.5399055327569033,0.5280295836775314,0.4995889031952225,0.52329860041959,0.497942349798687,0.4755397434693308,0.5095679826977322,0.48318857752387745,0.5570594687781113,0.5424947875210792,0.5003034150252578,0.53335055304987,0.5896245237830214,0.5430728882454008,0.5811475676437499,0.5232540327695675,0.5042740540894334
0.5333412473391302,0.5176246009461761,0.6072756082302417,0.5443420217434195,0.517735994730817,0.5756969157292555,0.5348175090958786,0.4511074691310471,0.5408594872993223,0.48286267705575997,0.5311161536276957,0.4846734011787452,0.5002218247282144,0.521687676036439,0.5556221041879208,0.5307147334885859,0.5494468384392297,0.5178366355535381,0.53477382555992,0.524219264475174,0.49137881231712893,0.4784478370704631,0.4621500170531081,0.5940908187276247,0.5272398074265698,0.4728082457469686,0.518522594747544,0.5998126240100619,0.534798372595255,0.5803125479401738,0.48672825971046996,0.5110602239996419
0.5564149203730714,0.5573894283954681,0.604507934176473,0.573026367456948,0.5670290974466994,0.5621134177852308,0.5705765541913139,0.5470937224248306,0.5440084046831882,0.5107500558615534,0.5334601553056744,0.4989672550487098,0.4862652335810362,0.48933887739073084,0.5307810441636902,0.5007838486461433,0.5221846563345321,0.48076790583481616,0.5060074531186999,0.5357685114277656,0.5343340940071706,0.53651333338406,0.5318167396265662,0.5729919703092256,0.5227190747791443,0.5551599430107494,0.5469200103991313,0.6169732783620007,0.5781055714208432,0.5927901215778177,0.5556881447861322,0.5514232164240198
0.48852921541402716,0.4853464804621961,0.6051247477414318,0.4810222136584229,0.5062042088019223,0.6074720140195893,0.5845525032424692,0.5543776454948536,0.5267187510556685,0.5374231775958069,0.5582718811998345,0.4914042745910275,0.49817418289896137,0.48828099969091454,0.5762196811821833,0.573969724731523,0.5911542482910531,0.5663211275183636,0.5421904451792404,0.564747608484664,0.5799024815748225,0.5552641965829959,0.5723349797337329,0.5969079496739254,0.5571772302503005,0.5047943426496125,0.5357009364596073,0.5901375623395614,0.5199706967796756,0.5521364293768894,0.4967018871054748,0.5267430295743937
0.4898280310532131,0.4729091309336692,0.6077487767771068,0.518709805479209,0.5158370601068184,0.6002033016169138,0.5556932059793328,0.4489909248889319,0.5502665098370202,0.5060902950613317,0.543233365892683,0.5500583237306506,0.5151468524913615,0.5298341735309406,0.5484674394141946,0.5215614555328354,0.5325016888229046,0.5143308431698448,0.5368126693220255,0.5246384466770301,0.5403485271614988,0.5439479953155154,0.5740012423929248,0.5891230057752941,0.584396882102228,0.5392968132939332,0.5087793284198449,0.5794533423144846,0.5038784152091349,0.5695009058331056,0.5047936249598962,0.5017702521110606
0.5145448809281503,0.5105760668746824,0.5574936607740283,0.5448984408260251,0.5180713369445834,0.571232402913189,0.5040935893543143,0.467981488383468,0.5472906566811865,0.4949797965865983,0.5031947623580503,0.5421539346615629,0.5063535293613615,0.47408544078026343,0.4743903502872143,0.4807296601718308,0.4977994616685064,0.4745687834949875,0.5271938040891682,0.49340021824277036,0.5010847501004203,0.5181330878711544,0.5127480103590346,0.5499596029715056,0.5104766788527603,0.5068633079357711,0.49784360755841356,0.5556202347224979,0.5108405689431557,0.556706703539156,0.5099121146424076,0.5241897306461332
0.5069069600214723,0.47512715443164744,0.5122509380690468,0.48355743201742296,0.4578098443898898,0.5491872502925266,0.4487858980929182,0.5441124147159748,0.4643257757448835,0.4969605166671723,0.45647143188821016,0.507388010705195,0.46727437816393336,0.4183053772328141,0.42391318634712,0.42674468464723264,0.44309310217129483,0.4202637289768388,0.43388181666216785,0.4419709023021184,0.43058417929538323,0.4402680863273445,0.4280213831506659,0.5189563781397843,0.4837600507420686,0.413140836367471,0.46474504273586226,0.5147330587500396,0.4925100027928182,0.5332126710813696,0.4698134579275245,0.5054344077429067
0.4898762380173871,0.48959113621087663,0.5664384990290869,0.5162128202604426,0.49529972467719074,0.576370075642046,0.5627044466102492,0.5815562114916826,0.4895280344428696,0.5429959916618038,0.5528443365986265,0.5375987471445909,0.505204735942025,0.47187759721168404,0.5439966508558514,0.5050115271510548,0.5390332141225006,0.49367061572341336,0.5007452013722247,0.5393078480323065,0.5021661130714695,0.5414181894392851,0.49282084088200434,0.544629264898738,0.47707380685412587,0.462010236337879,0.5074360529594534,0.5416517050303031,0.5077482803871778,0.5325992662501801,0.4859949105475392,0.5632289347723282
0.5643393146802133,0.5736865661052007,0.5979098663511125,0.5980822108453535,0.5545922468854985,0.6021062565732509,0.5636843445837083,0.5655630499713089,0.49437200373607065,0.5283981159039873,0.5482452394899806,0.5577626032211715,0.5458209177916109,0.5533666690742607,0.5944752775999665,0.5803526380386759,0.592211939985985,0.5594276131653299,0.5523458823141472,0.5719243150846676,0.5539059757398739,0.5460296187974972,0.547468798980249,0.5980350317124856,0.5975989406183645,0.5530981454376293,0.5446833185908773,0.6256837404596043,0.547402063628325,0.6054989891139513,0.5288896415233825,0.5465155569506326
0.5581154134528704,0.5395376269424127,0.6027301330442488,0.5814689288349051,0.5530129100316327,0.5970885046913359,0.5700668472019121,0.5253008160915378,0.5426129118286286,0.563867236391903,0.5781843448880298,0.5792838439604153,0.5753066829483358,0.5776068961635451,0.5843164241201944,0.5833216982682197,0.6055613515675011,0.5756198334909207,0.5595150362575628,0.5546821989587742,0.5637044432646389,0.5309296156034404,0.5418852764878704,0.5907036374277703,0.5765673826067039,0.5548972784488568,0.5474793910364663,0.5808142173035922,0.5620564914032997,0.5984121673870022,0.5348763671345854,0.538882164492441
0.5832007956318173,0.5840939877381154,0.5783793081539917,0.5859251714021667,0.5590164970602608,0.5542480635514415,0.5602578222319782,0.5222632501992024,0.5055834976706383,0.577523431505281,0.577887240086487,0.5817300120044041,0.5771788175370342,0.5710767642182255,0.5897797589756344,0.5882042538752301,0.5857904187648391,0.5514562467475551,0.5491809926550877,0.5551801606090566,0.554746739413991,0.5332356641254227,0.5578449962991873,0.6085393283935201,0.5953424449401072,0.5659341956715228,0.5687440865430063,0.601343457717147,0.5863974608521088,0.589735261994012,0.5806263664251706,0.5751587310430496
0.6036204318163367,0.5841116568007241,0.5617453873434158,0.5911097232945098,0.5794649076348309,0.5769299376928397,0.527386572464879,0.5437534120509874,0.5292740312192525,0.524710887712588,0.5424395874015173,0.5535860310523735,0.5752900594794187,0.5601067031035878,0.579979330260234,0.5761512135974889,0.5900204901962356,0.5697268798566059,0.555261945454901,0.5622528950157724,0.5443604719254876,0.5390142225995153,0.5254522877374534,0.5872113082577226,0.5847175244613739,0.5649358871451264,0.585255588783008,0.596199315924296,0.586555644472113,0.6173679751021968,0.5919907678225529,0.575175742805214
0.5800777535857929,0.5871468612777483,0.6188779147810074,0.5863887189465335,0.5767140221815629,0.5755887975191397,0.5705202669179031,0.51384530055429,0.5367021241849524,0.5477106220415433,0.5544051964636204,0.5452000868363741,0.541318083098744,0.5622938718347025,0.5776265054282449,0.5695339675579727,0.5725803937966795,0.5305457679861346,0.5274076732638818,0.5347708627248834,0.5007766515042813,0.48400918211841265,0.4495584021123154,0.5698222571512831,0.5488067003602991,0.5593883778528298,0.5612948450313763,0.5760671601469973,0.5749364216106673,0.5974138870972835,0.5666104324516238,0.4986991055221196
0.4781445416112943,0.47385174895279764,0.471295230622916,0.49390789816297287,0.4901185582735981,0.4835355071933393,0.5062374611518119,0.4534005185573996,0.40373125126053366,0.5294491090530582,0.5487641284321653,0.452392778206149,0.47082275779301164,0.4650741088682312,0.5383197070112931,0.5377785708300974,0.53338257333727,0.4638652363121858,0.48075411583285865,0.4975316025076346,0.4855177936976291,0.44508267879343477,0.41093919966867354,0.5276326695105085,0.47185556092370334,0.44799562320489206,0.46890771277685894,0.5138875349084587,0.49390972436244096,0.5031820693986838,0.4619041536370233,0.46419627127862717
0.42517587077981017,0.4262323245322295,0.47583357401251697,0.41975365270543374,0.42959953188758637,0.49863986881573064,0.4569092257511165,0.5051394870236016,0.3913594201519603,0.5200860609668482,0.47120733100404016,0.43109841627616025,0.4107458572835689,0.3669427660336061,0.38757982179467665,0.4031534141102716,0.42338181186270846,0.3969184878171553,0.4636226503512549,0.43929335567978167,0.4458232216475827,0.504289435173904,0.46407400162800005,0.4587170801937691,0.43362510799024007,0.43845561515498227,0.4258824589707491,0.47931924221011213,0.44691161901533255,0.4595763999823629,0.41577899428335513,0.5149443825793523
0.5374002719072842,0.5167243235807496,0.5912719047165224,0.5442017301601634,0.5242467762729464,0.5903619680902864,0.5481678526972732,0.5501616174858143,0.4879711542502707,0.49172141599316055,0.497096590128563,0.4546119738790392,0.4985029839958191,0.4153889220208322,0.42154209826006517,0.43176562581542055,0.4717690418863313,0.4720752258669618,0.5191641001611185,0.47939076422842003,0.5017352792026479,0.5149435289634365,0.49733941045297625,0.5361893435840518,0.5052800771855704,0.4995973245779011,0.5144453296996294,0.5638557805814794,0.5295141123564837,0.5583644244840349,0.5372354781261355,0.538734010330136
0.5507683762808538,0.5373800318800522,0.5706093088311888,0.5391810360912587,0.5237332335985003,0.5860387260521126,0.5357621121632233,0.5781329415267729,0.48428852549880724,0.537898903390088,0.5229188142022978,0.5070773235997933,0.5137012411184879,0.4678146118836381,0.4644667976358188,0.45609757207238727,0.4678671974092987,0.41372514765319024,0.48118609776448773,0.4876914402254623,0.4748137709240835,0.4577187880285106,0.46315005010617927,0.5534542344203318,0.5051007698142592,0.5194364379116064,0.5242874563595337,0.5745278254507976,0.5349229380716178,0.5670529391331383,0.5306702144372845,0.5616614564307931
0.5646882969200866,0.5545407375313741,0.5682530610371488,0.584770484043252,0.5432892087341569,0.6146493375684047,0.5649748322821082,0.49994194909633355,0.5322183121050459,0.5559320365264581,0.55395651506855,0.5311925882455986,0.5380379462469707,0.5047364625635892,0.5096964937925114,0.44472467429401025,0.4533808824331134,0.4297359908549718,0.475590979288291,0.4826919768732237,0.4723989876384245,0.5056668500417181,0.48817438198331686,0.5666787327934679,0.5758256042901637,0.5650832151793277,0.5435155188013172,0.6121263970702999,0.5238087890505632,0.5766259731694732,0.5151198457225257,0.5022123202785488
0.555289945676771,0.5719918798612534,0.5891693418236473,0.5439530026133167,0.5546356178820776,0.558092622626886,0.5726277490097903,0.5288257720011862,0.5311363747033524,0.5788885642259172,0.5811851463548425,0.5541050310707328,0.524856961914817,0.5353123654681147,0.553202744413643,0.4817538477812359,0.48371569409362775,0.4159284672515359,0.5002822310311854,0.4763285566289395,0.4671193689629765,0.47042213478347356,0.45230818047660554,0.5688375293482322,0.538374071191676,0.5385128484080084,0.560631557391208,0.5895659953495288,0.5667327842329353,0.5956619215385505,0.5549778213156669,0.5072823275696146
0.5774832376807738,0.5690698705254079,0.5623192262840133,0.5718141296889837,0.531827855247849,0.5913631058304962,0.5691089635622618,0.5582661743169574,0.5297760067888375,0.5780021539832794,0.5633355589399265,0.5737476968824698,0.4925338144830521,0.5493230195729123,0.5937766394739659,0.5554461044864324,0.5461490338897441,0.5025315183160699,0.5158873309648184,0.5414130823729351,0.4910465164501498,0.4313588435304609,0.4430427560680971,0.5525558972215047,0.5451478922356477,0.48460778234012913,0.5367000605277996,0.5911057283753959,0.576157617895895,0.5829470016677806,0.5452879812672401,0.5097302805989972
0.5486207901379697,0.56862805636606,0.584007237864754,0.5855168842132178,0.5525714929133834,0.5830119685926987,0.5937130164209248,0.5491235961210215,0.5179637592879042,0.5810633400819374,0.5709221938860188,0.5598920596759307,0.5099541005827768,0.5509390875553919,0.5867321823507479,0.579171487508998,0.5951211261686259,0.5505252894313261,0.5366891592173613,0.5776111286028308,0.5291767140699551,0.4590384863435135,0.47627711307310117,0.553782797141212,0.5471136464421177,0.5304103005943902,0.5720157764092165,0.5817989590407867,0.5798098435865938,0.5520149171250895,0.5681681213490201,0.5034817709075785
0.5638074851394189,0.5736496079433786,0.5979129549887248,0.5723084699521377,0.542008829754818,0.590960113604088,0.5973007458892533,0.5302220495938706,0.5288251816975544,0.5680060612509122,0.5882611234580456,0.5530032530728406,0.5080101425987067,0.5370738770121749,0.5870535455128845,0.5665093047653589,0.5809696943918549,0.5345254145838041,0.5334405896239058,0.5553569159754831,0.521672398727689,0.4812394419715016,0.4778072155273026,0.5687110688540775,0.5503186402101387,0.5609599060074694,0.577642309716211,0.5804580107514976,0.5768783269084727,0.6007497366115782,0.5645947347204959,0.5183555671010075
0.5344708947220189,0.5420295771338133,0.5900434413633222,0.5428203543289851,0.5338521720612079,0.5358002132586156,0.4779462949142504,0.49012102046059475,0.5116495140624164,0.48200949717400166,0.42673157549389856,0.5472877905225924,0.40300493836016077,0.5250349875766839,0.5013165987511544,0.49235493982544326,0.5122951717179485,0.4971071161042923,0.5243493613818605,0.47713755230360416,0.44544344743554654,0.4685624679246584,0.4272869435178739,0.5379511707132493,0.4704089378707094,0.5285460546365454,0.5302739473803386,0.5390968784810795,0.5363712281161306,0.5712955337548139,0.5269289265249449,0.5223243857129448
0.45033459177902246,0.48037779949915527,0.6017944116873539,0.5259335710151768,0.48494536133270205,0.6060662759940832,0.5340801319932937,0.5213939373178041,0.48485182523749315,0.5015165469183209,0.46030239026184655,0.5015794294768675,0.39043621006230705,0.5078416123655871,0.508310127032269,0.5217187047833872,0.5539711253947573,0.5474888149305895,0.5259453239144599,0.5256587230692619,0.4374816173516804,0.4227686388672899,0.37732563555314363,0.5485409700496402,0.4849770390006335,0.46261030943507186,0.4583493046756421,0.515431940394408,0.45036936297600977,0.4435079720652865,0.4441994592116375,0.4790735926161286
0.4005314208802161,0.46315475829913016,0.6119449729362323,0.5579270872402016,0.5216012023407232,0.6093358800147906,0.5275849677732187,0.5031897683866275,0.5516148333798311,0.5160065935318792,0.5072386543386688,0.5335192063193843,0.5134543988981044,0.5428700966232209,0.5361866444849482,0.5509059534191976,0.5280980443932932,0.48655278979628425,0.4717012198028338,0.4977445032990987,0.4287580180587291,0.43092937534890496,0.37158806762806507,0.5443248337432379,0.4781650196943493,0.48072106705932244,0.46607582948804366,0.45776636585297725,0.3943840709581129,0.39842020074043166,0.4635417668755703,0.4221021967547926
0.5704096504150671,0.579524156517174,0.5992970049571071,0.5867869093188455,0.5429040434373741,0.5837951750257567,0.588686708899303,0.5743155661486158,0.5197874155763696,0.5680249033605588,0.5604729313328214,0.5539867246859199,0.5617407605590123,0.5545255012147989,0.5629912917666322,0.5887383857219014,0.6010670355080627,0.5696100779276398,0.5785381755744549,0.5755686313541462,0.5463905066444037,0.549282514290354,0.5288807332744231,0.5741261401660328,0.5378101247806936,0.5182825736277785,0.5595114846644216,0.5887972545627923,0.5694874147899367,0.5952441256460937,0.5656432529456255,0.5563842186019444
0.5862419967399097,0.586954136795822,0.5408267706106183,0.5746894693843021,0.5529775165088542,0.5401355493253034,0.5730154813512538,0.4866038282648958,0.4725237719293193,0.504577236245774,0.5503015832311682,0.5354752605837176,0.5192251844877962,0.5324778016376855,0.5533187200118899,0.5448626738022695,0.5456009351424098,0.4773509423951358,0.5447036847120987,0.5471611575548115,0.5259713776350707,0.5505739291963629,0.5315059963345498,0.5921085962847472,0.5821226622652168,0.5536493219031245,0.5831923738294059,0.6021798809694018,0.5844188568007889,0.57461507812217,0.5506980050769517,0.5263490512290208
0.5911396117278187,0.571667008340667,0.5846667232578054,0.5593270691745056,0.5343936095664928,0.5914975698551829,0.5117180509591552,0.46007868254913964,0.4566488126735748,0.4297740269119152,0.4872490543378378,0.4298364629021901,0.3773038461711979,0.4541353007022492,0.46146647773988003,0.3930789628499126,0.41383047225766195,0.3348906010601194,0.41062274657915093,0.4077574033472211,0.3635927501724514,0.4345743013769802,0.41303655011189144,0.556381928751675,0.5677579944849015,0.5172625653926414,0.5686086485916779,0.6164377265856351,0.5873165051448276,0.5872220040435556,0.5334875284046998,0.5158317818040389
0.5676779735019826,0.5569110240558387,0.5799679084375859,0.5667270209177783,0.561578295730882,0.5963066816418362,0.5030107019057622,0.518403036401693,0.5350623766130073,0.49449838090717974,0.4941770239229372,0.5202605796405462,0.3703941026315592,0.4362429873377932,0.4533905662153613,0.3461528607812686,0.3459051788595304,0.32189967728399344,0.4325807646629505,0.40238605745042955,0.38634438615995276,0.4005109696798986,0.41033872620258477,0.5286949630174587,0.5538382037275632,0.5504572237817189,0.5527245916330359,0.5760222223306525,0.5639061930405115,0.5879626925937111,0.5555958745565401,0.4938276959916746
0.5842908635934455,0.592073497181809,0.60537710487581,0.5725379264402564,0.557923926577722,0.6189659608837946,0.5730549974793643,0.5635920056653569,0.5175637029015302,0.554010218478023,0.5168889933789526,0.49518258248158903,0.4182246071551093,0.4162674541331602,0.44230635103678767,0.35598688143048884,0.359077730448685,0.3380808476036301,0.4560811810574146,0.41754617149288825,0.43665598322198035,0.4685976640608738,0.47634442214332645,0.5939699537284677,0.5812434428869137,0.5478351674896346,0.5821887719200306,0.5889528076846252,0.5901835176089537,0.6098975671615259,0.5235169437586925,0.5282866846341886
0.5923418747828351,0.5442122321150703,0.5883538606081803,0.5821469515804091,0.5022964177317754,0.5783695372506488,0.5843535620416658,0.5536561560287334,0.47989738199728915,0.5706939930855287,0.6052840687418248,0.5648560615638366,0.5019871899321867,0.5804853928760183,0.5784223484935634,0.5403838510397281,0.5373177958749121,0.5232947250358901,0.5275519256237462,0.549313757703971,0.532156072527233,0.5413340014688255,0.5458185846883054,0.5864602168098871,0.5878733788089026,0.5559325516966113,0.5860806193408052,0.6160099040427094,0.5845280228487587,0.5921558465297081,0.5379360810151733,0.5666219368762411
0.5678851988206405,0.5271061809453248,0.5977179396751727,0.5833621333707116,0.4900301564560391,0.5625108679509851,0.5546377305088043,0.5130867328166773,0.5102426964942746,0.512083203777701,0.5241824242725575,0.510895885356387,0.4859512473114524,0.5043023577660452,0.4817916119733378,0.43325840475685024,0.42630719627030894,0.3986471528683388,0.44459762496563615,0.48026934719375824,0.5358337636090967,0.5013933061947327,0.5674651958883992,0.5964717781334196,0.6013244919523788,0.4995148867169733,0.5618585342554083,0.6169280131976151,0.5391213958967634,0.5925396267690628,0.480248582344847,0.5382835829886811
0.5300780536187717,0.5165434422028312,0.5332905621346842,0.5155324062323923,0.49069344109639634,0.5165256687173018,0.4942700464277646,0.5461295093867586,0.44849094487370933,0.525555093557595,0.49943994564402405,0.5470912535525883,0.4370341560206652,0.513997605162428,0.5228005780077685,0.48851794797700004,0.47770545078235177,0.42031156969166716,0.4736545975622426,0.5311518136728594,0.5374768837545879,0.4354819367549846,0.5603450686192673,0.5757566095428286,0.5717078258698641,0.5581022279140346,0.5731140773574249,0.5576807959461019,0.5532789320938021,0.567783479007924,0.5190668524389789,0.5710155466119656
0.46791758091274976,0.46624189415662004,0.5169101701506225,0.4827254227550209,0.47062776693158537,0.5217728941516696,0.4650086403732017,0.49864475006561465,0.44028689247697755,0.4529919037544402,0.42289126231807217,0.377726445702828,0.4248774410827704,0.36343766665903043,0.42075760179830646,0.4228996672315755,0.4627679208117757,0.44603177910365377,0.5140169169573447,0.5150767388656873,0.5084738219915914,0.4721729746089376,0.5074767841578167,0.5217448556504012,0.4974457292785063,0.4729723539122292,0.4768941205034912,0.5202529900616402,0.4882649037722684,0.5177345855952361,0.4781919220878247,0.5011498739360885
0.49879197041611134,0.48914702780796177,0.538698917077827,0.5422745426115221,0.4904082160042169,0.5051041213177269,0.5001540191405616,0.5163787264907778,0.46887348455582106,0.5077958713698115,0.498221979609413,0.46322189488000354,0.43678247106294643,0.4553644860452243,0.5415113009720033,0.5774894522332255,0.5814136191260745,0.5731111477824062,0.5582885859218762,0.4879459658403279,0.4883989858276763,0.5349747209429517,0.4644842597204382,0.5073250925253344,0.469173289888358,0.46487954470990045,0.46969777012444996,0.5331058668175701,0.48968594022924883,0.49383451140384144,0.5057281193375155,0.48153962407879763
0.49825916345837185,0.49188204538280444,0.5387247891336503,0.506636365183345,0.4871529094499683,0.532760153248671,0.4565778951461795,0.49295273439952464,0.44696968205903986,0.4664920366733343,0.4401261428874218,0.41673497626856726,0.4016882722933504,0.40440482257914434,0.41440401690461653,0.425952566397455,0.4380902033197815,0.4258564545646806,0.5184893702989377,0.4481567639264438,0.46618216766271947,0.5419025532743793,0.46823814401937497,0.5017446274688794,0.46461886859279555,0.49050572326459496,0.4881055015093262,0.5224702650770241,0.49516921893126914,0.5224924641933751,0.5038503980436468,0.5192681881676912
0.5221114648204117,0.5230646783735876,0.5258405496253296,0.5409802767756547,0.5462067716374834,0.5533218555279357,0.47331553200017595,0.4865160258070989,0.5284738814549053,0.44507319003432394,0.42638943505927296,0.433414472085398,0.5171073215261375,0.36451795511275153,0.362613404171116,0.3559817920207518,0.37628130515923924,0.3810265789983835,0.4747760995349803,0.36748849894716823,0.41421527664303553,0.5012003561487943,0.4306667378153556,0.4779462931715976,0.4977239592674622,0.5265153241855334,0.5384748887351121,0.5355836884058309,0.5417200508171914,0.5656088646527985,0.5536778799929989,0.4857238525007713
0.5576109389187195,0.5607894199273722,0.5934306329415039,0.5570324877201787,0.5612688955800329,0.5873440468978645,0.5685018736993046,0.5650177469135841,0.535930538734217,0.5498201802925908,0.5304232637168745,0.5023551720670297,0.537366808517179,0.47596881364188776,0.49853816505531,0.48763606593102665,0.5057771471270802,0.5143783628568083,0.5416613765485262,0.5006579633174243,0.5260444882617279,0.5477835837672179,0.5211198430685743,0.5771471360315215,0.5615692305073751,0.5295646567081556,0.5555378803445786,0.5809033201694386,0.5648901862111844,0.5751405100731141,0.5454293766771697,0.5526083715620977
0.49979993027048214,0.4729248616732137,0.5086328226109832,0.48707366624975573,0.48365036937162353,0.5177994433061726,0.5383619795794191,0.4950739333108568,0.4373038167236803,0.5438133136758071,0.5448745602179852,0.5249118979606163,0.458436794782636,0.5173896261113095,0.551899240244543,0.547256743650148,0.5529872990152336,0.49722593113630165,0.5223158711207094,0.5195579194193682,0.5060739495948516,0.47394688777913235,0.5197309406208811,0.536862013295254,0.4976615014876662,0.5213425284616453,0.5008279105859459,0.5487210314599752,0.5013989307721619,0.5303521721294923,0.5024944406240561,0.501325161125303
0.3752267631907145,0.36474638042098523,0.5231349778405755,0.4073631178772422,0.38601787279908795,0.546096816150002,0.492057929732439,0.38381074766796763,0.4348341137365174,0.4558802825558392,0.5029075081947466,0.4947978737895514,0.43385278910990627,0.4993401383595881,0.5672710282581591,0.5663767138162492,0.5688207259008837,0.4930350109306414,0.48105687288610144,0.5048609450585302,0.48965004889572034,0.4600123520469368,0.49287200624486893,0.5309260038175846,0.483150751044928,0.39002066986853784,0.36298430223674905,0.4781282775544767,0.3662688007876159,0.4278095932324474,0.3751322165317181,0.45190957243021757
0.5751132576012378,0.5632810899421572,0.6107421408078028,0.5859365883050076,0.5242878325414195,0.6191631692810937,0.595126432239293,0.4681089812621971,0.5217372438883328,0.4922758344970904,0.5451469846549453,0.5312121197128921,0.5560948166674464,0.5462406356317905,0.563007622016962,0.5659586144076441,0.5818221307411892,0.5578789777157441,0.5196455724185906,0.532317672379405,0.5181662839853987,0.5607864884903042,0.5036754612320506,0.5924542479075372,0.5574277363975667,0.512430844329056,0.5376972616414476,0.6154088226248905,0.5568690932141558,0.5988150277500818,0.5124802073225642,0.5431826451469024
0.5616218283176694,0.5848146670194767,0.6144136374227008,0.5951920077467098,0.5540311048163161,0.6129893197834951,0.6064388356836681,0.5470945337319039,0.5412084644594688,0.5344142651550783,0.5238387665319876,0.531410988881245,0.5644455633857312,0.5188607124991981,0.5508759252788261,0.5645003968517645,0.5891331380944166,0.5600374134415612,0.4914786036816136,0.564821136085396,0.540721704453355,0.5579894445705816,0.5364937782191254,0.6003811878377543,0.5487133668959127,0.5454982172456386,0.5107150589652747,0.6155382787346599,0.5161893303634334,0.5786823764601359,0.5530447859442973,0.5744494064966635
0.5220776634579407,0.5065499628641749,0.6184718232786012,0.5975137196767284,0.5154224399241206,0.6027987511834515,0.6067936345522833,0.568260365948452,0.4725672086064746,0.5619457976051312,0.5378597665089299,0.5174611728427919,0.5172005968311039,0.5123309675278785,0.5650483738666083,0.5775034581505397,0.5711813758375189,0.5090187322556098,0.4412005814403063,0.5305581466527363,0.5090267404479041,0.5269688423214882,0.5308946383164914,0.6012500547207157,0.5294869497829966,0.5429629059730581,0.4882065789896723,0.6049115964966874,0.48631628059596393,0.554395812132179,0.4959189792393579,0.5846053581121455
0.5697638802974977,0.578946825965538,0.608982498472183,0.6053583966847321,0.5795909558631991,0.5962961392219996,0.61140797695528,0.5444080750972768,0.48218607165527927,0.5667155643770293,0.5778612665751228,0.534962951134735,0.5530135435663004,0.5491657871409864,0.5790035313605214,0.5699046788657127,0.600761960935317,0.5830249732128163,0.47681774320348963,0.578892811776113,0.5645134214888691,0.5570139348442164,0.5615068944860733,0.6004711004118911,0.5763337174169828,0.5828080188154917,0.5580524323966294,0.6064085953929679,0.5704532864734466,0.5758206321883015,0.546204816068829,0.5873419604439029
0.5833917090682829,0.5553763572316739,0.6293339137833333,0.5795162001798647,0.5701901642869021,0.6056110420663535,0.5776875657075604,0.5281721794768469,0.5769747836781677,0.5444555550013538,0.5934502355036865,0.5752427730460024,0.5858989669777971,0.5663585702619515,0.5807268989153171,0.5790444449101229,0.5933484832301736,0.5777191384977582,0.49703038417353584,0.5883458926788276,0.5878335800711398,0.5727106917002851,0.5656757838625115,0.614768182277839,0.5954436103936847,0.5717923497318453,0.5728629067933848,0.59275806771787,0.5767102581903715,0.5998901512195206,0.5627032292825525,0.5573951999297909
0.5987023415835846,0.5947595297889182,0.5776077413544038,0.5989909212593622,0.5517549932294875,0.6029581154496844,0.579070210927593,0.5990189812764827,0.5959268475613696,0.5714346599659361,0.6057100113013042,0.6028656006248718,0.585163860342945,0.5742883776259948,0.6035297424372489,0.593205827769164,0.5990265136177573,0.5625619939316121,0.5615222013348811,0.5840570257555252,0.5945833584853003,0.5654545084399645,0.5761971049021141,0.605903658536529,0.5877931629535609,0.577512016526751,0.592522397938608,0.622932819027703,0.5772345759418506,0.6009077938845095,0.5794694935124389,0.5954290014855929
0.5958190595382076,0.5813439309174534,0.595344601563357,0.5933412834188027,0.5722400270163783,0.6004764899029802,0.5633796157988802,0.5797825441246711,0.5678489156034555,0.5731306095748675,0.5824017611268681,0.5582314294480147,0.5583578186271723,0.5614440964290103,0.5966602635547695,0.5972105104291656,0.6060101954797004,0.5689393405047302,0.5158195771349451,0.5705219360631697,0.532866368240252,0.5368257398119699,0.5141969031368767,0.6113855723495709,0.552604910672064,0.5550376313137892,0.5752791154325334,0.615072402075159,0.5708620824142265,0.6079610230381395,0.5894917987992305,0.5586803885527241
0.5547105775173664,0.549621392611991,0.6081299071194043,0.5813570940923839,0.5406903916825653,0.6021631822710801,0.6062416760979784,0.5730980188250021,0.5732769604482322,0.5521676049884274,0.5532493644572987,0.5596954764143033,0.5442762751591003,0.5682654813896654,0.5913645633821529,0.5836968671774485,0.604903972237254,0.5698612013714691,0.5714389535441853,0.5706976516012022,0.5198107074694239,0.5215668718691379,0.5052852218935068,0.6010201996702247,0.568197066875745,0.518312892215209,0.5366667649861563,0.6053960043092127,0.5257482016259768,0.5640721735634212,0.5199562869390781,0.5334333763994038
0.5594849007796883,0.5289831260634871,0.5641556799691051,0.5377030512992914,0.5237044109950484,0.5135390690134178,0.5890120242162796,0.5256924919453665,0.5591633263748905,0.5359983758841623,0.5234888055057958,0.5248855076209252,0.5293400018470944,0.530583869551988,0.549274755533774,0.5492482917773969,0.5716371291180395,0.5156080950478115,0.5031170999062877,0.5434345379608254,0.5050080056260559,0.4980485917791624,0.49816646756815763,0.5531599999071557,0.5620961433458671,0.5218158946365097,0.5454259116915882,0.5616060065304346,0.5426908643192375,0.582444222842863,0.5110710451709709,0.48842243929014056
0.5312066782779787,0.5236599816940656,0.5425638669265048,0.5231472686963887,0.514204261299101,0.5330489583180452,0.5306448670860704,0.5306541398270725,0.5441970180874579,0.5312414492916383,0.5277651339246188,0.5448612353134356,0.5233667620965506,0.5444014555277688,0.5498485216128521,0.5282208989052574,0.5291309169223274,0.4853999769597761,0.509682570941832,0.4838811821300875,0.46687012512412895,0.49305421616317247,0.49412688372696667,0.510326504795839,0.5289896942337361,0.4764199468399279,0.513618488861229,0.5602758436860048,0.5212100468970468,0.5678684860979062,0.518045636107599,0.4887661405702676
0.5296404438708011,0.5330988179598927,0.5732336648325453,0.53200304419297,0.49004737558580513,0.5754777779600401,0.5400302524321701,0.550832514376008,0.4808078769252423,0.5240298679909638,0.4711589304845013,0.5357681548303259,0.4840104528917336,0.49742727815474175,0.4857699339473213,0.4541967731619831,0.48930445292970953,0.522669220404768,0.4994292336670599,0.494150087317985,0.5078064669122485,0.5150128460206346,0.5199346679482647,0.5450053583614272,0.5415344424069556,0.48720025610134704,0.5080694507004528,0.5674454430890652,0.5171378576328781,0.5552605106134961,0.5040023539175006,0.537165917018294
0.5552984997283965,0.5460572188777367,0.59867666498726,0.6008018901478713,0.5635057623924729,0.6211839167670047,0.5481064879862327,0.5413505850421575,0.5373622949391282,0.49062390375641124,0.4887089892049479,0.46026466764525975,0.45726967422707177,0.3967016117597012,0.43055104822453233,0.4148639835129988,0.4822371450686909,0.4821100560769679,0.47888083352277344,0.47665486022130216,0.5173830500728928,0.5286796794723685,0.5573960562772333,0.5572423417151998,0.5911102269410864,0.5707862010380816,0.5554212933797771,0.5785090035326508,0.5779677666499774,0.5811244699310469,0.5473590350310586,0.551481886151842
0.5742617392907435,0.5908830623211824,0.6111084129621412,0.5868540122587192,0.585023370624761,0.6201533707295169,0.6012165054497077,0.5705704766389389,0.5326781672355869,0.5035922831343703,0.5283086300131863,0.5024096051673729,0.4762692212251115,0.42338542554134273,0.49137000776087875,0.4687330431734105,0.5282771117293784,0.5093201942881832,0.5018146253807044,0.504471750277545,0.4914640566591005,0.5178028491004392,0.5171002374031376,0.5863361011957695,0.5992963042434328,0.5551609779344469,0.5862254503234828,0.6165389986468108,0.5922173680805539,0.5759335409328339,0.5874039814831821,0.5781554807845859
0.5090580895293435,0.4917911457277482,0.5655514971798397,0.48328362220120524,0.46732570391834455,0.5522619511631868,0.5174937059900263,0.5637948278352538,0.5079206569679109,0.5446941214799034,0.5532997577100959,0.518608283720354,0.47167609030873037,0.498094105423644,0.5645858284734948,0.5354779605995903,0.5676511462882067,0.512696092727268,0.5050978500386031,0.5268549136993683,0.5214404296048459,0.5063111921506968,0.5418092039143557,0.5797943879857037,0.5603357857743547,0.5017684471487733,0.5025400541488971,0.5553234960806184,0.5289842068749314,0.5450016060211914,0.4585464101251531,0.5536042065158877
0.5251250159458719,0.477566065703792,0.543196724550485,0.47987921265797145,0.47580684623669456,0.5474530267888685,0.5180470009096774,0.5457876209256358,0.4954401457874596,0.5546071801042328,0.5644205599351311,0.48401514749858143,0.43060119226886817,0.4682849064510743,0.5767019658391238,0.5462607885809698,0.564683364049293,0.49241176639147705,0.49325766525740977,0.5385663703075633,0.5336363717317285,0.5342030362525436,0.527963118963247,0.5730421183507558,0.5649711447144752,0.5017466805741636,0.5033638633995368,0.5779151537231646,0.5165542156259157,0.568025782408806,0.46859779949572683,0.5325016482823649
0.5597259616380201,0.5437698403689938,0.5990151123474327,0.5423002641916682,0.568384375858635,0.5681553727624469,0.5856217230656622,0.5060228699244376,0.5743946346711714,0.5469808895828807,0.5629036992941905,0.5596739333936379,0.5259124129143651,0.5384749714779962,0.5241009931061387,0.494741230106996,0.4848890928297231,0.4471288171566624,0.4841866024385595,0.4532865996861522,0.4475694253881819,0.4964231514943973,0.4379886535937779,0.5512293783878374,0.5278093015878698,0.5813420887940165,0.5513834422858532,0.5714082904295603,0.5721174763021146,0.5869054686797703,0.5647014839057473,0.49158002731738687
0.5075384947864768,0.49863973820756957,0.5382632911524977,0.5217296516561457,0.5003272014383414,0.524859383135162,0.4804550756741675,0.5143748697973173,0.5160329924963613,0.48654141249291,0.45673404738652346,0.43684948581041627,0.42863060533524155,0.3977745313069949,0.37440091534233433,0.35242229963851435,0.34692246496935997,0.31341592484541586,0.37798375367176046,0.3345330375698229,0.31363696049846035,0.3854153886374667,0.3012938362156085,0.39590695744381776,0.376612897642243,0.454405769002697,0.5152919249276592,0.49691554469042803,0.5269550596583497,0.5269641648854038,0.5211895911685928,0.5016507659454935
0.5452123905499421,0.5160936889806359,0.6174033391793081,0.5228074609946067,0.4715805094682545,0.607699038435829,0.5577456182624263,0.45538175488522387,0.4521781295680734,0.4992655764783011,0.5111242665034695,0.4334897928238255,0.43256760205855543,0.40070786331762676,0.42449447472925306,0.4041866787319591,0.39766466290536856,0.3523217606519081,0.39651470931572985,0.406699781896604,0.3982556468692902,0.42528213721161423,0.3817653841173399,0.5026446496853527,0.48405782023494853,0.4100901793716569,0.5093618643610266,0.5800425106551172,0.5367452168915687,0.5489559865440049,0.4849718487672818,0.4417253580273362
0.45214123604299394,0.44587569839438007,0.5308181779431915,0.47252776678882485,0.4663580040660397,0.5204743062583107,0.5272248902667793,0.4747761698965482,0.4088631539053165,0.5273284866769046,0.5435038510853917,0.4484123631093505,0.35950950982642044,0.40884269142234225,0.5246769531511327,0.5355351361840416,0.5317570123018046,0.4483646253411831,0.5080751644679242,0.5062480414584398,0.5069307185135827,0.4583899528651249,0.49311310194144625,0.5337832755937089,0.5001173645187142,0.47647253738088907,0.4718591881244064,0.5207254636023096,0.4791270321950748,0.4782434051919506,0.46956001906836026,0.4852343025912409
0.46218263353585837,0.4574502841751542,0.5277957555090173,0.5148315605529682,0.5178558441414284,0.5293588752870066,0.4209373607227154,0.38055476321069054,0.4614750943169591,0.405244234167675,0.40337855475515255,0.4516744148194706,0.3335411455571684,0.4194448397929304,0.43021851469096517,0.41964439321921404,0.4311736348844263,0.38798062038014536,0.40245316690814953,0.4055364102375857,0.38556689215305395,0.34889259679324974,0.36073756498949944,0.44265876213361816,0.4294571120764041,0.47307223963803047,0.47800869596992007,0.4943654365413756,0.4826517745734447,0.4877130548310454,0.5047769421404107,0.4310615268844459
0.5498389776673109,0.5389534658327226,0.5507749878098638,0.5621741755688197,0.567824883887591,0.5293640543729716,0.41149622533461033,0.32979350632560306,0.465579300424412,0.3875974513152467,0.45344117435221293,0.4449531706249702,0.4406650632367591,0.443974901752389,0.47731958036112854,0.46159897383270443,0.45293249916266154,0.402806330152419,0.41237022701268766,0.47387457096949104,0.4270361948332096,0.42600230680797685,0.3890448344720598,0.5044989968490726,0.4688380718891448,0.4994764107108089,0.5389670560868721,0.5249422059973697,0.5469258635154132,0.5714747353512979,0.5581732106851957,0.3850346554440001
0.5796225432847439,0.5820264193654996,0.5883301894554672,0.5921416744316866,0.5601057599828244,0.5962269570747258,0.5271336375480623,0.4339135263591617,0.5035478681110724,0.4911084393147235,0.519481696124877,0.45223809681898836,0.5158779325733452,0.4442159006920033,0.5014370575304425,0.5026125000438898,0.4928635817109891,0.4360208883620368,0.4672947422328811,0.4995747002923665,0.48502892714249857,0.4595230784262847,0.44553217214145807,0.5635949096378586,0.5382207980114596,0.5161623457882821,0.5693335844027522,0.5766131192821121,0.5786673414260939,0.5933334251014108,0.5723082747988136,0.44526697924750097
0.5753600364945602,0.56621629474201,0.552833957758975,0.5791695043776318,0.5247655097492325,0.5883791310078976,0.5989258558162702,0.44896522916313525,0.5424862969738021,0.5147002884857935,0.5594333605294828,0.5498366087961974,0.5198378368092381,0.508917521359451,0.5195627663186039,0.5146802906185612,0.5511563953167671,0.5315790156031656,0.5273476993412248,0.5700898710525457,0.5588161922547052,0.5529183986374666,0.5474762193748584,0.5980492774263454,0.5822248645562673,0.5255209542621182,0.5707345744482815,0.5886017879346368,0.5554625006305542,0.5776020775687317,0.5547082934974135,0.5276882337637806
0.5560418513977051,0.557024037160847,0.5668097517688594,0.5785828326727979,0.5300650460310781,0.5755822563922207,0.5821086842709723,0.4872819644701079,0.5341701829045706,0.5427807749911091,0.5546849167714659,0.5325979925488862,0.46208551630519756,0.45782553792911407,0.4682928672947229,0.4120037105415323,0.4075941130179218,0.3810692375006357,0.4613362390168885,0.4688237024560159,0.48554837167983694,0.49853610990668956,0.5269503693631155,0.5842485431997312,0.5517193970016151,0.5384583799292154,0.5606746560449751,0.5775453993012866,0.5755438544017716,0.555979643214907,0.5191471645958291,0.5841409836357268
0.5259982935276092,0.58005845890015,0.6308393196998608,0.5811456184096339,0.5588463276779162,0.5624999012062164,0.5899153973409182,0.5268959227069899,0.5418206625776115,0.5480310425530285,0.5660865853656083,0.49726721458232137,0.4252376455940774,0.4470238803459773,0.47479249746996505,0.41580556300859656,0.4015390679118452,0.35740841115183797,0.419227491212156,0.4305323581616738,0.46165271898042803,0.4652747630097459,0.5059327453941418,0.5553407778536134,0.5539054802202809,0.5629957005157405,0.5499642277875599,0.5666402648441816,0.5443847768904324,0.5343039906059652,0.5145083930234139,0.5567516125332287
0.574820694437357,0.5700466770319474,0.6086604389428705,0.5925119310681771,0.5799828550547732,0.600621771508708,0.5507102606013705,0.5243380991855565,0.5367820896305169,0.5389475816786911,0.5457706225296474,0.5510749597727799,0.4878880443477049,0.5261132863927108,0.55126137523364,0.5156510375443084,0.49730695075769277,0.45690245406201174,0.48921532371561716,0.5338597304924356,0.5415523373730404,0.5376195890110685,0.5316714106935764,0.5969489490369082,0.5210611354484442,0.5389951998452727,0.5179456082404941,0.5745624431040864,0.5552576796817713,0.5744182500388333,0.5708628132301998,0.5321061071365206
