Fp1,AF3,F7,F3,FC1,FC5,T7,C3,CP1,CP5,P7,P3,Pz,PO3,O1,Oz,O2,PO4,P4,P8,CP6,CP2,C4,T8,FC6,FC2,F4,F8,AF4,Fp2,Fz,Cz
0.4092693659664161,0.4224745917997036,0.3590020301096107,0.3191128737624207,0.36234100206170006,0.37229170774346926,0.37800959008086576,0.39869712551016506,0.36051820877301827,0.3716395417692591,0.3769495178592996,0.3643701672763241,0.34712822883635497,0.3574940025383896,0.3914748169617245,0.42398783705447707,0.43674969594552926,0.3825763032382483,0.3605032632234858,0.4074328392686474,0.3581476481163049,0.3480842686064614,0.33270212042748465,0.42351185300229655,0.37608174224748253,0.3471365767090575,0.3831627945465529,0.36659318596602686,0.446697166302055,0.4098963000627572,0.3553539062976623,0.3575367657388686
0.4196684392360672,0.43653208167514246,0.37507480645834146,0.4184304838091918,0.3964550528259286,0.4059230454059645,0.38297329598902863,0.3970707461120018,0.36297453411715874,0.3733582191129289,0.4048273370549903,0.37492103213673006,0.35666749391685376,0.37565067166450505,0.4064285492397361,0.4167116525202709,0.4147836081303681,0.3589177557814496,0.33584608527261556,0.3927486821834863,0.33961531045792265,0.32987759061526756,0.33536704983094956,0.4548183236339085,0.3975277589603977,0.38145198305382694,0.4387420173239358,0.4091911556868905,0.4288116515981685,0.3842734830990318,0.39877080584210695,0.369500905134904
0.409508014055691,0.4371238269281943,0.3153511913786909,0.4135316034360619,0.3897220957488786,0.3776300363109664,0.33374308317023793,0.4062770552482297,0.37749146939719064,0.3477762847743526,0.39204252598501765,0.3503280619586282,0.3518421931684468,0.3405072357726849,0.3759153777387635,0.3835842909001125,0.39435407677651435,0.3411268713597499,0.32961816748515016,0.376086268363656,0.34505980159978844,0.33401178805224807,0.3644854007008595,0.44755956190899493,0.4103878128744414,0.3746493023293198,0.41321880027075025,0.40618063541025284,0.4012211696917716,0.3402308660710336,0.3971682327179336,0.3560916212262187
0.42419359765605064,0.4236197910331465,0.34021076326464117,0.38439736276979525,0.37441164073712824,0.3782068262612134,0.3614109493095975,0.38434068190467574,0.35781758774536865,0.3319272195869738,0.3255205461902822,0.2902407942574128,0.32444111386156843,0.2866195690199442,0.30618795290935996,0.31182300758723636,0.3278473619518586,0.3056489108516511,0.3205887513616267,0.3379310016122527,0.38185028708505403,0.3017991801563862,0.38436875508517787,0.468517935290876,0.4099855077816159,0.37547547622133437,0.375364350713213,0.3651751432618947,0.40571108757776714,0.3369979062652594,0.34418112853035904,0.34291842353403046
0.49811182689590794,0.47946486871749283,0.4664654621284832,0.46148148790388616,0.4276233153588828,0.5228666004618922,0.4546120498776944,0.4242692101300373,0.3567651265067278,0.3931203399265556,0.34056300864973127,0.3044396241530523,0.32400914469008363,0.29348064795751994,0.3005727733397823,0.29641260855230417,0.3129591789372897,0.311542174749504,0.3254238946720061,0.3596849806356496,0.4090832885832712,0.2893462076494497,0.3870764914556403,0.4993670816718256,0.5130447251598013,0.3879724541594223,0.43363210084301856,0.4999237190120071,0.5049510887216287,0.4924989413136162,0.37048381041100664,0.3557100195044001
0.49987272254756876,0.49241037094909823,0.4475312652702249,0.4661717561390549,0.41066231756280375,0.5416303936315096,0.4777807496680729,0.4565467476361919,0.33873681189395577,0.45101720297979914,0.3898433034926883,0.33544296967358395,0.31414168018696487,0.32411562931250976,0.3632647901899688,0.3448814704417827,0.3759934691732899,0.36890972595625726,0.35597038624596844,0.43208271620477934,0.4160933004136446,0.30984837617316996,0.3971317073203252,0.5110215975916393,0.5145542318994308,0.3545940534976092,0.4551302556050349,0.47688609463003984,0.5165297310759507,0.5241688561306986,0.389815149706676,0.37417751064008825
0.482923096735479,0.48920402340365826,0.4362389300517811,0.44946543692380675,0.42088916371338214,0.5314458632824131,0.47350280887915525,0.44936737050142433,0.3725881825304744,0.4540854942215188,0.4207923416508291,0.36181359814918956,0.33737820566975746,0.3657206758829067,0.38727827458013864,0.38995571146277147,0.4254533620086783,0.39866539171096443,0.38034167531035973,0.44046184458355414,0.409053907378285,0.3418737714699012,0.3783312591428756,0.5227431064982213,0.4452248797925655,0.3353672279938756,0.4427308891557724,0.39139653468216423,0.4629709328070037,0.49295555881760006,0.38084189091491477,0.3907866652401497
0.4763054121517425,0.4716822703255091,0.43958904247859365,0.45231768406377026,0.4300205805600493,0.45833355085954885,0.4354675124049016,0.45084491879681676,0.4080363871724021,0.44004460039211096,0.4522443642295694,0.423891606055146,0.41779594867437503,0.41724781743925193,0.4158450067064029,0.4434325792033911,0.45962920891096537,0.4200357053340366,0.429421906660703,0.4488106370874259,0.4175875592738048,0.44297965158912495,0.41011525773622165,0.5066986719857632,0.46126438574805323,0.32539046172732194,0.39689018901705064,0.43893862897180436,0.4208511197435713,0.41912512645201333,0.36182392013774145,0.41089652716965586
0.49023252133601614,0.47776322078773326,0.3788746686637473,0.4232844835577929,0.39450860579736735,0.400429713959399,0.38994368604532287,0.4436289251427391,0.4146596136816289,0.42080554068651216,0.44063681798934873,0.41493576184421815,0.4210450762082343,0.4174930929472883,0.44263751051343575,0.45747080356041125,0.4606029293503309,0.4101387447401075,0.422711396032599,0.4153374367659631,0.40937994903429303,0.44738569370517767,0.4189386805274124,0.5013962052011025,0.4549497965299889,0.33669374620279235,0.40221244931460076,0.4436733524575663,0.4422893042413168,0.4077006461509876,0.37471330047888707,0.41682688622764336
0.4735675180940288,0.4542339080360533,0.3698765322458331,0.35027168211281257,0.40682872713459484,0.34792463712896987,0.36254970068307807,0.42699660548904356,0.43328430350887703,0.39164960951245914,0.43110386713772164,0.3832125046585521,0.4231890406107108,0.40115293119599466,0.44899560975779357,0.4764004280000757,0.4767377597286232,0.41747116477872637,0.4229795288002066,0.43847066628319287,0.3904201044567267,0.39522208154630517,0.360904620042352,0.46544457116807636,0.41389034199865854,0.3919135708020315,0.43231943441046133,0.4277630080869023,0.4555890031276684,0.44097263840512324,0.37890010971406196,0.41016812893330834
0.44723447988845355,0.4157134841405463,0.34369159746707556,0.32187253342830163,0.385184049881518,0.34572663803543746,0.3561187096325936,0.42552364970878054,0.4093572923094161,0.3776774090431852,0.38528868507629577,0.33497746912317283,0.36583219189125826,0.3423588000534089,0.34147770171404407,0.4017426645085208,0.42541627170468516,0.39027986687356725,0.3663581094745107,0.3977347952983943,0.3287114483987285,0.3457459276667045,0.3375606584728108,0.355501920136631,0.31048539203569536,0.36383848770823946,0.4296877146607247,0.34443062786330175,0.4251769041914879,0.4386643090296199,0.3652037955411119,0.37004643467589216
0.4549541871406085,0.41442212625248653,0.31613728515666856,0.3282853290074278,0.37627363861984275,0.3515893476360957,0.3463276029224448,0.4224775434821569,0.42673898944996846,0.38363180511296424,0.3824070695481679,0.3613112226798072,0.38102334143114214,0.34956004574600996,0.3358712197951706,0.3838546061047979,0.4060654457008357,0.3824474130624379,0.3498994425693772,0.36484691505040134,0.3143734364057405,0.36099405275899493,0.37279487162476393,0.35024463369176007,0.29993329333411206,0.3693310164648574,0.45184360859325756,0.32109150353146554,0.42913395390293513,0.43002879990645027,0.3870163838163478,0.36821450714175324
0.46371932888324663,0.42831923980937076,0.37021133918666627,0.39427215317726283,0.44737519257368635,0.38904897931241356,0.3850185591741645,0.4310560863084501,0.43693286014125454,0.37470859524934835,0.40419665831670204,0.4139675660276305,0.40753967376710004,0.3903689684142265,0.3813030969636291,0.4122366238732472,0.44061827800832265,0.40932047388533505,0.3943162746739544,0.42218348264114447,0.36600642181730564,0.37174939143770885,0.41404001364441856,0.40501251161404644,0.34171277571558906,0.45385968640331187,0.4849429092241299,0.3647591995431999,0.45359171557226374,0.42011526838783153,0.3810798444483215,0.41027989457739383
0.4273195858204044,0.409075762652591,0.4003492543840384,0.4115142910975199,0.3974308959827134,0.4091274019303479,0.4098021914364227,0.41426188843227313,0.44829686995836304,0.40264648648977225,0.424503780571199,0.43439383889509214,0.42274753950235183,0.4457245878668365,0.4309968473112042,0.45023041054642843,0.47922371960667237,0.4419373349171082,0.4334304297161048,0.4650817816243548,0.4168458846559415,0.33871230979630423,0.3976597638636216,0.4428938615225449,0.36851750312376075,0.4279917922976452,0.45387363790726987,0.3790459025569067,0.4238270617874367,0.4076336128131794,0.37539112570238253,0.4166227348852863
0.4338921192805617,0.3995537708835492,0.38272054448820075,0.3895530569355408,0.35415037203403105,0.3887213306447747,0.39207020242504226,0.39071579126207234,0.43449405048792955,0.3962814579220794,0.4169206005799996,0.4093389849732362,0.37705202388896936,0.4087237488949889,0.4098165165380218,0.4141558166150891,0.45052462331178716,0.40020365763879073,0.3884174649734672,0.4338610680910847,0.38481092835435265,0.3288546415131078,0.3702638973698129,0.4629739042309161,0.3701759859389599,0.3885743033381712,0.4295836376712196,0.3930061524782099,0.40636501527784447,0.4450760822931852,0.36804056589333173,0.4081113334431142
0.5097233142930461,0.46215026806267945,0.42148375891857165,0.4125585140976468,0.38194726825425046,0.4242280567577226,0.4262164992317331,0.41812612346493355,0.4413885457480913,0.42113280438634587,0.44133584990796715,0.4274597601709596,0.4081407198965743,0.43173363591391845,0.448331361590143,0.43608390296585114,0.47186819203324154,0.42111090806366863,0.4068363762293024,0.4386726092425568,0.39956088706554127,0.3802621637894237,0.37549788943233464,0.4720073436368402,0.4404392818362469,0.3819692177688324,0.44538346447458305,0.43008575910045665,0.44096832118584467,0.4489869901321182,0.402589052918449,0.3935764866202076
0.4904203357007304,0.4809222821218707,0.43502778560742195,0.42928494529012734,0.38952643271779946,0.4527142433456103,0.4499598863505776,0.43247331766887015,0.43760235762276195,0.45241239877502737,0.4717286865688897,0.45821859287410255,0.44244329260790105,0.4717518892262429,0.48362533998009377,0.4636495583460915,0.47956322942511087,0.43602209041824264,0.4320759725477556,0.44760295712318293,0.3905051293938088,0.4107299938665746,0.37150964767167627,0.43175882929652,0.43076228172870273,0.3916903022730558,0.4304853834312697,0.41679247522799157,0.45842174734007574,0.4118705067862675,0.40479147193123843,0.3650493759633891
0.4083992464148414,0.4326533875776015,0.41460559846445344,0.4366183938288399,0.3893839616288905,0.43067510873424264,0.4315026292260063,0.43040462705780047,0.4206676198433114,0.43695630256541973,0.4431057518973897,0.4223386514729947,0.40082256903467384,0.41785882849868927,0.41000529814932474,0.41545006946628604,0.441033453776775,0.41897711950953376,0.4344891148568242,0.46174544999569933,0.40295210673828225,0.38934242873383085,0.4043789212292226,0.4168366450796218,0.43810879363411576,0.4223911757434409,0.4375981315190252,0.4392052628534643,0.46222717990000206,0.4406406623174087,0.3978324024251176,0.4029114374842665
0.4144998575339394,0.4283687987374432,0.40659981488963315,0.4207997398455433,0.4007906642134616,0.4151958952983668,0.42661539387439623,0.434690192430483,0.42745752025623707,0.42185832874466894,0.4016173373184333,0.39323105296910293,0.39444309242380704,0.3750615482275368,0.3792342617259598,0.40990317713800795,0.43345090272377484,0.4344248815230657,0.4219118922299748,0.47773161237420136,0.47252187736381873,0.4022843608426483,0.42868737417835673,0.472297030286334,0.43740895497822957,0.41749496610718884,0.454116315254153,0.4322531421421056,0.43647961251487466,0.43877353124620877,0.43116701836075627,0.4209111871317471
0.4539922723992116,0.4632057362747692,0.39157968513469793,0.4112197685399875,0.3724925852752422,0.40897523004117603,0.4142298342778547,0.4039176787098472,0.41291583687563654,0.4057084581486787,0.40080408203940826,0.39444170225615593,0.3985680455063992,0.36852169624884346,0.39659726888183067,0.4312057612493478,0.4512591156365118,0.4214426291704015,0.40579632251289255,0.4575813735284262,0.44288702373202343,0.40946544910696614,0.37741585121441135,0.46518234694342303,0.39538347513284494,0.3774312203448609,0.451970999541564,0.41794414282474834,0.433918009591646,0.39353481139003416,0.4155085467816205,0.3926721101985602
0.47645783953320714,0.46794953529166083,0.33889476074575503,0.41135287785822044,0.4094584744808487,0.36663508565921443,0.3264996862711463,0.3877796589875767,0.4037947251545494,0.3600096209939474,0.40728930333149344,0.3762517333517178,0.4131853150453694,0.36540892425192967,0.39340772857954576,0.43927682483888186,0.4530023812202252,0.4011903863682694,0.38737998639572474,0.39408901170918276,0.364885639775423,0.38166112892031384,0.3442548274484021,0.38123094739639785,0.36177242739281573,0.40201673699785434,0.4396322624360689,0.3983097427167385,0.4656853103413682,0.4186822978139264,0.4077609844832872,0.40951911883382053
0.4618228548529708,0.46529075845512025,0.33998468061597015,0.41129227002862967,0.41707628536291624,0.3500047233820638,0.3246990145972059,0.3936186886356584,0.4325586016090654,0.3691198127667661,0.4071806595523548,0.373043913992969,0.41167416488686237,0.37188911396381014,0.38643161384662106,0.4292137161179572,0.44929654975916977,0.4221713174788072,0.39585307041361556,0.41349696828338134,0.38408545155608675,0.3903800209109768,0.3371444105371001,0.40218151547122355,0.38825597313690363,0.4209594737949781,0.4364601840466419,0.39364349543332877,0.4603782929434354,0.46740954980866245,0.4073980148663436,0.4188893922800666
0.43458893552392214,0.4436630108104712,0.3953898660957996,0.406666693573341,0.39591827936595203,0.39161141629700197,0.40266871689269684,0.41069425330767967,0.42650026213735026,0.41634022844746255,0.41560055423346415,0.3929981770030484,0.4199978384092285,0.39002510360932624,0.40734984880615743,0.438530425283584,0.46150737966097816,0.44208624693864873,0.4168442187994118,0.47001594745266523,0.43739846851656716,0.40947928561961583,0.40649382092582514,0.48230072381785577,0.42274757953372305,0.40837346783608003,0.43640271445328926,0.41918874506451376,0.4449709572309786,0.4680916245189219,0.39942157358342584,0.4250542980543917
0.4548273092570317,0.4295278381183067,0.42079665431576146,0.41330541307588686,0.4065266097801658,0.41121780279442194,0.41984496270400506,0.4152849174857736,0.39599193854402515,0.41162765732886997,0.4331500936714801,0.3827477780322717,0.3948787278630627,0.3724135838721847,0.41159989886544257,0.4572927569901628,0.456136113122641,0.3939221835913495,0.39240711298053343,0.47319483234343357,0.4178419332718716,0.39199413822315626,0.42196403942742317,0.4757188236117375,0.4145924772146718,0.4198053806982929,0.44859249167865156,0.4420175777450105,0.46032664730950346,0.4737591515570829,0.41528639490951086,0.4328315088258075
0.4897681435942076,0.4381837922499508,0.4041028809582255,0.4281556864941977,0.4292714755327957,0.39238846432389807,0.3860544890371646,0.4237460417686319,0.38100417406572695,0.39725952995340225,0.42746901896366096,0.3848561297619256,0.38360399781943955,0.3706364501803061,0.4009293768336633,0.4279582517019054,0.4124579176181037,0.3620995417053947,0.3644767699459684,0.4313381394717536,0.3987225504871836,0.3645950065984703,0.4164906857252737,0.44721632594508165,0.41589535648334025,0.44913244119162127,0.46480470475606556,0.47365402573288207,0.4827571655280138,0.48901311444476847,0.4354163552496578,0.4251104412149016
0.4645803045183333,0.4448705066567031,0.40868164542857804,0.4014041394010264,0.414449896121999,0.40311262708056805,0.38207526215351034,0.4053466337272537,0.3754672365857773,0.3849252600184715,0.3885714532049522,0.37762611064186047,0.3951930526076287,0.3782448958074381,0.3807291192758906,0.3725133499410885,0.39162264944363484,0.3742922992649001,0.3712691151878335,0.3778838358794421,0.3827268639700344,0.36154557619136535,0.3985360143043902,0.46291380208323635,0.4144895959058955,0.43168382897414925,0.46415406057471603,0.4336021637189921,0.4538874412229603,0.4596716678680862,0.41179039211457363,0.3653872678667081
0.4258788438733537,0.43274986020377626,0.42819984698148067,0.37366374894291665,0.3989222966430327,0.43718876520269645,0.4110745974750902,0.4087353461075368,0.4066280386303836,0.39563781298498946,0.3971574811564273,0.3839235404975746,0.3878434669396639,0.3768348458605435,0.38115492648608845,0.38024360933004486,0.4081892128820866,0.3722924706023685,0.36294578433381003,0.38407118528638057,0.3492566219502967,0.34184694042397573,0.3083680368892491,0.45337905763215935,0.37373014792971865,0.3728347675014903,0.4492702321448554,0.36942375374944675,0.4144644183344987,0.3716323682689494,0.3694332255644337,0.3255264643697021
0.4351841804923991,0.43617533269611836,0.4298784230479536,0.388555151248356,0.4092523619264649,0.4607702176193732,0.44599985778644613,0.44511614528030036,0.44143737710722714,0.43452172506178205,0.4428963505473966,0.42170845495204046,0.38196433934418,0.3942468890435375,0.41270305387200534,0.426871783655552,0.43066428470764573,0.38719052171489493,0.3584374624622829,0.43237296696708427,0.3504361714812258,0.3449362328205556,0.3027855739056084,0.44967220335584934,0.3508478139279511,0.37739053260022515,0.4460121531316535,0.36927885116214304,0.4309490289742121,0.3623469926179317,0.37228903209266706,0.37646704847388646
0.4799598968890303,0.46719616259021773,0.42379209740133644,0.41423535940942785,0.3910251830506808,0.444690960518888,0.44086593526415196,0.4372064574303068,0.43067081456077944,0.4355137797272434,0.4388890693395838,0.42842613558066334,0.4002617051804807,0.4110066546983023,0.4159863954937701,0.4303789862887611,0.4404521534678588,0.4344466887348967,0.41401724187047495,0.43823859905203605,0.3952520770788382,0.3958978832065705,0.35417496656394265,0.43218853367398596,0.38114883856163,0.4164820094832753,0.4603961130330656,0.4197252628539101,0.47251052979751984,0.42776202125259605,0.41843175191697624,0.3787153828781767
0.4858066671625974,0.40624674996370774,0.35628859186339285,0.3818850638735449,0.3744324849717783,0.36989615720570157,0.37578519549140943,0.3924477180061866,0.40956123054500126,0.38377290066741937,0.3869077623372827,0.3914716559826189,0.3911466796200813,0.3978110236058209,0.39543513876544173,0.4124506435082812,0.4195663195087084,0.4185594508432256,0.3998598380725803,0.41636244840309755,0.39660505922918476,0.36573927104974535,0.38078932945234356,0.39243774323399744,0.37173940088111346,0.37743954708790933,0.41299745771205065,0.3975929703675837,0.4328005616013451,0.44306799046217255,0.3801225348946284,0.3737209194550943
0.4508085666936105,0.3736494378626374,0.33956252804702597,0.3549772186367693,0.3815094805716485,0.35655014771638754,0.35425554508383406,0.3762747274895038,0.3953745447590236,0.36410301105103243,0.36565637294162173,0.36496173023827766,0.3793740277074158,0.37893118049936175,0.37590077783038317,0.4233701993918316,0.4215034504172028,0.41013463607845546,0.38412945928269754,0.39584928156207494,0.3683756861141187,0.32983793824401625,0.38692233257307906,0.3808205501008683,0.3603449882624049,0.37558395115214804,0.40552980892119966,0.37771455934935544,0.41427736210849975,0.4359660102851341,0.3731486220611782,0.3996133983426548
0.4526682393346817,0.41478251030572116,0.33707152022697234,0.35899590616223115,0.40285649693186454,0.3710839891444574,0.35170787059880715,0.39180830836865216,0.3921978103881229,0.37796743459069726,0.36843447746864777,0.3714253388236485,0.4080802771259686,0.38150197143121606,0.37872487883590283,0.4206496615204285,0.4247126199051925,0.40734456505068356,0.4017440704925625,0.3842289774457633,0.35011432344395343,0.3325632939491791,0.37869647766092757,0.388658830046796,0.37935837764628344,0.4172404688105693,0.42361717826615425,0.3673459097962755,0.42695164420399906,0.4592640048591169,0.3866511398082174,0.3864849254162959
0.449078104262716,0.4373261380137733,0.34455879643305126,0.38666195340650517,0.40189036177633375,0.40459690934595455,0.3678661825334531,0.41593990430796446,0.40041323391105527,0.4046037347556415,0.4024564409275273,0.39657168470546467,0.40989881692122054,0.3828053785459975,0.3907867277071978,0.40912625010315895,0.4337350302307561,0.402485942478307,0.4080772367764495,0.4122389738178101,0.29326530584339655,0.36184038906844695,0.38917944542951494,0.4309980389442955,0.4135045497044779,0.3823415030272949,0.41829854196908167,0.389483404419324,0.41279049926563444,0.45029635505127236,0.37709295872815013,0.3579979061644162
0.34912036909526806,0.39237200293855273,0.3925454301462253,0.38135681851143854,0.37531567709213004,0.4239421271916708,0.37517293189878215,0.41543552857661625,0.4176088835176645,0.40229232127454895,0.41443663571232403,0.3956788514218925,0.3898153293965538,0.38306233076986046,0.4045071435275979,0.4096824142258288,0.43217789920026367,0.39934799281453376,0.429939801208853,0.442068390187274,0.20821810207830913,0.3852335645312858,0.4060906973254234,0.47281069714343976,0.4246383151700338,0.36597323178891283,0.39568968919133485,0.3921341694847992,0.35171357543481035,0.3423360868641682,0.3587192361951576,0.34188203054877214
0.3297767317307263,0.3932641460434711,0.42335198819714887,0.4311931456588951,0.4123217112334968,0.4382865812882961,0.389535296070009,0.46760915916296303,0.472314150092927,0.45579671634415947,0.430934680712883,0.43741262684650917,0.42901719811926475,0.40491262844258696,0.41801682863558337,0.418355690006039,0.438899580224419,0.428257031908948,0.4158424305612625,0.4787242552510774,0.2045053053833746,0.41926033229841225,0.4114350719745384,0.48227488008387837,0.47265512420015515,0.3752272032948656,0.4037959579983694,0.4177433060616707,0.3836824987170138,0.31528784234205265,0.3710432714308326,0.42539661269590856
0.4507076354828649,0.4619235009916948,0.4472799443674479,0.4706510239151166,0.4496081502837239,0.4553138468587504,0.43281888281066827,0.46889503301947283,0.4670442652874063,0.46842498433169305,0.44723586037953217,0.43624286329420187,0.44775495801599,0.4192091181193625,0.4352998144543072,0.46152853538606725,0.4933071925037414,0.47299335769748396,0.40679011865871023,0.48743703446206443,0.2839565072626723,0.46642027750598264,0.39385566807087175,0.45647062308713193,0.43786950583612216,0.4188811974751772,0.42926467016075226,0.43618103449632634,0.42250464572187846,0.4022164154818154,0.41826812531515206,0.4336510734304949
0.43501074175306814,0.4465947558973879,0.4487573573484104,0.43966292452363176,0.43873484620604614,0.44603995096805515,0.4549374926048152,0.4458158220364015,0.417223583332661,0.4433972105773509,0.45054785785926516,0.4001638785106573,0.4056032119767481,0.4259837536624726,0.43697311862003063,0.4616222835278339,0.4608443590635361,0.43755345967024045,0.41854490781410697,0.4303914919026629,0.42819594866545224,0.42407164863023045,0.36640418215679615,0.4355246465473173,0.4016753002514532,0.3975460843033424,0.40721064745288493,0.3984372479310664,0.39724854716217,0.39297966560487285,0.3934220893935254,0.430043917639524
0.4141857444353962,0.42702780543171703,0.40459505176680227,0.39800536098590994,0.39583824571523735,0.4234860353603998,0.42884106433142266,0.41583515956021794,0.3942105271628203,0.4011459778300136,0.4135298931288357,0.37376074388977515,0.36940269759019967,0.3893810031529963,0.4089648005471077,0.41985145729736684,0.4198511516033256,0.39480258061030077,0.3929971398334109,0.38286180376468104,0.36279981761147456,0.3732911513605933,0.3551511683559276,0.39835471859664157,0.38577584395351766,0.3700792117153405,0.4126916553429454,0.39564037018755516,0.4188809121822949,0.432624045887136,0.3808923038696201,0.42533958902232316
0.3178988426992397,0.36853917771383266,0.3533755170324893,0.3628053472908185,0.3813757126610629,0.4142526063159786,0.4160005994155378,0.41842651521951124,0.4027685891447168,0.40410402587292393,0.40455444893835535,0.3704580577716294,0.36282185356929075,0.37411715158442066,0.3947233474974586,0.41291173282720534,0.4110142042395099,0.363568108274654,0.36229138755539475,0.38046683696295525,0.20281427329952087,0.3619774728414494,0.3194461209823259,0.3920949731631204,0.3352267204754775,0.3881847819472739,0.40938781068917807,0.3623024727563816,0.3555201150859624,0.36416289245461664,0.3694706924820714,0.3648931044293725
0.3041456506881732,0.35253761011576973,0.32243495978408976,0.3634888148557538,0.38257665295159576,0.37509289118258216,0.3626838360567115,0.42087996652299053,0.3613144348555968,0.3800013025565431,0.37604036437851335,0.3654376565474625,0.34277990710004963,0.3712204521417503,0.3729597623762802,0.4243590585897997,0.41423586318548405,0.38235098932445954,0.3750952505137239,0.38955018670755853,0.20331972189710026,0.36069737230068855,0.3256507417967045,0.4071793495430974,0.3245375456852601,0.35787128347808256,0.38893297000549104,0.35185468229583217,0.33286909627116246,0.3356301743423002,0.3517196119311197,0.37046118562687536
0.36993816881098285,0.3759373004711558,0.32460367809180984,0.37840790452500545,0.3881208654510655,0.3609180390737263,0.3408340263962593,0.39153190662672127,0.3345638046247596,0.35519514902725735,0.357410068047173,0.34072071334373266,0.3230053583239591,0.34031601389666727,0.3570055467432185,0.3983711332504603,0.4179438016111609,0.37260715470702216,0.3699717282795377,0.3969557168244336,0.26787772951496686,0.3399682820281112,0.36453389540249465,0.4048580534365114,0.37013851194414654,0.33007582713736705,0.38382676156938894,0.38031096209856813,0.3819897484376547,0.3787408711552474,0.3548588915424049,0.4100432112372631
0.39356672266642007,0.3842414831468104,0.31709342178991523,0.3535882037815221,0.40542562626794415,0.33903103474682433,0.3418767575990952,0.3700193910947811,0.35825904038165945,0.3698936502639121,0.3969503304410469,0.3639559649165555,0.3269474502374891,0.3476892323318607,0.3574703671944981,0.38381350115396057,0.4345324832966446,0.37999476801609217,0.35654571006558367,0.4358687950463867,0.37406001192142396,0.34032309222564633,0.34483931633798837,0.42726130353342984,0.3581276705501553,0.3403956585265687,0.37548966928026195,0.3645095160499784,0.4041859003647824,0.393801179299832,0.35614733966754514,0.40389861573563535
0.4181234983533984,0.3727326733164296,0.32867846336173645,0.35451119479215787,0.39879528387986934,0.33675710998578884,0.3517522056091532,0.39092803442950746,0.3738163416107546,0.3782098717887496,0.4232955617301191,0.39704855532915184,0.3414440803425984,0.38708107032090333,0.3887792393512616,0.4057067197444206,0.4432394626445854,0.41887368336141123,0.3805532335612472,0.470398899910723,0.4214522944287683,0.3599319144030438,0.3196711460491056,0.4790441936121777,0.353881690447223,0.3658883660424631,0.3844853717587972,0.3622354785298474,0.4032376514397825,0.40683272963304756,0.34384206818744617,0.3724952526492528
0.45260265200110206,0.39628452913401296,0.3246884901074334,0.36659719677504754,0.36455313782067184,0.34375578325338185,0.34940149520618746,0.35177446677722546,0.38479963173298665,0.3470733154540038,0.38758312645322335,0.37317084854398336,0.36577499676338526,0.37150128644328884,0.3938032513608553,0.405075655940272,0.43174790829992793,0.4018648080384978,0.3966392837227933,0.4509986084590452,0.4164364595441873,0.367823366030255,0.38211991950980523,0.4615363712676897,0.39305846433107644,0.3783221720807531,0.40235327584470026,0.4257628675083135,0.4464309419378603,0.438819819748176,0.3094931894687622,0.39881640617498093
0.44779168512913925,0.4072197438414443,0.3268588071620314,0.3746597693929812,0.3593043305698299,0.3610706367420183,0.36997199648298346,0.37174759274344904,0.4259275866490105,0.37971246492665367,0.402041924253326,0.3753458176605195,0.37358133240892016,0.3514222213666746,0.3630370234093774,0.370361418048435,0.40145083728207986,0.38701915974270457,0.39006204444989284,0.42534346004395013,0.400671230209965,0.3956460580662792,0.43196999841575373,0.44509648804165386,0.3939669285691083,0.3769466508175737,0.3798668324537902,0.42044897535790454,0.4276198173414876,0.4314678043389232,0.3105858775678321,0.44451989648934276
0.45736325809406736,0.4119748110695506,0.37655531755670146,0.39259939710579667,0.3817892788038502,0.4102822764293422,0.4130710686903978,0.4330710416019174,0.4182005729898897,0.41274225669840814,0.43369346083286653,0.3850577514401811,0.3976119281398724,0.3634062568001015,0.3545223456908495,0.3798675388795172,0.42303571345059127,0.3898562924404259,0.40275579092409286,0.4473331527155178,0.39022008556269455,0.42668367217738673,0.38536803113745943,0.4511541138677103,0.3862543469491063,0.38841968015927103,0.38323030660171176,0.40411329789233785,0.3927800863428052,0.4170832648689031,0.3613830984073654,0.4416614939515443
0.4717117914459159,0.46381191232668995,0.4019141517036092,0.43992887452228197,0.4093126172363538,0.42322595674581087,0.417063412303499,0.4426424101658509,0.3750302513341634,0.3819016956354233,0.41350564685584085,0.3701783302966361,0.3800501086217101,0.3764707530161588,0.3713499762778323,0.42498036479418166,0.43948407097716335,0.37546712704662827,0.3969073128277724,0.4390747400258667,0.37900528284912544,0.3856320544214171,0.402268753561218,0.38904553548774023,0.37239711772312345,0.40410307432232884,0.4098157846077694,0.4498560721053561,0.4184472350542994,0.4335814960854097,0.38851119970194065,0.3981097192096723
0.41570820939550085,0.41421288937554784,0.4165011934690494,0.44608274694002636,0.4281902073929353,0.42763065908542447,0.42730271130212033,0.43296511740849186,0.3910575443752623,0.3817718380691405,0.4073391104968144,0.3874766319587567,0.3568944131542865,0.3641678079566182,0.36974714585077245,0.3946152505326038,0.40546700434110017,0.36072623267469567,0.3620517337615536,0.4289934318120081,0.3899274515330269,0.3595914125027134,0.4381454691175924,0.4028287543979763,0.3847705879801755,0.37346890557270307,0.398048172123389,0.44317252939344237,0.4088762190597962,0.43733784493385663,0.360491975337394,0.42251343201306807
0.4462686365161056,0.41657687192858395,0.42532115366945045,0.4271897477548075,0.4227156651345463,0.4263726588745541,0.4187408371268527,0.44753369460749015,0.399996080416082,0.38032665717825426,0.3526165531144458,0.3666873005579563,0.35917473389688576,0.34969354816737463,0.3471639805109228,0.36937948115547753,0.40024119799530344,0.34176547057091505,0.32761548930992884,0.40626594161325374,0.3512623782789927,0.3627542598651074,0.3981100578759269,0.4548260189854313,0.4346101417282168,0.38062662760581567,0.4512122430696736,0.44067652125444257,0.4350900544761367,0.46967487981611344,0.3883801332521721,0.4533397343308629
0.46975499483079536,0.45299427898934885,0.4173459033905293,0.411810430856321,0.41250631406042754,0.4297204547018783,0.4266527892829002,0.4455229612159426,0.4143729363009868,0.4192675792334727,0.37040700505810586,0.38034534744995674,0.37398481677444284,0.360727247758457,0.3595957665310731,0.3836141849606925,0.4007482868851026,0.3512032509159391,0.3555955739842821,0.40597853432649594,0.3887783179112573,0.38355848877095566,0.4046700516352304,0.4591642401328937,0.47061792859845936,0.3842821659958958,0.47570662186463897,0.4475015017481955,0.4760550460863266,0.4705667256357103,0.41267665293002526,0.4202629302541262
0.4419832744049526,0.44025524664108545,0.405316094694146,0.4152504111714986,0.40886926299361215,0.4197584331256845,0.41548805138629546,0.42320032991265544,0.41345224296754995,0.4301492615714515,0.41035650012390545,0.40399669968133517,0.40893817507732677,0.40244550407254737,0.399178263550856,0.4053478386292707,0.42613927677412927,0.37940416280569156,0.3843064187675383,0.43610435471979664,0.4140271575479701,0.3923639259095997,0.3982839289797039,0.4514580592046131,0.4533932492157579,0.4018806745033823,0.4441891009071782,0.43067010321772553,0.4442996891082119,0.4385064887209074,0.41362961714403074,0.3904294197544693
0.43387576871537176,0.39848873116873096,0.39388635905298747,0.3958698185286732,0.39372671957665967,0.3924306362057502,0.3870249319773721,0.41643375497084484,0.4029527584189881,0.4074194488004108,0.3610984873443343,0.37483123479989766,0.3664885471965109,0.3638278316555767,0.3564762301012011,0.354708825339229,0.39144160332438216,0.3500586052145472,0.3503088016479154,0.39777552602692906,0.3551874889263959,0.34331875978569526,0.3486857104246095,0.4154044060932023,0.3988124896145163,0.3913519825196247,0.41981418716739444,0.4063658441545914,0.43284362646906277,0.41609657212653955,0.39850385706893415,0.38169605186654976
0.36794288770422595,0.3465781634945673,0.39925644889462886,0.3997512930987418,0.37473840813409365,0.3791616181586251,0.3818097517087173,0.43016267796999624,0.4171069097126341,0.3996471961273569,0.36783989231799613,0.385015556506929,0.3597779283281218,0.3586983413047486,0.35077683491309686,0.3571130127460836,0.3743040972238975,0.3375702523180231,0.3389309780758422,0.3787478351626123,0.33571941431534896,0.3290101048848637,0.3251923870377132,0.41958834830028324,0.3867618070396276,0.3680473363519599,0.4169805282424617,0.34979768126044336,0.39442515943461043,0.33775620376925597,0.35881502369954377,0.3687198099705929
0.4170288888668046,0.39722280610144073,0.42847794940311645,0.43577111085361153,0.4094573516364259,0.4161999502929307,0.4099125024496414,0.4401777643998089,0.4342657350042692,0.42213124966199667,0.42595647410853676,0.43572598784204125,0.4007303786785636,0.40502491889263537,0.4134642799796767,0.42759147301445094,0.42677542384645395,0.3653859640323214,0.3686616949390053,0.418420517759603,0.3747336946794443,0.3451479151699304,0.3571790473740853,0.4607109492211188,0.45269667222649007,0.4131051841309028,0.446301706102898,0.3583083660417938,0.40831437830833817,0.34127404898280234,0.383466473791218,0.3447196517761874
0.4669431235104708,0.4437693717819763,0.38302549874952574,0.4092695014670558,0.4174514250444468,0.4137850850736103,0.39322067074020367,0.439078665691515,0.4132059104256919,0.4052047987222393,0.3862677439016869,0.3780324919070283,0.4020977608459239,0.3630704505789471,0.3827395136917342,0.41471039056346654,0.43164656714601624,0.376967150102602,0.3960071532297598,0.4274731614256252,0.41119557994840933,0.3687294417054534,0.39445715015547406,0.47474530896580885,0.440603654973129,0.46727956562070505,0.4749209431053369,0.4267240539654061,0.45755627798896853,0.42149459950279206,0.4143150987420303,0.3592366409428059
0.42668164226991195,0.4219572659650842,0.3698372789149148,0.41775478193223453,0.38861980978553945,0.41356798230496805,0.3948205378961143,0.43821760735878745,0.4196657695495905,0.4029770022762425,0.4056527662958173,0.39302393005071484,0.38618774554490704,0.37082749908072504,0.3876560316629163,0.4073316447819732,0.42006355450998756,0.39180556115974713,0.36755228488545766,0.4203734024817769,0.4033105546370711,0.3833044612879176,0.37372085734384053,0.4843084903184579,0.37049135265136374,0.4173563984050844,0.4446576790644709,0.42219883617161436,0.44422095883585455,0.3897491134585834,0.398232813033872,0.39099256603310834
0.414713836874742,0.42658978632259803,0.37308492272662985,0.4159266283646986,0.40550860713664044,0.39511439124963976,0.39589928993503487,0.4192237123166264,0.43362357597818213,0.39323274860163265,0.4004668948736595,0.41145249540320283,0.4251485865805516,0.3921992213318928,0.4074672513056579,0.40421940872087203,0.4167142077310933,0.39406912845492625,0.40144486040317556,0.4068744562703461,0.40736355834299076,0.432723855006552,0.39798729513755066,0.4551877595648169,0.3435086754938202,0.4149007595262754,0.422812907635309,0.3890776223630884,0.44399879687677957,0.39543324059054585,0.40537775185538244,0.4036154304914619
0.47384243727751657,0.4313288563445309,0.3551642676185347,0.3797325455642979,0.40469403616785476,0.35410796980008996,0.38143856977950663,0.400109477372986,0.4095265463352589,0.38040322248090297,0.3847116825320478,0.3878154982860345,0.40684416684306246,0.39142718530735976,0.4008272031307068,0.40880183059771424,0.4393203763633788,0.39521032971068754,0.4042441324596784,0.39550400711056516,0.3824478715410952,0.41253020496396464,0.4172880244375669,0.41335171587152747,0.34613320505922057,0.4180946324201601,0.41735541755492195,0.3910406731423931,0.42519947491762256,0.43129284295858633,0.3956979273176495,0.411239164649219
0.5053770408651768,0.4502707089533558,0.36352779842696664,0.39734541094846443,0.39232266442003066,0.3454922334783135,0.37819040212939853,0.3924892954008579,0.389152789874319,0.38325406909233534,0.4065989510661226,0.38656934845373675,0.39304292961331,0.4124152419106931,0.41271161765346936,0.4250753225306563,0.4739390160055136,0.40593105617701647,0.40227140059349725,0.4228096031408651,0.4017194909937208,0.3924295421382853,0.42825660803605514,0.42065542015194196,0.38155962385997794,0.4221579272536082,0.42949691126314826,0.4488156407239101,0.4462075790106243,0.47020860854093266,0.38320252902448987,0.40187394963618234
0.4704594571244494,0.4392427549883386,0.3703613879274588,0.4206260394077466,0.3999725878617232,0.3722353173665358,0.40094870253733883,0.3970270968367838,0.41714822470745827,0.3959485018255542,0.40670894331260926,0.3992803535470086,0.39340449377759984,0.3985586744416427,0.40545890922514666,0.40314346016762315,0.43756489348272304,0.3897419507862445,0.38271001628244194,0.44109583714978784,0.40028608575173646,0.3697308801415763,0.39986813890388717,0.42576833431742067,0.41844206092310354,0.384189889961011,0.4116976816301208,0.4652425260646929,0.46809525090521675,0.4673202796129584,0.36684094327694333,0.40128135899310224
0.42859119425124786,0.4338877248741219,0.35338319971441523,0.378119546444565,0.3607660344298344,0.37604283020910784,0.41795494863841126,0.3890047599535874,0.43933272956818825,0.4072584506004307,0.4131039812906129,0.41380456706235985,0.39633575676203064,0.39530721772111227,0.3940567404452563,0.3932221977783314,0.4144644437352699,0.38336532088028297,0.3718538434708629,0.4333914543311549,0.39440185808716693,0.3614995481775846,0.39190689509568144,0.439834863398598,0.3916657244467693,0.3569931301943674,0.39470591820111645,0.4286773792768338,0.46122882287705685,0.40784863243216446,0.3663282862857888,0.38462993629843373
0.40174394553438003,0.4525751631730521,0.330374311166108,0.3773928971465358,0.34641383362962197,0.3967020259622362,0.3835890102070826,0.37502944975430597,0.42920680733975836,0.3883254969212484,0.4242955563409744,0.39174116114459434,0.3637367385165598,0.37867458366705525,0.3892554854843366,0.41338703986568537,0.430772454844661,0.34616912847333464,0.3414969285618612,0.4029338360550145,0.39907410735476717,0.37552545322321745,0.4093216261444297,0.45889583722089455,0.32589618561736206,0.4115931488511132,0.42952761795743405,0.31152284800282554,0.44315952435255357,0.34124523556794306,0.44302277388986755,0.3707844067768273
0.427962522963831,0.4463431639225804,0.3777812893717634,0.4042435032094081,0.41949768149614647,0.4179538415817814,0.39322129014368484,0.39062979372669926,0.3851578207115569,0.37533559373186104,0.40479762600954294,0.36037964235651937,0.3390742114247237,0.3705120256724846,0.4008462700486753,0.41788333817065976,0.43882269789712824,0.34985547822071916,0.33966146610504433,0.40394501672162275,0.3771335681922233,0.35001706316352843,0.3687955444028696,0.4416556807437702,0.36188486027571337,0.42289319629600286,0.44797048431583986,0.34752938088644797,0.4308753504064157,0.41348958213777054,0.43512442821461356,0.39568781576459755
0.4670082775323853,0.44837885757576673,0.3887985618335852,0.4154910663107528,0.4293176053476857,0.44391193158962344,0.4153337095443059,0.4080798370739884,0.3758084118060261,0.3957104838123026,0.40899419688205646,0.3554752727250806,0.3499674076075077,0.38154687452357616,0.4103226932827549,0.40710308503864784,0.4118410048349503,0.380303831775587,0.371878483938096,0.43868337480943154,0.3910011934975483,0.3451747144530343,0.3754889191577322,0.44525633728798336,0.37578774879399385,0.3695547452995095,0.41267361916573897,0.4166490372188902,0.432574790961867,0.47549197004602844,0.41470330547929407,0.3773757175898825
0.47839879071758384,0.4304318291848623,0.3704679656273667,0.40071299625125134,0.4260508905353583,0.43079149196519956,0.41631070584508023,0.4262186716350434,0.4052568540580132,0.4244153546461866,0.435494120717587,0.39028797429492473,0.39572526173832756,0.39860738534257795,0.42285954189164443,0.41600752217840814,0.41211084309919066,0.411652605464353,0.39529114673078714,0.4490098957052013,0.4091947217961057,0.41417969065552945,0.4307533574573849,0.4567172488082043,0.3825939794239482,0.3837325170839031,0.40570043968369773,0.4020589796274568,0.4456007370088375,0.4610470225269859,0.41272531351729247,0.4038306265568599
0.4917742493336481,0.45181265870764137,0.3665674016566346,0.3857157158935532,0.3982185172426755,0.3738550547175997,0.3612395702361626,0.40384097968300287,0.42280127094920356,0.39364562625644883,0.4076006023298732,0.38632367931626954,0.40382493594050817,0.3898193047183494,0.40044207490858097,0.4103230059888428,0.4123845524198521,0.4145499022058718,0.3698101001158867,0.4132537399517971,0.3888261536774727,0.41816745195654226,0.4056480480479957,0.443714909137466,0.3879024374030207,0.4096367766477094,0.4160172630183789,0.45007094981650264,0.44894171305768366,0.4706393524815614,0.3949321805929542,0.44689226521429054
0.4902300195648392,0.4642169572981702,0.37324732980091635,0.40526853388129314,0.3828494433367463,0.3628725830984945,0.362157524338622,0.3695468147476001,0.3858444752005457,0.3690003045520821,0.3918742212981935,0.37504053175304203,0.3898920388728738,0.3830628380545823,0.38620090706033877,0.4141097176070203,0.43200191081168915,0.4131039597268906,0.39095351472273515,0.41828406615158503,0.409144118967918,0.4116880701063647,0.3926299930175801,0.44656602412729035,0.4116470065666477,0.40944236103772014,0.42514990341850073,0.46500813149469544,0.44249132977496486,0.4529003124088163,0.39407490366164444,0.4253568211405936
0.47179333619059,0.4437057748141808,0.4006202719883863,0.40308444563911083,0.36622830727006606,0.3795519293543297,0.38015611039606373,0.3516370652307651,0.35675043563131414,0.3530320775135712,0.3822155201916409,0.3617368192745097,0.3841023297542529,0.38459768801637256,0.40185120121867823,0.43725050184728276,0.4638243201828828,0.39912620438471447,0.3862200208691337,0.4245332624247903,0.40206260546938166,0.37705299498395173,0.394991827190096,0.47690184801692714,0.4486194931695063,0.374924232699785,0.43579246951115225,0.4667470095810586,0.43653835099618843,0.44783942574204577,0.37065021034277895,0.3968172860653573
0.4547869311185551,0.44588962760071155,0.39616630019396504,0.3959178233488672,0.37041674784689815,0.3970141881034711,0.38449183817953714,0.35192803673206763,0.3338913854447838,0.3483149884208043,0.3874814693635561,0.33556608586044423,0.3589806127188733,0.3696004856255213,0.39376372983916713,0.4256348225911465,0.44470649061214707,0.3831094478015276,0.3588681698820234,0.399174211435356,0.37221929967096423,0.3421687770215622,0.38088026664128644,0.4537078842066709,0.4095263798468297,0.3522205806477032,0.419573899280103,0.4489354417698171,0.442049755027895,0.4502033760000736,0.3588841294155993,0.3719074819726445
0.4368688127741304,0.40655256812891244,0.3613757121310274,0.3807174005966341,0.35034920909471684,0.38144546219876807,0.4018235491533424,0.3902427793596367,0.3428961978499546,0.3993615018384092,0.43413791473532043,0.3503369753052346,0.3529556791978673,0.34901945766312586,0.3576431322286477,0.3827302862932325,0.42227386129900396,0.3851917044680083,0.3714066250767224,0.39096437046635524,0.3618162379076659,0.34083045741700196,0.36483581089208145,0.3968829408536916,0.38740086892557135,0.34576391454366634,0.40971732479209044,0.40409206047066454,0.4428601671866161,0.4100676863658322,0.3594949850590976,0.36714763002549006
0.4087890129830684,0.38932345420702996,0.3826649572888299,0.39447055276275983,0.3640546808456162,0.40610488636444464,0.3909943282959752,0.4193181627286954,0.3894503705477482,0.42562982350591905,0.4335266020227954,0.38843252995826505,0.3780037273107259,0.36202054316105503,0.3600622413222491,0.37826273087792583,0.4077960568959665,0.37293035046638495,0.38248569332079213,0.37742970913567336,0.3634091272986215,0.37474021523959333,0.39316344513629686,0.3964100548550753,0.39584659218158474,0.38599006709975525,0.42497918845008803,0.3602232181972306,0.41248668972395386,0.379295435755388,0.35974146230536164,0.41277520700942816
0.4330936238224819,0.42239266014205734,0.4046597155395934,0.42900592929201603,0.4197065407925087,0.4131331338583699,0.3743078169935908,0.38880155043857123,0.3434806368650483,0.3763307157113454,0.39565068470533216,0.3654211963181614,0.36612689976895957,0.3671497104516894,0.3826118220543998,0.3878768884542248,0.4036248246256611,0.3822276877536079,0.376504177361774,0.3846106483380972,0.37022593446896374,0.34555681371288277,0.42004935379802666,0.39756754922442405,0.412117204548051,0.4006577021244285,0.4406531632893367,0.37821101342929847,0.4269357378436785,0.41102849629992555,0.39046869225398745,0.38837876378131997
0.4544739080473147,0.4516043958568329,0.391596121238185,0.44301223062997047,0.43961644230898395,0.38795046951197076,0.3532918905623029,0.4022358331642561,0.3601545451078182,0.37271728887967415,0.3806563835310361,0.3817536756468681,0.37533894267413404,0.3722601421826475,0.39396375348126494,0.4148375881911305,0.43212439059694374,0.4086110160961975,0.39726037495328526,0.4066166124255742,0.3998659826705555,0.3616858169119208,0.44224875835295924,0.4218507182785045,0.43826116048632086,0.3946538265308652,0.40848078127710374,0.41533423811672726,0.4385659560321558,0.4204034652955738,0.4043644458467313,0.39880078680847203
0.4483431872514968,0.4339143592601283,0.36891389741300057,0.43885628790602665,0.44012592153903085,0.3906334638113327,0.3924152762724966,0.43710356677682116,0.4172804228584857,0.4187683673689482,0.4321029136394157,0.43558554178758724,0.42823132402381775,0.44799083219432434,0.4425331444560278,0.46871296828738107,0.4705780772962746,0.4382750129721842,0.4317273216506894,0.43812710950886335,0.3983532998940598,0.40881840874722264,0.40716235223966035,0.43791500314914134,0.394420972179288,0.3944182607125259,0.40732696908212523,0.3843247547758273,0.4121044477187117,0.41451374400232666,0.4114581238614101,0.4186004441833191
0.45269187454230764,0.44929167142977033,0.36821373549093006,0.4044032386072332,0.3935927109118166,0.38765846493991657,0.4003734721751903,0.40280086114868974,0.37621715904643693,0.3760074050620049,0.42119443967571396,0.4045329237765556,0.39173820951470567,0.4068767380074081,0.40644827556147634,0.43722469366785355,0.44413545900518125,0.42112537439733977,0.3952026336684918,0.41131870763056594,0.36341730768196107,0.3760151329495501,0.3894808825051225,0.4341981917307303,0.37795863963672977,0.38558780925753355,0.4767621251245128,0.40507070548956814,0.39671827476570226,0.43162928499425723,0.42101564061164465,0.3918131591583748
0.4389739067519805,0.4735716358989188,0.413853369312896,0.3752253605703455,0.37739456901867025,0.422047273490554,0.39559262959883,0.400717099805483,0.3676932202298764,0.3579245119908551,0.41150817393422634,0.3905446370129362,0.3579885281988333,0.3723028595428861,0.37559222554804567,0.4286878888066874,0.44969424469794966,0.411609391344525,0.40501910631927435,0.43254926192742776,0.38609062298231783,0.36129311723215246,0.43348447699502196,0.4583230199651046,0.45940073810420806,0.36372647846791456,0.4934608072446354,0.4186194486018084,0.43553673987811886,0.43189531734680797,0.39762448923110794,0.4106358438196587
0.4372180423559761,0.4213830779862075,0.4093545827606016,0.3643436286502475,0.4006217633881013,0.42986956504432555,0.43612525254734946,0.4414513667758751,0.42995430534215756,0.4318244861123089,0.4277408862958446,0.39824089697796006,0.373625018958399,0.3882267809448332,0.40948890504464996,0.43697908680955366,0.4785705237134294,0.4308113930965032,0.45216367709002925,0.46534153584137533,0.42192392401226986,0.4000033805988052,0.4091013062226908,0.4554223634142954,0.38858318269054337,0.325690655553522,0.41281307441226295,0.36943211985296637,0.41784021875310795,0.41435973323622527,0.34463961819518374,0.43657307482502844
0.44979130299734627,0.43060048237547127,0.410828002628786,0.3888702816339978,0.4084211230050708,0.4154084237246282,0.4231074800310977,0.44108814656568546,0.42465379767977707,0.4042428207050923,0.3901629011275793,0.37902714358858136,0.38695672953944704,0.372732420058028,0.3849473670037854,0.40702934381247563,0.45173382361873166,0.42115389492517774,0.41012437484986297,0.4530674974389839,0.4204230735624433,0.41502376753449793,0.38198395270085134,0.4650434680481389,0.37425581617285203,0.33431436077669213,0.401648228489126,0.38593282399760004,0.4161230762521434,0.4128208666234807,0.3554963685923858,0.40571761125365663
0.448212628892998,0.48292826858454685,0.38961336205508507,0.4284096559645334,0.43546092749607834,0.4016713239383417,0.4074717988627302,0.4204247027869129,0.39849971475841867,0.3909518442995474,0.3883959509028168,0.3723187396250276,0.37041541968757935,0.36446002355567425,0.3734732086579725,0.3867740070350908,0.4159363577441983,0.3711182107504717,0.35301640832907405,0.44500879550974554,0.3898544736339278,0.3869350505951382,0.3891075600255477,0.4814818375258654,0.40871809779570556,0.3844728532930817,0.41351386716221883,0.42313366047836076,0.45125193807572456,0.42115928289070903,0.42097378660084994,0.4058568324306882
0.4761044516112174,0.4599204023266952,0.36653441445889323,0.3952446052300241,0.4234502510507154,0.37686838515225485,0.4043648807748856,0.41747196395653974,0.3881565439006216,0.4095522874879932,0.42213447029972156,0.3812255059974375,0.3406780261351457,0.3435807621935619,0.3597146453895366,0.3706399186309059,0.3967665950009824,0.3563011196623628,0.36568407650287926,0.4162761969750569,0.37070236124407546,0.3763580171960611,0.37288601324610265,0.47080615702696244,0.3813510041157437,0.40528650459923693,0.4472753784066765,0.36853796361777325,0.4524362087638227,0.3978803361411425,0.4147748241158932,0.3843785126024576
0.4206909208248369,0.3850909731913412,0.36358317106394483,0.35654450349972755,0.37678334456456747,0.38732588136067087,0.40578910805201035,0.4255992262778853,0.3835674331044873,0.40573603247437223,0.40845852576460956,0.3771070122825406,0.36818870795381287,0.3542422350088145,0.36968539815668966,0.396192175647555,0.42720826689678004,0.4029801589558319,0.4081473028356198,0.41128887047774493,0.3709520784163927,0.3816948584461435,0.3825668238920691,0.41893080449048137,0.3381759235266821,0.36960788786043525,0.40058381269056187,0.36313177437708527,0.4083015152390928,0.38089629451375573,0.37448613596468394,0.39724010390753434
0.4105899185610862,0.3910109235060067,0.38193651531860245,0.3741263847251582,0.38483625910227043,0.39410270932644104,0.40107471801112843,0.4178766653990871,0.38721805788086244,0.388984649305312,0.4013692886934603,0.38562288609368744,0.38613481456729437,0.38666301077477877,0.3948396494466853,0.42224256701208246,0.45432149500885965,0.4100247776213787,0.40221849910866436,0.42894379886349576,0.3873739630084091,0.37222323315883354,0.3871920979160005,0.42605354653813204,0.3731094920258145,0.37753502232178826,0.4104386470053499,0.3936568344314493,0.4099418626407661,0.3858426652038677,0.376297763987845,0.41048848700175217
0.46703500949370985,0.4196150150703318,0.3887291317293703,0.417541315215923,0.39099035394730636,0.3994986258837033,0.40834406251779676,0.4122616152484714,0.4110666156324503,0.38016642041245563,0.39811166771204276,0.38858622829725553,0.39268752509764615,0.3926170296125741,0.3939921132209609,0.4176576873500648,0.45789693977629237,0.4113698975367519,0.3922392073664394,0.4540939073830762,0.4030594991945114,0.3761354241247682,0.3751527680338888,0.49394613462801573,0.4445808375041952,0.38431169418069744,0.4371141282436247,0.45367804525781247,0.4584543494393177,0.4422001933656499,0.36910373739885904,0.3880637610136428
0.46945418567986114,0.40508597288630566,0.3482471209540825,0.39930684894290625,0.3718923045090126,0.393069605013334,0.39261007447524426,0.39738405689379913,0.3929984678905316,0.39222828010682736,0.3876792259122364,0.36599611083578987,0.368237936956618,0.36521753931757966,0.3725168822484516,0.4032660525522525,0.428521784835072,0.395434123254636,0.3962103678524873,0.42522587183326627,0.3953907716160627,0.3816958651767708,0.3717988881201542,0.44823011921484796,0.403664947311456,0.36283640671467016,0.40713247815217196,0.4411559609066169,0.44176852289644086,0.4693850053848197,0.34016541026973196,0.38128158405943163
0.4830442541929996,0.46009436404494397,0.3663774798629075,0.4059933317103301,0.38472807255024655,0.3925460429573967,0.37076667990497003,0.3961512989460509,0.3775949787181195,0.3937641560822991,0.38192458748390984,0.3696583123092745,0.36279112157265275,0.3605641424244934,0.35947195530414405,0.397662521580815,0.40388435693643815,0.3659316014145948,0.39434677265739854,0.3974900830406979,0.40540792227529104,0.3901348204092534,0.3858441797668725,0.41013590244103415,0.397448004066007,0.40603762684597045,0.44118350694930947,0.4341093807925696,0.43748390504523643,0.4726451227494011,0.3757920102635346,0.4125156010159199
0.4962841737031079,0.4870365338455437,0.3641136151313748,0.40506205743409546,0.4298367034093011,0.38461470054900837,0.3682217046397386,0.4084428518390149,0.38375556670307626,0.3885940171697267,0.3845385230485943,0.3603926625768603,0.3483534663551775,0.3588472835350482,0.3743020321602238,0.4053766782609016,0.4108830330242685,0.37188880746402597,0.3853482734549819,0.40050132142338907,0.4036448430040441,0.3649050100096555,0.38225405999328016,0.42158597006647086,0.4243067025250114,0.4336990270919519,0.4644450833771322,0.44501770060628537,0.48340579710019194,0.49221137451630714,0.41831008610248227,0.4087667357570859
0.44749697719474074,0.46558053600173605,0.32105771992051635,0.41008192239357916,0.4656447194569981,0.3750907159066674,0.36049212927176694,0.43248807197854505,0.39744078833219915,0.38665401932130217,0.383827033596766,0.3737324864854003,0.3542377228154302,0.365196324765275,0.4098453135372062,0.40164955096031124,0.40432155566555406,0.359828939945058,0.37890731752430945,0.40415954158812595,0.4058246952213969,0.34173864995277775,0.3996979588567792,0.43223564688693766,0.431089280223655,0.43091930685699864,0.4488208103746452,0.42393992664166874,0.47643673031430833,0.456623266919508,0.42744969113002956,0.4228252025713949
0.4574590900317615,0.4594036120131644,0.34385654316242126,0.4319947336967547,0.42355409115948844,0.3879548823298616,0.3707624127076947,0.42543171874848484,0.4163964487923625,0.3971288764494673,0.3959183608734564,0.4265350098895811,0.41667319869391306,0.40828439560115753,0.43757140773795394,0.41806103323580124,0.4311320475685701,0.36926522967386954,0.38411078256212033,0.4077852829247608,0.38962905991014085,0.40161511681853257,0.3943179062749864,0.45452224531978963,0.4291463615371003,0.41918250149226705,0.4533084119900142,0.42890879778530094,0.4623760940327004,0.45160968925322476,0.4217820438708735,0.41411922447814065
0.48659610212097154,0.43709378740435917,0.40685734177075544,0.43120003156374753,0.3843916881123897,0.40075430929003264,0.40341921710663975,0.4113449460876521,0.4026154565945098,0.40685297687707,0.4343610018130953,0.417807786008434,0.4043640955052675,0.42867193793422387,0.43984892880694315,0.4582121351913515,0.4814615863030717,0.42097042423283926,0.40155240410629117,0.4074306215652914,0.3950382040438246,0.3989872731806251,0.40570191206187795,0.46806866347007536,0.40800900977527704,0.4152443495224491,0.4631059005143698,0.44716688594925874,0.4790980721897748,0.4613275123780986,0.42560154813791184,0.3746571838258591
0.4368331467688205,0.4032020472396274,0.4109543235716825,0.4343621938989081,0.39512085495716837,0.41293059980826397,0.40581808032416244,0.41552998124389284,0.35817044084355054,0.38568729397442425,0.3815876498179397,0.3686149703923921,0.37075192000329776,0.369639075410302,0.39537715585159067,0.42754809179906295,0.4251118540597022,0.39247317857255015,0.40374925066990086,0.41720233494012343,0.38766029146819103,0.3952198469799211,0.43098701242177206,0.4540390256423187,0.34283265620099956,0.39185335048595604,0.4105227998983923,0.3650897899418675,0.44623381684988944,0.37377663580442677,0.3942871918713913,0.3730809004809244
0.43971935040738197,0.4448403672947247,0.4333847336745998,0.4489688913416502,0.44293422492919604,0.42802829781841584,0.38540019638782624,0.4116165426257531,0.3695044934831001,0.37931037532280826,0.3795320842849285,0.36848691725860033,0.3557238182490823,0.35913724995269647,0.3966691705860629,0.3983231483778926,0.4021765567085558,0.3783028902468425,0.39203036628271665,0.4369198189057559,0.40678903584490395,0.3936462627093576,0.4137813863130352,0.47001328539307485,0.37315012892394,0.3468363938912947,0.3771982149822616,0.34328329573445776,0.42180694347856335,0.36668099428927287,0.3993956434457571,0.3881068811097493
0.4198115878892146,0.43455584824832233,0.4260743651862554,0.39534236683723684,0.4238940460699436,0.43128855642231273,0.40122164886044415,0.4183527621073071,0.41509922205611455,0.40599065168648707,0.41600688298644406,0.3918220467289304,0.36492559047666767,0.3642966101126122,0.401921209451804,0.3940507356056394,0.38942707589957515,0.37285349368721776,0.36903578777277896,0.42756923104535294,0.4029042806295847,0.3932708748216225,0.4148903325377327,0.46761721801425776,0.42305599364528546,0.36795541063426856,0.397894562789526,0.3648712966610299,0.41082749888037673,0.372092011054487,0.3992287522403978,0.41733342434294474
0.3872550054506982,0.3794606061951638,0.35676544521801934,0.34154162131795673,0.3695823333952256,0.40020624564725354,0.3948451504842658,0.40973972915072865,0.4295637984598152,0.41798476075550484,0.40472201430781046,0.37310526424892265,0.33990343131412437,0.3301351864534119,0.3465800811374757,0.3445980964906821,0.34216976613281735,0.33162587547547273,0.33894008959123484,0.3837757111928061,0.3365618794905722,0.37042681010596207,0.3933090498580571,0.4533734562969829,0.3930989520041097,0.37451274351875535,0.3936135018047299,0.35672644922875824,0.3938171080076575,0.3693519972230399,0.3628739225285429,0.43557135213598225
0.42448837250364735,0.3725066777380521,0.34798100097496026,0.354455818787078,0.3679738722833544,0.3737664485427929,0.3820597865375332,0.3969695006160284,0.4132994433114364,0.39509157329936634,0.39354128935919697,0.3883668596779297,0.3580988731536049,0.33264596581410366,0.3434860260234484,0.34590184523616263,0.3627287626006776,0.34200857251968036,0.3541888697907441,0.3830071078831993,0.35989470695774584,0.37749370399039855,0.36176307557781734,0.45276142320840684,0.42555813920435975,0.3617088874817663,0.3966316355725085,0.4138540490379897,0.3906979789704521,0.42122590757688144,0.3532376984284337,0.4209504109072159
0.43347862713974694,0.40613428554992026,0.3717477381931211,0.38350099413675504,0.3950594848849292,0.41334987309934895,0.3882332349875617,0.3931285476962737,0.36346552976902996,0.39648590582191223,0.3962931426942681,0.4057858154283056,0.3832903334884946,0.34751835153100036,0.3919490217021905,0.39549006246492346,0.4337043167874952,0.3724159575589513,0.3740128620974691,0.4140165151787761,0.40204763673680044,0.3907050015180686,0.37087655635013006,0.42863676198444317,0.4621259842604799,0.3682374161549302,0.4399467567646129,0.41964049251855307,0.4320706053024791,0.41537199683605935,0.396044827395165,0.40976934595496645
0.38222697999932026,0.38462515780147427,0.3414013424841158,0.36036783337566386,0.4028766430714969,0.4197101832684588,0.3779716468366546,0.39202889987729117,0.36122902735076745,0.3906591255415619,0.3889205227752811,0.3757581986456032,0.36057840031178734,0.34082686588900446,0.4230994730246113,0.4375520697261268,0.46868146942684724,0.4209354568386,0.3861440685236177,0.4423380107935938,0.3959363983342238,0.34717504730074566,0.3984365616017369,0.42413816483596256,0.40691894113989935,0.3669892045065732,0.4271479222268325,0.35733986299724146,0.41802907470567324,0.3682353766828722,0.3796861470473205,0.38304494445901827
0.38551871392905235,0.3991887607962065,0.3514234203654049,0.36369523436211787,0.4159589661844443,0.41331744453727115,0.4028279769116259,0.42717626584231694,0.4055675528280729,0.40678269221057234,0.4205317278703063,0.39496884175159125,0.39758655958855055,0.3956839714222172,0.4420423484695071,0.4442657232624824,0.47677513556743656,0.4514326941037501,0.4163716658951795,0.4396350161217996,0.40409951860928833,0.39813745314450494,0.4169953599406209,0.42652538486188624,0.3930084049215769,0.40896927873570843,0.42955636203225145,0.37816501771281047,0.41805439678796,0.4068731348105801,0.3784706293218383,0.4051452769405664
0.4368880731975396,0.4211943614714493,0.37743692016073527,0.42111538164228834,0.42627932243440797,0.41728734683401536,0.42375253029421617,0.44228805423012835,0.4341742247380123,0.42671081124959,0.4361329355120158,0.4134912158985815,0.4035086562856146,0.4181325895221914,0.42594918958657135,0.4108593569151105,0.4433890803366187,0.40594882648536373,0.39232014873484644,0.3958806365734874,0.41005053521594415,0.4416149174169045,0.4235263458946564,0.4243627743471521,0.4271238547077708,0.43015007171626335,0.4662959482963971,0.4411312548434388,0.44931816996680557,0.43980034265504164,0.4104317460612961,0.4185092813020342
0.46598720876792477,0.41157708443936714,0.36114396651039116,0.4217524586451016,0.40126250348395043,0.3886314513414716,0.39606800183454777,0.39901082913318386,0.4177855608930057,0.396247459751447,0.40551441036368335,0.3935807497871998,0.39736418959903785,0.4017594918950099,0.40428752576736066,0.40384822297710793,0.42958240141827464,0.37771430461713695,0.38294025113577607,0.376306791265505,0.39277770370754883,0.4317370641558152,0.40659020155415754,0.4252411876662023,0.4228654263682007,0.4308305000228899,0.46619137171851305,0.4245612255835467,0.44742150765473815,0.41984071479956,0.4042302003487496,0.3869957912713644
0.47298791056878287,0.4089866185597637,0.36269459531198367,0.402260439227304,0.4090241919204495,0.37118976379783525,0.3747257943092593,0.39572715777475537,0.4021123016064006,0.38663660123521065,0.38856633911516164,0.396236717986499,0.40298321124885644,0.4002210849489102,0.409164796511736,0.4338276587474162,0.41876895454113866,0.373099343868262,0.4030011379880458,0.38445309864641863,0.38866851416556497,0.41949822969886474,0.4012988662908586,0.4129072167844334,0.3891294766935055,0.42536750909081095,0.4250914355338568,0.3809725706418815,0.4155967019045008,0.3834496516041856,0.4045649014093366,0.39902558205677047
0.45726141142577925,0.4107223210711732,0.3749117213290959,0.4119738032467355,0.4253731001519023,0.3671948658269335,0.3649329272494479,0.3990147439225814,0.38349639761328647,0.3686626353274604,0.3718394203737709,0.3658858071211491,0.38708088758655185,0.3675659965111941,0.38384919019760827,0.40920020731506285,0.3966915060985219,0.3719367875336473,0.39706961345262665,0.3926901800790902,0.40184231958189554,0.4120181530489166,0.4179205535710278,0.41937111929071386,0.38960618457175766,0.43665510688263925,0.408871223887458,0.39297667427916094,0.4295030421225998,0.4031071602092221,0.416955945377891,0.420880592362605
0.45464837664159347,0.4388701550738646,0.39358234268264536,0.4344586608789939,0.4212481536899817,0.39248202509359753,0.3745780546684131,0.4013843484691961,0.39257845996590407,0.368124666594656,0.3950441297796961,0.34869615802975684,0.3849317613568607,0.35466975943139517,0.3845899349448007,0.39409765778492956,0.4063129731698418,0.3871732081786701,0.409298944434887,0.41733572708147804,0.42634338567898633,0.4206965457353613,0.4012005779020603,0.4522395404449088,0.416686028517674,0.40885556574695414,0.43429959865145484,0.42822998190400446,0.4610721508219763,0.44822485270289186,0.4244485788263165,0.41895218925998207
0.47525578888981096,0.46225737601367467,0.3891714426162486,0.43036623573227045,0.39880100768239163,0.39579715428777423,0.3788377889573216,0.3912294783657693,0.3955294219030721,0.39211688104201914,0.4150887883228066,0.38611971200460843,0.4040157794644947,0.38262979476319153,0.42076641233868783,0.43891829815224714,0.4662157501202617,0.4454547300650196,0.4506268265225153,0.43746252985415324,0.44070250351068807,0.4252915956203012,0.3964522149701542,0.4567828568965116,0.4327154957118274,0.3825497683199112,0.42892275539683067,0.453739315961934,0.48019191432511266,0.4543421317812102,0.43039651537665585,0.4104446489367568
0.4845216909397049,0.47974719174409475,0.3660029807794693,0.42782858294334136,0.414505336946119,0.3827694541113872,0.35850813439828433,0.3686929747854345,0.36083254630713335,0.3559947300108144,0.37416302330653484,0.36543068652811767,0.37640145129928565,0.3595659052399061,0.3945803331194419,0.450315017222927,0.4682722008073942,0.4425718341308938,0.437752107387975,0.44650546061427887,0.45196433820721515,0.4018721845185271,0.4103212483665292,0.46694863020699606,0.46978400150880745,0.4147882749667781,0.4208462762100919,0.46738000585833384,0.4866508943944629,0.4516054234456785,0.4179040298591766,0.4107189083122393
0.5118876527941895,0.49306754098236427,0.3750556032989876,0.46341776533769913,0.432366972111242,0.40471924074046356,0.4012234591114454,0.39151647034054865,0.39069978746799405,0.3846726484652215,0.42296518339083705,0.38289911867908283,0.3834263658937173,0.3862889504655715,0.4162666095350051,0.45090522614592815,0.4621999148056273,0.43083414216340904,0.4302688450907316,0.44978492231800404,0.44109542754084685,0.3954264061204353,0.40741956553888464,0.4522914929029664,0.49904313228285085,0.41635921376986984,0.4580619647763211,0.5311428336420705,0.5008668014386933,0.4917162735410304,0.396370726937321,0.41341845870732813
0.49664291430877067,0.48561674554221684,0.47712617439487837,0.4912693937331069,0.39764882656970424,0.43127875800272064,0.47962749453640424,0.44895773735259337,0.4340034386669429,0.45821582099386654,0.48499644229074074,0.4351484335754859,0.4208758823525458,0.43316612051475356,0.45023194419566553,0.4499586800901276,0.486534168641773,0.43819383019928543,0.43973262588421314,0.4492819509734221,0.41282383648014814,0.41287386501710766,0.4350198751685492,0.42770221819186166,0.5296700290873739,0.42711492417624874,0.5100891632107898,0.5472410251114791,0.524154357727976,0.5189464745184759,0.40084402716663287,0.4108786644836271
0.4443291008399984,0.4390819379252271,0.43095125328133654,0.4401851965274208,0.38997839302621173,0.436528855086198,0.439304000837312,0.46334952717437966,0.41825313316374957,0.45439129742419515,0.4582833294600064,0.4410430260936071,0.4056749598193167,0.4149915283554773,0.46289897252174345,0.44278320281020217,0.48789003607043885,0.44814171825158383,0.43358970491398513,0.4663184250491295,0.4309950833242562,0.4510748906853882,0.44068699729998256,0.477735095855982,0.49834449398269004,0.39693940222889373,0.4664644340842598,0.44891366224361906,0.4585108227755608,0.4333338717644245,0.37337357242900054,0.4514890297162643
0.42801209668155027,0.41801899594580827,0.3620277228469493,0.4033754134173216,0.384653468384886,0.4175453064477682,0.36981035544271323,0.4453754116202234,0.4095180918982032,0.3883693067580697,0.39820752182916824,0.40752073571602654,0.3895915572675644,0.3916513015159338,0.42592960404399777,0.42018761666128795,0.43609230340384253,0.4257981274685875,0.40127496083194564,0.44094135017063185,0.42004144302610424,0.43825581984511525,0.43072336606990297,0.4784344376425383,0.41072353618109153,0.33922429527470527,0.39212847630730513,0.32861045962358204,0.4005065540039842,0.33359774952107035,0.3514698993227544,0.42302104772599014
0.4848364565685671,0.4477975201753295,0.3799008540864262,0.43871635833769523,0.3983955281094885,0.4127551905103767,0.36466235083070864,0.43288306651344427,0.3997912487611565,0.3774165299073907,0.3833730703812335,0.39105191173102677,0.38824907092328886,0.38568240186821706,0.40175879096660155,0.4303389744634072,0.42257202720895093,0.41616875540408993,0.40930249071621855,0.45215103891996206,0.41681021163488186,0.4059765868870845,0.3778986874069696,0.46187031740114254,0.43326873711042196,0.3808300416287401,0.450424383246963,0.45502019958967577,0.4556138961737145,0.4356231495012699,0.37692780378090834,0.4007965587797228
0.5034957252763709,0.4750681873525309,0.3887079236601646,0.4387295644687747,0.41936956499477873,0.405627204425258,0.4157240283455276,0.426084909607498,0.41779740115367725,0.41697194367526724,0.4390980144978227,0.42779918864037547,0.4036872801146712,0.41622561403324504,0.4566734582272509,0.45429471149128425,0.4558705319828436,0.4014713979128953,0.40707940208350235,0.47302375193362595,0.4151235573195895,0.3943895444427154,0.35965425561586395,0.48994184327270107,0.41763086324550946,0.4281816165217273,0.4758062653629632,0.46029997314974375,0.4947352001490501,0.45437189102637193,0.44376736821559837,0.430846703525518
0.48622167887835305,0.47387219438567096,0.3722643062500313,0.44529351926005495,0.4081291428332374,0.4185373319615891,0.39474562166716526,0.4090187797274393,0.41864284733234636,0.3992920217158719,0.42780132440763485,0.4259201788853502,0.42890654005624873,0.4054166620532332,0.4300416396430193,0.4423968841964436,0.4523949135776386,0.4002915121447135,0.4037131329713828,0.4344003880482035,0.41783538648324464,0.414674491799622,0.39432263697115005,0.47510261518447916,0.41782795706819215,0.42698235427747117,0.4705761244157488,0.46537236742314325,0.4841382566924451,0.458465919874656,0.4249756401047843,0.3829314543449294
0.452070789863437,0.45747996894566173,0.3857614727547797,0.4405868318417901,0.40171200333533363,0.43351414804817495,0.3951160039653656,0.41711037281486935,0.43242562013565833,0.39064458869921637,0.4057467945491575,0.41896613432231566,0.4361579401901417,0.3993390312818799,0.40618529851526736,0.4355366605615047,0.44468751415482766,0.41199381994465384,0.41526823911965993,0.4269744308173653,0.4216940271482534,0.41493518972493315,0.3864378618497657,0.46404970441739163,0.4171598129524159,0.40100867803213647,0.45411041595800966,0.4531142582224226,0.4518785791046132,0.4566054977151122,0.3886164731758381,0.3641026895285303
0.46438949579270555,0.4766295157489804,0.39339024736435335,0.4336273590895164,0.4206566660445853,0.4238436595645513,0.42576816543245,0.41738670295645164,0.42372224174830825,0.3895523300849532,0.3961191584830603,0.39797271925538663,0.42196442391205213,0.38286829277393747,0.3964753541312429,0.42802542187866366,0.47113170088682377,0.43631137580262797,0.4290801836376815,0.43351329281396844,0.4135649199945825,0.4172153507432563,0.4000900347416354,0.4606237814868811,0.41079646034016754,0.4127999122648426,0.43550736074792157,0.4329805768590641,0.44442981957083044,0.45233793016499796,0.42565061349987166,0.38199146915330123
0.438095904637795,0.43477851922779903,0.3996913038891743,0.43356307689414186,0.42388938014106714,0.41664132862911457,0.416327191549125,0.4072678204164401,0.3900134863577966,0.3996020453482947,0.4091126770872418,0.39789369757859466,0.3833685616938722,0.398555667487079,0.4305699458340504,0.43861639132624874,0.46743696856711836,0.4244698451362249,0.41345519622359445,0.40891674888291,0.37469897401276786,0.38742347617798994,0.4012451878072869,0.4589450697306082,0.4170748197061833,0.420507568921145,0.42161091191618777,0.413427168855039,0.428411410556114,0.42659034888146746,0.4250750454101656,0.39774613547036236
0.37351153998626546,0.4207457248947559,0.4165884416857951,0.4201089795011925,0.41695738634809076,0.40850814098171356,0.3685324835311404,0.38879811728063884,0.33922632334876257,0.3602492473787754,0.33887412927284133,0.3343439201698387,0.32794778200396446,0.3313312950267065,0.3316793334515291,0.3333687347005974,0.3334967022038558,0.3288236248801065,0.34377156301263984,0.35858547797089335,0.2404966771203451,0.35585722911595286,0.4015744707096638,0.4590324592801774,0.4197570530804541,0.4014389912750765,0.4022358264254509,0.41149091743241684,0.3993578535769251,0.3517215443350054,0.40031492165744764,0.3675095985807037
0.3456903329830696,0.4117101943117298,0.39323443021269794,0.3908203783316698,0.37809316794842407,0.38493518850906866,0.3597781948380726,0.3782847371040012,0.33349536513312295,0.3443182834705798,0.3258912206054883,0.32612787207022736,0.3256597062471611,0.325159324188157,0.32578157448326867,0.32625744360423214,0.3307606450849343,0.3221567521040417,0.33913633251571285,0.3598405971892763,0.23255909444034548,0.35378311067488233,0.42261710841242633,0.4443447788425055,0.4329889785422581,0.38252553413008367,0.39095798978546875,0.39674198108173825,0.3700188515659393,0.3446022275914809,0.3710726090244163,0.3650240751055397
0.3595227032720592,0.39672306981174577,0.3660901292078946,0.3834504299695093,0.3716066563101345,0.37995766201509207,0.3686501596225446,0.38227286665213256,0.36301850721221285,0.36225429597997744,0.335809316330502,0.34523347936597565,0.36657231230578685,0.32417279063608545,0.3253767056265118,0.34398117583713367,0.3740135922839348,0.33784890820098706,0.3603965229952206,0.38837050667339407,0.20709133468758992,0.34914977513267925,0.4139415570743033,0.43944170084581324,0.4227715613309243,0.3702011244396536,0.4073699327119345,0.35843883153700645,0.3960047883721663,0.3839187467536875,0.36874632352322045,0.3818017658429832
0.35195195048712985,0.40480777735653284,0.39650504751150756,0.40854721209839895,0.4166596072165192,0.39570516422675217,0.3953613735116514,0.39738717426840003,0.3851090710508175,0.39014330862959634,0.3691843252113673,0.37221794013233067,0.39598722912427897,0.3397680854746058,0.33567806200054534,0.35283452428206463,0.3791802248984403,0.3698132128662895,0.38518309467982376,0.40770795399470733,0.1984162435621134,0.36732595439677945,0.3787382729983077,0.45398415298872646,0.3813978120912075,0.3779947391198785,0.4059938958393773,0.40444388959384675,0.3940098681685543,0.35000333109965825,0.37576979998569127,0.3672494793494524
0.36680313645062446,0.41455425682516966,0.38621791485182144,0.43286420378076956,0.4377397609888095,0.38627366121338125,0.38405491327577584,0.40675347624771807,0.4153334531339511,0.388232150830893,0.4066888511456039,0.4054995409570689,0.42140492516286604,0.38352669794814503,0.3936920730948027,0.39504260142412,0.4079108662200087,0.3934973596378583,0.41569446915287134,0.4259463155814139,0.22939750113927385,0.4260325664748696,0.39588253900396003,0.44578170073328693,0.4036458457577805,0.4083876515964875,0.4184972736332725,0.43289380031840274,0.4164516520705202,0.37392214010810443,0.4053006803455456,0.35861055228100586
0.4291416401486237,0.4230234710589179,0.3771661824668867,0.3890754355244769,0.3965844475151503,0.3642684398440331,0.3538955142702461,0.39008331769278626,0.3851831831274197,0.35669227318929714,0.37259867779406747,0.36742404877245294,0.3782400069668931,0.35984160237557916,0.36875204921986704,0.392379199445257,0.4123253663513209,0.36723578411204455,0.3546929945795044,0.432264552437201,0.36196744422348387,0.3593365151294421,0.3601142948466097,0.4332606338663856,0.41287426115040343,0.38344538699271175,0.4109982562996308,0.42287400526253877,0.4284991551950584,0.45092753985569106,0.37782640127238676,0.38413197663519144
0.45277047703475365,0.42589648658962,0.39008367079052325,0.40048546103701743,0.3934266925367772,0.38950883559708055,0.3905505619588215,0.3942715426803334,0.3298314536427225,0.36888122410888907,0.36909768991945985,0.3225051843814709,0.31965158062183757,0.3368155909242974,0.35674982005905986,0.37741096173263255,0.3827273379760194,0.34305089969691865,0.3253568791157786,0.4123526714031873,0.3516866294775094,0.3248076336410793,0.32923768112908164,0.41825434213575785,0.4090238607185758,0.3764051103572779,0.43397265038325716,0.44150783814124983,0.4407257151104613,0.47006576028242497,0.375658825788193,0.3973429399726235
0.40527828132501326,0.4167763542628134,0.3670015996345113,0.4243295859433085,0.3978596962392999,0.4099625584986848,0.40700002757397996,0.4186998122260844,0.3424050222642055,0.4012936556483305,0.3864307636741416,0.3324788128718273,0.3208996981036316,0.33392381990898734,0.34888741583557936,0.3432855422451308,0.3521495709091393,0.33845751725753354,0.3501894933084701,0.3985913959956689,0.3728035845859996,0.3698122332744491,0.3489119693148277,0.4183338102363202,0.42145116760866047,0.3952924765179664,0.4142927979188672,0.41416442542911625,0.4155305342449382,0.3981105624280896,0.386473989215163,0.39952478883020953
0.35664523547113547,0.3991271967198725,0.32719784070349484,0.37480652663189246,0.3767008055994067,0.3401963870240078,0.3425088804219333,0.37461477765886686,0.372918950899579,0.3606897859314521,0.36783525290019115,0.3615552912608158,0.36902282561008865,0.3504116402642327,0.35802014275093247,0.3601141817998715,0.3755400741146774,0.36851913004966774,0.3931762116341533,0.42582315691951916,0.44263508310131017,0.3925384610414479,0.39827001149493635,0.46569794978728185,0.4238339482214578,0.399818195226906,0.38147612022064675,0.34369615233328993,0.37135060716686025,0.30364864686335874,0.3731898278663116,0.3874992068473655
0.3568532622940292,0.39367794792271293,0.33833862928999675,0.3646333269447951,0.37312321934878556,0.33493700841122187,0.3468350511972926,0.3533861355827835,0.35859259379572084,0.34623716067800214,0.35462278318106477,0.3472130697826729,0.3607616488114014,0.3412318419012547,0.34754546145918663,0.355218072577644,0.3643731421161038,0.35903012710976656,0.3814021408264341,0.3999170650385275,0.40726891267209764,0.38796048780762765,0.39996696513526653,0.4517980431110489,0.3735893561945021,0.38993997730847973,0.3872810034547732,0.3435147658823351,0.3864578452314012,0.32098625343109405,0.37244547988900234,0.37053899867697354
0.37886670107847004,0.37949035962903743,0.36273339741836197,0.3576478261815994,0.3683471397838486,0.35530624816274814,0.35796001030922975,0.35124797024022464,0.3533722087898976,0.33984343752234336,0.35087373574509706,0.32622355016820215,0.32280763239234556,0.31541705612062054,0.3295242651401236,0.3472029993405819,0.34948053827908204,0.3197562135809314,0.3374043151647855,0.3600118713530318,0.3509627579998936,0.3468823883447438,0.35621078869482925,0.42200334260596084,0.3569949650100842,0.36192616829119684,0.3830615205300847,0.3917735379425717,0.391390079559404,0.4205549224464392,0.36015826302306436,0.3838142657845815
0.4192176989191391,0.40579700906692767,0.37737919008370757,0.3859199063388419,0.38417621183984774,0.3732532933583532,0.3678746593268386,0.3600848200953178,0.3735366679825599,0.36287851273430116,0.39011008987313184,0.3624933658567387,0.37108143945307426,0.34967282412506273,0.38009145713973425,0.39500085397913715,0.40658953958587785,0.34469297281896244,0.3805471895660316,0.3867657464377457,0.37499335589132404,0.3736856677291947,0.3613114672528882,0.4369074174468369,0.4034408385596658,0.3795801452570134,0.4018723367886135,0.4158685281216344,0.4260974386085377,0.4346916911725633,0.37376123134825445,0.3871253090328965
0.4078332668044239,0.43230006206600063,0.4026215671437086,0.40785007529841993,0.39612999038170627,0.40409078361047274,0.3936344049532439,0.391549147357691,0.4089337765712702,0.39531043320980946,0.4003625435452233,0.3967064241478785,0.4268302184891732,0.3827007205840535,0.3965071720035492,0.40519558967531805,0.4270911817764875,0.3901802275340927,0.40841770932601956,0.4258567095170464,0.4199622061264139,0.41078299214165653,0.4037686307501958,0.4791829223030759,0.4538700319809277,0.4000685186272921,0.42775206285719564,0.4057357886732516,0.47447956094865057,0.43405384082174,0.39114306908158747,0.35999878536285873
0.3866083749326565,0.4119339370424895,0.39976053210846124,0.385280019003335,0.384047679253678,0.37487555406218437,0.37876001029346396,0.3657750235488938,0.3862703569102594,0.37069873470768194,0.36605909973032924,0.3729780543000878,0.39216187063302527,0.3797110662593684,0.39256255951791863,0.419219296930844,0.43847340241281585,0.39997967109574134,0.37212180465828715,0.4011180586284992,0.36350733500194976,0.3414786103503917,0.37257554891699823,0.47452380349327317,0.41990516499059594,0.37085856561397573,0.4290631488743635,0.3736446168890663,0.42916518930208075,0.4157834837988282,0.3854399073841054,0.372658729899882
0.41961371942716685,0.4255794788436853,0.42537670707254466,0.4053436948901267,0.3881681551835213,0.3770856778952468,0.38169250204631866,0.34978527707362467,0.3699921659346108,0.35155555269759564,0.38377269336353526,0.3630034160929532,0.3734430258233737,0.37932128336559817,0.399070741917175,0.42928203251483443,0.42658583212750084,0.37857876850466016,0.36520726611527,0.366109438595732,0.3475586902296851,0.3402244879446134,0.3771016392320553,0.4529297319655508,0.4159369468173057,0.3589353689502939,0.43309943552868435,0.4214577114689568,0.4512163108607645,0.4487784547491972,0.38301706210657727,0.4223641920357098
0.5001710834395316,0.4912605692338621,0.4814519288854746,0.4678521060567759,0.41981413934620404,0.4541536806290247,0.4260782892472369,0.3910821249420642,0.39247895857482745,0.3863798792669377,0.4190026031854927,0.3621563218826723,0.37916469406710057,0.3832325006576453,0.3798511995504405,0.4084652945551869,0.41438132592192545,0.35601599102561615,0.3738188423025006,0.399455638563147,0.3822993080765044,0.36262253473288547,0.3829590470657325,0.45296237586693516,0.4262406633668292,0.3804102767563785,0.45111227868032344,0.48064442185781575,0.49563236936869015,0.47520706304163624,0.42582432212181354,0.4424297572152584
0.4857809212673485,0.4942505335622952,0.42767111040617395,0.46391371788274666,0.4327848472503332,0.4577763730103797,0.4458571718162018,0.4236120763654496,0.411150476189616,0.4188188063871127,0.39632347039256927,0.3477048557902995,0.37964947083756523,0.3733030534590408,0.36600286187055986,0.41519582400221117,0.4466426284879026,0.3766185223381198,0.36196250199416735,0.4174019957094938,0.40373476284866977,0.41562056828782146,0.41065029048905494,0.47356950793098856,0.4492450376855334,0.47102991035912906,0.5052988098381138,0.48411509820359605,0.49627791159875045,0.47111465737598723,0.46717477050891193,0.4125883224876527
0.4788049753589137,0.4402173690708513,0.4099437398551827,0.42077978938024385,0.379083470426733,0.41132110840591,0.43263192520488597,0.43498494858683695,0.4275415172068729,0.42405310935134116,0.39936885167109903,0.3884997184366198,0.3883649155496326,0.40526623743296136,0.41182374185813536,0.43387287375055805,0.4564780328851006,0.4207383492462394,0.38054548796218307,0.4134516567708997,0.404198414053963,0.4306152809062278,0.42444429276723117,0.46216551969283,0.4282202851184289,0.41483799469973476,0.4648264202044757,0.4579191462421129,0.4675597285369132,0.46342427301340394,0.42293584912911536,0.40007207834985836
0.5001260720635754,0.46867108206256025,0.38873952946487206,0.417999795842913,0.3783811254233648,0.40612230034561475,0.3978040637471314,0.41726447205288986,0.42601386270839403,0.39976672748997283,0.40878965298126285,0.38644031092311526,0.39663589434974317,0.40952025390011304,0.42412211550886525,0.44329484797974367,0.4420788023706282,0.43637200786399577,0.41526309135832135,0.41625426735211224,0.37477117898836754,0.4078394351784547,0.3796225962142454,0.43023459826689064,0.3860622382235946,0.3702141678666032,0.4288089097742231,0.42771291346636114,0.4703216162519321,0.4436447459819603,0.4081055050670911,0.37160372493730787
0.4601221812350122,0.49345211849574694,0.37516252672577505,0.45227299976578156,0.41755147570827006,0.4197085335096959,0.39820618794388296,0.4204349651256692,0.40825723950345466,0.4075990650681081,0.40422334995734704,0.3930874646874353,0.3818815881361382,0.39418427164448755,0.3988645016024263,0.4206999374544613,0.4333861879425335,0.43320138447078943,0.41211564327993305,0.41382045725877503,0.3851316071137457,0.3972374858096319,0.39668678912975874,0.46416921926427734,0.4239792445675449,0.4017989489187973,0.46070130820241334,0.40977567850459656,0.4709475943310287,0.3991536413267477,0.4342680576767318,0.37625462161190054
0.43611992050283954,0.4629221422747662,0.4390418239858696,0.4679741046144748,0.4321085050952749,0.44973608985667846,0.44432884690721025,0.44415648524164947,0.39080226965127196,0.4327386322237126,0.39790540419965986,0.4131644445291467,0.3762231053387789,0.3908911922861058,0.38275559191935965,0.3995790362724658,0.42537515496207945,0.41415016759990575,0.3935484295167784,0.41500020919928043,0.41556586220029046,0.3752459025677247,0.4226072631961657,0.4931463693036845,0.4396012596741156,0.4134396737379789,0.4663092075695197,0.40071800999417867,0.4166190454811014,0.3850309137500518,0.40696906252679727,0.4298645658399918
0.42248115692777594,0.4282894601774008,0.42946912270745025,0.41008662945162894,0.39854259214308535,0.4213223154204981,0.4189456788240112,0.40082317362562736,0.38195486596287503,0.3755321822623074,0.37952538033340805,0.38739391719107663,0.38733179318248334,0.37936994709323657,0.39091407813135925,0.40254606886171745,0.41699194393033423,0.3952161310431272,0.3864088104184387,0.402893621293389,0.386544818137978,0.37270251782464453,0.38316630806047075,0.4438353827767544,0.37442977711125436,0.3766337213547659,0.38655184328341136,0.3927891386050145,0.38086197867624827,0.40560592500710135,0.36517793942869387,0.40285375071867113
0.42939471681589775,0.4235899252294789,0.3977414534484682,0.39223391996046164,0.3716113421233041,0.4083937028792769,0.38872661410595977,0.3641944802195398,0.35370451094363853,0.3667694762342443,0.3805530842979293,0.37616840363332305,0.3972741713207509,0.38484046184407633,0.4035842263496649,0.4009223948627888,0.4208716315287708,0.3816989370340131,0.37704842234418645,0.3915288299953135,0.3715833757093166,0.37157413173353276,0.3514933001472561,0.441111683700597,0.3782949353126714,0.37165330202171565,0.3803223450157597,0.3998767214325054,0.393675148770802,0.40980773249271574,0.36434523532320784,0.3677225207083069
0.24915351264658753,0.3861504348460229,0.2806998971567091,0.4107772105176278,0.3767002803875614,0.34781261437325095,0.30511849680281194,0.32466305092897807,0.307981527421769,0.3197083373592677,0.3171733164536916,0.3197513957085901,0.3175304658310954,0.31489473895539644,0.31757794227198555,0.320687035388012,0.33297545704878206,0.312841198491247,0.3314291523378212,0.34497353229652833,0.3489673327484046,0.33263033296713196,0.35240092350804103,0.4223622384539817,0.299051686021877,0.35566263595677455,0.30328860493414467,0.23946948045524716,0.26006998910112583,0.22337705037582226,0.3367103304608406,0.3411328601031204
0.13696291133443456,0.23239695942707025,0.1859426805375328,0.4242847304573958,0.4203845357448643,0.2790830676942875,0.16973374549070105,0.24276990087670294,0.23069581347030035,0.2031431036249053,0.20434324796649403,0.24161241328194805,0.25602357515754526,0.26289669959468076,0.256632304903608,0.2730037744057681,0.28483035410056273,0.27081662190926953,0.2876926709276332,0.2956096061994363,0.32893692833509824,0.27981460906131,0.2716817203786399,0.2880765871168597,0.14687539253333864,0.22987175830303383,0.156899694490141,0.11717845101895061,0.13869316018356187,0.11687910383160313,0.20442145900966588,0.2695861280706331
0.13137212838479237,0.21455132961619894,0.18931689423083425,0.41515581662019224,0.42085177448609695,0.2781968469376161,0.18820448610262938,0.2459525890382743,0.23327262411268396,0.21108817131011698,0.2192956881568129,0.24248028023723625,0.2524381321941215,0.26874359734373465,0.2670549046055184,0.27996637794627505,0.29857366193177776,0.2721743476975063,0.279384275604419,0.3283409055029505,0.3224028083721198,0.26285618498077246,0.25059213548846765,0.2827175074276643,0.14787661505629948,0.2139901196184731,0.14962004919776092,0.11137563183316937,0.13326574612307535,0.10684331693265305,0.19210773791752703,0.3231576204575084
0.16344452474150062,0.2389703242674634,0.20298994127625516,0.4031441491474777,0.3734419495408783,0.3022561857056686,0.2278681058192081,0.29344923821962743,0.29366761820021764,0.2767645597081261,0.30462705035279475,0.2746220366810228,0.3075879021988322,0.29349055024370097,0.3260866150609111,0.3602015142745339,0.41674984481248745,0.3763313082525526,0.3875309989039176,0.4143330994726249,0.31263132872926735,0.36121299942216095,0.2873570382163777,0.2895193618144221,0.19366133955170686,0.2949863146518108,0.18465131579745264,0.1360635416450699,0.15215153263363587,0.11860657676858331,0.23937492937947052,0.3649080076592918
0.1660139647607821,0.2420927661923602,0.19373145167881178,0.43885699197440275,0.4063318015672753,0.29796698862277593,0.20573759217132412,0.27966382185015426,0.278534021868247,0.2658909515291773,0.30206698377833907,0.27684389745599924,0.33493464673228224,0.3159923450908096,0.3446254138684122,0.4032093882563151,0.45780877328211494,0.4341666356652075,0.43052846503873815,0.4469394586988833,0.33945757950304634,0.38346280522513554,0.2929370833207628,0.3048055879989394,0.1959422380991095,0.30292742484971097,0.1721072999276378,0.14210824257951996,0.1526828949266689,0.12144364973562148,0.24407441556458725,0.35736280975959966
0.26367456324953586,0.3319555887519833,0.32358292928618415,0.42612251989297684,0.43650880233317335,0.4108549395488149,0.34396516927156967,0.4086225293500983,0.41664878909393394,0.4019102773047587,0.41090007857153993,0.41624801928529526,0.41392148201575796,0.4124299831565437,0.4223644081387179,0.44594452377197785,0.4726401332628681,0.45045720399754313,0.4482430240645472,0.47784492995521616,0.4014279209844464,0.4119252894380449,0.38628617758410744,0.46072472476086934,0.34170141503218626,0.4107336616800223,0.2863039020450016,0.25347072863333425,0.2907717699014034,0.24424071712409284,0.34076969931311557,0.44599608873731433
0.37422950739631866,0.37059043130553215,0.39241653042722124,0.391244184313363,0.39365004860580627,0.406260173971605,0.39270012291290635,0.4094554068251489,0.4131047210199888,0.4030624265221622,0.39898929224660856,0.40345987363392455,0.43775118978813377,0.39900491293967993,0.41154283142390996,0.44303482951915135,0.45438861455139995,0.4320293548515097,0.4368284088141452,0.4225747102590279,0.40623001446469853,0.42875062728955854,0.43373104927309597,0.4222518364639185,0.3645653955123309,0.36866096152901506,0.352204017970497,0.3822154416736356,0.3664534367620486,0.36607854147845,0.3397869130265273,0.4431530337080034
0.4097357460967313,0.4000816670814022,0.39163231467354576,0.39666540885790347,0.39368629896124563,0.39629377110252034,0.3868685392369136,0.40239987963459173,0.4074413293708711,0.4000349349691249,0.39614088926370594,0.39604314238829996,0.44318575710714814,0.39955118168643694,0.41106325743507155,0.44482489254020846,0.4564485994880633,0.43279145912464956,0.43688854988673653,0.4221736352214803,0.413464908329629,0.4356371619990573,0.43676605714366756,0.4352066565102807,0.384538118920246,0.3851846893499189,0.38477737146972935,0.39741710652191004,0.39035590739307274,0.3741219829997794,0.37801883777539724,0.4226171630846453
0.4719956305333105,0.460277464831096,0.4233950744114801,0.44923201214912245,0.4180453485280289,0.39829349762060445,0.41102231832795116,0.41597123025625554,0.40459854561924236,0.4059816262251856,0.39195638417396034,0.40145971090195615,0.42697813695922704,0.40019621284019613,0.4136626381556517,0.45451090182640197,0.4626938370328963,0.4376832499836061,0.4293654840275811,0.4476605695170105,0.4310615773566514,0.4313109527245314,0.4324004885484442,0.4897721915783696,0.4200321530776469,0.41128923923414246,0.4325871845690961,0.4657965530658601,0.46237341460992676,0.4603203521874837,0.41469811157360004,0.390535022215542
0.4639312047402652,0.47131307844013737,0.4535625472578577,0.4562242694314482,0.4146656741762965,0.4292033243738012,0.42652170954467333,0.4261346637369086,0.4005904047210245,0.40366065747014945,0.3924738950002065,0.3952579135167308,0.40033521350296314,0.38392925129905486,0.3844643025043363,0.42513467067376776,0.4437584162774445,0.41234998909930703,0.40080809391763933,0.42246144238739863,0.40220619023611615,0.43352000262895946,0.38319002534022034,0.4257643634814058,0.37577590301700864,0.3991744555129194,0.42859476157508575,0.4443429732126703,0.45200008895196137,0.45924223903760997,0.39892764177542744,0.3880002792134786
0.48085298556876716,0.4715310177037548,0.45939485838397015,0.45629021385991014,0.4363362760701833,0.4698556614681837,0.454432269582564,0.4626681972575888,0.42409091041915303,0.4337057931159033,0.43184615051299036,0.40964165098868216,0.3979953629128136,0.4065180041701687,0.4015788375774726,0.43120595306699044,0.448965485302261,0.4077109970454525,0.3909718973849305,0.4277078486396855,0.40894940311585454,0.4388057521640645,0.3979956670631185,0.41786627035670454,0.4088075879540069,0.4065879138461963,0.4360695947980847,0.44459816372646643,0.43261006488865206,0.44084696095353476,0.4041846705066116,0.42026434006580204
0.4537432876757382,0.4436184985435207,0.42449052253086006,0.43439271615253366,0.4252857935203347,0.44505124334631485,0.43395762191185644,0.4361571453911458,0.41707479975058825,0.4310031430738281,0.42403539724256434,0.4008527805178626,0.384684541353752,0.40191228409220925,0.4076040928659635,0.4281524537632754,0.4522220859337881,0.40072033426884546,0.38842134970710224,0.41516725634357987,0.3971425493590363,0.3863352194215822,0.41703410956813314,0.4485270335968477,0.44176179956111855,0.3895182193623012,0.4424956187274172,0.46109845575914093,0.4560941460373003,0.44231723446676063,0.40875439481776255,0.4351517586214888
0.43058209972109845,0.430241471633684,0.4125611896302355,0.4259041729886031,0.4260489417394367,0.4306643784691161,0.42071664113260676,0.42532244826829035,0.39129939762196964,0.4174106943231652,0.39989255469942364,0.37302569171329536,0.3508492029236146,0.3750592280142072,0.3832151099517797,0.39534605439305137,0.43899946299781,0.38794471882175763,0.38791612488543403,0.4081734158792646,0.3884845268368847,0.3617662126103087,0.40108166667786893,0.4444131836129863,0.4184892002454317,0.3957116571342471,0.4439743032783245,0.4445008070756873,0.46603234005270655,0.42703092698170886,0.41964565738008,0.41304289081554957
0.4744931558259512,0.44515592579124014,0.3815214067425806,0.42642872055707787,0.4258326267397414,0.38892572542531906,0.40907273483352763,0.41327944741491673,0.4079665731558416,0.40726050372694667,0.3976052564573481,0.403728993525337,0.368667932321128,0.3932750690858542,0.39027902816431137,0.4197119580491058,0.4299181570802748,0.39212690858149046,0.39899678526379656,0.41236977998263646,0.4077516342550102,0.4160365005907732,0.4120633418225289,0.406455791488269,0.37892725506720776,0.4306961153113437,0.4368773726950019,0.4154328589052279,0.44837042432248003,0.4301188397411002,0.4313081969406309,0.4123190651886647
0.4856856702363838,0.43872344811964725,0.3611637866298031,0.44942599359895397,0.419688347671509,0.3799456224149696,0.36006020161385993,0.3815134348783164,0.4291096924887743,0.37529910637665337,0.3686697360737806,0.3966639762233379,0.39584771726563833,0.3824800056524707,0.36604159918143625,0.41865757651626734,0.43840287681883744,0.3957559710696321,0.39559703517665545,0.38763060486485484,0.3518499343510271,0.40239386262526733,0.4051547893396975,0.3783786322702369,0.3940130708414113,0.4328869685632968,0.4602154619026358,0.43051680716576696,0.4754944257279185,0.45046301113452225,0.42929300810427024,0.4262323093960827
0.47552692169568744,0.3809658869359829,0.36557522102023965,0.42230115426172254,0.39733566017574345,0.3886021853300531,0.3446579462024334,0.3544991245238772,0.39581515285554714,0.35043311287880674,0.37018885768737403,0.3547589182168667,0.3843013235024881,0.35572658269420226,0.36279522104504763,0.4038047811686221,0.41883607603683887,0.38642838380019284,0.3942441136645421,0.4013556214972252,0.35492280137767174,0.40263967365745224,0.3893752364383126,0.4263552444740293,0.3727843701582366,0.3646308715992048,0.448049394740876,0.4314994787357407,0.4658983417772188,0.44553546690043944,0.3610022844407424,0.35916665496533623
0.4475264181244665,0.40503514979425015,0.3891626024153969,0.3997781758404863,0.39394848510720715,0.4029463156614957,0.3750754870885351,0.38186292619722667,0.3928627505219475,0.3698233018536574,0.3843756634644263,0.359266403028046,0.39784187362915113,0.35965772698078513,0.3690124170937813,0.42067247798148255,0.40038955373832946,0.3775751993208236,0.41147895725148154,0.41616970708186435,0.38389209231123794,0.4163806173913972,0.3821525539607134,0.45506368071654685,0.4028507282723728,0.3710638939387331,0.45899238345201715,0.40840283162372265,0.4518147151103967,0.44745108644453463,0.3622959690324263,0.35122508908781697
0.4272190531599197,0.41102716870940015,0.3896441781634182,0.37950830911958816,0.3706348985945509,0.39630237377641087,0.389655206573185,0.4133120869859863,0.3962076290403978,0.4007067721733767,0.3885701800278671,0.3657365032682192,0.3606168692041669,0.3534143076887879,0.3616869663387701,0.41214918674956874,0.4156148704035668,0.38363730377103455,0.37878232696054487,0.41736149930094163,0.3919884730260387,0.3528185910614292,0.3970181585496264,0.4379388299838049,0.40836132212753623,0.3752014196915092,0.40260160906441556,0.41996167374725935,0.415720771885794,0.4070646011386149,0.37010035311570955,0.3850694745305343
0.40428674202314474,0.37405796922933526,0.35937361853185945,0.35085432045807385,0.343757366664016,0.3823442171036212,0.3793979705655777,0.40062485271997395,0.36668691235386974,0.3927056411802645,0.3840191659300375,0.3581504527265627,0.3337259882614823,0.349321484176257,0.3762443582658986,0.41866421094791356,0.42548595940741823,0.3916714828496854,0.370762925209734,0.393474252708056,0.3801633629770051,0.33091786680786256,0.38468061404415127,0.3992138660565917,0.3677540434680532,0.34262111573040593,0.3654924591520047,0.39185118340409913,0.3914367103296028,0.37062770232076797,0.3428096962918606,0.39993135615849995
0.4078363324494248,0.4007085731921098,0.35623579993318644,0.38456932682583045,0.3637431256199259,0.36582543488919095,0.34804490556363565,0.3349945226831036,0.3246309315056551,0.3328115216552934,0.346747159545196,0.32754048335323427,0.3266508061400189,0.33901493464150867,0.37170393113994143,0.4127537153646099,0.4310963147233,0.41290548988648373,0.402102184516226,0.3954831078355903,0.37291308567038595,0.3648357402844751,0.3779196332220628,0.413207873405453,0.35489381677622966,0.3458987523397897,0.35904562795234235,0.3686316226834784,0.41092447184031156,0.3973095802465477,0.36321042412770227,0.38037202529066283
0.4392488086456866,0.41360895647107676,0.3871566254138049,0.44012924864253994,0.4255741494771118,0.38437087309137513,0.34913258285003845,0.3390005700357369,0.3400102921159086,0.33788526411055325,0.3594907539745026,0.334116297944482,0.3666154578427377,0.35710528037035316,0.37032237239944366,0.4076407954789456,0.43049498721924584,0.4098490649493543,0.38300031946828417,0.4148489026485175,0.3751635076573293,0.3516378554665861,0.3998614250522066,0.4625263968841543,0.39872163835246077,0.36246688254147996,0.3829329180626602,0.40223348926893504,0.43158432466271573,0.42735337809079704,0.38890325383766877,0.37128902227834043
0.4498465702393069,0.39409247676920894,0.3628536889836973,0.40915581886445695,0.4224168348116966,0.3954341286254285,0.35269370007517326,0.36439721549849435,0.33949412285303554,0.3558507884669162,0.381553320605085,0.35628415463032825,0.37663630908620876,0.3920323685279044,0.39550448082929607,0.414552310657403,0.4281289743542184,0.3943292767424617,0.3730080654468099,0.4074225279950599,0.36470695890529714,0.3198805765584791,0.390619481875537,0.4599077696323112,0.43809186892188223,0.3101654637204346,0.3918647963218425,0.43351719722939186,0.44271111657103523,0.4624554587485412,0.3659700987801237,0.3268842416580355
0.4620728143919002,0.416561585756728,0.3736805408932592,0.4142847949446582,0.4256142192149982,0.3988211115946012,0.3748454794119409,0.3974856245148127,0.3787180054795653,0.367887258164838,0.38488981415353535,0.3854582804664424,0.36834161322066633,0.354991435007691,0.35325838179144115,0.3503488869629617,0.36745409837147663,0.34523858956074976,0.3691690134634987,0.3894926424384376,0.3695862591510249,0.37521934276816615,0.34240849292723763,0.44880224400743174,0.4207823940267266,0.3359785777654036,0.4064871505490298,0.44536638331491707,0.43289971968462837,0.46927314759628513,0.3857321389976763,0.289856751849208
0.4427298835007856,0.4443775577530238,0.33988962237741843,0.3901440680046867,0.3756604313911369,0.39067697579804017,0.3991442076413088,0.4081853803951353,0.39750263960903176,0.40180148707978414,0.40965605640244734,0.39907568052966746,0.37055743310533784,0.35754776435104235,0.3594114455999507,0.3537800773237495,0.3708246919757292,0.3567345800185983,0.3713977496312463,0.4047862283483628,0.3908867743201131,0.3912528486827106,0.3637060798997122,0.4696055635641782,0.42449807144409685,0.3357783093814291,0.40320007568590577,0.43747243394935137,0.4418272041979683,0.40177263844010974,0.3576693461141841,0.36307294889461283
0.43080368775205374,0.43129518543136314,0.342555009545772,0.3764867166542957,0.3681322113458241,0.3938541287297167,0.3953657189572654,0.3881258737473964,0.3909469248241105,0.37387778307794267,0.3922510255703742,0.38618450693129164,0.3953666692226818,0.3813765052868685,0.3977097432733311,0.3934814391552469,0.4207383883942492,0.4114446964109081,0.39926848865678205,0.43412782083673146,0.4399438067773558,0.39142043637340385,0.3915605582119907,0.48452348424133396,0.45051181484140934,0.3730765648774231,0.38216096424128293,0.4390629893942273,0.4577198283262277,0.4027675979339162,0.3586246272865854,0.4063864255527413
0.4300466870821082,0.4099778738465226,0.3784234690626922,0.39178843751321885,0.383564767055487,0.3950121350140983,0.3806603967224416,0.3924154575755128,0.39679360277382003,0.37941358810241377,0.3871409262922228,0.37998547360457097,0.381018559704095,0.3843619734402051,0.3865912836241797,0.37879677259857514,0.4197602740466259,0.39032124598658635,0.3875053845522797,0.40672733817307477,0.4115958780459004,0.38411139153348267,0.38191458073953394,0.43902297476943375,0.4155061102423478,0.388044618643706,0.3765181966648109,0.4204007013814591,0.4224945443999186,0.41988226565576764,0.3767218733044212,0.41131023370272335
0.44622808423241145,0.40473020489720235,0.3689658640396622,0.39904919483934503,0.38117567485732945,0.37321904356939023,0.35192365726888847,0.382106578186681,0.40206364172218556,0.3744472419235627,0.361680930527792,0.3826462534384522,0.3704010200289419,0.38398556669909106,0.3674327624618281,0.3747693274510934,0.4114020914795249,0.3762089975577115,0.38379237911211583,0.3895394602289986,0.37525521660661776,0.37363523498904316,0.3673317886652105,0.4222213040547392,0.37993352830737775,0.38452962146954806,0.3894651643708888,0.40845939252061353,0.4063486997918051,0.41850606923560224,0.377091471756254,0.39929417407650486
0.4385281362278736,0.4023363688861381,0.36412324627366216,0.3876524517261184,0.36668714680809056,0.3493643425827977,0.33413409047819964,0.37377043384395053,0.4043482806232456,0.3703787513873217,0.3547970990265156,0.384803289443737,0.33309578698138526,0.365961594621496,0.3803395956786336,0.40030972591129776,0.4053385719273402,0.35566698082175185,0.3601067087042639,0.4027561500095842,0.3805373373695571,0.34553371214039824,0.4080387247048583,0.42985643897682607,0.39521742032856155,0.36994373486382,0.40183619803132126,0.4318296512454705,0.4169940054082294,0.42836977958731315,0.3660496354521885,0.39642177388164224
0.4213096944460286,0.41681636822227697,0.37290733472247484,0.392683828836888,0.3680614357523623,0.377141070656194,0.3616657769932662,0.37798910428848714,0.3707769583413899,0.3805946021805152,0.3698717219172756,0.35767528879962524,0.31468832023176657,0.33469373052229223,0.3669526165070169,0.37891583903820064,0.37920577336772004,0.33847706255587656,0.34739285582319385,0.3947442699280754,0.3763365202017731,0.34345240425177437,0.3726591528666455,0.4263764296102214,0.41774085994825955,0.37488130594309005,0.41985366544554326,0.43073030041705385,0.435750998059891,0.43424049634612083,0.38173568097452604,0.3776359101011002
0.4463224531448716,0.4438759621540012,0.4022077442801958,0.3973727751798202,0.3799573821879107,0.4154585478209904,0.3955934263782098,0.3829023367617061,0.3403648666848407,0.3785523065600008,0.37087292207758354,0.3363946639518091,0.3032559891259416,0.3228594565896909,0.35602817355719146,0.36493781389385305,0.3687026739026451,0.3356414440852052,0.35039889960221804,0.397048937485229,0.37465079295810727,0.34675339609161093,0.3535296480477608,0.43007067735989774,0.42487874520591934,0.38245947158535903,0.41753728561880316,0.42257931627968665,0.46139634377949673,0.4221181224500179,0.3997936764218861,0.3801328614058246
0.45641421333681415,0.43896872669154635,0.3857653673087819,0.3702117182630956,0.3574920155068845,0.37791967768888224,0.36457489434307416,0.3672801758645654,0.34466330982396526,0.3577204032070862,0.3548916225553568,0.33553978406708945,0.3202698497371655,0.33159893010844804,0.34390662947508294,0.3652243290813998,0.37699924955986763,0.34845559954443045,0.3539272684371912,0.3830600061376986,0.3504681336750247,0.34641921692246136,0.3652809803616181,0.4350197648551073,0.4400982346433669,0.3648757905544738,0.38027283767861536,0.43834177722141465,0.44909626938002756,0.4115993067633195,0.3556264568574179,0.39210933458385216
0.47377962156681624,0.43053249019303863,0.3495213485745941,0.38757690520243804,0.3660002942290545,0.3752163727060071,0.3476797870896447,0.3749472761966701,0.38313883719106434,0.35906963568503025,0.3530158396231895,0.3552750053443747,0.3600516168606644,0.3422834967952758,0.33385582682211445,0.3559768380251829,0.37193067661855345,0.34915283463547114,0.3548088649869072,0.36903083314583857,0.32048246565041105,0.35510300875013284,0.36452229404856634,0.4005190713858447,0.4008933316051553,0.3524269799158604,0.398437936516551,0.4388611436180743,0.4483818462907771,0.44007278616804263,0.3613151998733283,0.3686988270808144
0.35393495462737756,0.36629942403963595,0.378838364760126,0.37903715915073055,0.4100145972172754,0.42049107139782443,0.39429945985288894,0.4093608416133822,0.39695175565769475,0.3960912549774991,0.4074603120504705,0.381406909721339,0.39655703807594556,0.38259102626808367,0.39938676686529123,0.40051541720895084,0.43570140465312,0.37889486466666805,0.38268388289052196,0.4116374154694012,0.3657827610868487,0.40048377737785246,0.37121630189900984,0.390723175197296,0.3416002357870229,0.35478331332959867,0.39591435263316815,0.3727035076863923,0.3998293389337039,0.3539589941287758,0.3852747043687293,0.42626872393600584
0.36250806266330066,0.35886292118148394,0.4214176630477577,0.37320619481274164,0.4103751596885225,0.4290958392918329,0.38768184046183485,0.3771071933625419,0.38245441386821866,0.3803428012872931,0.3943520903728951,0.3588022717244657,0.3783226082569569,0.37417075877624983,0.40266233733050005,0.41524491126298546,0.44272244932513466,0.39923837924926825,0.38639402464290823,0.40914494793607187,0.38231677928913377,0.39679561781127826,0.36188818215745805,0.4190538880039376,0.36471934585769666,0.3586658387670203,0.39170464880697703,0.3629995567611737,0.39187727726625043,0.35445644298298123,0.38319627788279254,0.4083254121060216
0.4718246137909464,0.37999840481029723,0.4262026852783396,0.42644328574423224,0.40472859748203266,0.4326766195755903,0.35401507578918917,0.3538920624252113,0.388254074736359,0.34672944354755253,0.348200687377782,0.3438797856589715,0.3681336138207806,0.34349017020727424,0.3689866924350277,0.4249443987867728,0.4458540636793094,0.41820523014544037,0.39065798110619865,0.4087023575879487,0.3809347069922799,0.3586339908223002,0.3858798866630245,0.41867552986801687,0.43161915925607386,0.3896510803103705,0.4366931300948146,0.4292324045133441,0.4415894639425463,0.43889500514852775,0.41400337278461324,0.3585490738266034
0.47740071047432153,0.42384939664921883,0.452721707906846,0.4584146076838501,0.4190578019256973,0.4444737225797974,0.3883237429447269,0.3999671347488928,0.4138617833762293,0.3869654631899699,0.3725654497659387,0.3950724507120283,0.39091619235298103,0.3776369547041756,0.3935547839750392,0.4461003112635228,0.44466450163005244,0.43065805338303276,0.4037195421540386,0.41307041936375893,0.37913767749645816,0.3854275905995015,0.38122670757471117,0.4264076950726775,0.44505211660257876,0.4319989161386887,0.4643172438573789,0.4628594387835183,0.4961905607181739,0.47328014000075835,0.440899336454196,0.3972359724425176
0.4843709104816649,0.4906543329242444,0.44825744133328943,0.4353868942222886,0.40682035332116767,0.4345191942899651,0.41666122646050224,0.40829855275810994,0.4103077695345186,0.4108401145324324,0.4021107343683531,0.4144985564024989,0.40442947695116355,0.4047222303168462,0.410324508844337,0.4434525782072039,0.44635894797048,0.4270222056381119,0.3952018942536597,0.4061644223197609,0.3740431789331464,0.38697154158561864,0.35766145647502123,0.43002611308033745,0.4331709853681513,0.396288813750788,0.4555210700779057,0.4607113430602748,0.4891207259521229,0.4708876447126746,0.42860434496210054,0.38191882489141593
0.48043939219275367,0.48262119110450913,0.43912814853947674,0.4436640917090052,0.4037125505578913,0.42577865515923735,0.41365406087972434,0.39805784243455766,0.3972563250849029,0.38995230784796603,0.399164132512741,0.40485405073395264,0.4159989414787099,0.3988733190251229,0.39332474766801667,0.4265803590666796,0.42458057088323803,0.4007812617914286,0.3850760227734575,0.38308891139825935,0.3597189840132439,0.37524246711944115,0.35298609450870655,0.4248803491261438,0.4372272919803206,0.3673224146012346,0.4422315919520701,0.47029839982889704,0.46227980183189854,0.4828833493200676,0.4241203192942833,0.38340948943531467
0.4716563871728574,0.48503669071389677,0.40091645716807095,0.4658149280019754,0.4264995261599522,0.4113377733391468,0.39193934434625316,0.4086996606195714,0.411387888019671,0.40176208564635213,0.4049864944424293,0.4230924347658056,0.4293242189576801,0.41519313932667157,0.40615182845064357,0.4212021581047888,0.416120634171747,0.39198143973823396,0.4050451895892977,0.3836453593763945,0.35839925496635294,0.40537244355063684,0.36268453095730196,0.43725382984352434,0.4433568831743032,0.3936090043025116,0.4547920474521705,0.4876014003573182,0.4733958868321962,0.5057320628881258,0.40856325093371465,0.423912371446371
0.5114316514473588,0.4989928012397216,0.4139756635486227,0.4833909587711962,0.4494554393400464,0.42316540618736737,0.3866223054515135,0.410770973112504,0.38204587017353825,0.411891154794915,0.44142126780910423,0.4083244139571982,0.3805586622798459,0.39464105223105866,0.42462070199903096,0.42260190787917595,0.4374347842153474,0.4026755688946294,0.4227744815506624,0.4756000024824147,0.4030351159204773,0.41156224894399707,0.4235014056014542,0.44276185985830613,0.4508831867262992,0.4194773689233037,0.45958138361612355,0.5277353536154851,0.49790346173433736,0.5071358246435986,0.4338821866444466,0.4506825219572308
0.49132922542037744,0.4708408431557768,0.4605631734841732,0.4904380075915171,0.4529128568481962,0.44319287986227957,0.42619896276864155,0.42145948271552663,0.3922188051336111,0.4288410928751849,0.4659304122268731,0.43673303715986944,0.39447084650405495,0.4208059215709792,0.4496426042984956,0.4356450765749358,0.44867759009691005,0.4277182473983245,0.43751082794602847,0.48146640064165847,0.4231927198680782,0.4116784952055495,0.4388356379574597,0.4502846921567524,0.44542543788412003,0.3992098240614828,0.43666849059024576,0.5050855935303783,0.4787157568075729,0.4755799723112251,0.456411274240835,0.4115766585090965
0.41431045168786296,0.4114409883235487,0.431084190691391,0.40368334855233723,0.40394349259957446,0.4323029912682137,0.41848228474160776,0.4159507355187131,0.4183206505843375,0.4172538595225117,0.443474939312153,0.4328831460833823,0.44562018273739545,0.4390870464669565,0.45537254592199916,0.44598608587088084,0.45778254205486374,0.4407633578612922,0.44192477671285085,0.45488951851120496,0.44760138820269996,0.42765461320014536,0.4263448841533303,0.44196122088823053,0.4329114022288489,0.38714312821361857,0.4000032106335016,0.432486037644791,0.41834357743568,0.43178091072386177,0.39136035734492697,0.4030816331234393
0.4081164223466021,0.3925458911557026,0.39372178428691895,0.34919805486575745,0.3575683128406036,0.3746116270389047,0.37904229483104335,0.3757947409163975,0.3966891608002993,0.3683089387808105,0.37810642011008616,0.3627379863038518,0.4141408107138902,0.38555071141031616,0.40961860981018516,0.4367622253923425,0.44313716972959155,0.42391466927639615,0.4111694294249322,0.43584774796892517,0.4257562130331687,0.3952235701737299,0.40284375034083203,0.45032150262802884,0.4204781310808547,0.362707571732846,0.4036465908789089,0.41555336459967435,0.4029894115871104,0.3691894870963284,0.36130561223382057,0.39342143870834784
0.4384940159254631,0.41207186032265475,0.4089192441463551,0.36689072718525334,0.37558584858762767,0.37152260395146586,0.3828227960297304,0.3843135127110545,0.40939379441812224,0.38193451797259803,0.3692913643727394,0.37022363212937515,0.4091436768692904,0.38004313165897674,0.39387797030377936,0.434396059501841,0.4463621120511138,0.4248759296492528,0.41852631019015785,0.42903476553081354,0.4206658346099134,0.41249784345027907,0.4079388240390346,0.47463505834372516,0.4296797501647793,0.3827047634678719,0.4303223992571034,0.4247084784942993,0.44480029875017024,0.3678853454149511,0.3841710340745756,0.41991786744454507
0.4778704163988043,0.4374643338416904,0.405097960732892,0.39739611606207464,0.3781138300375529,0.4304214792852717,0.39405236225152207,0.42380121766988654,0.43565664544101124,0.43971303586281096,0.3874161881798281,0.4133853311215875,0.4168431732829008,0.394026673741293,0.38115478813107895,0.41098152347421324,0.43067727647612586,0.40171908423015784,0.4105835969638129,0.412762189070494,0.41802136940925344,0.4328810531033443,0.4131917647619096,0.46633684112148527,0.45664775910210775,0.40785705347462214,0.45915343879552045,0.46487030322621853,0.48383540551613174,0.4458350201281025,0.3803152814193134,0.4312756085008542
0.4690377494085922,0.4306076347325939,0.3988744459081246,0.3947307789735141,0.3523923792315796,0.4134263080556666,0.3967886770175408,0.4051508325352674,0.3726345333251225,0.4096130737178864,0.3954261412614623,0.377592105971115,0.36084843243005454,0.3751030414634937,0.36985689553726425,0.3736586028330575,0.3902497168495908,0.3772799339022139,0.38757081893214285,0.3902552265625801,0.3763296058653818,0.392407114002562,0.40169078871993474,0.4585483334766963,0.4363517852306357,0.3753298902196352,0.45676683379568367,0.4499242606036548,0.4490404058357415,0.4652956246518117,0.3570863309561297,0.37979293120136676
0.4328100450058898,0.4031407510861883,0.39247630654010335,0.4038672858473553,0.38053313640433556,0.391065516105768,0.3804690798275209,0.3898982577950028,0.34779956200078027,0.37263040094798483,0.35892129433798264,0.33026777459627826,0.3274039091399061,0.31664218350672546,0.3306755897807637,0.3477918210542553,0.37580072210427284,0.37060889640519,0.36531250376324353,0.3803431832694988,0.3643803414016726,0.38005668100115775,0.3856883450569285,0.41046240564998554,0.35810330251826117,0.3902067395702792,0.40960402173586297,0.4079638081911705,0.4093118176078851,0.3986032307445976,0.3829956653231418,0.39418799356822637
0.41273032268676807,0.37962363699702273,0.35578360200285014,0.3814484870834272,0.3715225785567849,0.3758504663715458,0.3291332423400548,0.37851673656896695,0.3467204813325374,0.34518891899038234,0.3181010146619821,0.31439852518706396,0.3117647321445009,0.2943407246895947,0.30700558012206863,0.32425333340436796,0.35454942777786264,0.34652117261003546,0.33344667016160057,0.35857907483884427,0.34960913614273154,0.35697456060560306,0.38503905199834854,0.3979650615305159,0.35734344290943254,0.344194007547637,0.3613322307351643,0.4064115700448972,0.39475497809903604,0.3901052339802136,0.3532391180708219,0.39428119294048797
0.4287596379504536,0.3817459306732678,0.3612810203936225,0.38592383605570374,0.3517299306521626,0.38754999804268514,0.3223330819538563,0.3752482375686456,0.3551051032647373,0.3314144803843181,0.31612952731244404,0.33214158666408344,0.31682925615686164,0.3072520890474124,0.31386193523292377,0.3351286688116288,0.3561700430383271,0.35192208684262716,0.3525733361434307,0.38589691852518376,0.3475392064612397,0.3375592822892587,0.4281386055535167,0.4127287299319867,0.40013755686185687,0.32041486024306753,0.3951350633701162,0.4233068680326983,0.4161325266001848,0.3927627223442729,0.33054472145922903,0.38863518502471617
0.40571596278491356,0.35652933707618517,0.36645729683873346,0.36592614209224894,0.30931648198638917,0.36705233391790165,0.3606566426400566,0.3485706151020947,0.3366267005027252,0.31192815012921826,0.34561056281708236,0.32924456543625996,0.32486318585752033,0.3182467518662343,0.3298371757093067,0.36789148925255116,0.40817938284075417,0.37402159894979425,0.3627231502900673,0.43653553823322594,0.35304926092614436,0.3372258726396019,0.4598039116295322,0.45167551395671646,0.3817835341864214,0.30314704475397314,0.37165241209122163,0.37316461050850397,0.3729043233922041,0.3406317648974014,0.35367959892204603,0.4039186478420334
0.4135877197361796,0.35056423858127034,0.39514737965094887,0.36918954803696924,0.34327490577327396,0.4248897474871834,0.42606275204363664,0.4180067780091212,0.4000887856722152,0.3771724931691667,0.39963695579917674,0.3916530907630264,0.4044797264792388,0.39867106410680864,0.41075864566228937,0.42530937801784013,0.46849111429449913,0.4096224299357114,0.3907473575693018,0.4232447510459548,0.3973343610414405,0.40410022020909026,0.4423940897003634,0.4980233202733258,0.3807264164807581,0.3118388471245881,0.33915217752344406,0.3669154466951143,0.34538302592595155,0.3437942037868629,0.34234085468057673,0.44874850730244725
0.4516484235030054,0.39411635221128405,0.41417828798916484,0.39329797204382266,0.3901534899032417,0.44532491038530164,0.451290954141846,0.4162916603161332,0.4265925385818368,0.4284803603656244,0.4232320279082474,0.41409520439117703,0.41782651832661943,0.4104729692227708,0.4457135441271979,0.4474275496430601,0.47124392122677117,0.45029728750750486,0.4293876092949077,0.4402505071758042,0.4527232656727627,0.4395478148644296,0.4184063676499417,0.482132812029178,0.4002379960877713,0.3827162543847257,0.38939799016723087,0.4128003936571169,0.39540446423415876,0.4110064645629753,0.38066228144742226,0.44261998551297527
0.42939903104016425,0.40808421205045525,0.38845910118176735,0.3954220541955126,0.3975031501246602,0.4086062714859027,0.4069076186697732,0.3922014723452373,0.35846417485266735,0.3997204307488786,0.3991047968168048,0.37170607996074595,0.33567517905795735,0.3571806184124528,0.3899153709483011,0.40729286059221936,0.4248340877764405,0.4022281636336706,0.3844836468232286,0.40832671009083227,0.3997032556172837,0.37081761289260057,0.36110257349964825,0.4249859858266773,0.38674463438554085,0.376310512524578,0.38674695505402407,0.384535302621351,0.3990253244584354,0.41735370740970107,0.3857170562695702,0.38077856062653
0.40926869273196026,0.38667427744352767,0.35664045542169415,0.38782335825357167,0.39560756800184144,0.38259777159300457,0.37142701179021015,0.4007068088572793,0.33026252236699183,0.3929622365191417,0.3816078707783317,0.3687859820510773,0.3187188559194948,0.3500495314162105,0.3507464791504087,0.35757499445616864,0.36574286719456095,0.35239343040040244,0.36653722741148703,0.39688476195349315,0.38081313087379187,0.3465937467536107,0.36441904982960277,0.3903366206212216,0.3680124583269232,0.36588086298050754,0.3740323822349187,0.3686585554824711,0.39054299639581486,0.38292994828901955,0.3679650902575374,0.37314313473314864
0.44003788360091073,0.38348389040961656,0.3520892507749569,0.38819997745211954,0.3902977741684795,0.3872793248390982,0.3816124282184586,0.4205544442586025,0.3610714400095206,0.40772874944995213,0.3827329509664406,0.38097522293727054,0.3415706279477296,0.3526515448520071,0.3511286906443094,0.3548487966473096,0.3644559604060988,0.35552320423989175,0.3796844813639848,0.4034820120108901,0.2819960845545972,0.36401463706404735,0.39011287065828903,0.4141827960636607,0.36256575637697586,0.3697396230991389,0.40143788808991504,0.4117948897779957,0.4286112243967611,0.4037872786167893,0.36552766253505653,0.42143925309708213
0.4189341314235443,0.34547214289059613,0.36636065551548536,0.38348192739493886,0.36824876062724027,0.4072114364627519,0.40376518377887055,0.39092201702912127,0.37923578859576373,0.3910465257010688,0.36132249825805746,0.37010988918987847,0.34633301963923263,0.35959409745101767,0.38672868885747136,0.36618019597028817,0.39464410926832877,0.3693503122831289,0.3567986688507168,0.4003350689032891,0.20594784830104418,0.35588281053566007,0.3668918097181449,0.4698839244179023,0.3824330486843614,0.3802893684789143,0.4408067050403319,0.4441047588559387,0.43363675603998997,0.4059802216999104,0.37531240276566064,0.38994012738873374
