Fp1,AF3,F7,F3,FC1,FC5,T7,C3,CP1,CP5,P7,P3,Pz,PO3,O1,Oz,O2,PO4,P4,P8,CP6,CP2,C4,T8,FC6,FC2,F4,F8,AF4,Fp2,Fz,Cz
"(0.1880718494528707, 1.9233951757595047)","(0.20263896082880842, 1.8114257292632314)","(0.16122621421748495, 2.0604822606081203)","(0.13424446430250347, 2.461753369351237)","(0.1602059248470816, 1.8902323531112137)","(0.1699229412498625, 1.9013912891120373)","(0.1744449764106104, 1.7329006371953894)","(0.1905288095196748, 1.4448005947781761)","(0.1649294795874155, 1.639646416711734)","(0.17300617436398116, 1.567535542102749)","(0.1740120434203066, 1.8737470535119238)","(0.16264641008494565, 1.7253890392414104)","(0.14904110775357385, 1.915093608767248)","(0.1566042028633515, 1.9349223588859492)","(0.18212462446574326, 1.8197326775410192)","(0.20146843268264758, 1.7610094667444753)","(0.21276463030600587, 1.690529959369355)","(0.17494468971923194, 1.7855660974509895)","(0.15833373176704887, 1.7902253094943317)","(0.19123843807674007, 1.6707624671108088)","(0.15597892413412437, 1.7753399039160893)","(0.1502516962163913, 1.8065518630891646)","(0.13859163845949685, 2.133759925051809)","(0.2009396297162624, 1.8522396691242302)","(0.16493470977203278, 2.047960005705445)","(0.15769238113874853, 1.8354702075778284)","(0.173718743435615, 1.9987401218940586)","(0.15552463099955827, 2.207948698082462)","(0.21714569579876292, 1.7962296026900455)","(0.2005407509728439, 1.8050772887867716)","(0.15393218610772716, 1.9641131061397181)","(0.1569842371212082, 1.866526252504907)"
"(0.22520427186786746, 1.6722688679240822)","(0.21854217016160257, 1.7547655619875384)","(0.17122563748607778, 2.0498715040956923)","(0.19637075486370978, 1.7931950613119072)","(0.18170868747931496, 1.7415500838559854)","(0.1906135076793147, 1.7744732579064175)","(0.17385760457901184, 1.8504346193948256)","(0.187940819770572, 1.5020304968446145)","(0.1625585666092225, 1.5599532891931067)","(0.16971135082503475, 1.6775434801211357)","(0.1881319515654753, 1.830545721804827)","(0.17075882653582886, 1.6350169534869716)","(0.158808854641212, 1.5984322025672326)","(0.1719447397867489, 1.750511024379411)","(0.19095034399741503, 1.7509065874638892)","(0.19930544631173536, 1.7610672686913431)","(0.19671544788342912, 1.7878873283937045)","(0.16091241798966194, 1.7674850771135173)","(0.14447047309391475, 1.6811455254704386)","(0.17961785048975765, 1.7221529135123779)","(0.14480279174961233, 1.7201026867637563)","(0.1398560878699564, 1.7076595676155248)","(0.13971900177371674, 2.032982448090578)","(0.22640974455905213, 1.6819733250070668)","(0.17829134405411107, 2.1649812881672856)","(0.17991301120317665, 1.6445149480327288)","(0.23473179820169607, 1.6099364245100052)","(0.22507922992459783, 1.6439880525895518)","(0.23635625639166627, 1.6635444001103419)","(0.20540274649361256, 1.8349357828059771)","(0.18604601562897446, 1.793777426047107)","(0.1688730859515962, 1.7020020350374183)"
"(0.1876609810594582, 1.9976618684613)","(0.21922106383281018, 1.7394401062245182)","(0.12109118108422239, 2.85211113486575)","(0.19125444217859952, 1.8613636482209504)","(0.17542085084788878, 1.845960746492331)","(0.16234920888246032, 2.169730753887585)","(0.13365795920594262, 2.532709197853829)","(0.18843180017378125, 1.746462081224608)","(0.16662515994896723, 1.898468563237613)","(0.14318566509710245, 2.379661722815703)","(0.1733020642268866, 2.096843385185172)","(0.14901277110112016, 2.2743477153833918)","(0.15141861712322102, 2.0421465493200417)","(0.1393238482143822, 2.422091344823892)","(0.16119799759534906, 2.2844852697575746)","(0.16588805374076834, 2.335822263049675)","(0.17261611993962916, 2.247619768712942)","(0.1380279062759735, 2.473467354306252)","(0.13513197790685427, 2.1451508089576397)","(0.16200387219119847, 2.268614221750647)","(0.145332075676707, 1.982899457911148)","(0.14132806360760414, 1.9644402764041329)","(0.15832516178488965, 1.9041453299516637)","(0.22235694786168544, 1.6502098252184774)","(0.18477486291329084, 2.103437321153584)","(0.16538164297516347, 1.8605587485332569)","(0.19030955546985037, 1.9631706214952889)","(0.18413187043803014, 2.0367058409430623)","(0.17905882613680432, 2.0879506438121864)","(0.13717513347738233, 2.668839422832469)","(0.18230995798834554, 1.8654819331479524)","(0.15253566877888391, 1.9740006280493418)"
"(0.23059283568587366, 1.7130900154647186)","(0.20559962516977048, 2.017102661287755)","(0.15753973180800387, 2.1118046143574967)","(0.17075498701431824, 1.9951639519433855)","(0.16312928408745547, 1.9854674609417717)","(0.1652894391767519, 2.0695806045253873)","(0.1564835329762521, 2.2726708104285915)","(0.17131853821923726, 1.892766571495564)","(0.14963058667353882, 2.185960315815048)","(0.13426371101141218, 2.4658035162674747)","(0.12732619899933972, 2.753802277879794)","(0.106892847591166, 3.0898289596790183)","(0.12587399620497253, 2.758700746611207)","(0.10546933974608488, 3.1077686423487156)","(0.11539134811593976, 3.0825266452188154)","(0.11898279065587153, 3.1159465311228316)","(0.12745476502587944, 3.015293228772076)","(0.11560346170586173, 3.080527122866736)","(0.12443438805834217, 2.843394268511262)","(0.13228528568056525, 2.9688272726914775)","(0.16500421535998705, 2.1445562609522386)","(0.11261371143026033, 3.002024295980162)","(0.1763019551485672, 1.8230986323166947)","(0.2530276511723109, 1.531125823331498)","(0.1929207885669615, 2.054556775314984)","(0.17179339424812717, 1.8743206929651188)","(0.17841568979356376, 2.0246201525604697)","(0.15742950949775955, 2.554817729507573)","(0.19629896603721736, 1.9934694702397229)","(0.14592537440654962, 2.644691704782895)","(0.14852887496250733, 2.229542030024276)","(0.14151280853319625, 2.224843134464624)"
"(0.2749359417629689, 1.506531171878819)","(0.25381337617891175, 1.6536250650345494)","(0.2325567440346121, 1.7860738024799674)","(0.2340145184517895, 1.5879087173306528)","(0.20422834184088187, 1.7221145917254566)","(0.29935743837549345, 1.3657926624418077)","(0.22355401526272392, 1.8108822635806168)","(0.20226786798785912, 1.822552277338198)","(0.1528167305976981, 2.231524089735723)","(0.18113717605647003, 2.043148066830528)","(0.13874337398702866, 2.606372017401084)","(0.11945162049923017, 2.8638754227166494)","(0.1330004613240565, 2.6956922080616788)","(0.11218989523472835, 3.1579151547474384)","(0.11415573586961493, 3.123275584961876)","(0.11287719893660124, 3.083136529983539)","(0.12109741709965355, 3.0404818617782845)","(0.12108172437366026, 2.8801630686185016)","(0.13093672100273104, 2.687579672708129)","(0.15139514306377622, 2.6200575487355775)","(0.19160055939144588, 1.9446575468057958)","(0.1179848638677397, 2.8508076518772434)","(0.17773164021391716, 1.9301291007268027)","(0.2735891048653331, 1.4974391450620894)","(0.28081890372711277, 1.534765740593489)","(0.17280521509406335, 1.9554280614947654)","(0.20831088532489173, 1.8439027910828756)","(0.27523393118084766, 1.5345474510785477)","(0.27316402517998883, 1.5157366975787048)","(0.263613648860734, 1.5719896813489447)","(0.15855389009635004, 2.3290077284728197)","(0.15024304146905135, 2.18119056571101)"
"(0.26718848705127407, 1.592014416336615)","(0.2552258545517776, 1.6889684778356013)","(0.22494075992603538, 1.8955848467846164)","(0.2354147995627515, 1.7884739170303094)","(0.1847487196651115, 2.126106325491737)","(0.3181817277745077, 1.3855860613805921)","(0.243176371825941, 1.7412153672872697)","(0.22980194608059756, 1.7242633349141538)","(0.13653854125296352, 2.50073272749422)","(0.21936332392015778, 1.8188127137834167)","(0.16932848370447764, 2.275670113967898)","(0.13592261578230475, 2.5956446360844727)","(0.12004144852930208, 2.990670647007202)","(0.12534579894879644, 2.96421301030534)","(0.1504200370347874, 2.509250850205722)","(0.13827031770422013, 2.6246915100857593)","(0.1596511044430485, 2.317495850546502)","(0.15571913743456414, 2.293101576924559)","(0.14762122353861384, 2.320930001360522)","(0.20264711115449163, 1.9173141824368987)","(0.1940442049130767, 1.8807062674491586)","(0.11956706703161929, 2.6454241892789723)","(0.17790232941772252, 1.9756181232301648)","(0.3110087128697847, 1.3434416885653044)","(0.2820205716273041, 1.5403247282238723)","(0.14565350593363444, 2.5152298900076007)","(0.2212425806712388, 1.8523137218662373)","(0.24919758011796614, 1.7226645914421415)","(0.29451473163518493, 1.4481443970133718)","(0.2960705370177833, 1.468782596343667)","(0.16687321184561996, 2.441435186227827)","(0.1610510334051137, 2.112828471961702)"
"(0.2606558132084511, 1.614227272562183)","(0.2594658254919995, 1.632959871301343)","(0.2247434059552183, 1.8159012178347358)","(0.2190924784501257, 1.8458141437128486)","(0.1939200305037788, 1.974778052911717)","(0.3020437440386593, 1.4509384878451819)","(0.2399222162239556, 1.717869955878417)","(0.22011881450231444, 1.768972685772645)","(0.1670695535031178, 2.122329578286455)","(0.22473863854206147, 1.7629913934978214)","(0.19374516189539726, 1.9936167708404264)","(0.1533846303679565, 2.37977469536157)","(0.14287834120224743, 2.463859591153292)","(0.1561446279819413, 2.3520337283234793)","(0.1685040348138011, 2.275959173780325)","(0.1687609254581733, 2.3159081770360377)","(0.197883114387059, 1.969661902509892)","(0.18007954373571414, 2.1035382151959734)","(0.1666893481869317, 2.157266931465798)","(0.2150329322043515, 1.7489112517554175)","(0.1872728833228592, 1.971167815104702)","(0.149262013533194, 2.2467464120048044)","(0.16911145668279287, 2.179931002453219)","(0.29872274143393174, 1.4102667867749508)","(0.21387558706383092, 1.9485522332712093)","(0.1363444376504265, 2.5447016614004188)","(0.21347578359606972, 1.9114943178730002)","(0.17789689837328052, 2.398604199557023)","(0.22769456889117073, 1.8489217270987417)","(0.25544853837833625, 1.7372028909949302)","(0.16641974580151422, 2.3411660410680843)","(0.1773061895611882, 1.973658350375102)"
"(0.2445866043988123, 1.6417664969728345)","(0.24397669210605447, 1.6539027739963366)","(0.23433821114647532, 1.5665893531624937)","(0.23686512452896202, 1.4793220232796815)","(0.2143970803728866, 1.590675885435579)","(0.23680279553059366, 1.5347937713830844)","(0.20924673136858588, 1.7663265436131623)","(0.23044342041193835, 1.4726021264689828)","(0.1909176607179061, 1.8029592990233594)","(0.21631866657043347, 1.626767123345599)","(0.22760987051281825, 1.595257950112692)","(0.20427189058806813, 1.6898441237426618)","(0.20514236025646737, 1.60969635430006)","(0.19905114643964766, 1.794569701535756)","(0.19292642365307974, 2.0047645560826033)","(0.21261998151477102, 1.8779375264919556)","(0.23325482563893626, 1.712473694912661)","(0.19953460336189874, 1.8368055444645972)","(0.20821795776317448, 1.6919666361524341)","(0.2196379061634261, 1.7450846191842995)","(0.19522787162902347, 1.8667468124848858)","(0.22057580609593375, 1.5706879320999902)","(0.19058362138186227, 1.8873719662029314)","(0.28165651232841654, 1.441230847923457)","(0.2398516664856054, 1.5497016688234826)","(0.13926525613469667, 2.256332266249515)","(0.18622726327677988, 1.9737461099376394)","(0.21931393237623822, 1.7606454050878293)","(0.20285488950594213, 1.9050627236949382)","(0.19269371849860684, 2.0583043479537437)","(0.15867967957929127, 2.099533394979958)","(0.19960895812868043, 1.7269338468680904)"
"(0.25990853920932655, 1.5770574884984523)","(0.24607213398954683, 1.630438827959139)","(0.1657990468829011, 2.127401493399242)","(0.2009757388800058, 1.7849822050354947)","(0.17878475164549593, 1.8370929571453862)","(0.18455566833466888, 1.8798498383325828)","(0.17220905430289207, 2.050606244383256)","(0.22571508705643523, 1.4181021390881003)","(0.20194015902550966, 1.6406500077521584)","(0.20355239298480235, 1.6547417573576209)","(0.215241929262013, 1.6784688590794963)","(0.19661889361809798, 1.6890639711974684)","(0.20396931193872267, 1.6180874015724418)","(0.19701088477399628, 1.796218523423004)","(0.2126652622413399, 1.8322664955366228)","(0.22608752064888685, 1.7492434968919799)","(0.2290881077272972, 1.7240270934821984)","(0.1881760787209261, 1.8976289637115853)","(0.2003111686040853, 1.7470224979947315)","(0.1919268111659844, 1.9801795868898566)","(0.18811390461684735, 1.866091045822229)","(0.22730707492777952, 1.5101676346624708)","(0.2047409574788367, 1.680889311987641)","(0.27552081840054776, 1.4406236074325518)","(0.23300415333107302, 1.5461086125571786)","(0.1360618414968394, 2.396757626583071)","(0.18086049824403405, 2.017688838346848)","(0.2161935093375515, 1.7313033368615607)","(0.21318580512514923, 1.7919905689348783)","(0.18519514055126776, 1.9951214127543881)","(0.16115379930602353, 2.1456499954798116)","(0.20663437690211814, 1.5665057941528144)"
"(0.25257060870769393, 1.5665417952907865)","(0.2392576707891684, 1.5637975776221344)","(0.1587305003566726, 2.097664235379848)","(0.14535725127488602, 2.2810289569898154)","(0.19193568258327415, 1.7015353177410613)","(0.14426747050003827, 2.2349303921626147)","(0.1529367777606842, 2.2101952335321537)","(0.20893505286360892, 1.5439784144876572)","(0.21465308935738073, 1.541294381386067)","(0.1759945193187485, 1.8850941273274924)","(0.20988390322793812, 1.7337544166507763)","(0.1729850964865212, 1.9220543016120848)","(0.20500503429019054, 1.6566997734126052)","(0.19226878261823035, 1.765363607432942)","(0.23133022010201706, 1.603861553662397)","(0.2531082998350424, 1.5456374960007473)","(0.2532577556834731, 1.579168530581399)","(0.21084683942185056, 1.6972832888562734)","(0.2001962541675787, 1.7514429114638133)","(0.21289723132323055, 1.7752376206508182)","(0.17397762451301663, 2.016249732120624)","(0.17781020646145582, 1.8551094934736032)","(0.15085857773508896, 2.2538146151635887)","(0.23622029969063513, 1.6978835269242432)","(0.19176163134100072, 1.8491422129595887)","(0.187034480615844, 1.7064018474450995)","(0.21272553461153795, 1.7393670180201863)","(0.20392364223144188, 1.7491313038133272)","(0.23032926622131986, 1.6178406053144032)","(0.2170918385393692, 1.7502784144320673)","(0.17508114788704474, 1.9494839922840423)","(0.2113646180811366, 1.4693621381943576)"
"(0.21999378545322273, 1.7839486788960395)","(0.19783054652040866, 1.9089655438535253)","(0.14344690630503984, 2.2395563909777807)","(0.1275914563879262, 2.4382239515487125)","(0.1757790031988207, 1.8905248372010455)","(0.14059742438430295, 2.4768701012213112)","(0.14826787845005582, 2.290544960506032)","(0.21290456117287423, 1.5642551904636541)","(0.19216941612239452, 1.7263743697765166)","(0.165570233131666, 1.9635500578784766)","(0.16848450586991626, 2.1185403324515018)","(0.13524209766512746, 2.4193262554945014)","(0.15645987072373943, 2.1435099391367314)","(0.14135361237862717, 2.295092132155338)","(0.138278258884155, 2.4878572864334796)","(0.17854371021984902, 2.139517410297443)","(0.19540549305077118, 2.0752421092626583)","(0.17161341527353255, 2.1291632797654563)","(0.1558270026525019, 2.180812615742442)","(0.18305799068119108, 1.9995133681770396)","(0.13112422318735178, 2.5914499815828496)","(0.1431204348765444, 2.2465144179485326)","(0.1361254314690807, 2.596232142604778)","(0.1431419253399656, 2.787925994028755)","(0.12086370980247627, 3.030834984296882)","(0.1569419674422567, 1.9996676161309215)","(0.20269346917298006, 1.8507720740041922)","(0.13901291521897477, 2.628892356080419)","(0.20001741701355075, 1.957261560226897)","(0.21009241489356523, 1.8743048761155825)","(0.1587623598701953, 2.1114608024557056)","(0.1604894615992341, 2.0532694424364157)"
"(0.2283476259515323, 1.832272053909676)","(0.18951018166151937, 2.064869972829972)","(0.12288085090036356, 2.6591829482299096)","(0.12987836087785762, 2.662526215387522)","(0.16546007637083174, 2.0690152857082773)","(0.14454355029499988, 2.5031330506864586)","(0.14428923236778826, 2.2694476495546305)","(0.2053419987884412, 1.5991500959831317)","(0.21125612367786112, 1.491009157975115)","(0.1709670962225326, 1.8634030800379897)","(0.16664470597528874, 2.117082698795728)","(0.15612912612332208, 2.0514754873581884)","(0.1689660702922106, 1.8158696789375386)","(0.14548079974816328, 2.21326325502777)","(0.135707569303266, 2.539055157293068)","(0.16635997130768118, 2.175435260983844)","(0.181979548262441, 2.0759866963939335)","(0.16686248680454885, 2.117941498987317)","(0.14494731073554348, 2.3129892418444213)","(0.15292272182815486, 2.3568265436596474)","(0.1210318421698763, 2.783558377817567)","(0.15489321397226857, 1.998473468363646)","(0.15866708034893295, 2.1982643248391813)","(0.14104911373412662, 2.6929007587000324)","(0.1125178142867896, 3.1761098752987844)","(0.1574076771716414, 2.1768613409328696)","(0.2218987307945845, 1.7397748623909635)","(0.12439746957179135, 3.0263245946975705)","(0.19908156706316507, 2.0628018406433317)","(0.2071146288462939, 1.8479962320919794)","(0.1693921350393397, 2.1059346154806025)","(0.15724268207313483, 2.142879782291757)"
"(0.22909295619094627, 1.8190342898089684)","(0.2026452748580468, 1.8253249031360346)","(0.16229553125574764, 2.008219061278601)","(0.17642663315946613, 2.003758837827244)","(0.22919658625985134, 1.4431951571961112)","(0.17426248605253927, 1.9108219997322566)","(0.1702401733126432, 2.054713095180827)","(0.2120718675866954, 1.5557418436522585)","(0.21963172090813457, 1.4539550632650258)","(0.16420256876772765, 1.943315653240713)","(0.18579895468865762, 1.8415238191080503)","(0.19713860391554722, 1.631029537715909)","(0.19236964486509128, 1.6269235705837088)","(0.17474080747834186, 1.9190490171942562)","(0.16509349248061275, 2.175027879104198)","(0.18851005874888746, 1.9687290351752713)","(0.2117886519291504, 1.8098869483580793)","(0.18915286666287975, 1.8723751409763174)","(0.17586147993301068, 1.9823064178349787)","(0.19664667745429648, 1.8997678051811184)","(0.15476230000195826, 2.2356349115969687)","(0.16454522694690013, 1.9257425233012517)","(0.201537546930734, 1.6098905370678551)","(0.18121692421349697, 2.0888580191449715)","(0.14043708324076384, 2.424167562219484)","(0.23501755238374128, 1.4253335817156214)","(0.26780523468738165, 1.3461293762267932)","(0.15299594559123264, 2.3670495786781354)","(0.22582423993673376, 1.7256559628469321)","(0.19465123221022054, 1.9094805178782375)","(0.1665234437705763, 2.0751223301290755)","(0.1946804213790221, 1.601544077789215)"
"(0.20027978222406567, 1.932322038456909)","(0.1927551970449043, 1.680865631813815)","(0.18801465907827766, 1.6757792080499951)","(0.1958241794311621, 1.5879275421409162)","(0.1869238179554808, 1.5567072280181253)","(0.1914629299880472, 1.6950307433475051)","(0.19681716074863173, 1.7491027973473108)","(0.19575413928580326, 1.667412378750335)","(0.22642400449643713, 1.5149296880048633)","(0.18430919627178963, 1.8039259583350407)","(0.20296479199712253, 1.6704978595257252)","(0.21256017842587774, 1.6110102474161814)","(0.2013403606760969, 1.6694714367156829)","(0.22247374634305747, 1.5716484831459963)","(0.21065760526236546, 1.6553957813668645)","(0.22287133154060237, 1.680764533032262)","(0.25430726423293265, 1.473863029041273)","(0.2205950569323979, 1.5422740897819613)","(0.21197026904171448, 1.5658761227891949)","(0.23937541196669193, 1.52806590519338)","(0.19940359156864496, 1.5994987135972774)","(0.13859594368824205, 2.231754689318259)","(0.18801813505055165, 1.5061596080177768)","(0.21087769537122777, 1.9132372599245646)","(0.16076810537832906, 2.0750802803964667)","(0.20945571275077612, 1.5510130174683476)","(0.2340508682175794, 1.4379041184407941)","(0.16748797182443567, 1.9277050397171303)","(0.20369487923406848, 1.7235621679598305)","(0.18798596571870413, 1.9313375756382645)","(0.1663142023529994, 1.8297939054749932)","(0.2086850361788685, 1.3775375538935875)"
"(0.20941887832740963, 1.815163353603327)","(0.18680344983246186, 1.6673873854226045)","(0.1733208484752039, 1.8411768220092761)","(0.17664946027737843, 1.8519022661782922)","(0.1539559671495267, 1.7986423114421697)","(0.17532008605761384, 1.828391368559274)","(0.18037415115928646, 1.746711558084455)","(0.18090241368640703, 1.6737887851927526)","(0.21245349096662589, 1.6135401900336628)","(0.18257855883393845, 1.708849071947429)","(0.1975874079169381, 1.706910107862986)","(0.19090958471035313, 1.7351956459127362)","(0.1683349393642607, 1.8171564160198317)","(0.1896812055904746, 1.7776587143388904)","(0.19123660132414108, 1.754793771300333)","(0.19125672129990584, 1.8997020452548197)","(0.22309230917515582, 1.6594366684029611)","(0.18441865583224706, 1.736370529495085)","(0.17830452172634606, 1.6680979665403546)","(0.20982473245975325, 1.692238004856921)","(0.17465754244004686, 1.7066203211670117)","(0.13528060071658635, 2.0145480141911665)","(0.1659165731211368, 1.6782556237113966)","(0.2406717507565915, 1.6895670147128055)","(0.1585820060741452, 2.1500563319501644)","(0.1766905720445255, 1.7463824525371185)","(0.2070140408074623, 1.6919734259744357)","(0.17951907832670855, 1.873831544893449)","(0.1862176716088902, 1.9385482368645863)","(0.22110164787114944, 1.7583557269706684)","(0.1630070870315989, 1.8594421925990046)","(0.19736843731707, 1.459320154934265)"
"(0.28518997011875796, 1.425763388401999)","(0.2365035122259318, 1.5641899591001762)","(0.20124471143143574, 1.6929830283912919)","(0.18983790269494302, 1.9387637908928985)","(0.16867919658087985, 2.000540963385717)","(0.2058574444254376, 1.5767443727073946)","(0.21151638270887188, 1.4716487770443967)","(0.20638640765035057, 1.4300424170851083)","(0.22382187814284837, 1.4439847661514607)","(0.20661211151188671, 1.4693866539247735)","(0.22111034640859778, 1.5089479901660594)","(0.21096228129096622, 1.4953324991142791)","(0.19412402350258628, 1.5904300712968993)","(0.21247751181961305, 1.544310910491514)","(0.22968408889319056, 1.4542012306153511)","(0.213831841896909, 1.6547349641689215)","(0.24997744754418824, 1.4661332682342272)","(0.20379310381658589, 1.6127544786774668)","(0.19373939581050767, 1.554254951331645)","(0.22195125682017008, 1.550783304962815)","(0.18933221797187716, 1.573070753371629)","(0.17597120356932325, 1.676130417271874)","(0.17193190104773742, 1.6438014200049174)","(0.2543456065352912, 1.499783972198052)","(0.21870370943860373, 1.6201296731224293)","(0.1731588859542978, 1.7206383545388306)","(0.22047060369485322, 1.6854995979828367)","(0.2057014822720981, 1.8325742425875786)","(0.21323056189380302, 1.7718137024955622)","(0.21876141045695116, 1.8760843383935086)","(0.18372856212899719, 1.9088167885604976)","(0.18120553129096983, 1.8268165488461068)"
"(0.27100011033689686, 1.5194760491150237)","(0.25312847665043386, 1.5380897122345278)","(0.21878089129533562, 1.5218689184071081)","(0.20744089357452877, 1.7151195517484872)","(0.17853884540482678, 1.8561105380919911)","(0.23380898616620527, 1.4345239457020813)","(0.2342727215950471, 1.3858019318572543)","(0.21958660832065377, 1.4021217479507646)","(0.21994267797045386, 1.4578240184783133)","(0.23791286599280828, 1.3341851698208906)","(0.2550300013154897, 1.349248813376706)","(0.24189412933466736, 1.3744929321427628)","(0.22368068068500194, 1.4659044941442212)","(0.2562640317810599, 1.319809280924411)","(0.26997812887059286, 1.2704524768121253)","(0.24383379278089468, 1.4100924993996415)","(0.2625758930564855, 1.3219723502726568)","(0.2197424067847163, 1.5249108111149956)","(0.21563794699277128, 1.4659684747410473)","(0.22412485112464417, 1.5956954442797224)","(0.1784138844643975, 1.7335783523261965)","(0.19362661034794948, 1.6565665355346557)","(0.16381287855329443, 1.847274377465605)","(0.20615014458016784, 1.8004356937508976)","(0.20606526682085477, 1.7127188461841794)","(0.1772534281725803, 1.8149710021055105)","(0.20396378067187804, 1.822270498244208)","(0.19295974814989547, 1.9512968750633448)","(0.23002559759256783, 1.6625979722634978)","(0.18933236107810894, 2.074931631955352)","(0.18702523654307912, 1.8999727163232316)","(0.15450667614614172, 2.1920825092943503)"
"(0.18469420595103356, 2.033991364589619)","(0.20452188837244786, 1.8708010142441056)","(0.19648175380132993, 1.6484891973582507)","(0.21471974868881089, 1.6315911185038592)","(0.17722522707473107, 1.8052670001542517)","(0.20929493638370095, 1.6328212672915914)","(0.20974102521765167, 1.6158319479522625)","(0.22101782538382372, 1.3589716132887273)","(0.2053603386980435, 1.5076227875595294)","(0.2195913541341267, 1.4488421103201075)","(0.21784493431537372, 1.6310874971304548)","(0.1993721418341102, 1.7103775662490586)","(0.18508392762963016, 1.7382642166136855)","(0.1956213159608804, 1.753529254011029)","(0.19060823279880784, 1.8105798843188678)","(0.2026106470713937, 1.7429709443621433)","(0.22308975235012546, 1.5558264840329152)","(0.2047875479752057, 1.643452375446753)","(0.21620701572495518, 1.5162397414071083)","(0.2470170924243588, 1.517651636209778)","(0.1857851078031312, 1.8264821599536845)","(0.17752923292340173, 1.7883358171653863)","(0.188381865146995, 1.743562378258082)","(0.19935520330654488, 1.8445426028992966)","(0.21773152831639245, 1.5134247608868279)","(0.2054399379817397, 1.5709221099948185)","(0.21414745678999803, 1.626343818142695)","(0.21617470256660318, 1.636008044908343)","(0.23661457031571842, 1.5244982613043891)","(0.21693454241215127, 1.6463337852703441)","(0.18106063489152782, 1.9040058691477784)","(0.18815052585908584, 1.6526800212696002)"
"(0.18621429857352856, 2.1699871371052253)","(0.19919011446399096, 1.9733501866982077)","(0.19339689078776068, 1.7427204176211049)","(0.19772811794791295, 1.7910319790727942)","(0.18863877427193793, 1.7036298707946822)","(0.19604137846615266, 1.7287404322500233)","(0.20505934296554842, 1.6815818272286793)","(0.22066826670824616, 1.3841072086490485)","(0.2114131062231477, 1.4893534432908144)","(0.2041462228246393, 1.576519545197722)","(0.18480779955532872, 1.815260471551329)","(0.18081528778197326, 1.7612760182814933)","(0.18042313704010104, 1.7442602245113463)","(0.16541680766767242, 1.879668964760555)","(0.16742798356743407, 1.9170998251103455)","(0.18916953617067064, 1.8377732177469293)","(0.2101493234792791, 1.6702561734320156)","(0.2157380576423331, 1.5156895441562066)","(0.20607224461108417, 1.5239620933269593)","(0.25318292050733804, 1.4634807131502903)","(0.25253983391615614, 1.3550530640205318)","(0.18677652838966158, 1.6982149796010493)","(0.20793624857962753, 1.6026838889860981)","(0.24506549820746135, 1.5126599185217269)","(0.2159283945501801, 1.5450983004865602)","(0.2000078453380044, 1.6027482635794954)","(0.23162359530604887, 1.5150910463009315)","(0.20787378165702755, 1.7361346509161648)","(0.21643612694070885, 1.5699193181201119)","(0.21567321054307018, 1.6495383461103388)","(0.21371766320518293, 1.639173650513347)","(0.20448438142592104, 1.5320133502481568)"
"(0.22010765880663669, 1.8564077676307587)","(0.22871103483877436, 1.7676027788625486)","(0.1741115600307416, 1.9673805380991145)","(0.18890684333371793, 1.9165276252530106)","(0.16289079406455284, 2.020485062180213)","(0.18893242105805888, 1.8191617650401926)","(0.19444259232135971, 1.7379660505289325)","(0.18752193278734583, 1.7131327213093859)","(0.19450217952186466, 1.7150504729662694)","(0.18835682870459827, 1.6913432671460604)","(0.1842124597869354, 1.7521467555813814)","(0.17843377238193275, 1.7897601988649408)","(0.18090652172153388, 1.8822572327099507)","(0.15901764325224432, 1.980744773864716)","(0.17746483259634424, 1.9482155565011345)","(0.2108540477546051, 1.699573268831653)","(0.22450786240113835, 1.6528195895792548)","(0.19842626861836654, 1.761496749384549)","(0.18794563679314147, 1.7867120257350744)","(0.22833165782528053, 1.6482246334406545)","(0.22097765444231515, 1.564960646248576)","(0.18933087497188086, 1.8452717099162719)","(0.16278644848043905, 2.201562030909706)","(0.23468683303943141, 1.6740143995517887)","(0.17713701655612232, 1.9240313645808833)","(0.16256409405976543, 2.215008968916765)","(0.2226139480996396, 1.7565506584134436)","(0.19134983073206943, 1.9937900008226572)","(0.20468338537466862, 1.880929822632844)","(0.17224013431460097, 2.1684337251632733)","(0.19082435342709173, 1.9445167820615405)","(0.18576260900846403, 1.8095701924615495)"
"(0.24455744832676332, 1.6737452614778654)","(0.23747472929507707, 1.685692821781513)","(0.15053044024323745, 2.288871035329151)","(0.18868723827235842, 1.9747575768858041)","(0.1957187648828566, 1.7856040617837659)","(0.1693385296010644, 2.066220376629488)","(0.13596934693949184, 2.4130437077301288)","(0.17810093816134234, 1.8957044446611562)","(0.1841987875290415, 1.8953658062628784)","(0.15743411158196685, 2.097372719844281)","(0.1898011805758969, 1.8267161255654176)","(0.1638408124573231, 2.095376673351981)","(0.1907675022522744, 1.8663792533403851)","(0.156398152678548, 2.1651024429591907)","(0.17371960458533867, 2.147712937216423)","(0.21303711478276702, 1.8186590322310934)","(0.2224389064066407, 1.7671799739065421)","(0.17941244890396238, 2.107100911395081)","(0.17113221085330488, 2.0805775911781077)","(0.18055145073735598, 2.0469839747483847)","(0.1697599891841975, 1.9585554947274464)","(0.171486650651612, 2.0793767258766236)","(0.14274217798588623, 2.3232263963587187)","(0.1680790487472921, 2.235009117995761)","(0.16792980270282667, 1.9592113230504864)","(0.18565534186450708, 2.058839931448775)","(0.21082888212838233, 1.8242372420172392)","(0.18004375630096797, 2.081763599582854)","(0.23563036769604118, 1.7486759457100205)","(0.19309138478502016, 1.9494671931351364)","(0.19114120902390583, 2.0070573246803036)","(0.19387368702564595, 1.8294325534985336)"
"(0.23118812183362744, 1.696027302640905)","(0.24014864167687222, 1.5531568662342166)","(0.1385411773216218, 2.3483075083147646)","(0.19038948531901784, 1.7988684355134417)","(0.2039200277754227, 1.4610197020538225)","(0.14631033332140178, 2.1684582139868605)","(0.12760520023997174, 2.675011317436602)","(0.18136084912510553, 1.7443140988201018)","(0.21155432073497057, 1.5508625208083366)","(0.15838498770862378, 2.078155072344656)","(0.18709445380774387, 1.8472444072529446)","(0.1608283372246494, 2.059905415692109)","(0.1945892850415037, 1.6311062065580335)","(0.1627365957797134, 1.995072262122681)","(0.17031501406206798, 2.068351125399629)","(0.20295814592558054, 1.893192125570095)","(0.22148958542516606, 1.7724861458166903)","(0.19540984631354927, 1.9264913706176507)","(0.17678929934384036, 2.004276986812106)","(0.18856378942213556, 1.985242838342936)","(0.1676741141663779, 2.0693173732308296)","(0.17463763302578358, 1.84957128497323)","(0.13627841406247207, 2.4280322198785464)","(0.1811828440565777, 2.0717483432721266)","(0.1727249644092129, 2.0258076193087122)","(0.20512855120344242, 1.47680064388704)","(0.21380657910032802, 1.6030178631992198)","(0.1736433235031267, 2.1439156983899026)","(0.2287178926833191, 1.7388576237271653)","(0.24309102416529807, 1.5464407570549794)","(0.19084301504685974, 1.6836359916957162)","(0.20329687642943733, 1.5436442731816953)"
"(0.21115495417437155, 1.6964010470711874)","(0.22281406478054339, 1.5431623515462383)","(0.19103148870628184, 1.6819433648853914)","(0.19236970830595418, 1.6431557894862272)","(0.1892116489098666, 1.4672492102991022)","(0.18601016698537257, 1.7042974732513303)","(0.19523590506869803, 1.7144102788525974)","(0.19631774855863995, 1.5457847541995131)","(0.2123444034112824, 1.456099281938376)","(0.20257838843405004, 1.592695909534151)","(0.19805619141540162, 1.6940461807975522)","(0.18293584313117178, 1.676926587794996)","(0.20430532274983051, 1.5208473719204505)","(0.17700397138108978, 1.773595221465349)","(0.1893639131131225, 1.757125464525384)","(0.21162823724383478, 1.7433154158664188)","(0.23122999575926875, 1.6721639827083568)","(0.2161966788069159, 1.6810169181616827)","(0.19707707586075351, 1.6990230391528416)","(0.25471418251335703, 1.4341809545572979)","(0.22715207719252029, 1.4367568931726502)","(0.19719090288568594, 1.5031516462051406)","(0.20038171384255704, 1.4678845246110528)","(0.26542670713455213, 1.4432613202395508)","(0.2044804935818694, 1.6086071659424703)","(0.20015044271101018, 1.4203658836801285)","(0.2174772799740671, 1.5316987041786103)","(0.2145079718681668, 1.5957989743205068)","(0.2226843733101683, 1.6661990187786233)","(0.2444805164039036, 1.5420208988915363)","(0.19107360070057486, 1.5282406320579562)","(0.20972114012952656, 1.4581121922506375)"
"(0.22881491090767717, 1.5964459053911524)","(0.20760750723991248, 1.6706804291419521)","(0.20151786293292415, 1.6510759286672114)","(0.1951093267746995, 1.6707739118422262)","(0.19461280698945618, 1.5674668623877404)","(0.19231685653086902, 1.7369921199415463)","(0.20141103458487128, 1.6259236864544573)","(0.20143982890731146, 1.5996083496584006)","(0.1867124314904896, 1.649627034841797)","(0.19456822019141076, 1.6545829814890811)","(0.20916930412490903, 1.702846690184345)","(0.17552459207426155, 1.7388804903905397)","(0.18063510946170552, 1.7303597900588665)","(0.16285256972174852, 1.9023556288502574)","(0.19053094436151022, 1.850409233437671)","(0.22828476303806164, 1.6781477861892649)","(0.22727993291820286, 1.730324817875059)","(0.17601915974940754, 2.0333385968515723)","(0.17684322396385235, 1.8363684679536698)","(0.24871033110120042, 1.4841678211931526)","(0.2021952973564192, 1.6071976308361433)","(0.18000497001105614, 1.6641661082960466)","(0.20900039094847522, 1.4249445515746177)","(0.24882969851322997, 1.5256010927073778)","(0.19530228338253133, 1.6897127620083014)","(0.20314022473659685, 1.5443814054862774)","(0.22313098137032458, 1.6186310277298082)","(0.2225940179680233, 1.6066618306406266)","(0.23461696120609182, 1.6041939434077517)","(0.2470457896748513, 1.5982515287466894)","(0.19892241802028343, 1.5863795757702805)","(0.21472038168288252, 1.5206038380822073)"
"(0.26607719434798693, 1.4347787742983322)","(0.23692543786859047, 1.5741904257429573)","(0.1859675868547183, 1.8183045767616859)","(0.20903223073858768, 1.6098550271948109)","(0.21152544442132618, 1.5068314971129984)","(0.17662634982782902, 1.877681936349364)","(0.17147438584279712, 1.9144858030128022)","(0.20603719587190825, 1.6070352574567486)","(0.1681399773442651, 1.9720315015844037)","(0.18074748417939882, 1.8451587172044346)","(0.20235163428362987, 1.7679089886047974)","(0.17010699379210656, 1.9829022211924439)","(0.17169653461775466, 1.9395132796575256)","(0.15962694987277568, 2.0689710079681976)","(0.17922316109655873, 2.0400139137379374)","(0.20235573636721435, 1.8720400691779115)","(0.1893619613084088, 1.970186242667316)","(0.1553658118339405, 2.14755036305543)","(0.15914880613521823, 2.0141240329429624)","(0.20485853786119795, 1.7864672843060123)","(0.18162389552954597, 1.85770073210318)","(0.1643120371030657, 2.0554521468401217)","(0.19689344599744418, 1.7053604511661409)","(0.21814537126685693, 1.7624584741245761)","(0.20677978403560218, 1.6653059275005009)","(0.2301288127882932, 1.4372750844745084)","(0.23782380153254926, 1.5855659027097075)","(0.24562867671804703, 1.5590653126375538)","(0.25904354898852433, 1.449853678196223)","(0.2638485827957485, 1.4598599644050365)","(0.21518146662263213, 1.5567727308832888)","(0.20820164061524177, 1.659354060616792)"
"(0.23705279493560116, 1.6872651647633434)","(0.22031779801027684, 1.6921781301817886)","(0.19286451534217397, 1.6313163142070948)","(0.18541280754244235, 1.737679823056093)","(0.20025726389790702, 1.4898270384745846)","(0.1892797448167791, 1.6074811798862416)","(0.16974602574793865, 1.8840826981237566)","(0.1915254304693918, 1.593064584008033)","(0.1680277684612979, 1.9085062939226323)","(0.17453938464033267, 1.753285223958451)","(0.17373706936132757, 1.8874847356663738)","(0.16841223576046663, 1.8488384557885076)","(0.18175098003244664, 1.7982611675109672)","(0.16789774460313134, 1.8263870202820118)","(0.16797242469257442, 1.9825078536090244)","(0.1591524585851708, 2.2141822188721765)","(0.17228411547922567, 2.1223076637443166)","(0.16804488393909842, 1.8992226982721947)","(0.1646350612712353, 1.8526886019812845)","(0.16337097073672427, 2.1408469449509235)","(0.1719337855993498, 1.808439404592875)","(0.1530555334562722, 2.1310356124398164)","(0.18242469642923903, 1.7587503603580408)","(0.23047510419948908, 1.739821399278926)","(0.19691749902558436, 1.7130951576388764)","(0.21212095637996886, 1.6390578526968855)","(0.2381178798707648, 1.5897713447076949)","(0.2051451002225061, 1.8546161517338953)","(0.22729182475381715, 1.6281824600951185)","(0.2277303340468802, 1.7044829609320669)","(0.19277132288868584, 1.7908974355784277)","(0.15623641534357843, 2.1429950517088874)"
"(0.1988984578877553, 1.953365575729315)","(0.2122262536170572, 1.6852691226193028)","(0.20967503042870725, 1.5711568774773292)","(0.1624164389909939, 2.053382984270563)","(0.1856001786389053, 1.6461586396761938)","(0.21889405535457823, 1.496081026893593)","(0.19296010462535526, 1.7311217343261234)","(0.19407936805931544, 1.594312961362303)","(0.1919753167113312, 1.613653067415664)","(0.1839550675192234, 1.624329530763522)","(0.18273924925583965, 1.703178698671804)","(0.17417470307289615, 1.6866759153498445)","(0.17763913385388522, 1.723035139279907)","(0.16862234756376832, 1.7455493582388786)","(0.16743038753678405, 1.9762860033565233)","(0.16576981101159122, 2.0972031266388282)","(0.1859847486938399, 1.9546995115905472)","(0.16284123353145225, 1.8879996409269595)","(0.15799779228211258, 1.8079983295651163)","(0.1671820266625659, 2.0974781906881215)","(0.14684662154477127, 1.9959874657838519)","(0.14550744361620774, 1.915345375222703)","(0.12158707425048844, 2.2051279167257007)","(0.2213654486550204, 1.8111563502995542)","(0.160680104312181, 2.1480169601823484)","(0.16181757365141652, 2.0033937108399624)","(0.22324842062995462, 1.62361163462267)","(0.15549696421737808, 2.3711768164092244)","(0.1902300426094279, 1.935412418207215)","(0.15563099799842872, 2.4469075988279902)","(0.15962158940330873, 2.0019141012534494)","(0.14254578875327498, 2.131092142394106)"
"(0.21267848714572887, 1.795085915111919)","(0.22469423931205915, 1.6001082453955575)","(0.21454388230637572, 1.584454723107383)","(0.17259155949867508, 1.9678871093913015)","(0.19359528557417674, 1.626779585119441)","(0.2381830117463329, 1.47189292702662)","(0.22553552852012773, 1.5225042547269272)","(0.2298200495908762, 1.3815650126453831)","(0.23292604008989934, 1.3074141620811692)","(0.21905413447806435, 1.4125262912222454)","(0.22469277436371038, 1.4266526770476025)","(0.21021282646319384, 1.4521620169070097)","(0.1778166379027606, 1.697281074149244)","(0.183055302260054, 1.629215855487641)","(0.19527075315714107, 1.7212290832965447)","(0.20399766663560576, 1.7051304241010177)","(0.2099303975035598, 1.7021346767891117)","(0.1792868702368372, 1.7090318420442299)","(0.1556840714563053, 1.834592645252946)","(0.20919240476307896, 1.6918552812240149)","(0.14901069895212016, 2.013795622284966)","(0.14779433605114506, 1.882613249859859)","(0.11791218838228312, 2.336450052379789)","(0.21969023165018448, 1.7617935876416466)","(0.14401919829693738, 2.517204078817262)","(0.16844945147176302, 1.830033910943235)","(0.2226567602914791, 1.606666551912732)","(0.15910753290817767, 2.336156632362149)","(0.2080774701788679, 1.7921036613530117)","(0.15299758872848268, 2.4293443109694848)","(0.16494876540158404, 1.8866038601989912)","(0.1666265619907915, 1.9009384596960095)"
"(0.2563451680589693, 1.547018744148562)","(0.2431802531473514, 1.5106520650111317)","(0.20750900731203073, 1.5772445573115819)","(0.19604203898911535, 1.6660605609355572)","(0.17852001188333516, 1.6981269416816671)","(0.22686051911999486, 1.4877498773771802)","(0.22598717015058176, 1.406168198372429)","(0.22374488755463895, 1.3570370915723393)","(0.21818877953373483, 1.3622924093006643)","(0.22163541439793094, 1.3637249496449833)","(0.21945430016663284, 1.5008232033792952)","(0.21229490842103216, 1.4638982011044215)","(0.18652134747566865, 1.6654580492403142)","(0.19624458140144407, 1.5686692835213216)","(0.1968101753459622, 1.6804266987020142)","(0.20709500872663045, 1.69407411859858)","(0.21541710546779766, 1.6735546696013865)","(0.21598196652407653, 1.5422459238075703)","(0.19648235168928624, 1.6454420590949295)","(0.21414792186986917, 1.6557585666348216)","(0.17939014663040834, 1.799528400331122)","(0.18316590035125954, 1.7192597422258022)","(0.14949060951610382, 2.037966392439232)","(0.2064827338847293, 1.9113890949759909)","(0.1659340211605091, 2.1505359153367722)","(0.20412970914126397, 1.591673954823039)","(0.24326902130341418, 1.5879814331290194)","(0.20428646650908078, 1.8566116310245362)","(0.2571932496985872, 1.4539360907694738)","(0.20685486955070653, 1.8056465249840887)","(0.21465179007938676, 1.5769350440034764)","(0.18158561136162038, 1.725205566549224)"
"(0.2563923572566708, 1.5706208282317158)","(0.19178191780872536, 1.7099838209640876)","(0.15678617631889233, 1.7784944781504703)","(0.17300145554099564, 1.6813974160653447)","(0.16863511740742956, 1.6620333047811158)","(0.16403471892907404, 1.7555644468117504)","(0.1712500091146768, 1.6226028217836734)","(0.18751494251687512, 1.411044319991192)","(0.1999239027912723, 1.3992778696357429)","(0.17803492115672234, 1.5138637355496898)","(0.1765128559876941, 1.7260254026005637)","(0.18212651223676365, 1.5666868131021492)","(0.1788762919680361, 1.6795801002934387)","(0.18692611233958192, 1.5584674006937236)","(0.18222487055805972, 1.726464241603368)","(0.19563827460948544, 1.6815574296206581)","(0.1996005779374832, 1.6667923614693805)","(0.2034345436640106, 1.526986773215498)","(0.19008941455212067, 1.66359855746741)","(0.1983902040696332, 1.676842295555317)","(0.1843033430138021, 1.6659716524438875)","(0.16014775089563194, 1.8923328125842787)","(0.16995775325685072, 1.7964334162396738)","(0.17444991526948075, 2.080147555996896)","(0.1661472537296812, 1.748096543207481)","(0.16903390955788072, 1.735207692913894)","(0.18859449891623084, 1.957352549982384)","(0.1817415536844535, 1.9468516360897787)","(0.21044437535230284, 1.6625093569645184)","(0.22157435604285783, 1.7003021663042035)","(0.17052047558106334, 1.7663271910385472)","(0.17613037584403526, 1.708375874548192)"
"(0.22012189535125973, 1.7925718671643092)","(0.16585223574702004, 1.884447259883289)","(0.14367220020215626, 1.8220016808354658)","(0.15615570761502542, 1.7911862134591534)","(0.17534099196010897, 1.5493350494268538)","(0.15515626452118997, 1.7550564111826015)","(0.15321496667423232, 1.820592614162592)","(0.1733154130662353, 1.4693503699445867)","(0.18668298820329576, 1.479483923168291)","(0.1627806187749321, 1.5851870401125576)","(0.1599146128478115, 1.8155580915860912)","(0.1626099713061625, 1.6594626707320386)","(0.1704038421185909, 1.7381934687951721)","(0.17149454618810875, 1.6545143266881244)","(0.16621106936584168, 1.8414933902166617)","(0.20225739415892255, 1.6833234645836974)","(0.20061414045071735, 1.708021126900477)","(0.19900629001593734, 1.5994223172621198)","(0.17240169582249923, 1.8431899235845637)","(0.1809297142844526, 1.8219129888392744)","(0.16436640933173213, 1.8412202900596804)","(0.1356630295350319, 2.0884948927257003)","(0.18588884134448536, 1.6376251967869664)","(0.16723518847965843, 1.9923356518120283)","(0.15739281182818793, 1.7826506870596273)","(0.16963165715903863, 1.6866275438234213)","(0.18596731518584123, 1.8516585890828516)","(0.1646017524385721, 2.0397450227522542)","(0.19395288732510718, 1.7609172692031854)","(0.20648682346372668, 1.883965313188314)","(0.16741320572102422, 1.6945268603822634)","(0.18672802057268706, 1.6167572827233496)"
"(0.22092289958163971, 1.806500198807364)","(0.19131304840390226, 1.9486398686492523)","(0.1407634900833279, 2.0282628496032173)","(0.15407477105991785, 1.9936375793638526)","(0.19217770011404828, 1.5030514027417052)","(0.1646893139909602, 1.7451405840535268)","(0.14930185368128757, 2.0042364508039907)","(0.18744797830406196, 1.4566826553832983)","(0.19017899606857488, 1.4577876367437643)","(0.17434175217513065, 1.5586636660189934)","(0.16156487326916466, 1.8634729333215045)","(0.16891569797284142, 1.6383062564276214)","(0.1963753507617261, 1.543576386703429)","(0.17343719303145838, 1.715007730337905)","(0.16754196239693997, 1.9225605721893737)","(0.19724273971549885, 1.819496795290601)","(0.1999800247392449, 1.8478844652837918)","(0.18908019678127724, 1.774360614423359)","(0.19272479111662774, 1.6609303481092308)","(0.16844369584707716, 2.0738891747599806)","(0.14628881189272322, 2.169665223662007)","(0.14378674983823989, 2.0090846812608283)","(0.17011733033735324, 1.8017065249163917)","(0.1702161977177151, 2.1536943769205963)","(0.1665720845650918, 1.9863655349831844)","(0.2000926251360476, 1.6089091700013627)","(0.19906124975154385, 1.8234038236353345)","(0.1554350094416871, 2.2794980140989702)","(0.2017976246056174, 1.8283695355775538)","(0.22870133257451475, 1.733009882586397)","(0.17409112755931155, 1.8117222917090585)","(0.19633588145284167, 1.4909771172919457)"
"(0.23088368555878827, 1.6083811468927889)","(0.21204390959406272, 1.7291926971338643)","(0.14912709602336258, 1.9365292037770634)","(0.19115048805883564, 1.5964249919519289)","(0.19464813095184633, 1.533460160508049)","(0.19248921742010694, 1.6099475388034343)","(0.1625209704019302, 1.839759203860682)","(0.20531327973708338, 1.4039096408848717)","(0.1919887596381192, 1.4336031243641252)","(0.1954252168327298, 1.451741753768569)","(0.1866186149964674, 1.7249313748311432)","(0.19031783377723005, 1.4669673596221886)","(0.20024872402184749, 1.5043588654172984)","(0.1745776836767238, 1.6307169628516929)","(0.17621287139190642, 1.8400748465673773)","(0.18791128726258594, 1.8664187812506898)","(0.20795210613765225, 1.7654824724212945)","(0.18603035014485514, 1.7692848834400239)","(0.19416388170461735, 1.5686863110600404)","(0.19247260297223723, 1.8198880232437846)","(0.11193320626114335, 2.7422524433126334)","(0.1562501503670641, 1.9010978161430272)","(0.1836033733821964, 1.6243466130284456)","(0.20627502035225712, 1.8815353577619551)","(0.19687923286258244, 1.6523292745317182)","(0.1779462661730874, 1.65613634901914)","(0.2089793916580262, 1.6367184548971687)","(0.18035818303933174, 1.947489151619797)","(0.1944113354902531, 1.8063738058620395)","(0.23522338430262354, 1.648223002681258)","(0.1693398925489491, 1.811718279975136)","(0.15516475887723172, 1.8842812264863584)"
"(0.1419060208146438, 2.5194050588998516)","(0.17373727451194448, 2.086029551293073)","(0.1802879277315901, 1.7404545795626394)","(0.169169640792606, 1.8872082684701155)","(0.16645593734484287, 1.8123555292329236)","(0.20718921903112603, 1.57541744884785)","(0.16506307818413604, 1.8778703746898833)","(0.206516607296816, 1.471955420995349)","(0.21090210123107753, 1.4108295779950986)","(0.20035433535407418, 1.4795893479809519)","(0.19655194653830374, 1.6489788329322725)","(0.18275852488072106, 1.668593803204886)","(0.18118793539343445, 1.6846903735959926)","(0.1724971537618409, 1.7412822800296965)","(0.18608696384408477, 1.8053685717587094)","(0.18817184435708187, 1.8757523364254607)","(0.2084094855354209, 1.6961088902379307)","(0.18280388771310158, 1.8265821330476684)","(0.21125227913282632, 1.5191984026593988)","(0.21697672903770265, 1.6487734962946308)","(0.0683753432801531, 4.32708656802462)","(0.18396438389641068, 1.6494160494315602)","(0.19470115877579297, 1.5584118918025793)","(0.2449987735669333, 1.5916494545445843)","(0.2072290847517252, 1.5590506663334263)","(0.15911816664109563, 1.9012739775810152)","(0.1783229755755371, 1.9147561770753923)","(0.17617097496501818, 1.9555339520408328)","(0.14396383809268606, 2.4942518260140583)","(0.1363196718451751, 2.77996507740821)","(0.15299422300002016, 2.0950185330976154)","(0.1431653236892267, 2.211577911438362)"
"(0.12943733691177597, 2.989169941017391)","(0.17172404220953175, 2.2346973017923255)","(0.21088384943771954, 1.6465901231552855)","(0.20836031505333713, 1.7292447634591284)","(0.19269422568656716, 1.7976552531160555)","(0.21838957583333235, 1.5830861838046104)","(0.17394892001630471, 1.9761372455279642)","(0.250248413897746, 1.3540147650377496)","(0.2569401927631654, 1.308597299346895)","(0.23603491913681646, 1.4371061433211627)","(0.21393873696145418, 1.5625615622188427)","(0.22491344737376634, 1.4924204110243193)","(0.21305359528136827, 1.5913147382376351)","(0.18885488242195358, 1.7941858716334533)","(0.19641569803379103, 1.821672995573928)","(0.19481084794108566, 1.86497793314291)","(0.21396081008083367, 1.7053192692050838)","(0.2054976181836628, 1.694834804572593)","(0.20321770969330386, 1.7130953122773966)","(0.2519656901077868, 1.5375881938174827)","(0.06538682737176073, 4.7291151569031955)","(0.199518580265953, 1.7060382230827744)","(0.1961747956831227, 1.759520858867984)","(0.2631131418147299, 1.5216853287799148)","(0.258846823171406, 1.4521445359981362)","(0.16725862517240112, 2.100961359950108)","(0.18892192028716612, 2.0258984271855014)","(0.20074495569682088, 1.8779978989886117)","(0.1660551987467441, 2.344426709577623)","(0.12210983761248928, 3.1304283750791924)","(0.15722588729677847, 2.3068998670161958)","(0.2108219976967541, 1.659924646991621)"
"(0.22364186599005284, 1.6511996461487557)","(0.2403275996288405, 1.506567349664667)","(0.23554375401180452, 1.4299277833163377)","(0.2566452755105065, 1.3386392417250381)","(0.23181921910781694, 1.4124397601641587)","(0.24743419681440912, 1.3603843215812923)","(0.2126246981538457, 1.604571422747612)","(0.2533681539190376, 1.306642016112152)","(0.25380976277417616, 1.285060474721045)","(0.25358514929660014, 1.3132595981458863)","(0.23207030339526494, 1.4305963069163803)","(0.22181310765175888, 1.465503457575681)","(0.22730872637108007, 1.4861437122271497)","(0.19861162635145876, 1.701799108978704)","(0.21179920543528302, 1.6905537517974432)","(0.2342593506939477, 1.6167998818869669)","(0.271022940265844, 1.425988953923481)","(0.25012865068518714, 1.4337665375735746)","(0.191879554378232, 1.757428945143315)","(0.2641969958021943, 1.4361456978337754)","(0.11719191732173032, 2.9661736676176904)","(0.2492793515774399, 1.353343328883796)","(0.177750838827251, 1.8983328816265768)","(0.2274870237013354, 1.6814943538417233)","(0.21177236022953558, 1.721655746809229)","(0.20321988945496944, 1.5116158205307424)","(0.20659189200585992, 1.6778535489785837)","(0.20883535581899526, 1.799809043152332)","(0.19865450864107356, 1.841831680281094)","(0.1796395971288693, 2.1129498128224)","(0.20085198006933083, 1.6075793451151204)","(0.21381096275930148, 1.5909576798742169)"
"(0.21622148674585034, 1.5497758992345432)","(0.22886359606672269, 1.4368027770296272)","(0.2358856053791404, 1.4092187763944635)","(0.22209764898276202, 1.449648875210106)","(0.22422862709538147, 1.3858129248751705)","(0.2315925595025976, 1.4085555098936415)","(0.23765463103134668, 1.490680197445498)","(0.23273792492621206, 1.3621843174877353)","(0.20826495906162854, 1.4025591966744098)","(0.22915459551323045, 1.3829777334557942)","(0.2372619044858121, 1.4862014987575074)","(0.19057594320405946, 1.5759274824748304)","(0.19591487230463103, 1.4842733815397695)","(0.214876177867109, 1.5219898306980197)","(0.21902696289954432, 1.619684302426002)","(0.23866047210983884, 1.5665954853538977)","(0.23484605008459314, 1.6082994178842354)","(0.216396703462426, 1.5792729909486285)","(0.20391605799282908, 1.5692158635355717)","(0.216228019135346, 1.6677169764038615)","(0.20777060702850655, 1.6147605524955715)","(0.20877827033003382, 1.4791475161660126)","(0.18930904409062516, 1.7388991613624047)","(0.23260918331706967, 1.5510947597859586)","(0.19974705358518777, 1.6268876967246362)","(0.19023559912130533, 1.453195466212266)","(0.19522774710747204, 1.692354617172968)","(0.18192580776659406, 1.9244107873808807)","(0.18193918649083568, 1.8626672338869399)","(0.17499997513892618, 2.054146160282519)","(0.18537939734784756, 1.5561600067077066)","(0.21379542711440844, 1.532261034846204)"
"(0.19637487861361103, 1.6174646801468577)","(0.2111062349138819, 1.4502935829174226)","(0.1937111291818292, 1.6256979353213898)","(0.19647695190670564, 1.551250054884047)","(0.1867733603086859, 1.5412963645580298)","(0.21029482774420935, 1.4866499618854985)","(0.210338964460526, 1.5835569818848403)","(0.20558075113170732, 1.3859149706039204)","(0.18760164117198988, 1.4398786483505919)","(0.1904546232405106, 1.5160219548127984)","(0.19731404333466449, 1.663822089070678)","(0.17106500268919345, 1.6067422344933113)","(0.16648674457683577, 1.5812201348704726)","(0.1782456782287594, 1.6746047175555785)","(0.19124753281107337, 1.7135219129537649)","(0.19902079205167467, 1.7098267794244129)","(0.20175761488827945, 1.7041990201783763)","(0.1823970954572037, 1.6630569128877317)","(0.1852051243724446, 1.5437080430574643)","(0.1691458541998399, 1.9834360508330633)","(0.1585205168304021, 1.943971812736889)","(0.16755412492503835, 1.7107509129394007)","(0.15115268485518982, 2.0005862101924534)","(0.18730636961784092, 1.7032822502574407)","(0.17873576680048178, 1.5372577219623638)","(0.16681518477719087, 1.547331741324671)","(0.1991247178479522, 1.488573341037636)","(0.18458511391760543, 1.6350402630677239)","(0.2071777030888947, 1.5263861646690062)","(0.21062804818508607, 1.567489193659682)","(0.1748291458260849, 1.563154297090898)","(0.21140508276062808, 1.4235979340074423)"
"(0.13272344836008979, 2.540459835538616)","(0.16175493490900217, 2.1771682263305525)","(0.16269225320306324, 1.9341994837470808)","(0.15747594841081206, 2.0711666918659843)","(0.17772919878343832, 1.6369603538338826)","(0.21086456309199328, 1.4832382491046336)","(0.2040733216009027, 1.6188228712723702)","(0.20991140221400978, 1.3704461212514316)","(0.19318371013845392, 1.4656195890090764)","(0.19230727026252473, 1.5777003736832746)","(0.19199830662811687, 1.7078430449600441)","(0.1637332655644899, 1.7899061606448141)","(0.1587070739708506, 1.7846666685190495)","(0.16667817446591265, 1.8304733662160444)","(0.18114199003274273, 1.8131925613278927)","(0.1949269426148443, 1.7529281766997729)","(0.19173335145194753, 1.8277375132441251)","(0.1630505310660251, 1.8068027417783936)","(0.15962656934722078, 1.728919191407164)","(0.18127069666212975, 1.799106317262069)","(0.06687324206334964, 3.8652980135736676)","(0.1571172047337668, 1.8949597573516996)","(0.1572501662408703, 1.940356123799557)","(0.1888659961642752, 1.8266358506773417)","(0.15222325979549545, 1.8805446248606803)","(0.18309865522516514, 1.610331640290456)","(0.20995813508132233, 1.4978075898203418)","(0.16447925686455353, 1.9911595708557641)","(0.15981721518320993, 2.0312897594020694)","(0.16555777052283455, 2.121447984450551)","(0.16848812208372352, 1.8039560894166937)","(0.16660551926929199, 1.7951989576862597)"
"(0.11439822471631622, 3.043263812306959)","(0.1443075670092721, 2.447689013511084)","(0.12849599979479925, 2.3450560315055773)","(0.15543341779852218, 2.08254926353007)","(0.17376239507234653, 1.6934802494760748)","(0.16570273324433898, 1.8370054541402079)","(0.155950638810738, 1.982449415989492)","(0.2067099271383351, 1.5085743147536859)","(0.15591605349274915, 1.9235211169204256)","(0.1682317636563205, 1.8874769882019085)","(0.16298565735629716, 2.041971486404705)","(0.15750831711401414, 1.9972122053402939)","(0.143548757131941, 2.0049413856101816)","(0.1604467446951781, 2.004441504522296)","(0.16024209898545502, 2.085919833012005)","(0.2001817416849894, 1.7697876840969264)","(0.1897345496668053, 1.9224816046129614)","(0.16915914723561132, 1.845323343780072)","(0.16590838149701362, 1.8313820334366324)","(0.17506325265445763, 1.866159793172462)","(0.06555000584664625, 4.053077035342419)","(0.15688442437157993, 1.8713643565133857)","(0.12921541029473993, 2.449745008178828)","(0.1851243236617413, 1.925457060255606)","(0.12837136976590616, 2.444117575835813)","(0.1532640313481026, 1.8967002867361678)","(0.17367515969921604, 1.865529493665343)","(0.14408163669905386, 2.4056682025042013)","(0.13268917553327714, 2.6203964497156407)","(0.13245971060265427, 2.716891778160622)","(0.14882112227961197, 2.030175396556339)","(0.16164461662722263, 1.9281318109151169)"
"(0.18278482363150664, 1.835086820399167)","(0.18802973780663584, 1.7477628774437406)","(0.14948936832532933, 1.918371449866555)","(0.17889592625985493, 1.73094234069801)","(0.18266667527957828, 1.6101957919630945)","(0.16481226978808797, 1.8552634254540536)","(0.14973294873643148, 1.8354163272501227)","(0.17942252319751167, 1.739658855443398)","(0.13671607049019668, 2.184666204336695)","(0.1540420990742802, 1.8843778563438536)","(0.15345042258477992, 2.0539063904211177)","(0.1415441155756834, 2.0576478239048543)","(0.13062876362727757, 2.144523084483131)","(0.14205153207376064, 2.200904572294691)","(0.154439351778989, 2.0548999793362372)","(0.18431241339522195, 1.8756689920156555)","(0.19841624054422688, 1.8568259085043)","(0.17232172365689236, 1.8375829274879312)","(0.16225802708483922, 1.8953768036796834)","(0.1891741165517758, 1.798940461877695)","(0.10453067713963415, 2.865219617071336)","(0.14118006546541567, 2.1024872685688747)","(0.18222187205349202, 1.7307418089770603)","(0.1978730708943482, 1.7989417955647176)","(0.1896987314799955, 1.6210875572521255)","(0.14224288523811754, 1.9170788488144441)","(0.188459810708517, 1.6987080939204626)","(0.19256619382938467, 1.6601521729369633)","(0.1858569231636228, 1.8071383731517534)","(0.18031746826114198, 1.8858730514434072)","(0.1756402406231327, 1.6263344919608667)","(0.2106347816435473, 1.5119678083424932)"
"(0.17432082696246753, 2.0555104235956665)","(0.16738587915110295, 2.0752661765378213)","(0.12599731667528477, 2.3295367284136144)","(0.1459417459483865, 2.369564245757151)","(0.18825520774671958, 1.7313971662639984)","(0.1393233661597388, 2.2755693344050756)","(0.1426388828471931, 2.073991964794073)","(0.15970105365163326, 2.0162271860165624)","(0.1495319519010836, 2.275733794531812)","(0.16174702497606183, 1.9226538660928199)","(0.17668278908380902, 2.0024270926790684)","(0.15420169068376166, 2.1146297388063964)","(0.12919057240977222, 2.5055369887369845)","(0.14210295810430754, 2.3719759787715975)","(0.14752709128555383, 2.347807167388486)","(0.16497712429552153, 2.267170239098429)","(0.20239499525646426, 2.0040098559312467)","(0.1614768952182267, 2.312097555365993)","(0.14733823929833015, 2.396178183623541)","(0.211525695530029, 1.8279875722186039)","(0.16029594154053525, 2.2392551822187627)","(0.14190935675352973, 2.352403594459963)","(0.14607510550436523, 2.4012729144355323)","(0.19963912836381753, 1.9892814194426174)","(0.15389632419440313, 2.152030145265567)","(0.1368855390068519, 2.508826430044914)","(0.1597977465635776, 2.2589119404008553)","(0.15372912718145446, 2.296485232435059)","(0.1823299797003022, 1.975143416791238)","(0.1759974814802224, 1.9808976105503822)","(0.1499922214346154, 2.1341401176048285)","(0.18258068070861172, 1.959867356770774)"
"(0.19169032798563862, 2.006101026616299)","(0.15727326290263346, 2.3744614863553357)","(0.13577724708757535, 2.2878398436184053)","(0.14588024426200516, 2.41280076543167)","(0.18215206280228677, 1.8135770541128966)","(0.14116460871821224, 2.195393410402262)","(0.15027415445852882, 2.1368947625948653)","(0.1742105758911201, 1.9124441892836812)","(0.16058436803339332, 2.1151946501451446)","(0.1649201087250992, 1.9993385205490568)","(0.201577782099014, 1.819563120905085)","(0.1781858898248274, 1.9532323097872404)","(0.14102263621385988, 2.216351734107324)","(0.17191049434416378, 1.9510099301558699)","(0.17119516724105074, 2.114564266770844)","(0.18272109173152531, 2.0905919520240874)","(0.21141591959445574, 1.9106365913410885)","(0.1931312476720956, 1.9549408484156032)","(0.17071039932139923, 2.0562314040760388)","(0.24805364540347988, 1.5998151692826597)","(0.1978487572133855, 1.876527747365002)","(0.15545574143987867, 2.1331401244221073)","(0.12309448935577808, 2.8872243385851055)","(0.26395697922338196, 1.5582542685098002)","(0.15093936730657917, 2.345380471988493)","(0.15291186583582717, 2.3931664999834936)","(0.16558471181349024, 2.301648170403644)","(0.15368271509882966, 2.380347108768678)","(0.18033184866476668, 2.089709176405914)","(0.1836907189396258, 2.037469404008514)","(0.14020425711641557, 2.475155171148858)","(0.16174437104094222, 2.2335999297035576)"
"(0.22108835683863517, 1.7798672762868437)","(0.17169902039130588, 2.2983395373456683)","(0.12833337828134306, 2.4703635310614556)","(0.1527916277459244, 2.376504907343138)","(0.15393024514205392, 2.2725188595960284)","(0.13976681228115026, 2.4078310816554764)","(0.14397971599700568, 2.3159200436383025)","(0.14367966115674055, 2.504934381875909)","(0.1683997558852734, 2.06376013164025)","(0.14278470126388895, 2.456196983362909)","(0.16904358737780803, 2.2133774120490797)","(0.15996623957666645, 2.2074701045849103)","(0.1545411331583882, 2.2037703627338745)","(0.16213131214886853, 2.019502148802875)","(0.17584249848706918, 1.9867347593165883)","(0.18369114230562758, 1.9727328115833525)","(0.2041138825833974, 1.860055622827559)","(0.18117935036702185, 1.97426457108652)","(0.1781753426656898, 1.9962504719763465)","(0.22041416483449844, 1.7663498108415672)","(0.19141187622078162, 1.9672992258195627)","(0.15665294630259438, 2.288166021640724)","(0.18110485215323624, 2.1948611899086856)","(0.22884669715044506, 1.7620249750594983)","(0.1746723680905072, 2.1269851139941123)","(0.16052931358847264, 2.316467842365089)","(0.17599772489913, 2.269406262527244)","(0.1990752520298708, 1.8772198775479856)","(0.21545535723042755, 1.8107246398458556)","(0.20962462257372197, 1.8381723235307577)","(0.11663281867855832, 3.1568606558292216)","(0.1883910107268353, 1.8519134411594582)"
"(0.21994406014409307, 1.7221134924311796)","(0.18161233061777296, 2.171202224452485)","(0.13122455813795783, 2.307812884660053)","(0.15878292534978855, 2.300321469001968)","(0.15056593849622923, 2.2665821001617497)","(0.1520279150290491, 2.3205086085592557)","(0.15865813651717933, 2.1686724876854053)","(0.1602636118137393, 2.1270649905641426)","(0.2086494567178466, 1.667684145899118)","(0.16440938367465638, 2.1353697981429485)","(0.1827659766982301, 1.9853257148814376)","(0.1617621817672746, 2.133784115140523)","(0.16224533341529315, 2.060237126150491)","(0.14883777923788424, 1.9851085221740798)","(0.15715280636574636, 1.9104872193999873)","(0.1612621767887135, 1.9416505067005203)","(0.18310966392004763, 1.8532803871659307)","(0.17379667807846047, 1.84454941022559)","(0.17460774524068792, 1.9039827287027544)","(0.2018054133469132, 1.7951566581633727)","(0.18092415394200695, 1.9462705690939783)","(0.17842260484309302, 1.9733395727904435)","(0.2091185070534616, 1.782901314381593)","(0.2186455926189252, 1.737941510337557)","(0.17651397726209306, 2.001702486715573)","(0.16427423968577679, 2.072820804010949)","(0.16272163092576483, 2.3157061723485066)","(0.1966027325448027, 1.9126037341593185)","(0.20035776865331767, 1.972244277779014)","(0.20355920998211063, 1.887269285075371)","(0.1177458758459655, 3.028966299123614)","(0.23055426879574203, 1.4260007659934995)"
"(0.23052040901386248, 1.6133738054299371)","(0.18823792115740762, 1.9736812823370233)","(0.16530749795912608, 1.9679988432239517)","(0.1750552915495201, 1.9846157311937966)","(0.16776022443605695, 1.9848834980696934)","(0.18832345971192263, 1.9056582808952758)","(0.18952552149082785, 1.9262658849715517)","(0.21092178972151973, 1.6287779982052426)","(0.19750916211148128, 1.7391203440531373)","(0.19217228727228963, 1.830788831080482)","(0.21029679517592487, 1.67131396969714)","(0.17818709361039267, 1.9584477746019466)","(0.18010716021603052, 1.8813660839899318)","(0.15835814832801465, 1.8957295621056098)","(0.15164221435683797, 1.931443132128699)","(0.16698597084955022, 1.9643380169377382)","(0.19939127693578665, 1.812485121675974)","(0.17546210044929197, 1.8698049431556862)","(0.18389236683319557, 1.8071537264469244)","(0.21911825303710866, 1.6731704624400292)","(0.17293152924785243, 2.0057675197043587)","(0.20254658820445087, 1.755376810470812)","(0.1770422526855652, 1.890210794429782)","(0.22090925777299525, 1.7563942024637118)","(0.17104202769196625, 2.0199616629960113)","(0.17300020739228603, 1.9392567838376922)","(0.16421314124310782, 2.3337652439403342)","(0.18167827518817406, 2.026689675996151)","(0.17219646818256376, 2.1760398974590562)","(0.18972904771260712, 2.0290370103698527)","(0.15089170679240776, 2.328504560586508)","(0.22237693320330057, 1.493162855327666)"
"(0.2443804654174701, 1.5754079329265265)","(0.23405376264038394, 1.6584948105128763)","(0.18250902034860536, 1.9319095173304481)","(0.2151472212696029, 1.6741645844435178)","(0.18980394817413362, 1.822588360993449)","(0.20039071361339292, 1.8204338957562398)","(0.19347012602092187, 1.9523192463681973)","(0.2185315076716302, 1.6172501973113385)","(0.1616727711586317, 2.165096735886542)","(0.16855466161979837, 2.10308574882919)","(0.1934810147390227, 1.8045399536637448)","(0.15779720896813562, 2.31246609112878)","(0.16354055592697803, 2.2303429989499275)","(0.1639621868876573, 2.036494951038802)","(0.1598433714018082, 2.106206524487615)","(0.19684878463888159, 1.9726952443155474)","(0.20925278063070826, 1.9283027301653082)","(0.16071321250085616, 2.3441727105918515)","(0.17594029057659993, 2.1617245431736314)","(0.21021297833463795, 1.8260485609696298)","(0.16172940596140176, 2.3550851302157616)","(0.16687148472415114, 2.274934478638828)","(0.18144311676199462, 1.9774189354689555)","(0.17150835629228237, 2.2245047447518074)","(0.15773595701930823, 2.3287982208498743)","(0.1821359085180836, 2.0611939169957965)","(0.18320916522704173, 2.169940989518993)","(0.22020607600227507, 1.744715654445198)","(0.19123793808580322, 2.0226520242192287)","(0.20560148962254418, 1.8695002572341073)","(0.1751920873556096, 2.0987249571305817)","(0.17964463890183036, 1.9567299050212905)"
"(0.19483750475827158, 1.9812708510892214)","(0.19721861204121813, 2.0256464782670727)","(0.19933349551558185, 1.782059219045206)","(0.2204582939128564, 1.6525239487721661)","(0.20568020117959476, 1.689916776301184)","(0.21729109448635858, 1.5981694003135403)","(0.21226066891147555, 1.7289429052388363)","(0.2123446999557698, 1.5947355424553389)","(0.17732249475658757, 1.9574453686803097)","(0.16705509325555984, 2.0390175766342242)","(0.18911074099881908, 1.8986603164174736)","(0.17086677945044457, 2.104291303173877)","(0.1482521715127581, 2.3721560598492912)","(0.1561647244869, 2.010910216452071)","(0.1617627403521733, 1.9033872661324955)","(0.17606985801738118, 1.9699542967024017)","(0.183534934140475, 1.9737035810306345)","(0.1516413048155899, 2.2746016007667333)","(0.15012848042970303, 2.371520591870276)","(0.20393760449078663, 1.7838106323101763)","(0.17062864970979796, 2.1030716864334913)","(0.15020721980681667, 2.4524198264235486)","(0.2145731299714527, 1.6195960875070068)","(0.1820357060029275, 2.052826615370712)","(0.1664684949364152, 2.261512928288681)","(0.16006524872383682, 2.3656519460249843)","(0.17484556712749236, 2.2612951687973384)","(0.21640861074732398, 1.7801087840590943)","(0.18601880939306242, 2.141097971129289)","(0.21119679575380243, 1.8131134670795153)","(0.15050333184073605, 2.460744100234003)","(0.20545077606863402, 1.7056545272390626)"
"(0.2307842549062028, 1.789721179514809)","(0.20066076718450435, 2.0363102660033627)","(0.20496657914374558, 1.7314749771107076)","(0.2143550608206204, 1.6712311438231051)","(0.20282560016802798, 1.700315766451937)","(0.20623934711199648, 1.7107381144712652)","(0.19743161516393462, 1.8731002567684487)","(0.22741779924094216, 1.511967329700426)","(0.18229463737558002, 1.8606829506540254)","(0.16755474275773694, 2.056936078278051)","(0.14399756114448864, 2.5908320212943976)","(0.15564596115540114, 2.244090999341047)","(0.1508626677547647, 2.2236904568406293)","(0.14512342495467337, 2.2797915425343436)","(0.14420735914187002, 2.1930530271417505)","(0.15730150639441184, 2.199661156847592)","(0.18072489448993145, 1.9483830699859659)","(0.13994539656898294, 2.2925066121207864)","(0.1299780007573149, 2.5362500205347374)","(0.1846031137348874, 1.9740317353928556)","(0.1441173509962314, 2.4560923728217166)","(0.15335128244777052, 2.1900241826119906)","(0.18074879291548615, 1.9111881504802923)","(0.22376997474264146, 1.7892768963916448)","(0.2141832954020019, 1.8287360132719375)","(0.17840787476288114, 1.9024175568333785)","(0.23534131639330377, 1.7158580973165736)","(0.21724737681878262, 1.9335157497093716)","(0.21251974670688253, 1.8951822429602165)","(0.2470029718654064, 1.6869341889664282)","(0.17667572961144726, 2.0708051363730804)","(0.22939315228037596, 1.5538642497375332)"
"(0.25883675939089584, 1.5887897493849394)","(0.24556972469540755, 1.5749991840549011)","(0.20219153754830568, 1.5809628602745067)","(0.1943919406272992, 1.6379092524322378)","(0.19831826411177858, 1.5086271478110482)","(0.21927480832739454, 1.4577930037517493)","(0.2099878439993629, 1.6320200668498028)","(0.23162536656688865, 1.3505590595747226)","(0.19831350706968454, 1.58778409735481)","(0.20282125477408128, 1.5512945637982714)","(0.16007604990087718, 2.121340302963046)","(0.17003095181279512, 1.8596193137457344)","(0.16695766790335387, 1.8327291374852732)","(0.1539698867212639, 2.0199404082447243)","(0.1524111699797485, 2.099646674531901)","(0.1686050822053834, 2.0059876211919314)","(0.18254970280217295, 1.8683579551309482)","(0.1485592178326465, 2.001223348735065)","(0.15349161613437623, 1.8314431791713808)","(0.18609526148020353, 1.8613457067447694)","(0.17609084888339094, 1.799249444314441)","(0.17518313344053874, 1.6368465102606942)","(0.1870104324128033, 1.762022998939405)","(0.22890049559201806, 1.7098979594091657)","(0.252511905271372, 1.437018206815736)","(0.17563252760406953, 1.7332018663894029)","(0.2558260419175275, 1.4578652081659604)","(0.23152884830652615, 1.70968549618275)","(0.26943272641769833, 1.4274916655999093)","(0.24941320570279893, 1.5886892401981612)","(0.19500984430571688, 1.702997295754852)","(0.20618960488579763, 1.490133743912407)"
"(0.21681951182684625, 1.754714006287717)","(0.2270832509871475, 1.534717295233493)","(0.19409176759515895, 1.4924023792257468)","(0.20280363490672298, 1.4735921905538396)","(0.20197770686488095, 1.3816762961368025)","(0.20570770694680524, 1.4707466861620975)","(0.19982649703214522, 1.5576189520521444)","(0.21189858461172556, 1.407481899750187)","(0.199014696251736, 1.5497558990146425)","(0.21482902973421059, 1.4418676675476483)","(0.1932734653123342, 1.6657040350802654)","(0.1895369790385455, 1.6375924028713444)","(0.1929002838366499, 1.6338785154700806)","(0.18901274084985353, 1.6289994144446376)","(0.18457948523618212, 1.7008120010604242)","(0.18793141245345124, 1.743739061920995)","(0.2063102424831154, 1.6317192644484821)","(0.17142823552978304, 1.7438803731280188)","(0.17618499381572125, 1.6159963986253356)","(0.21739991464167638, 1.5508648226162254)","(0.19879229995721145, 1.5593475113394821)","(0.18528296258447152, 1.4833676959791415)","(0.18481868781724622, 1.7129479097903586)","(0.22749468160389105, 1.5909383286585346)","(0.23457120111883578, 1.4213940316008642)","(0.19701668311021125, 1.4460330738981721)","(0.2246194245453589, 1.4801825936008166)","(0.21066267765215066, 1.6087677023042803)","(0.22191997043247483, 1.5501126528637854)","(0.21912782244209936, 1.574088674855571)","(0.20216029466367905, 1.4658496260663214)","(0.18262296554017682, 1.5201435813854525)"
"(0.22283715064124754, 1.6341636213171906)","(0.1791549160433347, 1.964592636053847)","(0.18175818442623493, 1.7248885553387978)","(0.18010840461374744, 1.7937514119203104)","(0.18279179662102893, 1.5972502620832045)","(0.1808471443957958, 1.7694045280746566)","(0.1750623242447752, 1.8430808749069048)","(0.21124589288983173, 1.5054694499169028)","(0.193971930598845, 1.6873532161738418)","(0.1898435796551365, 1.7326064847521465)","(0.15383714882602623, 2.0839600187361422)","(0.1663769255137132, 1.9603875174707648)","(0.16265774110727904, 1.9704109295054724)","(0.15609711491355308, 2.0363464073540194)","(0.15088353575696256, 2.100995222693821)","(0.14811137287844334, 2.243353440183045)","(0.1741137002007291, 1.9980374709653916)","(0.14680123498111275, 2.1092823219434433)","(0.14977397553001695, 1.8914378719769778)","(0.18058591619601727, 1.841334063932218)","(0.1540274679084764, 1.8226461262818376)","(0.14863579190162104, 1.7706570655985276)","(0.14912494376780566, 1.9491283435476532)","(0.19346817668164157, 1.8163539967064952)","(0.1831587953429471, 1.7464233235621183)","(0.1830675332049007, 1.5037516229854568)","(0.2086692885871722, 1.5133756178514075)","(0.19516700007178775, 1.7305494893787203)","(0.21349479228393545, 1.6955606670198606)","(0.20629993398802393, 1.6458724521707704)","(0.18667579768782866, 1.5854912336667524)","(0.17294039903019692, 1.7156192134588923)"
"(0.15629165075115006, 2.2611716756110862)","(0.14070539974567164, 2.5821807482960613)","(0.18114234641374222, 1.900791515293966)","(0.18183290004822422, 1.891979131890665)","(0.16706643010621144, 1.8115040517258818)","(0.16742036875826363, 1.944947618304209)","(0.17098076496116532, 1.9813411365098506)","(0.20964552457570437, 1.5859994343295967)","(0.19982583473634635, 1.6362400206504584)","(0.1883214310664672, 1.7124758269548486)","(0.16014765226083993, 1.9701281767206837)","(0.17245388710908888, 1.8515300554265774)","(0.15922786171923842, 1.7061111625412142)","(0.15457168347041753, 1.9581734727683238)","(0.1491091624192132, 2.0959830089244442)","(0.15152683548346577, 2.1496905422868777)","(0.16217617025557607, 2.11871477421842)","(0.14105524139281816, 1.9785291650678238)","(0.14607493877008476, 1.7340286590110672)","(0.16937237570770572, 1.8084520633703842)","(0.14196160947423234, 1.7874391473239364)","(0.13941529711325906, 1.749004608994652)","(0.1350026617464696, 1.943207790143581)","(0.19639795275627692, 1.811688447912331)","(0.1759974885232541, 1.8672365029712503)","(0.16746502799690197, 1.6046614418631875)","(0.19915325264203046, 1.7235380828233298)","(0.14244134195683564, 2.560127782066228)","(0.17308015721693182, 2.2840030896924968)","(0.13591014826003342, 2.5396985851000173)","(0.15558013794467004, 1.8724384455374856)","(0.16804948142306225, 2.021802257611282)"
"(0.19213229970981602, 2.0088989726879882)","(0.176091290928018, 2.1178616793895353)","(0.2076126002655414, 1.6399679496202377)","(0.21326901745287435, 1.633714050360192)","(0.19284948323953294, 1.651898196652558)","(0.19761890681423913, 1.6850486293473208)","(0.19310675309068456, 1.666648014801158)","(0.21918210122811538, 1.540628288984775)","(0.21358558724871157, 1.59298886031625)","(0.20512161573957038, 1.5449300112263875)","(0.21168884649470657, 1.4446199441080085)","(0.22121874448262854, 1.4127010805425468)","(0.18994286381089975, 1.5270355736933552)","(0.19367037476896515, 1.5633507733734653)","(0.19871321838186362, 1.5379838846693406)","(0.2100043797388928, 1.5312294467097076)","(0.20548797237720978, 1.6530928163365228)","(0.1617499383266107, 1.7953216926129816)","(0.16338665076448874, 1.726556957195213)","(0.2026872711230975, 1.526548368361243)","(0.17092468508791023, 1.6131155027097952)","(0.1464864734833052, 1.859620312361532)","(0.15482977433211814, 1.8666301392961069)","(0.2401200061545806, 1.4337601133934657)","(0.23521635747676953, 1.4521512380736528)","(0.20051562974375028, 1.4575083323028677)","(0.22514269761268488, 1.5958431195500782)","(0.1495987778124187, 2.3804923015750075)","(0.18421270490283986, 2.0516727227837497)","(0.13878454184235078, 2.5369115568074982)","(0.17358259056991318, 1.7230791132776353)","(0.13925681871780202, 2.56468359885072)"
"(0.2622905937729218, 1.5353560154089656)","(0.22687957898019093, 1.7498780356760737)","(0.17521962324749515, 1.9900086854014838)","(0.19239305157133818, 1.89183395717468)","(0.19995726924314222, 1.7726329156057457)","(0.19735343897864016, 1.8209684902824892)","(0.1892297127180293, 1.7419167816536851)","(0.2260325029001749, 1.5196337112321165)","(0.197747615289883, 1.7774279349577868)","(0.19222206370251443, 1.6946472076236276)","(0.17733530970095468, 1.6953196152816647)","(0.16832010111658868, 1.8475468146269174)","(0.1861281800691078, 1.7821715387795796)","(0.15897580270576517, 1.8679809439550432)","(0.17331623078262165, 1.7203368070899927)","(0.19520546203399355, 1.726001129773107)","(0.2084668240775787, 1.6900406396752106)","(0.17543814014613557, 1.8170061746776411)","(0.18792854617758986, 1.715579264796799)","(0.21406227845457293, 1.5170420726200098)","(0.20208906725938433, 1.524120071887995)","(0.1761991028640833, 1.9092714567028113)","(0.1942571629849069, 1.66414263630789)","(0.26264889557034804, 1.3000086957962376)","(0.22632197988542732, 1.5454309482397537)","(0.24927566577110186, 1.3924886635979574)","(0.24975672982942773, 1.5135304400739316)","(0.20156552789812512, 1.9058648834214265)","(0.2329387022979266, 1.6293308161057671)","(0.1961080460402996, 1.9500096060705379)","(0.19877988493153795, 1.7379623616492512)","(0.17921764159045586, 1.9951350447242326)"
"(0.19866855529238908, 1.9976790818725738)","(0.19735304364025386, 1.9054414505319448)","(0.15483449311448896, 2.378729118035009)","(0.19346218106035992, 1.8757875938550015)","(0.1713460383273035, 2.037278292680677)","(0.18939526525580277, 1.9111735244130064)","(0.1763816247687387, 1.9471696653408517)","(0.2203294076655303, 1.4810029635855342)","(0.20170334248817823, 1.6341788528729184)","(0.18620394973550206, 1.782107539961929)","(0.1872933888898062, 1.775084183456568)","(0.18210657346703257, 1.7744867854974218)","(0.17383935367542494, 1.7892769526443693)","(0.1619967071662893, 1.952974741826899)","(0.17322891512023608, 1.89644476137764)","(0.18609103126543775, 1.9001691372328904)","(0.1969339488040494, 1.8104701044658293)","(0.17757806019544178, 1.7955525322051928)","(0.16010085051639145, 1.90059247043023)","(0.1984834124934118, 1.7462566584390604)","(0.1846056762896422, 1.8616205796381597)","(0.1700193124251726, 1.9163446276587692)","(0.16435485022590443, 2.020444491335269)","(0.2563682958684438, 1.5091177217652472)","(0.15606112371014785, 2.3267637954757)","(0.19851551368593953, 1.7037281487709575)","(0.21971927860762366, 1.6920903452925538)","(0.19267317205702283, 2.0792716953156503)","(0.21538667412897222, 1.7636525078393102)","(0.16777878840046026, 2.356563446388214)","(0.18334294019262967, 1.860120834462315)","(0.1777365521726445, 2.0202702331854447)"
"(0.19743388335021922, 1.9745584426396794)","(0.22347618788378357, 1.6043719872704978)","(0.17153803672550852, 1.8204363101443044)","(0.2113802286636392, 1.5960444955617568)","(0.19329645281048954, 1.63214910212656)","(0.18807912162056495, 1.6655879151334485)","(0.18665361937600242, 1.6414242422947476)","(0.2052539174939196, 1.457215118713712)","(0.21792141523334826, 1.4909337217498841)","(0.18428313891551243, 1.6491542114067375)","(0.1869322763686605, 1.626110375756118)","(0.1965951915058278, 1.5647909233485513)","(0.20852012320980126, 1.5067036798716853)","(0.1810355262720122, 1.6327543267849)","(0.1908826468264028, 1.6955894168009342)","(0.18701053298540612, 1.7561895268802388)","(0.19757575838718663, 1.6928147003656295)","(0.18391108312619298, 1.666699916008953)","(0.19070328741748643, 1.6278389603150376)","(0.19150122261937813, 1.6728799898676145)","(0.20277765864149083, 1.509504998776189)","(0.21634125875457955, 1.4860975460794592)","(0.1959492731586082, 1.5554120739330688)","(0.23809650844055097, 1.6127189634179004)","(0.1555486583587343, 2.158477074472968)","(0.20007137087440288, 1.6201896287582154)","(0.21246983005477846, 1.7011144438920742)","(0.1741903838802336, 2.1650765055686114)","(0.22790690039757744, 1.6492793818856006)","(0.17567146194664837, 2.260202699849982)","(0.192693805098229, 1.678932724653856)","(0.19620332458042294, 1.5667310471903286)"
"(0.24718431089388473, 1.5582824624620595)","(0.2088002445890052, 1.7025299793242434)","(0.1515243832838843, 1.9148489431777747)","(0.1691194641613595, 1.821204971976162)","(0.19261546571268656, 1.517656438512043)","(0.15023192477063743, 1.9675154012825375)","(0.17000118620044607, 1.7968939705680615)","(0.1877889137701989, 1.5763207321574015)","(0.1927650162875394, 1.6606319022633915)","(0.16970240361830663, 1.7914161032002232)","(0.17457241945371005, 1.730876521076206)","(0.17602858446927677, 1.7260482973739244)","(0.19151025146085807, 1.6429314824199077)","(0.1797025628705912, 1.7034515497094538)","(0.1843851937983966, 1.770928372068795)","(0.19044812399995703, 1.7681891285157763)","(0.2169065192780735, 1.5827822815573116)","(0.18386009173362947, 1.687867899838823)","(0.1902648461629325, 1.6097952682714636)","(0.18143153026230813, 1.7307987585011413)","(0.17263642221197306, 1.725800790123943)","(0.20184556905814868, 1.4930113509827279)","(0.20871692879230652, 1.5080083167096952)","(0.19089149674724923, 1.8924065027113)","(0.14131844588504106, 2.39433929511855)","(0.20784798294335616, 1.420805219030668)","(0.195559202593862, 1.8011069685706826)","(0.17161889967984073, 2.190003200242629)","(0.20166605409871438, 1.769327364192418)","(0.20306697724286865, 1.955213427944046)","(0.188978989040997, 1.5907363169218685)","(0.20074022760658014, 1.414580934943261)"
"(0.2764487309557519, 1.4806601877184493)","(0.2279629071724727, 1.7146824412097155)","(0.15394212642622096, 2.2441368887502207)","(0.18316343856625733, 1.9398872792369521)","(0.17975800442648454, 1.7173351445616973)","(0.14440657594297174, 2.315118472530397)","(0.1652561897827975, 2.0488433581643304)","(0.1797689428637635, 1.6886789568393648)","(0.17714804409404483, 1.7099324169336185)","(0.1739225511125235, 1.7879495845505533)","(0.18610845732247164, 1.8860054653647074)","(0.17320924615634928, 1.819171468918043)","(0.17798363744295395, 1.818693032294496)","(0.19203608819739604, 1.7888422456131474)","(0.1908788359583754, 1.8761507794894552)","(0.19875013296029684, 1.8880510472162138)","(0.24940824669896708, 1.4827178830604277)","(0.18825043015790574, 1.7482857328232508)","(0.18918611386072118, 1.5892957153023322)","(0.20092718490174205, 1.7163613244984925)","(0.1879621542977507, 1.7445997555417858)","(0.1825408147532255, 1.599202852824004)","(0.2091571123888739, 1.6268218372330685)","(0.19395464226773063, 2.0728474872385867)","(0.17264809475125883, 2.1233430429839673)","(0.20761330663742444, 1.4541011530234187)","(0.21067096382491565, 1.7196281846264065)","(0.2170343096180852, 1.8550239308526537)","(0.2169649373470986, 1.8051115554629837)","(0.23651695682732315, 1.7201447976251647)","(0.17374021076990886, 1.9193119266941365)","(0.1870629727489547, 1.684769432233865)"
"(0.24774385777362973, 1.6387668646653533)","(0.20990217721194987, 1.9071866482198299)","(0.15654342600659008, 2.291424353668348)","(0.19534458567713506, 1.937693470369343)","(0.18199099820358433, 1.8374601666798576)","(0.1590189126922364, 2.2324672123397935)","(0.18142521205263107, 1.8980344871249049)","(0.18424317744663182, 1.6559194501743675)","(0.2007287796694764, 1.560216332970155)","(0.18371665269043128, 1.6995009984476759)","(0.1860927318081027, 1.8532772375478368)","(0.18384170819951148, 1.692541627707002)","(0.1827603512855591, 1.6173783038003564)","(0.18609566113879852, 1.625514816966592)","(0.18780116713549025, 1.7408895473580395)","(0.18400247940541425, 1.865746311720921)","(0.21639016158173988, 1.5945246697031028)","(0.17887786837561245, 1.6648287079830646)","(0.1781837761264051, 1.5624438629765942)","(0.2186904355967464, 1.596785908889733)","(0.1862700069520199, 1.6551294373139953)","(0.16562702721059733, 1.635714671166113)","(0.1878764885668123, 1.5814930637602165)","(0.19682262845120896, 2.052822902722789)","(0.19761515452597914, 1.7866385424649387)","(0.1727558387533505, 1.8062301716387261)","(0.19014931187513356, 1.8540455914389737)","(0.23935208814496625, 1.6800690228220725)","(0.23661523302460244, 1.716563785483143)","(0.24618286856510757, 1.6232500437875699)","(0.1558937149900243, 2.249343951661411)","(0.18665649430148992, 1.6620841470594199)"
"(0.20472896076280686, 1.8004364259027963)","(0.20953707484945022, 1.8442085716990744)","(0.1464132475786945, 2.380881548686401)","(0.1659383489144276, 2.0743955115497688)","(0.15352723770159446, 2.132200828875587)","(0.1625188059821177, 2.2486053191775555)","(0.19511986234039796, 1.8709111992987517)","(0.1747602674299212, 1.9206292701953025)","(0.22029616060990742, 1.4929902303689278)","(0.1877410317068495, 1.8404853409184008)","(0.19284287541492628, 1.7821412748207581)","(0.19852081273426486, 1.5876012077689763)","(0.18653401699584155, 1.52695080227818)","(0.18528568110964605, 1.5651681431980091)","(0.18218156410565622, 1.66489876475385)","(0.18062822468895098, 1.7078298672142693)","(0.1956175439959381, 1.6956821465829746)","(0.1756829831664444, 1.709740784431606)","(0.1652626763454305, 1.741665432025958)","(0.20906052163346273, 1.7053416018478702)","(0.18060111504474546, 1.7384168678663166)","(0.15973071222941246, 1.6852835214966995)","(0.18168109159831708, 1.6022904101605489)","(0.2115806191126275, 1.8412818870903935)","(0.17497554473991844, 1.97376442815299)","(0.15359688692571244, 1.9144690624366199)","(0.1790377108920107, 1.8509774760635727)","(0.20013444568899932, 1.9884191617716944)","(0.2339354554399498, 1.670781982659082)","(0.18529573937148738, 1.9947106855360692)","(0.16094018449294864, 2.033859973773275)","(0.17661343239035016, 1.6713797432938486)"
"(0.18020201355369808, 2.0667650107843847)","(0.2185502285933379, 1.891897700695685)","(0.13276741825261407, 2.5516213957374196)","(0.16337295447774644, 2.223959916650783)","(0.1427566841459375, 2.38527527851822)","(0.17645846725166012, 2.05115243836929)","(0.16685379902468273, 2.1535805432267257)","(0.1623729421672495, 2.0337916111020773)","(0.21137795306345633, 1.5178044140933338)","(0.17164871506858376, 2.0303613466287365)","(0.19965220299973174, 1.8204487537542406)","(0.18405750302014573, 1.7165172783193083)","(0.15479448896847411, 2.0812452891958633)","(0.1702558123600022, 1.7287863517571584)","(0.17588536704503663, 1.815951478244014)","(0.19226636200214794, 1.7722417764864273)","(0.20591650975296516, 1.758975845861875)","(0.1439194888030193, 2.3071197649497335)","(0.14252039192562907, 2.357727353179126)","(0.1812090961538798, 2.019158700362519)","(0.18035941491080157, 1.915031064172295)","(0.16304150546049426, 2.0599307736208927)","(0.1900987065989028, 1.812058172157525)","(0.22668942517091903, 1.8106414304594702)","(0.12695326782868432, 2.8296195351201905)","(0.19164358492563793, 1.8020490692319313)","(0.20290498295025067, 1.8433140304265634)","(0.11655869272742976, 3.3249574446900367)","(0.2116931781703013, 1.878826618594396)","(0.13654457102111045, 2.730016906140364)","(0.2166628429828808, 1.6978848412931604)","(0.1643754367729124, 1.8527519435800464)"
"(0.2022975197585423, 1.8169929049346225)","(0.21547926343198678, 1.8355004690547887)","(0.16778027553939925, 2.020029734128273)","(0.18219228178827354, 2.0556459441842105)","(0.19890361146258392, 1.70612803476707)","(0.19877741496416432, 1.6641018668780474)","(0.17841977332217945, 1.8020104768144642)","(0.17921916552183592, 1.6784785734766037)","(0.17443601360968258, 1.7271934889108935)","(0.1672144097239859, 1.7673679934410595)","(0.18489036846033938, 1.8751800167488286)","(0.15999528299018106, 1.8116340059271605)","(0.14014345947832418, 2.1614752257762038)","(0.16502221832307254, 1.8427958294259403)","(0.1817855587538322, 1.9222933287228736)","(0.1949409661919144, 1.8351626611549734)","(0.21193363228495524, 1.7691757296722384)","(0.14970735276365502, 2.136399590985507)","(0.14341606351053193, 2.1945693491018687)","(0.18371287519499302, 1.9153935383541778)","(0.16658197365691813, 1.9387723617165136)","(0.1467432826437822, 2.155976075970959)","(0.16033968490623213, 1.9289152748069758)","(0.21431976362678581, 1.7229521914119739)","(0.15837925417289644, 2.343638284420322)","(0.20454251249234795, 1.6735205679582281)","(0.21909026675245993, 1.7438637207553107)","(0.14006260501215997, 2.661795981185387)","(0.20299368774924442, 1.8749603234363896)","(0.1855363306874279, 2.1705536078180696)","(0.21144925350456562, 1.696005422757013)","(0.181923118077694, 1.7006817853428635)"
"(0.23505767670499586, 1.6788980553742106)","(0.22278986322591698, 1.6654739816613937)","(0.17607327263322337, 1.9033964919329378)","(0.19816698293529936, 1.7317392186306038)","(0.21124939250202243, 1.5225661412096552)","(0.22455460471790326, 1.477250800884529)","(0.19880651018614307, 1.5780770025012996)","(0.1967466343350469, 1.4752794351024485)","(0.16970980274888572, 1.6326741503722475)","(0.18610990531353658, 1.5692862137117511)","(0.19197196416117415, 1.712311303043807)","(0.15481412818048643, 1.7870836699244466)","(0.14727600905867327, 2.026343822863688)","(0.17029834756741444, 1.8381074706653227)","(0.19122468844548826, 1.7626456020754484)","(0.18858239362295992, 1.7942925302205608)","(0.1913919192100683, 1.8130155363700953)","(0.16859394533225253, 1.8694244115467242)","(0.16174309783400678, 2.003435365534904)","(0.21606348785540233, 1.639964138283669)","(0.17651388346613078, 1.9304168354216722)","(0.14282268232395362, 2.2367380587498267)","(0.16821647399217943, 1.8414099149302334)","(0.2219932639007184, 1.5868593899757795)","(0.16041428461978682, 2.259628908504765)","(0.15767957678135758, 2.1630785415095093)","(0.186555620870087, 2.072892593814289)","(0.19132762390736377, 1.9519942203226455)","(0.204288281265326, 1.8609722465357783)","(0.24361712772661712, 1.6556418467055312)","(0.1934756266084524, 1.7939269237493143)","(0.16795726752939383, 1.8130485971079324)"
"(0.25295102905934946, 1.584182202888532)","(0.2052334043408714, 1.788068628876833)","(0.1599839040525428, 2.111227887016758)","(0.18549777738068926, 1.7651277816792859)","(0.20778844830764737, 1.5367815730310619)","(0.21142674302102052, 1.6331209581058155)","(0.1969464880310049, 1.7219794903333774)","(0.20889361847103116, 1.52049989418734)","(0.19342238727765446, 1.5066834766248391)","(0.20564562165715253, 1.5650652696111667)","(0.21443122327924125, 1.5664393932258027)","(0.18349908729753606, 1.6583786963634672)","(0.18189357879399723, 1.709854518645991)","(0.18441508440433763, 1.6907875159405543)","(0.20482328416728882, 1.563969604518673)","(0.19743782636793375, 1.6398682654849812)","(0.19634490638975077, 1.6051995020766217)","(0.19610008752478408, 1.5700969220108174)","(0.18497072865058917, 1.7549195085129985)","(0.22826654191951634, 1.5156242277336867)","(0.19343632839613856, 1.6965298450139359)","(0.20313330039761013, 1.6024617144476134)","(0.21574741814415643, 1.45693576638245)","(0.23644311877835317, 1.5918713335816286)","(0.17032235633424989, 1.8643950830302176)","(0.17148732693119167, 1.793214438348971)","(0.1848897324098096, 1.885461628711514)","(0.18372535976442989, 1.8664667214019193)","(0.2170522886665658, 1.7538887484918528)","(0.24131764541345044, 1.5243293051523699)","(0.19431656052992366, 1.659094507518075)","(0.1904472460365013, 1.5768860167011496)"
"(0.2660161604088124, 1.4572334696870122)","(0.2216771386783358, 1.7556896384044092)","(0.15375428792750462, 2.309902597009636)","(0.1689942523099636, 2.071727753018593)","(0.18086674860144233, 1.8496156264438472)","(0.16081650519882384, 2.1139871734500852)","(0.15179364967400052, 2.2283661459840185)","(0.18922522392991117, 1.6472953387916496)","(0.2066381735070367, 1.5263400495639603)","(0.18210911449896086, 1.7146949979251211)","(0.19104581160397188, 1.664669308513259)","(0.17706498414450272, 1.7301287389022064)","(0.18850349815637013, 1.6751006760620473)","(0.1781811018249807, 1.7093593106228755)","(0.18428761612698577, 1.7651644401134572)","(0.19154637539273117, 1.7454234657268721)","(0.19369919496210938, 1.7184234107988812)","(0.20282959656602115, 1.5211700451122876)","(0.16157548439646846, 1.9342767889184265)","(0.19432080403002447, 1.7451481471231736)","(0.17752129543616654, 1.7400142886364163)","(0.1986445902989086, 1.6898645193196427)","(0.19335476735149318, 1.562936641431285)","(0.21424921701558047, 1.8070544058897802)","(0.17494097333073935, 1.825920916573422)","(0.19160141436619357, 1.718469529643409)","(0.19461104074906058, 1.8113505809188928)","(0.2306901528789944, 1.5130353534903547)","(0.22096270583983177, 1.7316448525486732)","(0.24640026122500291, 1.4979307312865284)","(0.17737253182052945, 1.9245120513795662)","(0.23229836730998, 1.3500991249829903)"
"(0.27101132908342035, 1.3726784090873925)","(0.23621033735519947, 1.5934140396620793)","(0.16186739320662827, 2.088350630302187)","(0.18704678738741004, 1.7915880908878048)","(0.17099939635608152, 1.818932969245963)","(0.16159525952692622, 1.9927258946693416)","(0.1582345031466232, 2.025159261484714)","(0.16490609677668155, 1.6818564725219314)","(0.1780686472979799, 1.6739234950577344)","(0.1633701871749243, 1.7680619175121306)","(0.1823355555894066, 1.6499877501853228)","(0.17165519147910627, 1.6787044415996777)","(0.18213860486935282, 1.5231453500047025)","(0.1755039053589138, 1.604135603814205)","(0.1739771024421532, 1.7834798483068397)","(0.19519431243485943, 1.7607238319421494)","(0.20858383556098675, 1.7093289721356884)","(0.20055966087734972, 1.4852795529923914)","(0.1809535287055046, 1.629880798318431)","(0.19940095291876161, 1.6781278911871829)","(0.1938389060236733, 1.577494572195451)","(0.19655770869487876, 1.5655156228471863)","(0.1857369807738581, 1.573581138699129)","(0.2232996505373363, 1.6296748498551898)","(0.19354998017878047, 1.7693612627245832)","(0.19234788823417986, 1.647214777727051)","(0.20078223379863594, 1.7686285920894127)","(0.24507048610759483, 1.4428100276412434)","(0.21930364906174413, 1.5899608167173132)","(0.22693365544433097, 1.6179274131327008)","(0.1775485079964283, 1.8889603245241238)","(0.21189550043957603, 1.574229495207107)"
"(0.2523107564297269, 1.40453169572992)","(0.2231240352354117, 1.5455739934268768)","(0.18913782481038552, 1.5513685322484232)","(0.19140156794328492, 1.5619479890894399)","(0.16224445802961593, 1.684361080522473)","(0.17163270403017633, 1.6836038338731765)","(0.1726428708670298, 1.6482606719408284)","(0.15464479595451408, 1.609777622655145)","(0.1575601290077279, 1.6162469070707737)","(0.15619403556361044, 1.6071735025169511)","(0.17680832465269888, 1.5287787186041681)","(0.16286583057168602, 1.589468131075869)","(0.18027945279358262, 1.4680361743120267)","(0.18069109320434312, 1.4758417399792891)","(0.18879956540413825, 1.607679184189208)","(0.21639505016608931, 1.6348311500534496)","(0.23841361972211725, 1.5485520158084387)","(0.19277449975844932, 1.5334550657183144)","(0.18274457056787047, 1.5028147733354262)","(0.20925393403788795, 1.4779898898555122)","(0.19219553186819985, 1.4819858783834718)","(0.1762159943645877, 1.5112597203120808)","(0.18593086754087468, 1.5026538897997572)","(0.2527831809708758, 1.4525825209178072)","(0.23124138311244288, 1.4106285629451407)","(0.16889748054678866, 1.6463634681120654)","(0.21399386850514765, 1.6078110680096738)","(0.2476307300757698, 1.4000150545731513)","(0.21690525226151822, 1.5225411205651669)","(0.22237130054780094, 1.6463237790199632)","(0.1623659911389047, 1.8685045357131165)","(0.19226972009547655, 1.5975584196493342)"
"(0.2271290305599066, 1.656431527611015)","(0.21778285163397107, 1.7317390638710843)","(0.18643358017326528, 1.5809398017424166)","(0.18077712604752735, 1.8011800296261615)","(0.16501445068598966, 1.7183100540313039)","(0.18769543532406974, 1.5425635387783228)","(0.17623276600456278, 1.6244766635345909)","(0.15612809661675583, 1.5431757265840784)","(0.14348232945748113, 1.6365857000202564)","(0.1525639871687212, 1.6260644459637887)","(0.1803939151153479, 1.6237218952031092)","(0.14278641509263146, 1.7505758914380427)","(0.15938651921707664, 1.672977765193182)","(0.1661258568815512, 1.6247769167426664)","(0.18255783858788857, 1.6323563874097986)","(0.2052129087112481, 1.663360531192202)","(0.2214449478007668, 1.5913521036632046)","(0.1747564277558775, 1.6463513396403324)","(0.15901934338271642, 1.578317057373242)","(0.1869473302080831, 1.5621468670368375)","(0.16800536163426133, 1.5742826486477237)","(0.14649592658272295, 1.730950580442894)","(0.17625251543148632, 1.5388001101763624)","(0.22760915310693008, 1.6284234458967277)","(0.19268944605899407, 1.6625762819338734)","(0.15067787042295788, 1.8871931046999288)","(0.1966163193277465, 1.8154617277144083)","(0.22274153694777754, 1.6516216638555785)","(0.21627140560730437, 1.690933789157705)","(0.21928403235833607, 1.791079470644348)","(0.15249354582707303, 2.11127836318788)","(0.165206734086213, 1.7323476392522164)"
"(0.20903066278925986, 1.8151519474581324)","(0.18446685472366758, 1.9751443601774892)","(0.15853679482775238, 1.7606840779293842)","(0.17108994455452273, 1.8400036627501901)","(0.14900951971178425, 1.8941847603404225)","(0.17196433260631044, 1.7272286649381674)","(0.18856295424866656, 1.6553681821091388)","(0.18375586564177984, 1.5145326114802946)","(0.14647653560395277, 1.8259160868697484)","(0.1886958029661922, 1.643781289393993)","(0.210908145170973, 1.6653593129102489)","(0.1501001725676852, 1.929013728573031)","(0.1522798745439149, 1.8043027547942005)","(0.15052954807140348, 1.8219208651688967)","(0.15625359411639014, 1.7698810467275474)","(0.17465503164336305, 1.7920832350581775)","(0.2010727241469236, 1.7059489263039453)","(0.17920620954370098, 1.6681866789450706)","(0.1668559982142786, 1.6719933005314276)","(0.1796595931746912, 1.7485568959869917)","(0.16068575394622786, 1.7498258221601766)","(0.14892322115328857, 1.821659033375024)","(0.16009332751630306, 1.7414495358724928)","(0.1804385150009048, 1.8567799379794174)","(0.17528913214090713, 1.795319257703504)","(0.14537804533160348, 1.9740155433066389)","(0.18852507950890537, 1.8698501719713587)","(0.18381348075572418, 1.9533677317021927)","(0.21822126102199882, 1.637758719575911)","(0.1861325511126931, 2.0290757100860994)","(0.15298056427698634, 2.062268632308534)","(0.16156193568486613, 1.8122842103426398)"
"(0.1869594619119898, 1.971396919827115)","(0.17469327147563615, 1.890187659013905)","(0.17721020686713207, 1.546152560282492)","(0.18432805757552306, 1.5783650568172116)","(0.16112503870601547, 1.7184238384536727)","(0.19202228244218872, 1.590367926235706)","(0.1811972005051454, 1.667421805961648)","(0.21124601220784103, 1.4278176299521643)","(0.1825772548539514, 1.8475438611432853)","(0.20921246787282133, 1.631213188414905)","(0.2142843454599626, 1.6632456139518266)","(0.17888035804875063, 1.8888978510034478)","(0.1680519546135402, 1.83712008664077)","(0.15713612921820874, 1.8693241281306563)","(0.1575958097137368, 1.7845289959242367)","(0.16808490499028542, 1.844887122587141)","(0.18877705463218644, 1.7913259554093417)","(0.1644318762484475, 1.854054987415449)","(0.17580320040997138, 1.654182818835679)","(0.16950423823777505, 1.7347091016942982)","(0.15923720753965848, 1.7997753209997918)","(0.16919776451600668, 1.7046675049891549)","(0.17821682943237557, 1.7844379386509361)","(0.18097788911600526, 1.818734074734225)","(0.18527662683731289, 1.5589417230260032)","(0.17899112238759246, 1.6065417872475)","(0.20423539688985984, 1.6544908253382598)","(0.15420054538184522, 2.0595472642235975)","(0.19347328648855458, 1.7903723197036485)","(0.1676616162408561, 2.0408180621508545)","(0.15582132553393133, 1.8933520947489497)","(0.19796902074269926, 1.5391831669347096)"
"(0.2159578791449878, 1.6689532830211478)","(0.21355797700401283, 1.5427117337528529)","(0.1947570821982904, 1.4526826838322418)","(0.21315834206485604, 1.460449503777014)","(0.20716363663287685, 1.4342200407779258)","(0.20046100417942597, 1.4668325564592042)","(0.1703034404218113, 1.5391374570940286)","(0.17915969112771854, 1.6156140625584219)","(0.1422736159666359, 2.2258348066420495)","(0.17142805716197465, 1.6820304879765307)","(0.18345751153656886, 1.6347653320161522)","(0.15890312872112203, 1.8888324610291918)","(0.1611719050824488, 1.88436531219495)","(0.16129364334184526, 1.8686460396982356)","(0.17129618849648973, 1.8477690658923087)","(0.17774494484791642, 1.7981874444758945)","(0.18609130932503642, 1.76694270026025)","(0.17314807228220613, 1.7165463144730395)","(0.169974447747408, 1.6397289430955206)","(0.1759638459989111, 1.638392738305573)","(0.16822894327060398, 1.6721381892649536)","(0.15105028930298336, 1.9035758428563718)","(0.2014774673180994, 1.6295141022876476)","(0.18098189453057276, 1.8000518652849602)","(0.198043077923265, 1.5322430448697422)","(0.19021619902696174, 1.5593406328209445)","(0.22712635022506955, 1.4252243499267372)","(0.180819024254229, 1.7423357017405285)","(0.20966686305230817, 1.6606848748470882)","(0.2002716643189088, 1.6863258017146159)","(0.18234712672162148, 1.5735818693802954)","(0.17747019028513086, 1.6958798282318388)"
"(0.23405373154470957, 1.5144017402139907)","(0.23326186670463428, 1.4221845137095812)","(0.18354653475810162, 1.6046231905303736)","(0.2256609168972239, 1.4113801626960578)","(0.2265748629120856, 1.3473581635349707)","(0.17982106558741454, 1.6443227861633125)","(0.1595304635610955, 1.5860541787572773)","(0.19031555988554322, 1.5490020497854944)","(0.16695942869701313, 1.8892187640481113)","(0.17181596627984735, 1.604658442589308)","(0.17608980972790095, 1.5867387622142735)","(0.1817606155821874, 1.647926618561124)","(0.16949212970916294, 1.8653200457171246)","(0.1679292222887058, 1.8278167021746101)","(0.18188801964703083, 1.8497875168086315)","(0.19737425865720676, 1.735641355003977)","(0.20928215977626963, 1.680255379557458)","(0.19785487058516307, 1.6117181549045558)","(0.18650475916862005, 1.6478942296949832)","(0.19265860152718348, 1.65434593130904)","(0.1878673889455373, 1.6365033477634927)","(0.160426900049408, 1.922778479460633)","(0.22146859051434226, 1.5121178943552687)","(0.19902839681238516, 1.7746093981711302)","(0.21804324115739043, 1.5382222778444123)","(0.1836100085653471, 1.6200824029779501)","(0.19225108709710498, 1.659124034368199)","(0.2004108644598782, 1.7262402079508408)","(0.22238611809942097, 1.543367099944873)","(0.2079794326317811, 1.6867746356575777)","(0.19450244485674822, 1.4824446772513895)","(0.19150151730364096, 1.5701483482998153)"
"(0.22672861538649838, 1.6656859555514123)","(0.2101796115057952, 1.6973046381084311)","(0.157332655447191, 2.14957867584201)","(0.21994377357662806, 1.5207533817578296)","(0.2243591787704232, 1.4675384268687406)","(0.17176677468470622, 2.0563932331322916)","(0.1800598255800254, 1.756113458162243)","(0.22048350797521082, 1.443221430460413)","(0.19986289646470234, 1.67373524795064)","(0.20226158313678563, 1.5760450921961104)","(0.2118864949160842, 1.5726903397753897)","(0.2149365559061818, 1.59435724642861)","(0.20485164827072622, 1.6914076720449969)","(0.22379049177092872, 1.559858741102563)","(0.21863624127041192, 1.6430187156044715)","(0.242776379635874, 1.5178485614967772)","(0.2494283137282973, 1.5171808378878762)","(0.21547997460031262, 1.5964411596519599)","(0.21264499896187075, 1.5554044931837516)","(0.21920320299828594, 1.6165514127313136)","(0.18046085262034542, 1.809143879740387)","(0.191773410144397, 1.6565566663541085)","(0.18946174206195338, 1.724419221172634)","(0.21620746516567657, 1.7337443755354982)","(0.17539346656321497, 2.0302910044040914)","(0.18183872110822022, 1.7226670135333066)","(0.1868304274033095, 1.9291778279138636)","(0.16788686556046403, 2.219820198872329)","(0.19285534658622597, 1.7472076059527972)","(0.18776853475258257, 2.088283737309089)","(0.1959923107582516, 1.6198024531678406)","(0.20543312657164753, 1.464700247505092)"
"(0.22774574427186808, 1.7935533625846667)","(0.21804166384405763, 1.918618980119029)","(0.16094937408277005, 2.202895307398117)","(0.18034156855917902, 2.1391068031086973)","(0.1819445154392653, 1.981049777727659)","(0.1723401865599069, 2.106774530652683)","(0.19248496671989498, 1.7245498399059256)","(0.1865278832591741, 1.773997978920593)","(0.17440844080958756, 1.875939391221731)","(0.16704254474265376, 1.97352199987855)","(0.20422318405363776, 1.677331097477244)","(0.19544748139063833, 1.737932293456558)","(0.18444775580790565, 1.7918902635701934)","(0.1936749110808421, 1.7746088654906391)","(0.19347100944993115, 1.7921307483414923)","(0.21626169389698618, 1.6819303801042553)","(0.2207328752992426, 1.7121189221411044)","(0.21373285438845627, 1.607120519203936)","(0.18434583461404455, 1.7514597918898718)","(0.1932657756242287, 1.8790481094263796)","(0.1648133774946744, 1.996580977179541)","(0.1766923453725628, 1.7866850895549995)","(0.17625092983846657, 1.845357027102939)","(0.20757136322710573, 1.8209549616042122)","(0.16185733274928582, 2.278958821116917)","(0.17091500686948008, 2.0289396729003237)","(0.24539588335475776, 1.6348429691468738)","(0.1816130235222905, 2.2139003565709623)","(0.17795669693491648, 2.0408807620458242)","(0.20027267875249782, 2.049262060014478)","(0.19505556783373998, 1.93287733311034)","(0.1805208318758036, 1.7800891123759772)"
"(0.20631742035353245, 1.9725708037229719)","(0.24013408450080997, 1.7232551649919867)","(0.19256827482315947, 1.7792542809996157)","(0.15989809741867755, 2.2532154580023236)","(0.16538165944477703, 2.0509595477420524)","(0.19690153483646564, 1.8318018325412557)","(0.18367432591823007, 1.866811095745396)","(0.18445367091627526, 1.8297631667786785)","(0.16339173595698248, 1.9883904775994854)","(0.15051292664871282, 2.210071163375881)","(0.1943332322128685, 1.7504745307780623)","(0.1755198380772575, 1.8572903230264493)","(0.15065569966378436, 2.1535267743813082)","(0.1604611887076083, 2.085423546446324)","(0.16622248174979562, 1.97685834866883)","(0.20454766972770996, 1.801376386204591)","(0.2236924170414061, 1.7418922219024364)","(0.19043764121359763, 1.8687126873409654)","(0.19029297891161864, 1.7914411252418438)","(0.2098463167175829, 1.7950146022823843)","(0.16934523298974832, 2.1198657351920134)","(0.15690449428642256, 2.0882121081487104)","(0.211819883812969, 1.603443684578619)","(0.22686190285207636, 1.7516115750610275)","(0.23177289503189363, 1.5929458545314312)","(0.1522860429095715, 2.3912986022942984)","(0.2665545996747573, 1.4864447832522791)","(0.19068566970255324, 2.0764335703475116)","(0.21326822447955987, 1.8178158868857268)","(0.20295698649309712, 1.9983379534477004)","(0.17655562807093195, 2.094594091672482)","(0.19564623371218234, 1.7896191785813744)"
"(0.20872300656637466, 1.8309494932196269)","(0.19626895198900862, 1.8869021841286366)","(0.19037967713760656, 1.7672105695142424)","(0.15395398017095993, 2.253859249063959)","(0.18327452462155566, 1.801582431985985)","(0.20614252814442424, 1.719446727009674)","(0.21464627113342605, 1.6558054585596724)","(0.2217786050523608, 1.4881250010463196)","(0.21012635142665206, 1.5529610984097593)","(0.21007459497700745, 1.6332652177255964)","(0.2085476302917514, 1.6360897996600445)","(0.18725256967754536, 1.7049114245544692)","(0.16491822572024492, 1.9358110382195153)","(0.1816727957474266, 1.7476403859638039)","(0.1954218771915828, 1.6541381560056263)","(0.21617797690561721, 1.6193360619932096)","(0.25986264320645747, 1.4445125604144675)","(0.20760406574630288, 1.688706908648838)","(0.2378327379166776, 1.5111138888987576)","(0.23852211821302505, 1.5401014454259456)","(0.2064679982307399, 1.7580245993535841)","(0.1805297848117436, 1.9614168273301726)","(0.18919719463324422, 1.8259197318929015)","(0.22410366883946212, 1.7683646789271468)","(0.17499323438429568, 1.9719241849816813)","(0.12777202509824578, 2.6599658515285824)","(0.19643576099230747, 1.8175541522650915)","(0.15790882785327362, 2.1579499279478482)","(0.1953114714446789, 1.9006518947011763)","(0.1892131516731256, 2.025726869235244)","(0.14073151575384968, 2.4340593819384133)","(0.2118449303258441, 1.6443918051836672)"
"(0.22034000679578072, 1.727399585533651)","(0.20612028234279942, 1.7557350098443492)","(0.19183849151415278, 1.7410769072251941)","(0.17153765921058645, 2.0664182585781097)","(0.1906778921559451, 1.7178572859294416)","(0.19491237998716232, 1.7400619776945414)","(0.19810069462636098, 1.8537050891519882)","(0.2229523092813463, 1.46265046817787)","(0.20840926624217104, 1.5810209503279515)","(0.1872831891811484, 1.7920902116544954)","(0.1748176641436332, 1.9076390224190931)","(0.16729338338459518, 1.8994254381852953)","(0.1745281415865142, 1.8245373251926311)","(0.16429906795966664, 1.844658580975508)","(0.1729678428362709, 1.8050281176847278)","(0.18773996616721467, 1.809678942650517)","(0.2276467942030566, 1.5691457027586524)","(0.20217482007480295, 1.6246076889479666)","(0.1919368546272213, 1.7333185575664027)","(0.22957169007475584, 1.5531073304949423)","(0.19950787668092687, 1.7270227422204258)","(0.19227327580149753, 1.8726289035693586)","(0.16456783340542022, 2.1780728874456643)","(0.24388059010125707, 1.5244076117681595)","(0.16541726125104256, 2.051960417380823)","(0.13520989192829388, 2.4475198755577536)","(0.1804661706755801, 2.004079514442754)","(0.17002142693421265, 2.08630671359502)","(0.19356113569465805, 1.828002051937006)","(0.1877681092715072, 2.024857090599675)","(0.14853342477273357, 2.2196325699332298)","(0.20490186254005793, 1.5830946387617244)"
"(0.22428678444972433, 1.7163862397001004)","(0.2572718988262878, 1.4742725022678522)","(0.17642501905700408, 1.8026649894293054)","(0.20603667086320934, 1.7060705970352363)","(0.21372324120324154, 1.6428059282532674)","(0.18552139607564802, 1.7898837393690528)","(0.18757764678137911, 1.9100726494180083)","(0.20456902232115481, 1.5618842302404863)","(0.1835878768553509, 1.8404172977283808)","(0.17856899664084913, 1.8184080275513803)","(0.17406584974505968, 1.926689146585202)","(0.16141679759745842, 2.0258997146472897)","(0.16175192169758215, 2.0461346228401083)","(0.1590604348267145, 1.8428814012501822)","(0.16339718250607724, 1.9022201240414116)","(0.17292471894408232, 1.874397751932389)","(0.1942248648840382, 1.7515457489219104)","(0.16202960525668078, 1.8606624053523524)","(0.14861643455608653, 2.1359152241220496)","(0.21758428076004785, 1.6677339976646783)","(0.17742761528592477, 1.8678160339512542)","(0.17093127127189578, 2.077273427172414)","(0.17377153828312586, 2.0390606437689205)","(0.2572405188892187, 1.4481010454814027)","(0.19378291570221332, 1.753686064805329)","(0.19266545217801703, 1.7206368618609822)","(0.20563286376255918, 1.793385671087661)","(0.19828554155679098, 1.8911434755552183)","(0.2262346850570309, 1.6170164795383648)","(0.19502051812433682, 1.9552283403048594)","(0.20005668549715527, 1.7215620167674603)","(0.18498764351630387, 1.9153230687053173)"
"(0.250268078150268, 1.6070927506401809)","(0.24195065147489792, 1.7158045628830156)","(0.15865219129251656, 2.1440373821793797)","(0.17998875861946698, 1.9391205966525067)","(0.2009580954892092, 1.7672071928327444)","(0.1663575910055798, 1.9619374844357782)","(0.18923465343232873, 1.7748713126134783)","(0.19934443134761987, 1.6906359307879553)","(0.17196881635824537, 1.9621969175071556)","(0.19222650768376665, 1.7886660755277397)","(0.20833905927135782, 1.6288996010976322)","(0.16830932426268014, 1.883120217579249)","(0.14131152403237537, 2.2098596592259794)","(0.14552321087087433, 1.8396845359457112)","(0.15565669645446062, 1.821413457723141)","(0.16282809273878276, 1.8233153598643432)","(0.18192477558033418, 1.748293415472064)","(0.15293363174821234, 1.9289465283987686)","(0.1561628722804254, 2.0894983168155252)","(0.19435489563197406, 1.794462868485269)","(0.15984449242593812, 2.141331661869879)","(0.17441751538956796, 1.9749585339147468)","(0.16061060589526205, 2.1491236578535275)","(0.2413233262739588, 1.6420860387537028)","(0.1764111467173584, 2.0363309913529704)","(0.1941525149669681, 1.8411733372475467)","(0.22524145737159257, 1.7225379047472231)","(0.16300520333502386, 2.43724184068194)","(0.23427256473462846, 1.6756948207405884)","(0.18469247202428862, 1.997594589717618)","(0.19745976640323737, 1.8754424582629143)","(0.19359100277546468, 1.9751769124061342)"
"(0.19717384411825464, 1.8575038283069696)","(0.17026340393366493, 1.9742215134570367)","(0.15739383583927696, 1.9044005986725876)","(0.15444416681399203, 1.8313498017293606)","(0.17187337263325086, 1.6579192791501072)","(0.17672499588263707, 1.6706148109751766)","(0.19120823196628514, 1.6074522314871629)","(0.2097978298912613, 1.4307906185535013)","(0.17641136042451763, 1.5302909709321078)","(0.1926200304046375, 1.5466574735051875)","(0.19451783569713904, 1.5774284686943405)","(0.17420945835687063, 1.5235009422859984)","(0.16741822478720028, 1.5238182345873776)","(0.15651992378539475, 1.6534617607791506)","(0.16518890666153363, 1.6824380520346844)","(0.18090623408937698, 1.778131243154532)","(0.20650995499119296, 1.646181390820685)","(0.18983867507205826, 1.6031779171512741)","(0.1946248525133756, 1.5513503878408867)","(0.19398505626915238, 1.6637421064743638)","(0.16403807020128203, 1.7908021927495574)","(0.17305557310759428, 1.6683001563548419)","(0.17442367162348243, 1.8443409852608577)","(0.1949775380349666, 1.8601408434515736)","(0.13980666887035453, 2.0826143293109425)","(0.16639241882753147, 1.663985412431315)","(0.18355826811298567, 1.7945189718845775)","(0.15730682187337208, 2.069930366026299)","(0.1888191041529754, 1.802869388122942)","(0.17139477577344708, 1.80595011878645)","(0.1681017036474662, 1.6950631409997068)","(0.17975417841991403, 1.8844928997130599)"
"(0.19321635510823054, 1.7122573729200183)","(0.17811676937723078, 1.7432535856064437)","(0.17129270308317174, 1.782545038232312)","(0.17012628519841097, 1.606282158600475)","(0.17754229805086788, 1.5625959326083656)","(0.18344682650986122, 1.5872910653310452)","(0.187432918486867, 1.649920903768963)","(0.2052137071750206, 1.4389974600612325)","(0.18258024608924353, 1.5625537202234012)","(0.18195600163261624, 1.6139340574869727)","(0.1870223015848303, 1.6796387530878094)","(0.1787902454777529, 1.5698338597898573)","(0.18312962502762178, 1.5216006814975513)","(0.17692215891649252, 1.668930199665422)","(0.1818068532524844, 1.7034382313943968)","(0.20160725673428703, 1.7315063218672355)","(0.22938249107020015, 1.6151000359736818)","(0.1950080893976214, 1.660991405449224)","(0.19576145793682187, 1.4843055418581415)","(0.20781409505564238, 1.6326787210577018)","(0.1772443099647729, 1.6488268080037531)","(0.17132365275289932, 1.5876336082988416)","(0.17548577856323821, 1.7492360743102289)","(0.20155135488656375, 1.8026679668068109)","(0.16339954380255223, 1.9194990298525387)","(0.17519523428815664, 1.513170137701769)","(0.19372664388924782, 1.6615946908034132)","(0.1830626393865256, 1.7698145206208116)","(0.19300074498009592, 1.7260335524629655)","(0.17626860394275057, 1.791443119998335)","(0.17389585151288625, 1.5351378144758003)","(0.1980727513490215, 1.5475324741305674)"
"(0.24900902217860407, 1.4273226255968217)","(0.1994139483550269, 1.6999316470636767)","(0.17298880441823172, 1.972143882672722)","(0.20311791020278616, 1.539472773271973)","(0.18167048442967215, 1.5711090009425617)","(0.18369464891892065, 1.7325590909714264)","(0.18976948798984458, 1.772268595435617)","(0.19684344206835638, 1.5611476694831377)","(0.19455381388406834, 1.6518600853130343)","(0.16861655474159012, 1.8903049002768884)","(0.1820262370719084, 1.8795168276575187)","(0.1798577760930872, 1.7783766861195607)","(0.179439730298346, 1.7617351265101049)","(0.17848515756949387, 1.8557482136293046)","(0.17767388902081763, 1.9038911606350755)","(0.19337239521141586, 1.8969701635848766)","(0.2300036638946897, 1.6345617523830605)","(0.19393602803823906, 1.7248789004886353)","(0.18029415041144256, 1.669322241562912)","(0.22818392818083943, 1.5947330797904111)","(0.18885417631713616, 1.6426271861619053)","(0.1701477437155367, 1.6153515308619413)","(0.17136309467048594, 1.6972835399695636)","(0.266315248732843, 1.4986343761947576)","(0.23046020389062444, 1.5421749973352026)","(0.18151881177785825, 1.4590936109650239)","(0.2187676740152505, 1.5439771999438514)","(0.2393860804368794, 1.5131326313058138)","(0.2374139845524107, 1.524552509551531)","(0.21912689310782726, 1.6951234832903435)","(0.16518770402659885, 1.6911657417291932)","(0.17763907595407114, 1.6581497169066843)"
"(0.24199254229659833, 1.5481535925993994)","(0.1884257238972054, 1.7643778377357597)","(0.14586771811423288, 2.098523694062979)","(0.18299281535318998, 1.8069589070320846)","(0.16451151648822773, 1.7837638547348922)","(0.1794111656523455, 1.7547427250703778)","(0.18038563812519634, 1.7420690021005827)","(0.189266328208701, 1.5560282099859333)","(0.18632491359097683, 1.600577791821465)","(0.1898605421988541, 1.5757129318884986)","(0.1794325148918904, 1.7617639640106328)","(0.1631637522393512, 1.8118823397112753)","(0.17020875295685806, 1.7218044351499346)","(0.16320716305638341, 1.8686748675475737)","(0.16716752880770033, 1.9253060931633943)","(0.18759753054678704, 1.9019887389200205)","(0.21107366238660202, 1.7076437717820618)","(0.1850837280320477, 1.7238865628064954)","(0.19327097853630382, 1.6030520338988157)","(0.20364563272522826, 1.6895504980733964)","(0.18381231887789284, 1.6602272946749568)","(0.1785521318557336, 1.56556763631594)","(0.16371920050714525, 1.787691579870624)","(0.2179862347771461, 1.727523217397829)","(0.18345496178440143, 1.8958036274946028)","(0.16028006556018304, 1.7129797585009903)","(0.18958975175515366, 1.7810774100774498)","(0.21625210264899944, 1.6614341584716108)","(0.21753020473798643, 1.6390790439544276)","(0.2452232354089039, 1.5814634187691083)","(0.14248582418209482, 2.046420189028727)","(0.1719376334399477, 1.7305733629883329)"
"(0.2596434434954705, 1.4722290238632811)","(0.23361988770605066, 1.6216151132973724)","(0.16676126886759848, 1.944971076161593)","(0.19033058784372014, 1.81373566523588)","(0.17588484300455012, 1.8546406319724056)","(0.1846914222094829, 1.7001194534879143)","(0.1685414380056567, 1.7302108043216349)","(0.1883678789766184, 1.4986549117862655)","(0.17447946045656748, 1.4687979037919525)","(0.18664456583276967, 1.4694292629154488)","(0.17225107666192835, 1.709134933180358)","(0.16725675088192926, 1.5775524599089727)","(0.160315797467213, 1.6818893567797368)","(0.15809802265235648, 1.7155333216889002)","(0.15552153157760457, 1.8370990014856483)","(0.18047597950773006, 1.8349961262696701)","(0.1848101236061511, 1.837661992720835)","(0.15971617347500044, 1.8390491503663928)","(0.18371505126662224, 1.5835602107402285)","(0.18335667708489467, 1.7917312109409014)","(0.19257328435579754, 1.6234941376740193)","(0.18018781002747652, 1.6105496686985965)","(0.19015324303842107, 1.71696389703694)","(0.19782966357035034, 1.8214851051498047)","(0.20138598230984997, 1.7059455426525634)","(0.19491070939859118, 1.6263290705079694)","(0.22663751093136852, 1.5478060295974767)","(0.22225038620034576, 1.6977533207259832)","(0.22910936204298024, 1.5745198290035662)","(0.2484546651267011, 1.6063168468859248)","(0.1716838761246042, 1.9083576674456124)","(0.20364293847401832, 1.4228113455885807)"
"(0.27307684038261965, 1.4531160410967776)","(0.255686955905037, 1.6217446664523243)","(0.15110634744096924, 2.467610177865205)","(0.18274356908891287, 2.1192233246051413)","(0.20280745294121272, 1.9027114353545067)","(0.1686698830749126, 2.1835795591342326)","(0.1584972163267026, 2.0873548982266685)","(0.195239344336789, 1.6329020547856294)","(0.18321411212552113, 1.470669969090901)","(0.17843127742556658, 1.6964855045775193)","(0.17338914151676038, 1.8461179123703793)","(0.16494178014982006, 1.6424075558823596)","(0.1521622475047473, 1.7344592574404172)","(0.15866100936567124, 1.710213627654753)","(0.16877534803916128, 1.7792673533246217)","(0.188970880539002, 1.747506996770273)","(0.19253943572071028, 1.75516712648997)","(0.16534531253004028, 1.7664814853659085)","(0.17784852164887735, 1.5701903255819034)","(0.18395058275452983, 1.7632068364623597)","(0.1907361074762459, 1.5758733420388158)","(0.1625770046863613, 1.7506372493156481)","(0.16944951424516344, 1.9344415354363107)","(0.19459000923850678, 1.9412925653029778)","(0.20065562860749805, 1.7358135446171712)","(0.21115598720224663, 1.6464416214763118)","(0.2477942748277505, 1.510411313281947)","(0.22293886568214516, 1.6941246739851619)","(0.2590558208145476, 1.5137353277363963)","(0.2685531201174642, 1.452663774858077)","(0.19343218257094635, 1.953958856480637)","(0.19218360555241848, 1.6798652760039074)"
