Fp1,AF3,F7,F3,FC1,FC5,T7,C3,CP1,CP5,P7,P3,Pz,PO3,O1,Oz,O2,PO4,P4,P8,CP6,CP2,C4,T8,FC6,FC2,F4,F8,AF4,Fp2,Fz,Cz
1.629059166868732,1.6085929473415526,1.6674433102489892,1.6009085072282754,1.6447452853974105,1.6649496623834443,1.7216506917015035,1.7591773022939143,1.70500620422837,1.7781794032678604,1.7220525357627607,1.7548933981510186,1.7011677141979549,1.7501007726182052,1.6581482272899253,1.7098341755998798,1.6966437618399126,1.7284773624455867,1.7313635637795202,1.7345156707067946,1.7268728743723343,1.6853281032005905,1.699530403190848,1.6394379482859198,1.6967425255417772,1.639519605398526,1.6081436118412298,1.6285874440015486,1.6029498973283682,1.6154659562056992,1.617989205974652,1.6944254097658429
1.6511737365306443,1.6538894803997009,1.7137706732391798,1.6447137139223913,1.658658299904804,1.7108228513168582,1.7441635098484176,1.7438874362732508,1.7158449125853612,1.7649800143811796,1.7336928710280106,1.7474688702141585,1.683283771440368,1.7699201260265771,1.6760773793595698,1.716821985869666,1.7033229033745245,1.7423833191167428,1.7520040882561496,1.7525011914553759,1.7531686197767422,1.686808790278095,1.7514264327931117,1.650685008856222,1.7249979216856577,1.6828277555062763,1.6609426383586536,1.646709966679061,1.6320984038690605,1.6477998667334257,1.6437002132602039,1.6609320891962396
1.590585833228171,1.59317123884914,1.695608273781894,1.5850765635764192,1.6001353357800063,1.6878819261823288,1.7860289024142375,1.7510064699852594,1.7153848963535818,1.78474813367201,1.7321972469140237,1.7678223268908588,1.706584416893183,1.7793056256280964,1.6756067782153874,1.7125315990883294,1.6937127595142836,1.7166448407498702,1.6915718871552146,1.731831705434824,1.7022132086454755,1.686675409340677,1.726452084842502,1.6162229760878182,1.6832380161635798,1.6711889322130689,1.6173718029429098,1.6073022118869082,1.5794518619787332,1.5849167243030655,1.6176310385399433,1.7123506242110587
1.6488348267602626,1.6610759432832625,1.6853606278862336,1.6555832489239575,1.6754848380902394,1.6986107974738844,1.700706787743332,1.6983381298978852,1.717194662719616,1.7073186344893725,1.6371918759825985,1.6859990246005072,1.664199204489067,1.6811419264943166,1.599384794677254,1.6614693108078744,1.6490290421386256,1.6828405911257127,1.6726520673266232,1.6647887609812333,1.6808706814144454,1.6795655644821976,1.6939538558761056,1.6156558506183274,1.6788416822274244,1.6877670951315504,1.6706886059490826,1.629287685843659,1.6572286362278557,1.6278059066597375,1.676401861547153,1.6715741291198953
1.6034381178817152,1.6242724233240204,1.6596649788414446,1.6251555093486745,1.6494896276265556,1.6905014873637743,1.7136519304688327,1.7450504753929088,1.7423322510900585,1.7431369754284156,1.6478685904378854,1.7503591750256349,1.6798501363109115,1.7439730555466333,1.6093619246095847,1.6791932244224708,1.6613921928204627,1.70663932813977,1.6376252523470736,1.6985762491675196,1.6817048524167464,1.6850057097707936,1.6868992970677115,1.5965469361668048,1.6435065939199431,1.6769034162324745,1.6416323284321808,1.6102365329627826,1.6165334606759436,1.59829885058233,1.648372457987454,1.7116688695904627
1.6369187770510105,1.6424549916351963,1.7003438664979804,1.6470144578926809,1.6573065047423796,1.705141002167152,1.7144597277381244,1.7191953043731187,1.7173465243579578,1.6764843019515425,1.605917876346197,1.6829361630235993,1.6187781953041438,1.660240794492845,1.5508315979376046,1.6357655701860263,1.6384303365312707,1.6724382156129098,1.6467171787643622,1.7005009798685446,1.7103580588147589,1.6825969752388268,1.7189399177462794,1.6388287529159862,1.6990201792358652,1.7203729546842073,1.6567518888162995,1.6459248757273648,1.6395141641444757,1.6182800309090586,1.6638260907489433,1.7072147155883572
1.656861720163828,1.6478813739565175,1.672465173007267,1.6250320036001988,1.6530827681262872,1.6850097297186957,1.7130880711518341,1.7254276218663216,1.7365193711622653,1.730611906146676,1.6772231209852,1.7512807287397578,1.7025796716338704,1.7424388298913065,1.6538918091378618,1.7218395887297273,1.7097116530626055,1.7504765890558571,1.696436370818028,1.7544736926926348,1.7223737494596318,1.7193730152739937,1.6948851760587995,1.655738229767086,1.680253180400921,1.6736398854750847,1.64608739980852,1.6655880350416263,1.6332968531717995,1.6344057085180528,1.6578087509525576,1.7307657933421832
1.6733761540323886,1.684719530733596,1.7172584638418715,1.6630430537837644,1.6817841448235664,1.7178899622886483,1.691358439422634,1.705560957804325,1.7299883268218037,1.6919564903056452,1.6093797798509963,1.7062364087637105,1.6844089301619256,1.6933383406676972,1.570322849037727,1.657079355416616,1.6482481309658792,1.7010286881367833,1.6682783528121234,1.720575373961032,1.7015262189431655,1.693664051756326,1.6923866559535399,1.657486302076573,1.6785089852822261,1.6960479150047258,1.6734359779217378,1.6806369076877756,1.6614570112310854,1.6193614171684028,1.689456913293093,1.715090999888481
1.6948048377011746,1.6814050493811306,1.700923672676368,1.6716041555812422,1.6825636874423109,1.7172120184713051,1.7144917928575034,1.6402576181020814,1.727508793965904,1.7047051765796992,1.660288337573183,1.7249887262349475,1.7131154951565486,1.7326967596035685,1.6126600501629782,1.7060257628396434,1.6908066347352035,1.7376914526228568,1.6912924028074094,1.6949219258444324,1.695313718827271,1.7089110589582293,1.6733752312139223,1.6576200617073718,1.6857775597645532,1.6729278007697708,1.6875094514761515,1.709341720670043,1.690397490666768,1.6303641529316582,1.6777052257183487,1.6944730661683514
1.656496805983846,1.6664240822589163,1.6804201181610234,1.657395163875421,1.667321450811079,1.7079925575798547,1.6858166996869215,1.690008581323353,1.7450574406195838,1.6771137546978918,1.5996571285350527,1.715742678781457,1.682262927258092,1.69155409030672,1.5511442178144719,1.6470398333286274,1.6207506836901617,1.667430665022884,1.621962000327569,1.6515256774668081,1.6770906490208481,1.6912285465412555,1.7007215456492817,1.639709616074173,1.6720704264426913,1.6965334932530873,1.6729120706271032,1.6638308273323261,1.6658107446681107,1.611802350651353,1.659948710109053,1.6818712605773527
1.6869816168545142,1.6782603961563132,1.681967184634708,1.6308101604953753,1.63985638816119,1.6915427322725451,1.6937808672816697,1.611182402545549,1.6474833000295013,1.6235382929815931,1.5973131175859145,1.594714548565964,1.6670143534282238,1.5828000530271085,1.52150445579661,1.6160273870888677,1.5855936149100776,1.6478505152685545,1.6098049581587444,1.6695370011623094,1.6931154280917156,1.7576197975875065,1.7203129484929376,1.6396610813925103,1.6824373065254907,1.6900548554574912,1.6692938968157744,1.704404601312619,1.6689732492712337,1.575567701315763,1.6768342839985142,1.7058726408266072
1.6234739378447958,1.6199325613630373,1.6576699576137703,1.6083465304714097,1.6268780196303434,1.6623953948191488,1.6367738079555085,1.6276321067439212,1.6645388120285203,1.587060262227591,1.528803771603091,1.6343028870343614,1.6794880739738731,1.5896887570053686,1.474847560211344,1.5524179867037313,1.5236039281192293,1.6261008967893005,1.5856168882828,1.5901632846508122,1.597155842925316,1.6368532946143606,1.5994851396485592,1.5832981919938813,1.585203790977409,1.6357757629524015,1.615218148775741,1.615553134139575,1.6061676172801898,1.5518818539031562,1.6161136845097064,1.6227109463075484
1.6562252701915308,1.6608471559947406,1.7045809102367697,1.6517452032705784,1.664884857334197,1.689195708407277,1.6391363651067123,1.6193674571029641,1.6226673468622672,1.6371377552558763,1.549884374927893,1.6329734855254334,1.6776113090370046,1.669958425207073,1.5773452777765558,1.6388120791354723,1.5906982033254968,1.670557310793884,1.6243383373366533,1.6325730380985188,1.632942155119686,1.6417672466525624,1.5875410832088095,1.5807286023137612,1.6101823372077007,1.584185119306006,1.6163603825046822,1.6408268909854922,1.6191710794653118,1.5997581300888297,1.6516836739402256,1.58354744604978
1.6401876435830247,1.6563511673865994,1.6739402635442018,1.6517708038932637,1.6565269566582137,1.662085129139947,1.6216922593724385,1.585209804624643,1.64780356617306,1.5839451924466847,1.548778949842753,1.6118870373393979,1.6495668576435083,1.6315140532520558,1.5011090842110126,1.5591655513773388,1.5611015365506216,1.6725723600961186,1.663543833168873,1.6007626239068393,1.5959226616868225,1.5871926617164576,1.52522554259431,1.5471154555921713,1.5916274976210607,1.6034397883862146,1.6390835546991767,1.6143452488986785,1.629179808827123,1.5859255747587635,1.642814496875937,1.565736085904854
1.6138446333860137,1.6146433528376123,1.6553319271796014,1.6284858864424756,1.5914624395996106,1.6721331831199313,1.6680888105606009,1.6730479427452198,1.4101753913233288,1.6472582917416998,1.5896309379026894,1.5539621132672454,1.604936358831554,1.561874910012631,1.5595929187887523,1.5913604884348262,1.5732619993401131,1.6173828362641864,1.5969434343292792,1.6611501259323438,1.6275892709643687,1.5920948088946572,1.5104187075977265,1.603601383979325,1.5604334909581346,1.447187996004496,1.543352005392421,1.5924127745270589,1.5736202419422871,1.5566083892151013,1.5772905536646014,1.5802145047347946
1.6039709244893083,1.5777165583283828,1.6227153933198355,1.557934429987276,1.5538405518864036,1.6389103235692986,1.6460904299272656,1.6388054283945852,1.462712934440361,1.643817848219012,1.6265118071896854,1.5753531926272593,1.6038878506105758,1.5911030785465226,1.6016397567735605,1.6218872998246936,1.5528309362617037,1.5918629622954579,1.5745014507942487,1.6026103319893406,1.565785496971928,1.5365144566889188,1.4902498790927365,1.5775241292855908,1.5438429535195415,1.5005117139895014,1.5369386145521289,1.5910439288535252,1.5613911799885531,1.5502443597122786,1.5549106386544678,1.5522088130917377
1.6451700467047912,1.6333795631940233,1.6183088515050106,1.6394537795942867,1.634995944361892,1.5858270113013913,1.5809645068681566,1.6425124387910774,1.5286751037182653,1.556991329821795,1.5297230607140366,1.5542862285549126,1.6481747745235409,1.5970904096832292,1.5410799102037216,1.5887041223766445,1.5240123704849657,1.6062293884357757,1.6203142248218123,1.5436016287066132,1.568644084938371,1.5942275716969518,1.5446210628695678,1.560614704250264,1.5667188234682297,1.5666517372844866,1.580132218876706,1.5906537531201297,1.5945170999828393,1.5668684492955807,1.623378048822744,1.5381385575090658
1.5261897744810093,1.5190825916384059,1.5873106912445611,1.5409175897939533,1.5363324410445576,1.5709981270337736,1.582628164008471,1.5823467713925379,1.4432447582074037,1.5440279437490585,1.5219158582643304,1.510398588997691,1.5317621959162682,1.5580989491307082,1.5466755925239526,1.5625375626075197,1.4783789913169596,1.5215605625273203,1.5483933352177115,1.478954071090423,1.5033148513007843,1.5255473215937823,1.5097867722645244,1.5265466748337568,1.503209305936583,1.4814574183424318,1.4854114956340778,1.5255741861083887,1.5145721243184636,1.4862898757365433,1.5085202648103306,1.5505584163786776
1.5542727258898883,1.5770469580361968,1.5753935897767903,1.5859311345985627,1.5814282754918616,1.5132389972373415,1.5240014289223507,1.549590588002256,1.4837092325824572,1.5170006988975444,1.538974627636825,1.5545327489389575,1.6288684706711565,1.615314638810643,1.5828459694474488,1.5948882577017276,1.5203225059241938,1.6087335183133125,1.6246994059659798,1.53062291281316,1.5490507788468448,1.5358409500785246,1.5234060388727324,1.5376639320861887,1.517562046005488,1.495294992561984,1.5049836122074485,1.547131962831632,1.526877625504624,1.5236910468919498,1.5754116302598495,1.4932449846310731
1.5388266813740707,1.5496366540972029,1.571058487399779,1.526609907266186,1.5152671664809283,1.5407626603838278,1.542871984433328,1.5721507560841463,1.4431415112268438,1.544189615814207,1.5141092267777203,1.56052751034126,1.598418440635832,1.5871170028910346,1.5548938447110594,1.5574148362111124,1.501098210247015,1.603651996903833,1.600000402997488,1.5669734990038837,1.576832247183116,1.5740364745474398,1.537179085552157,1.5372977982351517,1.5082603442796398,1.4945478900258253,1.5079868851693368,1.5247831021628753,1.5252868031886688,1.4972534392418164,1.5349733333847295,1.5442554964971074
1.5625456869547876,1.5733017923820471,1.6196406232559566,1.5612231026664973,1.560237806437863,1.5632513240589951,1.5953830301224572,1.596273278967564,1.5035378027037791,1.5827563744142215,1.5318285649433117,1.6081252485407225,1.632380503885108,1.6454512983988432,1.5995823814062016,1.6388402023999857,1.553447896794491,1.6342334758514023,1.641940729010609,1.526856510719147,1.570964825452604,1.5838567711553373,1.5643856651805637,1.5295599822652861,1.5519443006720868,1.5164286417641994,1.5405534587215437,1.5490564508919284,1.5585760146533039,1.5413129469515234,1.5687132842076856,1.5505881811845696
1.5187911599028354,1.5450646962325136,1.5311378559777942,1.5193131570849183,1.5023038606236507,1.5109453788972325,1.564194959485588,1.5588231856933714,1.5353791126460872,1.5623379926012926,1.5346359822749354,1.5975555371439196,1.5627910134057859,1.6157481322839151,1.5912851611968752,1.6015223616237786,1.4987537699340525,1.5846662413844363,1.6292003137230247,1.5143123688111135,1.560214989259882,1.5663536912079652,1.565143530745341,1.5069651073180703,1.5381708305517099,1.4864937152989643,1.497284120595241,1.5262580969596606,1.5098332849652072,1.4701816702638926,1.5061559217497138,1.5311858479762204
1.4890448781073513,1.5420540556758535,1.5474831651906942,1.4555298479949865,1.5179895643097903,1.5123893682351235,1.5493893593701027,1.56810315093594,1.532144126486381,1.5272395980924882,1.4630324817254179,1.5367342072028802,1.587604459889123,1.5691335612748587,1.5071029024830065,1.5259824859664897,1.4353676456539675,1.5355198610719292,1.602687918561323,1.460438050533739,1.519460286579018,1.5542962881927114,1.5596216118938473,1.4843044864304662,1.5296238345020277,1.505244436001402,1.4897528190387057,1.4724753308673868,1.4968653285104654,1.4725501746163179,1.5443768557367028,1.4981587988002079
1.44966461078661,1.523210413790847,1.525811462264568,1.424672093464633,1.4705981465639124,1.510372024651835,1.5612930586048772,1.5435617054614312,1.510993964507503,1.545965666655712,1.494635929369812,1.5776803821250553,1.5401679679211144,1.5764425142929888,1.5085082668373817,1.5008337193762922,1.4259173670629597,1.49330684048694,1.5467794480090142,1.4203887628458924,1.4715763845734076,1.5046298760179049,1.524208346588801,1.4791008732977322,1.5073120849838402,1.4662981842877252,1.4402022073387701,1.454949007455183,1.4273249955842502,1.4402424965178489,1.4877827910776364,1.4823216511856967
1.4536633350595003,1.5130199357354555,1.5403554203235081,1.4481776022200572,1.4927196016069884,1.5299721623703175,1.5394350909722887,1.5607706957685938,1.544096856943184,1.4627742344734254,1.366338368377422,1.4935779935499347,1.5700390206374388,1.5138507712311406,1.4905807503575272,1.4929389151834576,1.4365769799774466,1.5297071151621917,1.5720079690916653,1.432186142317877,1.521552023472335,1.5472053836058963,1.567915504096222,1.4837527592284416,1.549553999016701,1.4604333308211983,1.4520612731726754,1.484641057169097,1.4450718400557594,1.4072831865027555,1.4758964242065442,1.4835834534295782
1.410228399020211,1.4923555649558071,1.4668268786079914,1.4094701048583922,1.407908571313969,1.4889072006807087,1.483485349688337,1.4609978389259293,1.4824070105702554,1.4344362914298159,1.3737488193040996,1.5037511308722544,1.5285910939873526,1.5621152836827439,1.4955466257123051,1.5007343066432022,1.4284318611588944,1.494606075144064,1.565869533131618,1.4317107979358294,1.4515574943330163,1.47468533117096,1.507615170308543,1.3966972178974555,1.4837882940963927,1.4138949503924132,1.4456108403084398,1.451684798509001,1.4119408470588664,1.4268705709959946,1.4476627798522195,1.4716535557815715
1.3966369572459636,1.4548144750660832,1.4459973744339978,1.3959970768584626,1.4316547553835712,1.4812144550287232,1.5119378561701846,1.4997426674195142,1.5599409123284123,1.4438366707588566,1.3510144945731846,1.5130517359757427,1.5302394375934318,1.5680104342524495,1.4905042191520366,1.4811372700448078,1.4271844640709699,1.529577072991998,1.5881115942652297,1.4965299599893447,1.4729625416905245,1.5144752039167368,1.533919048709598,1.4259964621727643,1.4904372510804047,1.4019826240514819,1.4310215140520732,1.4339234708255808,1.390656629861171,1.4291023826976859,1.4517193953881926,1.4690210348637605
1.3968060152354393,1.4921072870634096,1.4918884414202502,1.3961332968888078,1.4067734850898885,1.4758020501143791,1.540159040838057,1.4946090266677323,1.583189343227997,1.5498337217898939,1.4746021413945285,1.6345401824607435,1.6114596703466653,1.6654862521967724,1.595355604262184,1.5929440640284869,1.5188124999237842,1.6037943918739321,1.634261721644564,1.545784109738809,1.516669628133482,1.5514748276078265,1.5598036957585617,1.4426027746459864,1.473527687636847,1.4544937107392648,1.452848123729442,1.4286389911005,1.4080863850016323,1.4192036183323797,1.4827294364528756,1.496686302703135
1.4300410975922315,1.4831562268586156,1.467667349198561,1.3873399403337803,1.4299484342943138,1.5213543442859445,1.5454132519718737,1.5428012355001628,1.5670140338113834,1.542482958353832,1.4347744928333532,1.5904283076573047,1.5833495805356035,1.621882783664461,1.5027459730027046,1.549756423968985,1.4882735114164103,1.5645187368205966,1.5655180661961878,1.497915143449194,1.5231826338280432,1.5708744966842227,1.5912580935402652,1.4383285781829098,1.547738960743647,1.4914423362709293,1.4814916914960237,1.4633820915308804,1.4133710299335578,1.4825348200707658,1.476831422786855,1.5207462771013107
1.4426219159791849,1.5034666114132298,1.5203983186970778,1.4081951502175463,1.3947649784294442,1.5353115401111574,1.5239227136008964,1.5606970296714013,1.5643846747077044,1.5387159912178776,1.428569224668933,1.558206240937396,1.5240342362603707,1.5760279095691672,1.4789502533808692,1.5126689915833105,1.4788738671028057,1.5439733848272157,1.6159630958150872,1.532700241045398,1.5401620908653932,1.5103711543273102,1.5511036670431202,1.4931313234891086,1.538555444160164,1.520388886039131,1.4784545601463204,1.4998869175506624,1.4264944082444788,1.4893422089641117,1.4823507474536601,1.5337785714004275
1.464924634841505,1.4891969133916871,1.4038949198936683,1.3988078891150717,1.4126256077134,1.4816756952037755,1.4619551377934856,1.4984965270842354,1.5806416736130864,1.529117703742267,1.4455593695401647,1.6141820123535613,1.6043437291988403,1.6539065744979056,1.5500931541141931,1.5667007476486583,1.4665371470500683,1.5430689081723004,1.6117623645877237,1.4646428812894408,1.4751183983781053,1.5404483240982942,1.5425240071791695,1.4196908758428768,1.5120630813945595,1.498105976437751,1.4987648768362316,1.474068344183832,1.437358455948712,1.4962293446500514,1.4963821016419099,1.4826841467027514
1.486327147015125,1.5253271636711774,1.4668856425672943,1.4358273448398091,1.4579706162691897,1.5048550144419124,1.5323812558481265,1.514572390428367,1.6212115540887635,1.571304667141256,1.4824474644217638,1.6117611951369768,1.5729706551982936,1.6550764217566827,1.518382486130109,1.5740269044492412,1.5198858658659495,1.6195771278699866,1.6658860762052177,1.5489794509164438,1.5807093736675895,1.5540596054554954,1.6155769377090163,1.5119658483596228,1.5817332304584917,1.567280999758089,1.5540837470603799,1.483951522630145,1.4888138629532428,1.511266273410536,1.5613439996630853,1.4985056956099176
1.5879871417803013,1.5579602810929194,1.5636322485911416,1.5447510940362483,1.4799521016639714,1.5013134838955542,1.5720764977607997,1.5510843888305381,1.5981421193652434,1.6538692112477147,1.5623427867888733,1.6867570417985436,1.6332668180230816,1.7317306288807466,1.6136582845909628,1.6643093094578438,1.5828927037275944,1.674908680651669,1.6792595442971368,1.612618172187129,1.6308038540918148,1.6168764903015675,1.6529010290460238,1.600332440202336,1.6144761617676997,1.623001494581776,1.6115973574470883,1.5896899349366418,1.5452940677770703,1.5530298854777143,1.5692308197292866,1.519470536102368
1.5919487292995163,1.5832748331408988,1.6199962521401647,1.5481026056664298,1.4953340909753725,1.5772744025317933,1.5733974745101964,1.51927603828304,1.625583976052229,1.6264821052193068,1.529596249772401,1.6469272595070996,1.618154971672083,1.7154828029488869,1.5552261312553144,1.6498287245261911,1.579697695634986,1.6961082216568706,1.7343170092265094,1.6603254803260785,1.6738223336275582,1.6089582356364165,1.663323632865855,1.607242522111494,1.649381677287433,1.6093060788419642,1.617384141454383,1.6064829411208323,1.5569207327080603,1.5360792525241798,1.5985089296415844,1.5397652385210596
1.5531737252337556,1.569430261975105,1.5669663729474745,1.5423028328743384,1.4843941987053115,1.5557648465359093,1.5262524289362496,1.519094392240174,1.5929189243423467,1.5952030726235928,1.5297621609736272,1.6440935844668532,1.589194040854103,1.7079093422242944,1.5580004239696927,1.6424364708154178,1.5739791028157433,1.6520545661043393,1.676014571271728,1.6191291941699069,1.620607344386194,1.5684666908287959,1.614858280734974,1.5582742397008749,1.6168221923558794,1.583092688670593,1.5940403752364305,1.555259711097402,1.5419151343898094,1.5182957526164247,1.5719725978229688,1.5099095076971039
1.585827718355121,1.5887088232747562,1.6377813811040343,1.6299691808569665,1.5482699499457167,1.6007008955704143,1.5759095703476316,1.5034666389720182,1.624385366330242,1.5753259677276186,1.5086380636353283,1.6117241688636954,1.6028169393787661,1.6703733718629796,1.523301865793677,1.5846304963786972,1.5229064362779021,1.62523046429608,1.657149888647651,1.6141130292183954,1.6364642840847548,1.5665215762744518,1.6501043357549836,1.5804420604085458,1.6512044761293927,1.5828479988322743,1.608094946547854,1.54585682108782,1.5489249702279355,1.4582370049357394,1.5997036888238199,1.487961062806213
1.5356097176785548,1.4903013753520415,1.5549929941954324,1.519163822034315,1.442751523562221,1.4658123021776632,1.5611081966563105,1.5022181565078503,1.585788261307365,1.5945982976141173,1.5092682936972686,1.6270238332974076,1.5865670806362577,1.6754445060577665,1.5148369089053682,1.6124045967478844,1.523095913678523,1.6476809991949393,1.6691252461649602,1.545814433670631,1.6306510052114045,1.5960567010729514,1.6782081829737174,1.5063915885467756,1.6034678406441718,1.5845400915971732,1.5521075183174742,1.521065481362364,1.5202746678199082,1.4843619204094056,1.5487463047019894,1.5274359736524394
1.5399676518121839,1.5220053041880328,1.6466824341376205,1.6063755777330493,1.5166844509265571,1.558024140150237,1.5555520359158062,1.4431610939232262,1.6229113470484655,1.5391835459184264,1.4371065673515875,1.5840263435994588,1.6188533308395832,1.6333792682398658,1.4793414951056723,1.5827647390841664,1.4950323179645706,1.664991581688559,1.6870041143577588,1.582249760015039,1.6514201106010369,1.64416214867312,1.6700574274331652,1.5641893733415673,1.6222705861031654,1.5683618994075468,1.5557465951180975,1.5566149895868542,1.4982255610051882,1.4262440939577699,1.5553374066817085,1.5437409905149235
1.4614284029967979,1.4207691720206774,1.5752884949554846,1.5102755045791827,1.4451921660946674,1.4645570742832628,1.4929728594372835,1.4504397352490221,1.5533753118818345,1.5160025579017922,1.4343483609266434,1.5682585822453943,1.5665208544433036,1.6831901815066903,1.4925378920525323,1.6195003332231617,1.5022104807187062,1.647378478503773,1.641713548820141,1.5032022141630426,1.6177427868689487,1.5822657069196844,1.6220823473703403,1.5089809271116517,1.573900182565112,1.5007482566937191,1.456190793387798,1.473475012397405,1.4151382381958393,1.4231499590552543,1.4567400825831438,1.5103430333665002
1.5081260607757396,1.4802953148963514,1.5978699517841903,1.5879821074996936,1.4938210552916609,1.4566597389766016,1.5552472912949,1.4488980456068872,1.6053430271910345,1.5561770578832217,1.4401253014095141,1.5618211208221726,1.5734630218358208,1.6035631078091572,1.4199127289047646,1.5546545973880264,1.4336074457389223,1.5942458292662551,1.585712516580667,1.5737043352312234,1.6293653698344033,1.5796571176913041,1.6345438602430202,1.5279468781204604,1.6206062595558843,1.539196481724155,1.5560239886409841,1.484719047637134,1.5025799759428735,1.3963929439176326,1.512863101041186,1.463254831967646
1.4590707711715831,1.485773338476458,1.5857111884944504,1.5680260259494194,1.5136773668914498,1.4841604661762282,1.4882912636057457,1.4718280072656849,1.583304144651107,1.5454983577561143,1.4132518988593326,1.5538153385480247,1.496195367521387,1.5235339296313515,1.3315379368361593,1.3715028951843173,1.343820329949078,1.5218142437600402,1.5385990062717834,1.5152092014607041,1.587237133539937,1.503689746648609,1.5986785348718087,1.4998426764289652,1.5818147127838666,1.5198766619677135,1.4903128352433515,1.4552619600444916,1.436750790419844,1.3342350692997507,1.4883411320392324,1.4387683035148722
1.4308155430897724,1.4668772251269449,1.5479129900305633,1.5451144640783663,1.5118879012118074,1.4698902953506312,1.4651704814804754,1.4033412430358982,1.6238247471723521,1.448384705588233,1.387924911997327,1.5713565465007486,1.5876985526252085,1.5644581767909227,1.3204550264021075,1.362404399431672,1.3233435419626876,1.5374967487368199,1.5014890093814903,1.5024924648699642,1.5609825514480091,1.541387653526925,1.546235764485278,1.4636514299331977,1.5287039332871555,1.4973114228552569,1.4261710681586592,1.4340777798872284,1.3965287188372097,1.320739298690587,1.489360132619697,1.4463863621752042
1.3617547646967465,1.417199491828812,1.5034708174648963,1.397059045313056,1.5017423298318051,1.4695571769469191,1.3823717831734619,1.3765128845838974,1.519507508778109,1.427091837011795,1.3124165180569405,1.505171724940504,1.5220392974661143,1.4566989397104964,1.2967894920447958,1.37864846093289,1.3348719115604752,1.487244448139452,1.4627116797034772,1.4476749141927707,1.489982894442749,1.541328806578722,1.475937897904973,1.3968499648150707,1.4803316620948974,1.4180127123769655,1.4003502922465705,1.369012122431584,1.339264282064484,1.3136922756311449,1.4246003103810596,1.4027318837036735
1.3925529751637904,1.419212097380038,1.4709397724029547,1.4288908357310124,1.4926698470126876,1.4637861624705468,1.391876147368587,1.3971009297253978,1.527886315208977,1.4054994476192608,1.2914649768253452,1.4988501177832914,1.5781539216946159,1.4706277085869974,1.2642009789629827,1.3907700889326593,1.3446165647726194,1.497565741030874,1.5002547390610113,1.403622195925014,1.4525020652770655,1.5379110882242017,1.4807857543164797,1.3459420912449052,1.4259001082335792,1.4097654118393084,1.3876967648678318,1.3371451824370366,1.3847230342704175,1.2660394141316984,1.4376447824227128,1.4326261842130052
1.3714047864579106,1.3881118922833127,1.4158777260488493,1.3702379015915742,1.4749492234280115,1.4209297042440754,1.4376351532520038,1.4183774088833014,1.4589417138256773,1.439185003601613,1.2704156403190396,1.4588938117840478,1.5089834790657128,1.4539895534391385,1.3399112466615473,1.438231666428036,1.3683633971548612,1.434695458217043,1.4520887086150833,1.4005792595364517,1.4114695886814563,1.471886542168464,1.4615768824178137,1.365239298812461,1.4170254953465395,1.4349189378103413,1.4058346379932272,1.3390193434259627,1.312716122394048,1.291981887984566,1.422662952194355,1.442653562517646
1.4105330580307338,1.4175843388291296,1.4350104087232476,1.450846632303536,1.4495633309788463,1.4175733707930869,1.3974244783339083,1.4129760108011447,1.4952867247220962,1.4098000157940072,1.301620527100648,1.4266500705314813,1.5254631479548484,1.4315581735839051,1.3582790971529122,1.4645010346333458,1.3634588957525635,1.4311272419632541,1.4638554240458805,1.3203065385283925,1.4005124947850731,1.45320595886846,1.4693261475919521,1.3757508788232757,1.415214302083946,1.492851559597183,1.4473834980649172,1.3613592293165127,1.3649434450203495,1.3409316359189565,1.452740273524443,1.4654057130206684
1.3922707615561016,1.432216814120601,1.5302104412794733,1.459860762085159,1.5259041379310252,1.5475711754136203,1.4513372730001266,1.4590437636834233,1.5190522898940115,1.4403211924524366,1.3388019725176594,1.462281035086214,1.5066893365158989,1.4579018726410737,1.3427124729628774,1.4820315909541717,1.3850997328558265,1.4501450561134899,1.3892981309127292,1.386888397224271,1.4366564910188289,1.5101601798454056,1.5052141605580363,1.4165629726540465,1.4203858056438854,1.4142522044715902,1.4056072580042291,1.355313245769505,1.3537574518055904,1.3246808653870583,1.4501658210594595,1.44980044612975
1.4443906928266796,1.4651905613901584,1.5458406952492407,1.5165869073117606,1.5104756903468712,1.6013158296202121,1.4748761074503454,1.5319442754822308,1.5688268807963497,1.4485853143730902,1.309767638166447,1.4376007147057195,1.5794865801352604,1.447075807380601,1.361231044757664,1.460274194356729,1.382709887086032,1.4352413191695634,1.473146216411422,1.3533580716685634,1.42581439449748,1.52765511066764,1.5270791275689948,1.3875707347687745,1.4521195263201454,1.4723053112612086,1.4559537853219293,1.3917351040343802,1.4110040949305622,1.3840806077241412,1.4820070523448317,1.4951681887169432
1.4515423621906098,1.495540947869501,1.57435386237395,1.5370496504854774,1.5508825460440687,1.6162348491588978,1.5136437819261424,1.5341034942014677,1.5274893976116726,1.4530683556101016,1.3049920493254015,1.4781430932973714,1.518657361860269,1.481492683799838,1.330042958583899,1.4304814680652538,1.383326646220904,1.4498499021557263,1.5014433381387886,1.3746649440646799,1.414047089304304,1.5355367796870822,1.5190177219657444,1.4427254538278858,1.4739819014565148,1.5014569253228942,1.5090498944249506,1.386232717097931,1.4421806595588553,1.4255335529587665,1.4942748013144063,1.488550733246085
1.4225688239037375,1.45182014211957,1.5098310326739046,1.5406579399246356,1.5206857778519511,1.590444995480232,1.524630776266077,1.5306615555176912,1.570702406508374,1.446497241089999,1.3305636005766597,1.4692947322090968,1.539584411468869,1.5085512851965204,1.3524973222007055,1.4449809130466855,1.3867522394963883,1.4423046097926748,1.496405131572887,1.3550495639760136,1.3662401772527903,1.471880482609646,1.4830838354140006,1.386298429966943,1.4372991216011959,1.4625634774582212,1.4456022475803845,1.4092402127831265,1.3829209206873307,1.4306581516946186,1.4640035891864274,1.48751965137226
1.5435108615822208,1.5154032597390323,1.5597446364653123,1.5386271476249156,1.554494887602235,1.6352545500799052,1.6040320568506716,1.5543550700977387,1.5440558479469506,1.517732236203371,1.3847153445922429,1.4836157500775824,1.5513006240096103,1.5080421859698017,1.4175030984438834,1.519590536226949,1.5117266008004329,1.5594105629930122,1.5207666941941111,1.4647824334329826,1.5059737699683198,1.5764486677343357,1.566292634897484,1.4872243063965591,1.5307418102843124,1.489563168493748,1.5396710718599098,1.4911443692979525,1.5199897598009227,1.5030817539205645,1.5533619835168233,1.5326721943406383
1.5412228225412556,1.5333652858114675,1.5739288313296864,1.5633611724355783,1.5829378152503462,1.6036132246622687,1.576994341726239,1.559178112551554,1.5678546304442613,1.509876916951158,1.4119321452911446,1.4682831420203049,1.545888892250676,1.4685145721471864,1.3896822506028563,1.4490627397880256,1.4091731490866453,1.4810972939544595,1.4925438557447759,1.4323697807034348,1.4698310114971582,1.5524473872757303,1.5480758391351113,1.4926656691708076,1.4967370534918396,1.495050056594568,1.549787103849176,1.455706109759989,1.5378917425583927,1.4794416727831259,1.5836693734602565,1.5043717056097472
1.5528734304847165,1.5522370033079322,1.6112362572209522,1.5794517160413235,1.545842744512233,1.6396921089015253,1.5915281756588384,1.6349128121773515,1.5275995463461682,1.5506382507641225,1.4148431309975997,1.4743776266320587,1.5671005754907152,1.469739980816485,1.367937317844217,1.4452991618709514,1.4470470683270518,1.5264571254157042,1.5422557720263217,1.4790443109809317,1.550442357539041,1.6073088442893078,1.609597122628579,1.5137655722391847,1.5324708650512833,1.516873264410277,1.5591956124481348,1.5186917215850189,1.5350834004821754,1.5045535012018658,1.5514945501841173,1.5287211306695618
1.507559118831231,1.4953462764491936,1.5499413561973072,1.5544728979336195,1.5507258882073252,1.6035068219589883,1.5884498120545232,1.61172633510905,1.538634827945119,1.4521290698150662,1.3674623714067262,1.4374177955236032,1.5645786881955384,1.4867317829296909,1.3907216937714657,1.4582901206992258,1.45139199104494,1.5172613926915377,1.5222822508184346,1.4376007901897923,1.506290057680575,1.5920386065793226,1.5750041604957365,1.4983883261222712,1.4934473663186785,1.500734922372926,1.5120099995830267,1.4533029716075503,1.4788403298766415,1.4665600161600416,1.5366561346311074,1.526950234506322
1.5465910376356207,1.539158370815324,1.6003454032249649,1.5907724209894205,1.5521941870386293,1.6505667373700545,1.631869889701494,1.6085373686203803,1.5563635039009815,1.5705546319605355,1.4833221242524437,1.5281656727446191,1.583654905145035,1.5496129038345818,1.419721204121254,1.5551413211535978,1.5869798713734173,1.6771833466618258,1.603786701621774,1.588007788995687,1.6062306925709042,1.6252537339543198,1.6253785375777003,1.5181958313200663,1.590359340060217,1.508164576392322,1.5494067599210164,1.5161457647535537,1.5367531803229604,1.494386727413697,1.5447728065854456,1.5131082025792715
1.5418171026176068,1.5235523132584228,1.5766659876261946,1.563935409001809,1.5307093012401847,1.615105737290252,1.5888835715039082,1.5705073190275483,1.5836865355433243,1.5495276253440045,1.4129994062204,1.5410193221413284,1.6442563729080437,1.557634651562274,1.440710683538186,1.562283142207417,1.550096508271953,1.66886425145643,1.611726939050745,1.5739894158714072,1.6138081429106037,1.652943349999356,1.6349686645284716,1.5252169737375392,1.5422558380905143,1.4850210749209662,1.5240704426444545,1.544413978372597,1.5140035132228016,1.4956211319041697,1.5202942428552209,1.5403413214238735
1.5247220820411207,1.5336122001449914,1.5456883240879165,1.5367193287325627,1.5470444753838162,1.5722223361382373,1.530403927359711,1.5086371986448692,1.5873649662571767,1.5155217655991275,1.4301265733670627,1.5322659397568472,1.6020343023289525,1.5214664301909924,1.4714234774586465,1.5452452795475509,1.5368303153554925,1.649496038764008,1.6138167667092682,1.5381819633598406,1.597731225827425,1.6423151716355202,1.6310104051405112,1.522750734391405,1.5208188656017116,1.5158577957466823,1.5325523155546548,1.5142009146912976,1.522995088547879,1.463889446479357,1.5428264723634717,1.4889938192941372
1.5329527531986222,1.5213413719000497,1.510471410135004,1.5219799316625413,1.5471387846818252,1.51033215326255,1.4944315102040906,1.549179893659399,1.5582329619460444,1.5101690910302685,1.3934092707057246,1.5221100644927084,1.6393316684764965,1.5221670339465294,1.4088521185445053,1.5152926132514257,1.5234964156027937,1.6317589002716981,1.6406430925862214,1.575657815443579,1.6263430481670365,1.6601208056773604,1.6533876283348325,1.5505406483051318,1.536529643052663,1.489285542153517,1.5271759504532407,1.522420767426505,1.51663943965623,1.498045507392448,1.53270355925656,1.4971931897091677
1.5136463504254656,1.5262085720966572,1.5449523143339932,1.499730785396251,1.5601081477765748,1.549161714807728,1.6066762688554614,1.5383298116001631,1.5427299468814666,1.5238918917165052,1.3985576436905194,1.5076732521354668,1.6292692840447498,1.5075552730192487,1.4466966309681188,1.5459670326602541,1.5796491060366298,1.6840918811226366,1.6356875212308193,1.6065679647028408,1.6470295351648632,1.6734317319558993,1.6754002324263186,1.5709184348089227,1.534858210352875,1.5235084132213859,1.5209145355962153,1.5260119146038646,1.5090506104061594,1.4582199343590596,1.5380738066564816,1.5275142892599471
1.541266326113183,1.5393369159254453,1.5335820434359275,1.5261153478189988,1.5510225369063952,1.551896189167594,1.613830094592437,1.585091644543815,1.4528056889434815,1.5646778270599568,1.430519805151871,1.48137137460992,1.5836036612033413,1.4988789434913692,1.473059917681787,1.5377693601850981,1.5563836270085738,1.6315668771661047,1.610329129664245,1.5730076736738245,1.5980428607825892,1.5988290272544978,1.5916837097877583,1.578580119802138,1.5472175614058656,1.526628846170995,1.532084851154741,1.529290812029971,1.5372344387708117,1.4916828605853152,1.5434976636087507,1.522972059781682
1.512932715196569,1.548893155070811,1.56409484836198,1.5722410484831872,1.5929417051307382,1.5741692622129213,1.564672767177536,1.534311177660222,1.543876849011045,1.4677253070601401,1.3744085829871653,1.5158770635678482,1.6557741267732737,1.5316742299170876,1.4559854420535912,1.535033013954777,1.5371211902416257,1.6417164308719205,1.6374141861746003,1.5498786444307417,1.5860183225375482,1.609493202931145,1.5837748856949716,1.5311619714334768,1.5000601057061376,1.5254094604456396,1.5192902546197193,1.5104508453143066,1.497683512990196,1.4423027409979303,1.5433493936801028,1.5203296019822994
1.4776537041228892,1.4989529521045326,1.5331029860162084,1.513212797153974,1.5345438398844038,1.5248870548774662,1.5678729743877804,1.5395074340310564,1.51523947287681,1.5075450874572809,1.4417157223616262,1.521849486417831,1.6355975749874903,1.537696340648525,1.5283311948210556,1.5555856620482864,1.5373303037783004,1.6307895152877896,1.6136884586384943,1.5389406858084589,1.5784599501406273,1.6406114005123489,1.604154831377633,1.5498690601131837,1.5112239690875033,1.4885655737994914,1.4775509530196123,1.4971286423462145,1.4532576564574158,1.4721590969453606,1.4999653211453208,1.5207929391951354
1.5008009304996075,1.5248525096923717,1.5466988080152257,1.5384487800531867,1.5708832780869029,1.5452234566572267,1.5558852128561385,1.4908644170384404,1.545148035308279,1.5296791158166445,1.496063739958229,1.5841430260321365,1.6781097969668808,1.5988416222620931,1.5666257536264325,1.5720224282013078,1.5550240705658827,1.6534383150219787,1.6436047003636431,1.6059059719547506,1.6327120838669331,1.6476166545869761,1.6544184736062628,1.596585256826683,1.5397470560087518,1.486965111262653,1.502724876536224,1.5020336250847763,1.479218102826364,1.478498001520789,1.516161124859444,1.4837154478819514
1.4751240881706271,1.5057945339136,1.536721361529419,1.5276821351444678,1.558959351187469,1.5433165454586277,1.6464062955791456,1.4899111343364133,1.5561614599895839,1.5739905157893062,1.505344289145722,1.6047706914727373,1.6724516303691725,1.6236188632029718,1.5290239319257943,1.597019619610759,1.606653148979954,1.700104517107856,1.6745322909817846,1.670184833401708,1.656260618197786,1.6510917477581388,1.6525681012787214,1.6074419088232783,1.554507268530729,1.4914138385712283,1.46925143934303,1.5062660480745889,1.4521623537558621,1.460624761754877,1.515142491993057,1.4821927974350924
1.4753443317883193,1.5236950771008826,1.546445345818309,1.521735894133951,1.5453610614487268,1.539628389603378,1.601077783296639,1.4842881869156004,1.5108880359368269,1.5297593494299904,1.490937676443332,1.563521411426324,1.6681157188293771,1.6050669738148853,1.5477584391494421,1.5827563790253774,1.5545739958205254,1.651750060994323,1.6460963588622248,1.5781026496055295,1.6158883645315045,1.6520119869473133,1.6379805929639097,1.5914787933046528,1.5216637322524276,1.4857556157724825,1.473206572195473,1.5119215149144556,1.4664066274081715,1.4547561633326946,1.5014310055642528,1.5194538877677783
1.4998392746116633,1.5186766645600718,1.5483566925220245,1.549960666183271,1.5543377434261472,1.554655033047904,1.6378598665978774,1.5484823637821226,1.5404846988896497,1.5047409231110287,1.4797664470351453,1.5245404790009394,1.6090572300983854,1.551704109952932,1.5111237312114383,1.555454938615328,1.5152010420102522,1.6037104451020674,1.609802429654488,1.5512032173986319,1.5807177807732176,1.6300821173265925,1.6061790097412803,1.5526670544153538,1.5377081854769792,1.5053956382714937,1.4986810261626926,1.5060826188396723,1.4801810278424354,1.5124160971454448,1.539611750756802,1.5207415527232735
1.4859910498485038,1.5094889408609529,1.5425175313300825,1.5608713319848284,1.546465240643587,1.5564256258861016,1.6045994973890072,1.4998156165602337,1.565069123218651,1.533937062655259,1.4973343313533638,1.579484192548611,1.6271397068550302,1.6169168298467491,1.5399142757932098,1.5566818524194612,1.5274870125256286,1.6142091045279374,1.6038637947513101,1.536613752514448,1.5666720404435655,1.626370860701793,1.627870952896901,1.5309147673076846,1.5442357360174352,1.48592266119033,1.4650182224211092,1.4847075866028085,1.4515029467068818,1.4347024643457142,1.5227496068369857,1.4702515818784438
1.4643794698486978,1.4366038739835056,1.503309490625927,1.5029734336149803,1.5122568423688907,1.5183791981132633,1.6547909320684977,1.4793854217696916,1.60864880226418,1.544953700827202,1.562716271542797,1.5875649576480455,1.6710305447291414,1.6277806913427502,1.5623712622915071,1.625741390507678,1.5910151766952794,1.6676839826185195,1.6509099607596436,1.5704193526188517,1.5888610965098313,1.5997366660745576,1.6207671567350448,1.5277608892637033,1.5502188473452752,1.4908617901125527,1.4426179794574858,1.4854971746515817,1.4265193724155063,1.4527195415068748,1.4962578656174377,1.4933532571813875
1.5392752755757264,1.516522143893472,1.5185631386121587,1.5505627298610667,1.549864577990872,1.5461781464769313,1.6156844788536158,1.501123844484909,1.5905859519748002,1.518434343929033,1.5207538206961901,1.5948618659193645,1.6598008758401313,1.6189534440148639,1.5392724995149214,1.608933504211852,1.5628642199175462,1.6567052891823923,1.664024029034367,1.5957041464836335,1.61267663552596,1.6321001570386384,1.6421605199024982,1.5565281523476742,1.581239674157519,1.5399037771272135,1.4868777243057731,1.5294537755575197,1.4961313553814428,1.510804666023275,1.5728776020884552,1.5479724614830914
1.5196651367152643,1.499550524227455,1.4994997307575029,1.5202870105793693,1.5152722968539,1.5274990067823169,1.5638296133217033,1.4818651806989194,1.6042927577087542,1.5166349099007483,1.522506579083599,1.5795033052369127,1.6562716439608742,1.5991637687713751,1.5317006994497602,1.603200698657396,1.5593679676419687,1.636073452700461,1.6307781180730025,1.5733127794001691,1.6055126998935825,1.620662463564392,1.6422858708632746,1.5538674570489746,1.5944489345357764,1.5186001819585293,1.4735691543659042,1.5639718037468202,1.470137508878783,1.4763674228108445,1.5165354269644424,1.5292209855775472
1.5594410804435082,1.5427602664713005,1.5165918993285992,1.5637495354546116,1.5283108127683382,1.5183256482776644,1.524323786350744,1.4451740501778547,1.6013198021859245,1.475765005339406,1.4729975040353305,1.5424426420865207,1.5936531496354966,1.562583918195103,1.5057878738840669,1.5757389577917422,1.507295740550206,1.593147487957932,1.5800520713979127,1.5234268895004919,1.5941124961666995,1.6032112425915157,1.6343043632462602,1.525643639219928,1.6123360118699825,1.5079776746328761,1.5069792556384622,1.5649314798435603,1.5134778930043833,1.5402569498718164,1.5790063305673032,1.453265670855653
1.5242739939421612,1.4982292875820806,1.4842964763341233,1.5035648431887259,1.4878665069612038,1.4906765795755796,1.540057723892745,1.482642788862999,1.6215322945685076,1.4783551978729494,1.4574932013805628,1.5312382622049512,1.6227908764220482,1.5415251500657705,1.4991435202380456,1.54031714256701,1.498756536988444,1.6107442303641994,1.5802432922652507,1.5500211421441707,1.5955997479536428,1.6287069168408657,1.6416725073125604,1.5138854622603621,1.6102991019830495,1.4976733250191168,1.4791752390097879,1.5251867104881514,1.4639091247970222,1.4652628831238879,1.5311087485188632,1.4956919007995186
1.5016592700837266,1.4814898956085705,1.4841504983093576,1.4999090084526554,1.5031802541158714,1.483608053823274,1.490891286162879,1.4712046770691511,1.6399200449939013,1.430262108684256,1.4318214782410335,1.5191967193043563,1.590603125290071,1.534863286186002,1.49091739096471,1.512865947089511,1.4666465278105956,1.578914868808757,1.5665578869372603,1.4994033134111346,1.5694863890175363,1.5915837434995173,1.600020202067521,1.4508475429845376,1.5421919561693584,1.5226190058405549,1.4633367084226185,1.4884666035579701,1.4523384646833273,1.4508522328320705,1.5700512771737938,1.53541874970853
1.483277799556536,1.4625009242257898,1.4656687018504242,1.4999790129846566,1.478398610573522,1.5010298658941283,1.4741702386013218,1.5089370120282912,1.5819680253423438,1.4205621552634908,1.4408692027311103,1.476438616423022,1.5741349340086734,1.4860625634438305,1.4980752395266783,1.4996859989751898,1.4528218159605728,1.565203893507575,1.5613831680793924,1.4840574754845013,1.5753175098749463,1.6028735974460324,1.6218981812233044,1.4647805364306645,1.5325508547312505,1.519249604222014,1.4371703864831438,1.4735702203292222,1.4298117051183,1.464793106288128,1.5287407642081101,1.5725033600612714
1.4371388042922502,1.4677901546686059,1.4650697400834065,1.52031352491355,1.5080324699041836,1.4802196808661978,1.5027836918212125,1.5114228763083666,1.5588892100873464,1.4902265515324251,1.4234261785172087,1.466221897415328,1.52954625936397,1.490056420469992,1.4647483966071617,1.4893801595494025,1.437097596770534,1.5360216917600156,1.4910913618624984,1.4773398699390627,1.5627284850190848,1.558495995096739,1.57820293343311,1.4671304676129922,1.5082124541680748,1.4697519408661877,1.409788411982343,1.4278420702032564,1.3823840862763086,1.3897726951225058,1.537722172189497,1.4518529410911307
1.4542818872385337,1.473021807789961,1.423667704855467,1.5181047530875424,1.5594123531614774,1.4901585766704726,1.465072136461794,1.5053299549039076,1.5923159939145646,1.4543959039328607,1.4661310681558808,1.4507192601494279,1.5268352367821043,1.4675221100119509,1.5053737107181389,1.4944298799083433,1.4283230381640293,1.5002652429527557,1.4914271133097303,1.4286807010543026,1.5344060307565042,1.4974263363401605,1.4870343304322222,1.4098799831108944,1.5006648545366743,1.4572430160598335,1.3984808269609472,1.4222735935147772,1.4036638877740206,1.4141248723981725,1.5399664792981753,1.4546491121187406
1.3896008628068661,1.4158051383162622,1.4181342731255626,1.4804232088267422,1.483089830267499,1.5177732512066249,1.4268660080258175,1.522226148683875,1.5956704583915184,1.4411633156207166,1.4461217366728338,1.4237185320272012,1.5397342085637895,1.4430246300419636,1.4854735140828441,1.4942543400929618,1.4578757762300432,1.556138505285849,1.5092663927199697,1.4816390227706169,1.5705220687163395,1.5286232382914537,1.4869589570451767,1.437098140449132,1.4576496826482976,1.4265039028118318,1.3788721554271508,1.4214978425408564,1.3758034221883342,1.402676379700751,1.486155135870545,1.501701545725255
1.4258460801748325,1.4413305998284938,1.4439740620996198,1.4570121370653513,1.453436223766736,1.4850422603867626,1.4290567352878722,1.518933392975694,1.5613668981749775,1.4367140516755141,1.393834471081013,1.4838718101051327,1.5218547572544248,1.4818083713620567,1.49424970220735,1.4618933877700169,1.4158622637661755,1.4783895469680648,1.5133198121348836,1.4761012936306857,1.57908016353706,1.584164658333167,1.5414782038723343,1.4329574862639582,1.464672729051758,1.4913661947773473,1.4189545069837568,1.4192037903802819,1.4151077149898583,1.4110239382460146,1.4927507822109871,1.563683536023597
1.4248422345471705,1.4405924334366011,1.4054899177659979,1.4264879202769332,1.4917756495647279,1.4096710261649688,1.4420640274973529,1.5134285264035776,1.551133647209477,1.4838411147663637,1.4574638550747443,1.4636798617266662,1.5623489752226716,1.4595990168078063,1.5060502350322293,1.4600740022940277,1.461556237862681,1.5398413433593805,1.5225082409431046,1.515454481265225,1.562703494593367,1.5954480768656123,1.533726953181476,1.455352280686936,1.4489112335527756,1.4337370290395615,1.385573532483599,1.407123850799856,1.3859973751388588,1.4430450303195057,1.4978301842709125,1.5017318776195572
1.46179387797913,1.461665097474118,1.4618097837479966,1.4838368148790013,1.5445781124666063,1.4565707850984702,1.4887007128238834,1.5357547370120777,1.5882037436407543,1.5135426909952807,1.4896665542096141,1.5020160585589621,1.5268247989655053,1.521169793826855,1.4887525669580886,1.4388380087491013,1.4286622199259882,1.5119587515351283,1.5647194976714285,1.478937838895074,1.5511851152376248,1.5527246879921017,1.5165314836665957,1.458494560481443,1.4715416916865156,1.4973591943506692,1.4208280278044108,1.4204808507430793,1.4402055356560541,1.4217668864339883,1.5280071484436817,1.5078137788641617
1.4912422199516067,1.4756320936624536,1.4603891071204804,1.480088665278774,1.5156925407584045,1.4822758021139026,1.423861830328686,1.5195231186936289,1.6051018539020878,1.520393293315283,1.5071881698377354,1.5546762816128343,1.5955007991647967,1.5790866253864544,1.5305956642637106,1.542628499495638,1.5072269436425618,1.577324860261134,1.594227248468957,1.534286848647061,1.5867186711510266,1.5521585934484932,1.5355547629110247,1.4541916727948687,1.521301551171589,1.5035433066846713,1.4725417787045065,1.4674255211295733,1.466011797192502,1.471394741071423,1.5145370557908027,1.5080125625255791
1.488294949869327,1.485925440624871,1.4453108472270897,1.4802800634481452,1.5190190803703576,1.4628151763990402,1.5038440035715204,1.5169779711557376,1.6408209042900423,1.5716695220224526,1.5760943280942556,1.5778197710061788,1.5915458495120591,1.5892826647594755,1.5371854330348012,1.5670178390641063,1.5447481139528625,1.5849419307276662,1.565960105921477,1.516952720486152,1.5634627447920864,1.5372437885305543,1.499180158591199,1.4217035224950823,1.4837397338301652,1.5502362905252478,1.49231980278115,1.4611891210005479,1.4910824933472226,1.499282111800846,1.5613414916100594,1.4953499794631435
1.5497959467937095,1.5511437057440909,1.5491610423590616,1.5323417258066068,1.5740333780782982,1.563990931928105,1.5866543375165971,1.5615296221605153,1.64669423905067,1.6252401721543506,1.6044711642008698,1.6009462423769354,1.6159838922279253,1.654948042502063,1.587833286764095,1.6506404160898889,1.6051793865082593,1.6293374093541946,1.6199073764666714,1.5849926655295317,1.5996859852635517,1.5888710654123797,1.55985489341734,1.5057491820342208,1.5633901969004254,1.58755171624932,1.5270906159302557,1.5198388030516414,1.5212510430945958,1.5416467194371017,1.598786691844204,1.5441749616164746
1.565882782680652,1.572305812390846,1.5844181272194762,1.5601607567392408,1.6262438112777917,1.5710268420710218,1.6264030202240105,1.5809602554528712,1.636142988670778,1.6476613554511461,1.6164748964361757,1.588575147067402,1.6136081903316926,1.6262098460179497,1.5566972351911155,1.6270519954746887,1.6135037379978223,1.646891058170848,1.5989053474004378,1.5972115231576527,1.6013675372069824,1.5800676291228215,1.5475078891741487,1.5119450327015802,1.562157278037781,1.577044312909583,1.5339228922605672,1.5147308842341134,1.5071524062031723,1.5156864769061802,1.61613308820966,1.4998144812250491
1.5932719697040063,1.604837435011589,1.5959362700972373,1.5768425825355155,1.6497509811645066,1.5863377681092137,1.5749067983655056,1.5460645437711402,1.6708505718065993,1.594758253656007,1.5925191261139438,1.591083394848332,1.634603866885658,1.6529530088008253,1.5852817777225974,1.6680424434611083,1.6266568723933947,1.6700146853092805,1.6380137705451576,1.6052954167204798,1.6076977368137766,1.6052778586228014,1.5634141633982381,1.5029793490515602,1.59309158803258,1.611993130486614,1.578029041187852,1.5660033655472945,1.56321854185688,1.5612868585269954,1.6381174962079024,1.5266021297057228
1.6309586676519838,1.6300759570268994,1.614255247326563,1.5820301493755697,1.6469059735717682,1.6101246356398753,1.606642190385839,1.6079003623160455,1.6720152004063191,1.6294641051976622,1.5815250160016077,1.5989403680780203,1.6359943461097468,1.6290575997274497,1.535315894144409,1.622195108923653,1.6028422325495109,1.6213108097611244,1.5810283259794233,1.5986631677348193,1.5806389366380347,1.5727621663424658,1.549656394338461,1.5284165646240495,1.6186567016225477,1.6487042317705898,1.615816050641055,1.6083791910238876,1.6035372557897742,1.5613215496214299,1.666851848365109,1.5553895937359372
1.6091038623482394,1.6081707571363155,1.6063701054784025,1.5698800559034762,1.62618695764903,1.5847541540545471,1.5797859414750595,1.57555457846632,1.6757235059375084,1.5929809064505394,1.5664116211117283,1.5752694775760312,1.6375921106380462,1.6474875368633608,1.5456641522922927,1.6456185597962745,1.6007565922880846,1.6398013099151696,1.6700415653209217,1.6062951079040295,1.585411789737265,1.6166898155350904,1.5402949027953066,1.5017847730830345,1.571613138641425,1.6214005829111027,1.6019704662751235,1.554624949711504,1.5614394597771466,1.5509672769555056,1.6474141107000428,1.546843743699332
1.607536734187403,1.6033841953272001,1.6198361828206949,1.5130706988721678,1.568497389441026,1.5790618259409441,1.6049468835782048,1.5568779198660057,1.6066610828293415,1.6264065272892392,1.6103243383034358,1.5643502312672337,1.5975871809888036,1.6205041740012676,1.5711954768520247,1.6506967098772571,1.608020384397141,1.624502021940551,1.6094622020565594,1.581192346424005,1.5551432948516122,1.5849998425809235,1.5402908936089301,1.5264764060819473,1.6014963683762844,1.5985377816203878,1.5855579712696477,1.578150256850315,1.5607677654594225,1.5648162916623845,1.5984442954331421,1.5221777665012868
1.6104681263473841,1.6107133579343647,1.6742110876983065,1.5662372253112733,1.6190825787926229,1.617136415830529,1.596998395806097,1.5509832949671336,1.626723007703349,1.5886618823355418,1.5506699021513919,1.5692809952572955,1.6459702221345929,1.662352053025959,1.5518366820680696,1.7063555104858108,1.6586792575095841,1.7086607727890548,1.680330228044314,1.6214259700894371,1.6144275306486222,1.6250268380524744,1.5706520689081995,1.5195296666180917,1.6160881270569516,1.6374119641430895,1.630834739529436,1.5837949574144239,1.5715170201542024,1.5348484703438887,1.638106928468358,1.5554845879940162
1.614655383711701,1.6531833343838191,1.6946124950273036,1.5986380864245808,1.6632564219413957,1.631290403104671,1.638094988005799,1.5728224567364815,1.6155760305495157,1.6314606836829524,1.5701656371437107,1.6074947584648878,1.656853799128245,1.6761663545368926,1.5614867740455751,1.68877972604355,1.6219657724294756,1.6826341940206682,1.6710303547602299,1.5913205821397742,1.6002324136324972,1.6130959406934129,1.5755882095491263,1.5341855863850744,1.6115106196701283,1.6214676659102212,1.6148613071910825,1.6123220682670427,1.5688184907952147,1.5475757227924696,1.647540134949666,1.5265907593891472
1.5753762418384927,1.6072516071123757,1.6475533970670213,1.5479467596505916,1.6030410435314477,1.6061216745507878,1.5918737237799816,1.4998923421063202,1.6306486644085596,1.579551178628927,1.4962272259870826,1.537596977803727,1.608246304053954,1.6221129379129142,1.5241176180353793,1.66405058401337,1.6150786168002473,1.6546872002272022,1.634539267050144,1.600948296948066,1.593220851187351,1.5836265667498384,1.5591334519650373,1.519129134100396,1.6015155999432278,1.5676281875720643,1.5816057072877074,1.5769418915759892,1.5212681064869655,1.5024770973188109,1.588424179954097,1.4969838310663117
1.5504157596463417,1.5663206513933372,1.5829170563752968,1.47593071135901,1.5539987983235006,1.5260283625335362,1.5595201281554312,1.5321754444792512,1.5751926455245817,1.5385599989266519,1.4361029537772354,1.529492704974082,1.6080689287425103,1.5802570509391187,1.4684878789285625,1.599302124972292,1.5779865982567967,1.6580041299536843,1.6528848644518381,1.5822308958678155,1.5504995243051751,1.5947479284493382,1.5305755403537482,1.4874736706141432,1.528569142523731,1.551299082269258,1.5395045264633502,1.5346936883425168,1.5189088349840547,1.4382324747289763,1.55920422856448,1.4971003460437016
1.5328083388402591,1.5230973786258952,1.5188973714388376,1.4489835721413018,1.5211301404355733,1.4750425493739454,1.4914307004396623,1.5211589203063538,1.518450737275038,1.5188724652616896,1.4630409150494421,1.5040759372494055,1.5742306279890441,1.5426328624836196,1.5098829694661051,1.5922762174884306,1.5332852878875347,1.6202561466624164,1.5620335044477418,1.5707213004274436,1.5100932448455444,1.5844848403457392,1.5610118193229647,1.3938781454889764,1.473460825777039,1.5018874643427642,1.5368753835615694,1.4592468944955463,1.5185008031365417,1.4609787450075473,1.5433478040048365,1.4865710796870968
1.5894922139327778,1.593225048243557,1.5159315554344108,1.5127354868391265,1.5549413822044214,1.4492304187742868,1.39534419084601,1.4782316318337723,1.5672300034148663,1.4493685031620345,1.4412064170980396,1.5264178589260702,1.6443620625519582,1.5903554839424725,1.4627430019399905,1.5877715122869316,1.5907908134080884,1.664959429278335,1.7015141909117422,1.5877779630434508,1.642039957539184,1.6603900508079015,1.6714993758533652,1.50690199705967,1.6163778051684436,1.574063001158282,1.5962156388032946,1.5466591751791576,1.599649020390694,1.472829542302642,1.5913620150455454,1.5238092045213398
1.571524846294798,1.571740193441738,1.5551821452219212,1.5112214074962997,1.5685047674511308,1.4666378574857348,1.5161089287362057,1.5256784950256228,1.5977361745658636,1.4954021933501889,1.4448971115826639,1.5321727464469064,1.6287604954893247,1.586229147820141,1.5321717204360559,1.593593150721385,1.5728862619705701,1.6409526691598328,1.6454365077792283,1.5751771142872872,1.6465623578320954,1.6631870341058346,1.6903324252526442,1.5350603184192524,1.6129205070182158,1.5868246202352563,1.5573106804024626,1.5526750537165541,1.5763942184334176,1.4149429075296545,1.5799939542658203,1.5201208487813604
1.5609454688418092,1.5913418102957808,1.54068648672012,1.5423797213665191,1.5926065071993618,1.4795873148993473,1.4906345964615868,1.5609302371493463,1.5991287569642934,1.519022650563275,1.4310271747986598,1.5547485709876196,1.632661274353962,1.6045192147825171,1.5128392433969593,1.6235666458478266,1.591014118143648,1.6596434040775603,1.6413284109035964,1.5681738328863637,1.6311513150085477,1.6350428372330688,1.6642555050405894,1.5413793228864037,1.559896544229913,1.5455719268369272,1.5521952981838103,1.5112307245196426,1.5795386809199639,1.410367403897875,1.5983072993379028,1.539447274950041
1.5167130757469347,1.559288745575227,1.452192480290101,1.5481119614027286,1.62209421633665,1.4662028171159198,1.4137195049473952,1.5027593627617133,1.59760225786214,1.4469830474755168,1.401487112517498,1.5165642536473096,1.6690246779138347,1.549991500405202,1.4983203786628647,1.5877230159927158,1.5896290989867954,1.6765536929124865,1.6127035834726904,1.5447582950312007,1.62623136871884,1.6569480356539257,1.6649429778588294,1.4902505789619243,1.524726552198114,1.5860869884177087,1.5232640150785965,1.4646513902029958,1.546601811823176,1.3976976767509257,1.5927810743025488,1.496459713475585
1.5306315310662963,1.5800004461342319,1.496129797540871,1.5521441013819757,1.6368994671450119,1.4920937259214913,1.484734977091518,1.611144489565503,1.691068576901672,1.5488925419691277,1.4677861919744246,1.5734066814476362,1.6764286255716014,1.5749725949219262,1.520027261959112,1.5839561254593773,1.5591167302816908,1.659179751021306,1.621601657127583,1.5529971923280734,1.6401092135525164,1.6861467097355123,1.679641982584043,1.4888158492288746,1.5480139731919869,1.6119205634299054,1.5680021692373927,1.4629556604325538,1.558341658737933,1.4367122684013358,1.6362122379019437,1.544764008866254
1.6068899232499099,1.6468146639934862,1.5268128352239436,1.6189755985322585,1.6912554818034151,1.5284735269793257,1.496180905629361,1.6153907552898743,1.6684287653522414,1.5611001428356965,1.4806519689575144,1.5997085084166751,1.6743361842477553,1.5897355249365224,1.5821765525819607,1.6243160128988414,1.6051698551361322,1.6844070049887225,1.6678687409645392,1.594433754751672,1.6861433294376444,1.7292121838999694,1.7382627828062893,1.5638941767696486,1.614171233881663,1.6338754296053841,1.613289582778776,1.5353496190305775,1.620039192191359,1.5163099005628742,1.6801554582452773,1.5376326935024365
1.5760295849150179,1.6117861303912624,1.5256674004878303,1.5882624764418842,1.65003596576791,1.5715677828979495,1.519764551926296,1.6155219656856918,1.6563203551952574,1.5707686387090913,1.4671693769310843,1.5889524484392037,1.6802753336852712,1.6074696283575278,1.5855808649930339,1.6361526892799805,1.617213836561937,1.7084816255758526,1.6819487807602598,1.593378669435225,1.6889970606222124,1.721919850491284,1.718877376319721,1.5402664315347194,1.5933035882832567,1.5921695163209701,1.5808517132326452,1.5167206185717472,1.6014059261899642,1.4574437132262013,1.651621114395069,1.5331887111820792
1.5838319917328083,1.6205220596020586,1.5604307115363654,1.623648214958752,1.670706406367538,1.6038286750829327,1.5551856684247247,1.6730114551505078,1.6397084423222292,1.6140789998964622,1.5059081321616485,1.6252637615524488,1.6704306299389435,1.6451984043623598,1.6046062757663642,1.6552036033473034,1.5844181554530379,1.683382715078197,1.6628515495441807,1.5807048810688844,1.6394884180468128,1.7069773378124633,1.6891134196519195,1.5445303907074168,1.5601496299579352,1.608697304664125,1.5919007502678932,1.4941010991335248,1.610105639917961,1.462796675977536,1.653738103665068,1.5955967720042685
1.5738690563104922,1.6029116198229005,1.5697027484455803,1.6343105848496384,1.6810108068887974,1.621196749092314,1.546982942085677,1.6860482567665973,1.7133389812413977,1.6464602509867952,1.5252344385895,1.6611729784676819,1.7049392137792492,1.6621856328790074,1.6118851424479939,1.659931909656179,1.6114131933158549,1.7119153283728776,1.6803250202109241,1.6019533396748877,1.6667074752581479,1.7109821617575593,1.7138998947086914,1.5264908343475387,1.5699216206098092,1.6256945566155572,1.5801593942272347,1.5084121085031703,1.582144839858046,1.467728926575207,1.6506974218519601,1.579736523079336
1.5856408729347273,1.6176033748094314,1.5930124000510673,1.6610648445088696,1.7034196980627865,1.668121421326446,1.5682190470091566,1.6890808357179516,1.7088399355537336,1.6520639862823874,1.5432583898187973,1.6549948158571297,1.70220866507524,1.6540919370271931,1.628850446256175,1.6709198729230557,1.6090710449929138,1.6727372779894287,1.638201180626218,1.5489575045059896,1.6353755516441193,1.7185277653024431,1.7005045391896076,1.5110826715887655,1.5607565891905402,1.6285937123631578,1.5973297104021111,1.5131023773243488,1.5893275696183489,1.4792862760653673,1.6705520048060198,1.619182171442651
1.644432947538493,1.6647552531980923,1.6229306979890585,1.6751887311046376,1.732340080833406,1.6157980114138357,1.5329354288590868,1.687870997746074,1.73806468014337,1.6152618994560621,1.487123717454136,1.6541813629391402,1.757471630431713,1.671309758623691,1.6165886534157958,1.6908310708513246,1.6408169866681737,1.7470323578762799,1.7595458105079367,1.6450430764554282,1.7540579806496153,1.7838162679059917,1.8097823509226332,1.6180170302727122,1.7030791610895184,1.6775164322450302,1.6423700909771153,1.6152607835456756,1.6261232621134771,1.5475339480597483,1.7071799978665667,1.6430607781417748
1.5773749514906077,1.6237731955648,1.595101702573637,1.652576652963725,1.680327116427412,1.6509578831442868,1.6023717479466595,1.708226254317451,1.6874724280273883,1.675253156142412,1.5541733680391172,1.6855713008887523,1.739114794070114,1.6738165757188885,1.622785575028304,1.694778517866419,1.6678024201210049,1.745792350970512,1.7387246823688205,1.6285098124953588,1.7214625383377211,1.775241373167287,1.8033434369737777,1.5958629501122983,1.6554729990437589,1.6342440838049934,1.5693219861914032,1.553370179280234,1.5757774975938414,1.5237976118191014,1.6431965813131417,1.684749816787368
1.6190931044989068,1.635482011617015,1.5967857680354647,1.65125324172721,1.689897998211212,1.6285305145333673,1.5960579624769073,1.7095310898749567,1.6810231303478138,1.6679874453554016,1.5740693671937658,1.6794665263068702,1.7199225684364297,1.690786239640234,1.645570033249178,1.694311548263207,1.6375929558608286,1.729830284220763,1.750584655597545,1.6448945630719098,1.7351436380344942,1.738484924121686,1.7795897484412155,1.6197913577737768,1.6842451050262022,1.625710105700009,1.586549313897052,1.590601490977168,1.5918881385834682,1.5261874024965094,1.6487218997451645,1.638383060086117
1.6268546061485987,1.644615742383781,1.6446855485829273,1.6417439227734192,1.6745608248926234,1.632505714350636,1.600358871942845,1.7194400881260274,1.628877629120999,1.676158757521257,1.5598320564566475,1.6823226436482421,1.6891801870836385,1.6960083193125108,1.6191360220768944,1.7060817507546213,1.6483391304517516,1.7313395892572576,1.7353244852660197,1.655038726097785,1.7490319310249776,1.7457464084933731,1.7890010047103464,1.6184620909652059,1.7183671188751457,1.6191141844587034,1.6042811946735913,1.61604617999066,1.5916584528801987,1.5045233168621521,1.6262019172304092,1.6379185433362264
1.6347625885567556,1.6193998044138336,1.636159856271366,1.6386370911817152,1.695198188387733,1.6420352249289731,1.552409333337044,1.6760678975292087,1.6543067222001122,1.6334778411534938,1.5017093747730923,1.644586059139581,1.6809757711080648,1.6631211757575812,1.5839281550661997,1.6889531585077875,1.6620136156581216,1.7337381762778976,1.73901809526431,1.6831791335774744,1.7681111876057463,1.7807862751327304,1.8068367769882951,1.6141800844044214,1.6937703312822638,1.58180506688905,1.5780468101337906,1.6288332254124247,1.5864705703806747,1.5185354256109787,1.6347201871225145,1.6606095613151666
1.5920276364447437,1.558196217496529,1.6022854452670017,1.5617502023219163,1.5631857014811912,1.5914005307755077,1.5089293224363567,1.6479270158417187,1.6017053946798194,1.6038225611690067,1.4610322059069618,1.6174201802982828,1.6954131569165796,1.6207066040147313,1.5172913101876768,1.6245220726200977,1.6229549316449314,1.7015339482068406,1.7290275817150247,1.661109460484738,1.7386164696598607,1.788125180119758,1.8205923330486502,1.615907549848543,1.7224732216490024,1.5880030248632362,1.5590840244202078,1.6343958712133442,1.538395430968668,1.4458983961153935,1.5572273649456678,1.6412322438185998
1.5443458589307542,1.5597656696590776,1.5816478160272478,1.540636475183169,1.5961833519980146,1.5671855395007894,1.5530989764735494,1.6259389467454963,1.6550340447072658,1.6242581971838723,1.5048486225765216,1.652906012141739,1.7110887209242447,1.6517202698667188,1.5286195638258844,1.6316301865497875,1.616858197917951,1.6976299515512372,1.7362516387601423,1.6874747050997034,1.751343897116633,1.7928337189769927,1.8211625530983797,1.5728117336043024,1.6803749596727517,1.5887825582330444,1.5110217618718758,1.6092211763090758,1.5137077751690446,1.4816381202018107,1.5539350643894771,1.6547852131245724
1.570492541515368,1.582755298248791,1.5962746689131708,1.5904634989666957,1.5832099171431666,1.5665484066121327,1.5230872124191372,1.5588021690398868,1.6011543191465687,1.5665299776556558,1.5052665767612632,1.6308323666471007,1.6910590197400652,1.658960161912901,1.527689517703395,1.6362879489225755,1.6352859189678068,1.7218373903433877,1.726417617898502,1.7117293199864403,1.7673700074980816,1.7517682062894526,1.8000162167847256,1.5969911545623192,1.7174367156743868,1.5631745449049306,1.540269013071374,1.6528603960816652,1.5227621382205099,1.496951072648857,1.561000784326804,1.618025679356946
1.5443629847028235,1.5808737128902137,1.550199624102616,1.5747474537986932,1.6196248960191768,1.5324347679628374,1.491929608417021,1.582992163189936,1.578219002183355,1.5167277999485864,1.4624593003536337,1.6016099210191006,1.7213984231702544,1.6461326014549709,1.4631552033635125,1.6161072710175237,1.6204682471914151,1.7237336419617542,1.7439938857550918,1.678458373147155,1.752851293063472,1.7475740182692305,1.7708510194533698,1.560822429597687,1.707997482546142,1.5771240804083377,1.5453851645841885,1.6073334389931258,1.4917747242505766,1.463305528638622,1.585509493732317,1.587951108049012
1.4700524145344387,1.4622125536917399,1.5031750495804357,1.4827726941582042,1.5366549366510367,1.5403199239491292,1.4831745054571137,1.6168858559176023,1.6033814800031805,1.574422675382824,1.4553526517025948,1.5823362298435926,1.6508442921090223,1.5296834758435285,1.4665437346519097,1.4966241694596116,1.4629735311572483,1.6007177608116547,1.7019774115146287,1.5873385757637553,1.7065044282877444,1.7086218816923113,1.7338294363087856,1.4895683730680247,1.6553533611350961,1.4835030861111567,1.4269005977262263,1.5518698796544443,1.4029143526596126,1.460446500463085,1.5001457310290494,1.578149189132481
1.4961583462661705,1.4829914774454898,1.5429920749105508,1.4935625897888156,1.5140687022457915,1.5904053561286455,1.5123980530023855,1.6326259208755862,1.541816768670221,1.6408856058259131,1.4735184512358324,1.6208654753037908,1.652940500567575,1.5736783099221332,1.4233003710650194,1.5073610407547258,1.4970277063511535,1.6193022163692756,1.6676423342760873,1.6289263404550507,1.6957926415358926,1.6865911493810195,1.7266880637888093,1.5120000046810624,1.6681184412947432,1.5040215040225267,1.4661761970792213,1.608298307778587,1.4414398818355352,1.4483149441791365,1.4658925166566583,1.5600525234521712
1.492103214697641,1.5234486999858,1.5194797532294921,1.5033783155164462,1.5270957691041664,1.549544191208841,1.5256675768389705,1.584817041650468,1.608444216495123,1.5688223369861476,1.4277490258362413,1.555062822224416,1.6129527420979237,1.5385994348018939,1.4355507328316168,1.4613641361325564,1.459719612403842,1.5783065712653508,1.6033424880284972,1.583574764743881,1.6502693583242578,1.6814087168444285,1.6864263311447398,1.4782643228211187,1.6224120643993984,1.5015855713834907,1.44826480790543,1.5230462492179349,1.4609855622846477,1.417208664006633,1.4890411185450596,1.5440012569811137
1.4158244143371266,1.4697671709843037,1.5123163402979891,1.5044985828778015,1.4989311308406832,1.535375760594189,1.5268797533981189,1.5953827972582997,1.6309092066449447,1.5564552723064304,1.4089320607403004,1.5210239239452337,1.5694466726359337,1.515377120871726,1.4229934738092247,1.4726082237890403,1.4606931438707464,1.5737705192516347,1.5544489588277233,1.5650144686123741,1.5934691084264934,1.6171400518812287,1.5968497219805455,1.4427385669048094,1.514170227594281,1.4589283428624857,1.38900763317664,1.4520112172388322,1.348485084877437,1.3838594676928728,1.4510395239386302,1.537448414497562
1.5032415084187845,1.5735275895631176,1.5723749252514287,1.5435012436955398,1.5927185965120352,1.5386155264273138,1.5213866122820396,1.6424592719951012,1.6489515418935607,1.5904169853408152,1.4063278775854617,1.5638425575432102,1.6255372675713038,1.541001197292682,1.4386115601635945,1.4767819055626112,1.443420277107496,1.5401000406008074,1.6007546279787483,1.54456465224452,1.541958056781594,1.607013061754217,1.5823668320533382,1.4072645550159368,1.4990061934015468,1.5301118019302602,1.4886364933557048,1.5038703427764606,1.4659820075375452,1.429076290992478,1.586862799851517,1.5247386078412113
1.4226107858289283,1.5128207907494684,1.5712105671967214,1.5282087457740485,1.6132420705533617,1.531684744121152,1.5292030885156003,1.6828466818444816,1.645591174764903,1.576368995787225,1.3862694259233872,1.5237356980076606,1.6034368677396282,1.5053065393598404,1.4141163813230648,1.4738420264575125,1.4646109503766531,1.5776330236219283,1.615390263797108,1.5478730306122657,1.5772604536232209,1.6344234235035864,1.6044979268005246,1.4323749169281852,1.4490536090513142,1.5353466934014832,1.462402686463987,1.4140397746572466,1.4300502219853894,1.384481906324851,1.5403080453940665,1.5143925715381619
1.4704499445793668,1.5486589846986802,1.6242131094319685,1.5349008962823503,1.6048411579303306,1.5925968293611794,1.5268849490723198,1.6731345195801368,1.6530685135811685,1.5965087191094127,1.4551375983397774,1.5728771967719823,1.6192373401110227,1.550130505784604,1.443564608848311,1.5011988082191319,1.4687102404863739,1.5925989551459427,1.6082570800676748,1.5406775690767875,1.5804871441372415,1.631977385197504,1.614147625209563,1.4786680090960012,1.4997157570952866,1.544179741998698,1.507097659174868,1.500537304987099,1.4454915142292224,1.4378598409288375,1.550592223135577,1.5633676034099213
1.5284596865431859,1.6030430545768053,1.6482691084828671,1.6058960996309255,1.6364857479350547,1.5785963142083848,1.5328786681583948,1.6592261262121186,1.6655305287166073,1.5841114121126434,1.4536584225001692,1.5752179110640196,1.6420708951893026,1.569552578180487,1.510315544910983,1.5480434795993445,1.5253972396993272,1.6049849476416962,1.5918101690638322,1.5979338378979424,1.609337480523314,1.6287817706577854,1.615687905366438,1.5071201806677685,1.5362528302509324,1.6010910350825471,1.5593458717177477,1.5187916111926392,1.5265211714581317,1.4582255910941788,1.609003495100508,1.5508829367351824
1.5234799186622043,1.6298580725913914,1.6961796163174365,1.6476593829958057,1.6799994957496127,1.6036296613029717,1.539605415224724,1.635865649094605,1.756004751629872,1.6110696168691534,1.5162979436293396,1.6281842855622994,1.7093767041397918,1.6017396217269364,1.5303025799941814,1.5661541660449667,1.5355534970385651,1.642880087282342,1.661881823876782,1.6034826417411499,1.641402675147633,1.6600322986152447,1.6512371253444216,1.5690602537892184,1.5666920202715557,1.6182236435962964,1.5497913293271461,1.523430390217115,1.5282405469084932,1.4399086291617555,1.619507684168466,1.566568783597153
1.5551886551054837,1.639856661077645,1.678008708229182,1.6431165746701308,1.6705672178318993,1.5942846328632174,1.5220165525955744,1.6284575029761081,1.743555410498144,1.5895862906971805,1.4580963447189275,1.6057321418316242,1.7330911140716474,1.588581372061057,1.4842244493936,1.5377911507610071,1.5244938318569932,1.6235096758034209,1.6561138554532504,1.6006126323967331,1.631632046898148,1.6552236948035635,1.6633321994366856,1.5646016739197857,1.5701565310117327,1.6314568164370182,1.5872171411435245,1.525181922600676,1.5639560620406003,1.4612731586523762,1.635418974146433,1.5427867619855855
1.5178653902447303,1.6094747677998258,1.5949080792441992,1.575710564575317,1.6513566856847122,1.5522215657514955,1.4834668507515847,1.597633732318415,1.6862542178863966,1.5089975121005732,1.4431930048138917,1.5750669073610706,1.7006176170848126,1.5508582687840444,1.4455058233163178,1.5363149195793653,1.5350202495484784,1.6482654591077839,1.681547728746836,1.5817060687481355,1.6480360965680947,1.6588027181512612,1.6643898856554047,1.5328830198496677,1.5647944208419866,1.5713115681225382,1.537409252551031,1.5456838261445562,1.5131247594577113,1.463742691337499,1.5968687270153559,1.5397697345771741
1.5764041730587695,1.6470405584157868,1.6333488114012664,1.6343777045616934,1.6734115404161378,1.582340315195868,1.4906636046856439,1.6125156110654344,1.7176277561767632,1.5554693434701472,1.476359617066573,1.6129888361387794,1.7361228297871698,1.5918394044490032,1.4612970288420075,1.5751375942913752,1.5655161600814826,1.6838310261630935,1.6931254964268077,1.6084435227763962,1.645133480626371,1.650057634265619,1.6497279607163289,1.5696858101745044,1.5500427766428302,1.569110315813089,1.5738854416075847,1.5361192009726723,1.557337718571429,1.4907134654929102,1.6603798785362254,1.5511797733607064
1.580046224858905,1.6334566575769236,1.6300281088019215,1.618603571335553,1.6985296476934424,1.5378581711264352,1.484823957424364,1.6670387110043559,1.740209717233479,1.6389627900096575,1.5180090754486812,1.6709967093686515,1.7548275808344496,1.6311580924574633,1.5238756934183348,1.6191794436767852,1.596146909031795,1.7201483370726762,1.7150825887732042,1.6268744832628848,1.684040574718843,1.6940264704819263,1.7042073707747958,1.566132107956954,1.5873094135865786,1.6283206033382698,1.6011664977569613,1.574251011679947,1.5639052794493835,1.5163689227761397,1.6632130464618833,1.5873712705741543
1.5959366293247563,1.6611381693561569,1.6796455973373094,1.664247967786869,1.734316387455946,1.595300808009125,1.5100593455649889,1.6360825048193404,1.7529692221473618,1.6021952166114846,1.4627916222523663,1.6547142486126396,1.748738577673757,1.641096142595863,1.4830439205623878,1.5799704774302836,1.567847443389043,1.7040547006170692,1.6990698479781592,1.6641966219860902,1.7268969888875112,1.701415686103693,1.7304557445388444,1.6405656980254264,1.6376377345296589,1.6570461893912314,1.592104970843808,1.579171497286602,1.5822511745556282,1.4976967509556915,1.673450317305041,1.6176851078444536
1.6234468899531742,1.6431586506567513,1.598117081579535,1.651070902359957,1.7321488059040948,1.5320959512390213,1.4694991234861958,1.6423835272220244,1.7409012197814362,1.590290970155008,1.4719469200170847,1.6250449149355304,1.7223165696343006,1.5666344568553028,1.4120136443272997,1.538944607173021,1.537181022280253,1.6692943999917882,1.6920027588634576,1.6170410794098762,1.6860545631429673,1.6807000558899137,1.7189658560655106,1.5374098661980418,1.6779601618522881,1.6858998412474597,1.650427470955792,1.5959166806189982,1.590835377001425,1.5618390378460403,1.6855946013734215,1.6046850671181685
1.6443850002304274,1.6633532836718226,1.5940705126549417,1.6119207220842906,1.6700738309585177,1.5270447643188336,1.4087537732858981,1.6384038582520664,1.6342996123488005,1.492535184325016,1.4251858674508608,1.5346235246683264,1.6621431198369778,1.4890365829768526,1.3961560040433403,1.476748627566048,1.4953938201224704,1.6153817615738346,1.6675422301698768,1.606224301811588,1.6788597247379968,1.6950023578603222,1.7382103463912628,1.5380429558474062,1.6921602153269366,1.6623855926359434,1.6441759613133848,1.5517654926305633,1.6019603787605754,1.5746554819329053,1.6918656896875581,1.6721303126169418
1.6661862817130244,1.6629789559304442,1.5487598128460358,1.6461577771607832,1.701245032923877,1.5125498538837032,1.4291894813041568,1.6115888931750602,1.6100719818596658,1.5044754360051618,1.4386202597676274,1.5561575369455403,1.6608064340464046,1.49879582054272,1.3289050002479157,1.4483784052525006,1.450102234783088,1.56524552102701,1.6788804978818561,1.5512425197605673,1.6470634840277232,1.6667976683705508,1.7222417881793344,1.4914818216849466,1.6580192883927543,1.6643207330666694,1.6544187321062442,1.573995949075066,1.6109140024273185,1.5873726380695923,1.7216922852254455,1.6159781920351561
1.6278343914835833,1.6265986643861685,1.6073092414647479,1.6100865901180987,1.6642850273136562,1.5380393003251966,1.4197271002577831,1.6352218757984485,1.5932335506815563,1.486034493989977,1.4212192389262506,1.517266929335897,1.6449478372684068,1.4999537364700077,1.3375565935131126,1.4675087134650129,1.4784401327119774,1.60270545741798,1.6694239103300175,1.6002159545496077,1.692023306277241,1.6805403970545352,1.7279751626965736,1.5306349950639002,1.654664274039514,1.6121773776286639,1.611661668273688,1.586442732789544,1.5691633994680352,1.5738711074348026,1.6871473302896949,1.620138064604875
1.6495898677583491,1.6481284774107499,1.5679704746059469,1.6221057385326958,1.6975967631154336,1.5149237749762121,1.432674521884715,1.6252365864150191,1.585126662305567,1.5112330134724306,1.428243816833404,1.5377270828201648,1.5759287384909826,1.4927494325698705,1.3095798300882266,1.444710291379656,1.464883456682554,1.5745238593574693,1.6381805458224061,1.559751024005377,1.6466037396987077,1.6530691970079452,1.7208048918703387,1.511690733502384,1.6516922536977086,1.6521153374311557,1.6354549916455208,1.5958992728069314,1.5877302311866166,1.5794328843587455,1.7133411445986881,1.6081704178470735
1.5704247937054336,1.5864337189257254,1.5261768751255262,1.5831992280884466,1.6338527153422937,1.4857236087835521,1.4175765437222223,1.6202148154869713,1.5430416849621145,1.4816978153719569,1.382712487414947,1.49678764518339,1.5993684356255156,1.4716421881796906,1.312081796719024,1.425418043084617,1.4447000024307968,1.5685987904188885,1.6144114361661686,1.5533489523336181,1.6314690877997569,1.6215966735564415,1.6806900722614584,1.4674149644327765,1.6006775287831323,1.576621747844486,1.5559415972702169,1.5344556822505113,1.5250300988770829,1.5078750754229222,1.6526424219560927,1.5998678679643454
1.648894573564204,1.664279865910058,1.5097248268591337,1.6752428930335135,1.6829743656363165,1.4875699686791235,1.3665072544203314,1.6048621668684346,1.548439733080027,1.4541236688505854,1.3861458517191592,1.490144369710407,1.5496375962825801,1.4530818474409508,1.3386129647036904,1.4206092680151374,1.4288979229373302,1.5287082298811412,1.6347552098851037,1.5309345899497335,1.6373339444288102,1.5852911244006882,1.6764802991262,1.4439478256877125,1.6179018113045542,1.6039293398258438,1.616227418945309,1.5488970189882159,1.5999998969378562,1.5211808548539671,1.7314736753957871,1.5802485748166175
1.5566657290085648,1.5717264776961266,1.5129097355361587,1.5799619663706719,1.6217674048476431,1.4958307316707897,1.405958750250752,1.5878976468748724,1.5454973182536038,1.4735176671858847,1.3968243245480378,1.5152900289260018,1.5452459714334736,1.4995133876291933,1.3539118951863907,1.4574358248712527,1.4578787346083897,1.5373123715494315,1.6196792513567215,1.5206415784657923,1.6141553148453098,1.6284709049699768,1.6800916251905078,1.3993073463303491,1.5945604310450485,1.565753779186308,1.5505042367216224,1.5341188055294448,1.5034887765257632,1.497841956251307,1.624430030406209,1.5994518565807825
1.5658850851431159,1.6052686332748205,1.5537187761238476,1.580923908740593,1.6395884592197612,1.4840115424365892,1.3916702761250637,1.6001643634966511,1.5787963253172068,1.4269211647259707,1.3601077354608686,1.4770077700838216,1.4845260467381394,1.4795864644607288,1.329382394393622,1.4141652165837113,1.4250547065996992,1.4834332267427093,1.599159327743162,1.496999726029012,1.5796480892395626,1.5926593393543245,1.6775520518093723,1.384031529193108,1.5883724519230784,1.6257946313564466,1.5742911130999289,1.501881709778316,1.5111410164911785,1.4488173067841237,1.6674217997647207,1.6098244853312877
1.5859295962078575,1.6014092257585202,1.5063057885555498,1.5729037364138607,1.6188908896017682,1.5176788182411955,1.4431499760697835,1.643955885248244,1.62115494021105,1.4919130792963127,1.3910241828567083,1.5478089065132479,1.5331117995072103,1.5372796912435143,1.3995348625733268,1.4748140079586405,1.4643044700776358,1.4953284800039102,1.5552088329720113,1.4742894462055736,1.548382923868013,1.5728460140505218,1.6196491010151481,1.394995374992723,1.574286220275991,1.5615678063586294,1.559826012346758,1.5201388962861213,1.5062976237221473,1.4839325714850702,1.6502537755709437,1.5946971389063007
1.4657187521700101,1.5269037153635487,1.516800819273101,1.5724362425751677,1.5765065052968044,1.5116106336471615,1.3896674255295296,1.5608288551448128,1.5300052809987603,1.4496123156168417,1.347894733559783,1.4788399864037152,1.4703394992237613,1.4839236176974295,1.38144756131896,1.4381871303354994,1.4370651157596408,1.4862798696535744,1.5909449890322214,1.4720698434815964,1.5616398422582276,1.543128347675471,1.5846547588140454,1.4027402730431908,1.4939428990594905,1.4674316189880923,1.4106567840246151,1.4492797999948135,1.3960597866431357,1.3928568906058425,1.5688175343921351,1.5988308327846812
1.4579921562843883,1.4933377989866903,1.4314557380259196,1.5503718478251054,1.571688676059814,1.516736977123617,1.45249363354984,1.5553691192643957,1.5479204542389582,1.4963173126822824,1.4057032582436098,1.5189592440316044,1.5259099690106974,1.5276965886967502,1.4338890804767699,1.4972392544322979,1.4923527203733902,1.5187743680056132,1.5946870084900298,1.4806193146270559,1.58672099015367,1.5745420725128343,1.5910115116844703,1.3926659829615107,1.434884915662846,1.4596045157014395,1.4130700703075199,1.4104515549947416,1.3932663041767617,1.3668882408374419,1.5674651463650673,1.5613774701880836
1.3584868230277882,1.4005479844827204,1.4716828802611295,1.4467624484587944,1.5005218414690058,1.4531256157050003,1.4648047479388802,1.5618338533800045,1.5563940712783577,1.5045478927126192,1.4341277832299777,1.4484623723861427,1.4725440538885755,1.4468440056581358,1.4564194518710991,1.4524231994180594,1.436088052167971,1.465222136355163,1.556709265257297,1.4776444571548761,1.5381814834171679,1.5516351377313915,1.5702374162377837,1.376827989054599,1.4060061065470857,1.4213692316262256,1.3351440336906897,1.3492592394172322,1.3323730433444683,1.295460643413972,1.4676458127085008,1.4894794311588595
1.3929640526362888,1.4393827650381903,1.4750177107065272,1.4919738973748828,1.4795449113517471,1.4731142719191581,1.4171588245681057,1.5660136536409177,1.5735730694151153,1.5080490363273724,1.4285557607464396,1.5262649725635458,1.4979061298899992,1.526690158430179,1.4353230673418476,1.482547721211209,1.4245530873270562,1.461216141572549,1.5379938395954649,1.4288085672079358,1.5272757881013648,1.5453547405980868,1.5874128404563101,1.394429045936546,1.434385103667274,1.404372736269451,1.3590464706226022,1.3977790281372797,1.3336695737760556,1.3422552124895084,1.4603668573641486,1.5456727864222126
1.3438295125719892,1.3725761220086288,1.4599787752112283,1.451323443578685,1.491446315305104,1.4705033416992357,1.4702460571679588,1.6143906206007619,1.607834723586571,1.5272444348039422,1.447278450646596,1.5071515616464635,1.5845837119043933,1.5070225504337176,1.486530144612563,1.5122489916076376,1.4745897465528042,1.5317026321983287,1.546883931208569,1.4667837593092468,1.5359700388485984,1.5697308206100569,1.5468957044856952,1.4025564840110059,1.390375638911916,1.4139803739521808,1.324402679838578,1.3294769246184284,1.316190736997396,1.321258304970548,1.4627192628097623,1.5509178516063045
1.3546715485857888,1.3790673352376708,1.500650421351838,1.4369418206055655,1.488203448261468,1.4847712217329458,1.4850946576042525,1.5708064226548022,1.561693230497259,1.5440800818030296,1.483533173113953,1.5440830454992045,1.5426332098242799,1.537726196179391,1.5029140348287462,1.5372858614238727,1.4551115423410597,1.5105333183680172,1.5190305244187434,1.474472578204717,1.521513524832346,1.522595324346929,1.4958521638110618,1.4381980103296363,1.3855085553916127,1.4104396779816921,1.329979935252499,1.3514010994915224,1.315546582082025,1.3171391448710035,1.4509151632458792,1.5410253394580506
1.3731030841457812,1.3924166763062527,1.5022166634564529,1.428123849489833,1.4664370054405247,1.5232381232100725,1.526780046967429,1.5600953953505794,1.542832565728186,1.5823487520442827,1.5073873691433748,1.5275153700283894,1.544504503194956,1.5443583194595187,1.432076049194572,1.5153096525382537,1.4634639943632497,1.540279326359103,1.5272390805639913,1.493268729145353,1.53420624287206,1.5729605317345101,1.532482230523052,1.4419059079486052,1.4027199904691534,1.4159316486962632,1.334410972002136,1.3869885531958968,1.325197119057171,1.341528243970121,1.478632039233074,1.5161309911676615
1.3931701356763684,1.4198360322860195,1.5058518988253367,1.433952410027258,1.4659849243937053,1.5621434686744733,1.5106479414488994,1.5701292958417958,1.5591325388895656,1.5727678721421163,1.4625769599123049,1.5207521657526755,1.5272193481020233,1.5414141604164493,1.4705767432679953,1.5566692151945156,1.483686542031721,1.5371401173784023,1.487969519231586,1.4948372536965846,1.5140826483313714,1.5348050768350592,1.5109128911536096,1.421258998760087,1.3832230189062817,1.4175818766197663,1.3422407517614947,1.3751808898671722,1.3440750851129009,1.3530498726475062,1.47002106588771,1.4753329588321842
1.3719004850451677,1.4053465330585295,1.5273588566887217,1.4587465909557975,1.4726541545108476,1.5174055989087776,1.4837788122325763,1.5691570950846825,1.5376745201137998,1.5998447617548774,1.5247916844366152,1.5189515228296033,1.502107467331529,1.5224139538127794,1.4668265014820259,1.5484360120581306,1.459617267537305,1.5433381172494613,1.5253969279397832,1.4804861861043712,1.543604125016827,1.5545107332043593,1.5348112576719497,1.4237509960962094,1.3643469122925491,1.4021409055692509,1.3302576072666612,1.3565837022434741,1.3283820302860203,1.3457378960048085,1.4503403577462384,1.5400932466293744
1.3920503658561467,1.4434146476944925,1.5323544625566916,1.484473400445338,1.5049428501735413,1.5208209175807625,1.4588724916242604,1.5609189284208609,1.5496337139708312,1.5788627182015,1.5168021508915293,1.5358371814213363,1.528224225738715,1.5023192235950322,1.3922704903451975,1.4664586248370342,1.4234372612698114,1.526491788783963,1.5300557886095325,1.4678543187112598,1.5144542538939205,1.5187407407159004,1.491724479689366,1.424884954567766,1.387657646027908,1.4185092067700673,1.3526134635818758,1.3663685211826089,1.363606349668589,1.3587002512588693,1.5136611485872635,1.5216560076362433
1.421906735235844,1.4307495745965462,1.5247650158193702,1.4542273841371716,1.502965358545858,1.4656191237947689,1.4533406990684046,1.5030031340618366,1.6024339641938958,1.5125584684977353,1.4939678370879346,1.5116350985454055,1.5063757139157923,1.493538732773873,1.3613098953339169,1.4262974401484956,1.3774747491309403,1.4769865103921669,1.4748821859848968,1.4237892635780562,1.4751800513326927,1.4916829498740478,1.457464855387852,1.4552790575642862,1.3751617559047884,1.4520042476788486,1.383541872542554,1.4079688758090334,1.4226086700369474,1.3453593024140496,1.5649825439073992,1.5026082043585347
1.5220339299805627,1.5556905708609696,1.591702888904451,1.5482963127851475,1.5716425400087413,1.5892676758359445,1.5062950278770841,1.557799564487313,1.6430837597434784,1.6103355713319807,1.5110316352743118,1.5792848452128858,1.5137291908143538,1.5604488354500836,1.4103238853199807,1.4756162060651419,1.3979727084954263,1.5042650160302107,1.5159499581631959,1.4405437025563992,1.5055978612675505,1.516544951358771,1.5336864975320739,1.4778753321757925,1.429253151672633,1.5233421643330916,1.4692669106504261,1.497947611339234,1.4724231191180923,1.4258737157404209,1.6227839327241638,1.4686486994699748
1.5177206636847311,1.540471766472763,1.609012875164097,1.482120141148135,1.5426679344112673,1.5708158651655166,1.4859510317402638,1.5504604104101307,1.6253885565999893,1.5602584603851901,1.5026724991190372,1.5692076810975506,1.5530530117403045,1.5335984090043056,1.356556580885108,1.4482076932997359,1.3966563488393007,1.5100319216405933,1.4762768689128638,1.4229585488598684,1.5177285312253017,1.5544860716395663,1.579860447791045,1.444477396727963,1.4795851150583863,1.4884583535084333,1.49845551935333,1.5297920353222165,1.520745012759093,1.4443161167813787,1.5785590536599854,1.4978294499579152
1.4890730058281523,1.5109460175834504,1.5639684311154483,1.458358935635682,1.5252070959074508,1.5843358381693367,1.5196947777344147,1.5381228536089333,1.6469959673280465,1.587458987132198,1.5091205162223231,1.5639531556048052,1.5464416164085726,1.5334686183301751,1.4231228460994605,1.4457396173191113,1.3965539346291485,1.5110982766020156,1.5200714488163058,1.4710674260297152,1.574882783898647,1.5766800207351495,1.6010356768545173,1.4749704678007496,1.4886470263197666,1.5107302390893584,1.4887491768251355,1.4575468412903905,1.4733824334999042,1.4209384716337454,1.5551289337078174,1.531756981366871
1.5242078302615707,1.5425638432141993,1.5478618061723124,1.473444727784371,1.540480571922936,1.5618496932916548,1.5030466589076539,1.5263656413057585,1.5867473102250576,1.4797499582223825,1.441637653575955,1.465148642771255,1.5195045067102801,1.4228234371104862,1.3505042944743397,1.4445428758087513,1.4419221284726296,1.5182019697464129,1.5203144975122838,1.501457931950041,1.5596695834354959,1.5503061941338905,1.5830868184355391,1.3963568963268171,1.4629426113322395,1.4954442341203864,1.4989654694005479,1.482924495442349,1.5221022869359837,1.4207671089043634,1.5810793824803553,1.513774454310414
1.5010914585420492,1.5296272711976533,1.5679939099888145,1.4945544818862035,1.5610308567236513,1.5691575267913846,1.5104508684712896,1.5586705419915214,1.662981175202094,1.5560239171435222,1.4847966082393158,1.5737053719215126,1.5559323298180434,1.5431574489203244,1.4051176432012593,1.4525951848408485,1.4424402216206864,1.5042779654322895,1.5186931218269102,1.4602538100793436,1.515397986727878,1.5864943731458057,1.565631744789283,1.4276628703185603,1.4411795308125341,1.4891468045081793,1.476332484645493,1.4219428183093097,1.5029851888006178,1.4202011093773472,1.5835744778170127,1.506655143937438
1.4843435957883282,1.5171290713103789,1.5482292763762457,1.4631664545581053,1.5673743099521888,1.523838247322573,1.495002370677882,1.56054132185409,1.5992249158809655,1.54982787647612,1.4588904820607944,1.5420440956825863,1.5831696880275243,1.5356113430533693,1.4302877755047425,1.4987008874433907,1.504381935554037,1.588459396306555,1.6070554078464856,1.5320332437952255,1.6099916525247526,1.6305779551724155,1.6255958229364382,1.4560743301201167,1.4421555068737801,1.4608117888999343,1.4586712985026753,1.443014554342261,1.4752913522849356,1.4385243939952153,1.5581947546945463,1.4952672799331161
1.5240554717697012,1.5206044950637798,1.5892272341767977,1.501103666177168,1.5304218743770726,1.571218375293874,1.5346916757230145,1.587635703069895,1.6320727046672183,1.5561565468475496,1.4874193018147261,1.5489381495914465,1.5915966749583979,1.5309257128029532,1.390819827803701,1.4269415735760387,1.435413916832808,1.5332998697121385,1.5773699405744945,1.5083305749627012,1.5928761662075748,1.6445379679406757,1.605238161163774,1.476178263911177,1.4953230095423473,1.4548288545217005,1.4792266831239709,1.4537141792268342,1.4881250356347313,1.460485753155688,1.5573988240535366,1.5667354019918511
1.4574340442124039,1.491618343519843,1.5389053673387623,1.4493352157950714,1.5166666721406228,1.5412094967817929,1.5314272315347857,1.556415870624614,1.6020486772038884,1.5412132370607967,1.467486574259593,1.4957544892947212,1.565860415505413,1.4866738189445283,1.4315233845566535,1.4467721320804,1.420296125727146,1.5033192157680317,1.4972675911855804,1.49027815369988,1.5319899768758507,1.6000724422638806,1.5633697290585198,1.4498622874821556,1.43016329817661,1.4407446438954852,1.424543741213764,1.4360934057669474,1.4383696835182838,1.4426656360545722,1.520866415765933,1.5697997725944965
1.4884872532507922,1.491918682233049,1.5377998637483012,1.4600109803996675,1.53101340437605,1.550344761023434,1.563518065028282,1.5679860847637368,1.582472035687944,1.5328569969385135,1.4691553080766706,1.5176233445221636,1.593940144833971,1.5053566917534391,1.4367975324553424,1.4693571138116197,1.4538769097622042,1.5334346792581637,1.535074643278027,1.4991679963512747,1.5574276420524884,1.6557032389412847,1.58262414036967,1.446798857957267,1.4845544418650904,1.4261761291187816,1.4242820688088933,1.4382965598015933,1.4428689976095113,1.4196693780854253,1.531923161997497,1.573650105314635
1.4547939203550748,1.4855060358343177,1.5190717401935185,1.47046609318836,1.529893853511767,1.5598937098202559,1.5558162383089882,1.5558480505033276,1.6087172782014172,1.5235535782780514,1.4813273839065138,1.4984209967956132,1.5799005051616102,1.4918821177470725,1.4247955352074395,1.4911224297008598,1.4806505316803402,1.5438664288873616,1.5764542142777602,1.5359669969675087,1.592867529969378,1.6638164880930493,1.5903566515818666,1.4222209069143026,1.4802217242039837,1.4298095812132345,1.398428909049884,1.4232130958515983,1.4237132021210273,1.3903114275670072,1.5210906907215995,1.5292765252141787
1.4992669780223051,1.5222935140194909,1.5772099699267266,1.4946727871160654,1.532822331188698,1.5930576043935707,1.5621112890723674,1.5833639205360757,1.6065206960037137,1.5546259378195288,1.4791419397907752,1.5482958536048967,1.5876065129857975,1.5489490424771202,1.404614692132616,1.48703871502026,1.4594983805671495,1.5416128921336985,1.5174198192836195,1.4990215916240694,1.5511380162727133,1.6294985344409927,1.5551028075265267,1.4344999694334952,1.5007267647064644,1.4454976797810053,1.464327790816492,1.4538614807434944,1.4777206096050568,1.4574527809196856,1.5617468810227977,1.4867286749335036
1.4967888000128595,1.5272202711841203,1.5757695570565369,1.5284436431710855,1.5356231420638158,1.5649543462719302,1.5819080691134204,1.5223861850074776,1.625185641842666,1.5393516890512897,1.441504631789405,1.5254935488547678,1.5884757930319136,1.5814008041336232,1.4387651372926196,1.524853863478443,1.515367441713875,1.5869483856799278,1.5742795401261525,1.5188995239733303,1.584734354419847,1.6057685089803804,1.5652363886244374,1.4534167426998288,1.5019100008022959,1.4680606304828085,1.4654939844055466,1.4818627738770684,1.4641127559656424,1.4445446155293193,1.5702234192446836,1.5652095809175697
1.501919678611954,1.5171279935246573,1.5475356569223515,1.4924890424618036,1.5195280125240938,1.5528597697148379,1.4994697804502128,1.562877436772548,1.52246952912768,1.4948524659010471,1.3615609153080255,1.5062243412837166,1.5419600044702702,1.5235962189964622,1.3929371467129974,1.4631005262484515,1.4174975224025999,1.5017908718681963,1.4862801011942437,1.456524025611498,1.5139819073529832,1.5720351040081368,1.516669467734796,1.4293981171604042,1.5001543800298018,1.4707104439931757,1.4547019964508354,1.4802486719423034,1.4702148046985204,1.4436740205795164,1.5442231126390418,1.578665734934648
1.5126028809803247,1.5228385820170365,1.5507464555865054,1.4992231603551704,1.5600825879480429,1.5340977400581453,1.5389107295224502,1.5302395673718052,1.5424671187899404,1.4982011347538589,1.4043171342945977,1.4988286748908097,1.5382555222852832,1.531935119081565,1.43255892046373,1.5163632173995854,1.4693685962544745,1.55292893193436,1.5206033706954296,1.5004010667177021,1.5703053644315486,1.588516831578821,1.5731427245203273,1.4537861606532052,1.5291349562900938,1.511757413372817,1.4758403222980778,1.480853226602289,1.4694229495654758,1.4196509273402556,1.573826147340557,1.558323660269583
1.4964303087080093,1.5169138350568347,1.4933625756339088,1.4631974682029665,1.4752610281301428,1.5177865705641314,1.504379966850969,1.5333316564773571,1.514301816866993,1.458227913970629,1.406778062428049,1.5042480110704577,1.5146322566895305,1.5145276389068285,1.4161392276557974,1.5007379372710596,1.4453562669132443,1.5357980217504996,1.4826281802767733,1.432902125721585,1.5501693115323618,1.54511380079469,1.5681971306217006,1.4257459429790373,1.5396572191153408,1.5110910181896229,1.496459656095298,1.5136607107081843,1.486837070823395,1.4290476641116774,1.5333313617154134,1.519151300574359
1.5015039085513304,1.5419428366310404,1.5870328821644601,1.5362356291431918,1.5495887434031026,1.570337683965418,1.5621239314372959,1.5784724593315607,1.5816193145164983,1.5282677374592333,1.4629552482505102,1.542151118969077,1.547412108897527,1.542270522507783,1.4119055769261424,1.498112984354545,1.4467074424577702,1.535426172484586,1.5408021989717435,1.4548138097033216,1.5313275226647929,1.5659515872630678,1.5827803769385165,1.4391626898106633,1.5140692201946666,1.5477740407349592,1.5286477923335957,1.4971864407156532,1.4901014608018857,1.4113800156621965,1.5903195181681382,1.5927759771825376
1.495568703318439,1.5575383044558406,1.5688213932922328,1.5101477354168806,1.4883544770879442,1.5934738213666149,1.5560067911341842,1.6175733327866755,1.5136126993285095,1.5407620086322997,1.4023574280225966,1.4904741642094115,1.499537261175333,1.5034896855434297,1.4314069105513734,1.5063499213141323,1.4590890390772142,1.5260427393632752,1.498130060153881,1.4418347203749735,1.505119455110171,1.5353010821393427,1.5615053206379792,1.4154399435799137,1.5189028639357083,1.5395041765929842,1.4941656464076816,1.5015816641416306,1.5057155237532074,1.3826893648163987,1.5524344499789746,1.5734292271419985
1.5017954972759906,1.5318543340025006,1.5185319222698517,1.5283441979481704,1.5622816536499358,1.569631000060515,1.5302603374204224,1.6359495308291745,1.5650127840657846,1.5018371842426834,1.3488370098122415,1.4965195510869513,1.5387396345694087,1.5145396749555682,1.4044074366241788,1.496001067528144,1.4494284105124668,1.5368818164294937,1.5571562118982563,1.4681907398118512,1.5294431498123853,1.5734179994195507,1.6071857107403584,1.4147477223656582,1.5274744383781331,1.5607242064870799,1.4908505498625344,1.4558980885009125,1.4905652892209407,1.3795607457898402,1.6003299011114993,1.6456114379956033
1.5013273074566689,1.5473596900661077,1.550657893070765,1.5208764412687894,1.557113572484418,1.5787405722150862,1.467011897359052,1.6596181630979825,1.4962605367039798,1.4760869639318028,1.3531817385175287,1.465366554085635,1.534034266606046,1.4945945725826417,1.390686881241847,1.4669959039247344,1.4381760944236186,1.5322396671895777,1.4922287522190463,1.4599455147300282,1.534524397131556,1.584023071395083,1.6009949994589219,1.413787029553211,1.527500275673155,1.5788398674919333,1.519737313953676,1.4830768541385977,1.497426947260897,1.3725519166533395,1.6083687599668148,1.6585940690517875
1.5369870517431377,1.5538727684676128,1.531930977318649,1.5294432788878045,1.56133830921129,1.5821372366520177,1.5192744298174836,1.6337017887548129,1.569877793505021,1.5381941937323726,1.3657576584320432,1.5410339546742367,1.548117587717671,1.553862942980781,1.4169544764862787,1.5121508981174843,1.4581868099467794,1.557331026844842,1.571980714563366,1.485470751433158,1.5592001081903295,1.5572688488636899,1.598390094372741,1.469045194107816,1.5802697645361714,1.5871551163915913,1.5569102820534773,1.4895654078203286,1.5077904170997036,1.4366125678520805,1.5910505129538923,1.6275054595687761
1.5478102828131652,1.5917148384420419,1.582731348154336,1.5416232683223257,1.5467734620113454,1.5674461538697406,1.5223304186659705,1.6790479572388195,1.573227452313151,1.5595988878058469,1.3916748612053202,1.503582970227423,1.5588979678853432,1.496436354291728,1.417601244210221,1.4906688920220912,1.4537330072687618,1.5454048762543413,1.5379481920523155,1.4840114215914035,1.5446508055976635,1.5821469976411022,1.5922620249587016,1.4920054959007383,1.5453613958712253,1.6025492787013809,1.5699552804956034,1.486087019583943,1.5243398585434744,1.4023475209738505,1.6222403753656038,1.6548489430130773
1.5191239941086718,1.559448590730581,1.5817238176026769,1.53917201661841,1.5461433764313954,1.5787604786434142,1.5102970271919436,1.6790113206127897,1.597070768220708,1.5424721754850592,1.4208837077920016,1.4920822327781,1.5822535178793276,1.4709200230681845,1.3912674370603733,1.480359719808677,1.4472630068886418,1.5357782602866612,1.5462406923350822,1.4740935174733185,1.5562095077376092,1.5881102111613676,1.5912411700853573,1.4708708148628218,1.5656238782132763,1.5781306332903526,1.5353496423086501,1.467146084752461,1.513758125242146,1.4176497428832555,1.588346422373619,1.6325859495447954
1.5579667985089545,1.613508133172905,1.5571104262250968,1.5942890339047098,1.6481875159979593,1.6182027510387644,1.4972655895451286,1.6572568122925004,1.558604393087329,1.5240229058927057,1.4077307074617627,1.4872781103090547,1.5814821773686185,1.4520314484953787,1.403126762631306,1.4833193102958355,1.4490850057208942,1.5316196650101808,1.508493119198476,1.430943135006201,1.5281026377488058,1.5610830268993083,1.5845168826702218,1.4258531515233426,1.5570815635964703,1.6249525497478499,1.564647341458099,1.478707741395229,1.5374971192359181,1.3979303014992883,1.645764045292879,1.6307729911907438
1.5243817476761687,1.5729486674964042,1.5678002270366989,1.5483549902079903,1.6079249767839325,1.6298895734952574,1.5121227439308542,1.687626175557703,1.5651292901017315,1.5247655227151102,1.384151160450623,1.4577579647624581,1.551385674986637,1.4063043277405203,1.383108560928352,1.4545107806954614,1.4363573066762676,1.4998407694848912,1.5152926763309775,1.4506809795469398,1.5231816673266318,1.578719987740557,1.5766651243893322,1.4946306350471692,1.5378266799433444,1.6118905242764499,1.52411277584942,1.4604772980714653,1.4909169678222582,1.3649678871494528,1.607420492118152,1.6568964809309332
1.5382178188436397,1.5765165382689212,1.543560457709308,1.5350469539905043,1.5656675392320574,1.6506763691926059,1.4703740729249632,1.6751068893893177,1.5150534704410619,1.537164347609068,1.3863168667201597,1.445754526836606,1.5166760083306197,1.4258056682339895,1.3767377989345158,1.4368552192271775,1.4025076335248667,1.4752078136240525,1.5121717206348126,1.4609239520844224,1.536981065444907,1.5681119834732742,1.57611776462026,1.483121673728016,1.5597747526438939,1.5874676231657228,1.5164147677807616,1.4838175824599749,1.503264722845219,1.362563551184644,1.5772965193029078,1.6597344803819565
1.5907793154389267,1.6251793512777961,1.5750897631154785,1.560760654939667,1.5549106154963126,1.5983420139319866,1.485699839896442,1.6064055238201889,1.5778867189819068,1.5303216738198466,1.4234266586105864,1.4669257992396945,1.6158083952093436,1.4384482155650489,1.3767216006728824,1.4867199684149852,1.4499262190116444,1.547194740115971,1.5602538933206807,1.4938402412954765,1.5377719854495706,1.558184318005554,1.5523084046456543,1.4936169233834096,1.5945414065719912,1.5858474233791278,1.5630996335149747,1.5386631656055025,1.5554457609546353,1.4851456168031876,1.6135681417839258,1.5933631228382836
1.4977943069862347,1.5445799653587204,1.5198306854201686,1.4834979192615572,1.5446960646383658,1.5896172379134792,1.4902545226035082,1.5757914697461624,1.5132059849346886,1.4823985621367561,1.407335299460673,1.4164207020668713,1.6214542630090192,1.440967248501773,1.450378613697584,1.4746037893337813,1.4169689565935,1.5224381258055173,1.5078783083950837,1.4678901526722097,1.5455622829100188,1.5677828386458432,1.5608696525774641,1.4531603678944873,1.5435224332885882,1.553644635148628,1.4974330275252798,1.4586535872267539,1.4868119688301542,1.4079071335817186,1.532168796618658,1.5517648796325194
1.4819862144807798,1.5549984944770896,1.5282192377008585,1.5042658789026322,1.5875846293594764,1.6089522837783379,1.466831899961455,1.5876575479679522,1.5067960123144701,1.5008251447744034,1.3957855393767713,1.4329097628911467,1.5591534384025862,1.4562870128990781,1.3524660669400932,1.470516488125838,1.441476167001332,1.5323460089056085,1.5545422743013664,1.488387926487161,1.5364058546501638,1.5696763262137783,1.5773695102402354,1.4921945081510388,1.5556809109376835,1.5694917310280432,1.485152539334944,1.4701286672768852,1.4580852113414715,1.36662498137319,1.5065623042334029,1.5761011639577216
1.4812140634750885,1.5431542975929322,1.4945267445559345,1.4754716661628737,1.5097750610781255,1.6308107558154477,1.4656963632200222,1.5681527162993554,1.532095060343399,1.5162193380505362,1.4020738972705176,1.47863376748408,1.601286109969912,1.4739857025682945,1.415371447070902,1.500597695484491,1.4814602722123633,1.5694426640029784,1.5813260423750983,1.4790267669849182,1.5393811653574117,1.564638136611668,1.565825915047944,1.4575225182457223,1.515037051566783,1.5456542327281213,1.4690339318497108,1.465427861626922,1.4452486297840428,1.3543910176931484,1.4972771207551863,1.5503862171312937
1.498623483239148,1.5680731037804863,1.543742913831133,1.5846792333431365,1.5176275802094508,1.6421155177587647,1.4743876597844157,1.5804714399486823,1.5432034249822784,1.4876215558445722,1.3701991258561346,1.4305692008264188,1.583738955534805,1.430495974854071,1.3663393890761832,1.4518816879669636,1.4446883076385304,1.5164860949404693,1.5653604590295176,1.486698806518972,1.5387511557219054,1.6031861919036001,1.6105188068265355,1.4751752130898248,1.552501096914843,1.5651606524815618,1.502191344156806,1.5093084110931063,1.4773440436647247,1.3641693049881887,1.4770972560206068,1.5687747237797298
1.4706606328476333,1.5232223450264266,1.4911015366203206,1.546109977644664,1.4747170158928322,1.5850188770722058,1.4396419998479493,1.5311556375908737,1.5552728442164037,1.506687388318079,1.3830948568719093,1.4965935585245735,1.604825937190172,1.5333286514920712,1.404740331819488,1.5075679413580094,1.472569073919106,1.564688621324763,1.54707174179179,1.5286128934110481,1.548827742636696,1.5507282757178087,1.5699597742121036,1.4446766251713654,1.5136588095278605,1.5312522730841618,1.4851608090919257,1.4722893661155656,1.4427860462762507,1.3528139380440134,1.4584699835773527,1.5260184753074644
1.4569597805445993,1.4960389009581985,1.4506979821273185,1.4641794508751744,1.4717911458392023,1.5432733973053834,1.4485277189347996,1.5552033411110835,1.5468119356000727,1.5147769826864286,1.3923769906922723,1.5416357308139867,1.6013620539095472,1.5905555091225656,1.4163988432078614,1.499932332648416,1.4575383902845656,1.5467235115437314,1.5251905543855255,1.49555257050585,1.523313541180697,1.550796556577909,1.5963348458189424,1.4820233511141336,1.5312662212968935,1.5585657837022746,1.488245355973748,1.457608321523848,1.4394704479422853,1.3480262496263196,1.4447288909833909,1.5079238459194528
1.4310794226391341,1.5020241293624645,1.4694158079475466,1.4668894190936903,1.4825852783938336,1.5219519314306573,1.401665616867598,1.5006998357328607,1.5102094808754813,1.4572047106226693,1.3236767288069151,1.5318177867970537,1.5924987147489729,1.5869906298288015,1.4144640228460899,1.5022706199345996,1.4820367753830843,1.5618083325007674,1.5462617236022356,1.5065518682255192,1.5007007519183773,1.5347685358233902,1.5140209022147806,1.5080570426097766,1.4722680153462773,1.4968499979188736,1.4233507380957178,1.4377928056596068,1.393212786768897,1.3557577679720254,1.4545639692116132,1.5329739846719221
1.5211212641454535,1.543463281623964,1.478158914987481,1.5256356321316678,1.485277003044093,1.4817616055305811,1.4102713334555008,1.5090255470685126,1.5489885683608324,1.5007851929781126,1.3836255801005641,1.5695078291028792,1.6307370049317644,1.6347233891819763,1.4380742601423364,1.5191232289264636,1.4791004868948012,1.5809010403356254,1.5440691919054823,1.5248073094125034,1.486450590325468,1.4982231419061405,1.526803007454597,1.4595277618139786,1.499431962405339,1.4978923637629769,1.4993886385946227,1.5068718462364767,1.4906850547144401,1.3852376600393241,1.5410390155988727,1.501523522777602
1.4363166910196496,1.4877902972958903,1.5236219395757937,1.5092558368986175,1.4167483944126829,1.505392569683992,1.4861323347608741,1.5078124567238147,1.580005227270911,1.493848659475297,1.4193792907241092,1.572766020969709,1.6406691745383304,1.6381097732823955,1.485581739426096,1.5817320504152133,1.5429325538270158,1.6543765641230774,1.6710660780992248,1.5935919959407898,1.601150096905735,1.597177924486303,1.5741658778175485,1.5142685594886736,1.5081486606093224,1.4544816448921045,1.4358188260739613,1.4409628681403426,1.4107901212540095,1.3227838465817452,1.4007965986072213,1.5684629337874294
1.4608633959836435,1.488458712361902,1.5409732098898299,1.4784225638499136,1.4307957901982578,1.5940643921709952,1.5029709157335887,1.5524037189629978,1.532012232278147,1.5140150960573382,1.42045351321426,1.5429366612714657,1.6055551546141118,1.609161676736184,1.506738989183285,1.6050667396154887,1.5475156448161804,1.6627599620072095,1.651106622059322,1.5962852186008554,1.6105705069729335,1.5945518255997249,1.5956792901325754,1.5678548670777774,1.5460256462502213,1.5010684632227034,1.4589197957784732,1.5164933962648406,1.4202182284042888,1.3476553819817905,1.4202633753856224,1.5663358935702867
1.429994406289207,1.4703858687349216,1.5357041927456907,1.4367293170337878,1.3820581005357453,1.5610512368780383,1.5189719206184629,1.5545836257260877,1.5043359206210862,1.5429665244977866,1.490783359219392,1.5626082850687224,1.5910219768082916,1.5983605185709033,1.460209074215417,1.5386670823120452,1.5140631838872463,1.6287505920262921,1.6422886243441919,1.6061676192452083,1.6075151808677464,1.5993019847450192,1.5786610304425879,1.5599362741749765,1.5389974768849601,1.4672957547946155,1.4252277233536326,1.462509541458122,1.4128891320100618,1.308531049833715,1.3915192310955067,1.588136560409268
1.4577095523808954,1.5045001827058715,1.5309144886857304,1.4375177044402365,1.3860151496571422,1.5662598670735068,1.5287897905594647,1.592687809711044,1.5641690840799258,1.583452965280833,1.5161522537821186,1.62519591716562,1.658845519314302,1.6679448112420427,1.5260292295917437,1.6232955547271477,1.578761381270815,1.6861549472950261,1.7028307635674387,1.5938536906815601,1.6169844944307372,1.6334411825000477,1.6054409414394373,1.5730140926958636,1.5929231829248254,1.5170770351534644,1.4635529810287164,1.5388315874985765,1.4568952840741007,1.390676546111226,1.4188235564161173,1.5807181084697766
1.5276470658192867,1.5460129908475067,1.5342522632950362,1.4827130393853962,1.4167279577274143,1.5222454369763994,1.5540561582048855,1.6004540944500254,1.5815354293321986,1.631809158259214,1.5673656573387849,1.6528166563335918,1.6816315038966734,1.6937545586228564,1.5349272893926473,1.6390005137280912,1.6012970253178396,1.7118698711980616,1.710426522161991,1.6262519100882775,1.643264062513001,1.654880728736424,1.6347170168068594,1.5646518136419287,1.6055095890873363,1.5632139520952328,1.5387386360195574,1.5351232903217418,1.5282176363485689,1.4432794330633723,1.4985771035679898,1.6061063276508185
1.4803197931097838,1.4861950031375493,1.512637241181107,1.4072669072792503,1.3905417507888345,1.5647358317166775,1.5047945946819896,1.549183739237518,1.5528410550293241,1.5495198384308138,1.5111768925177127,1.5662580060824136,1.7011468843649105,1.6329312485362355,1.5722134113946222,1.665493390208719,1.6433749675037923,1.76329496399582,1.7916654459547388,1.640432456028866,1.689733843485146,1.6917435832776113,1.6752933127912994,1.5733952616893974,1.6405766287068304,1.5015292648814507,1.4839698576896032,1.5353602638963915,1.4543709772009537,1.3825775546461807,1.426252777323054,1.5883032120568963
1.45305852009198,1.4664349987580607,1.5430258228652394,1.440760255391667,1.356599318425058,1.5691095457641577,1.5739526326109545,1.5293242289233273,1.4989738568943984,1.5634894645570603,1.536334223537524,1.5698433178975162,1.686293209290724,1.6048274025746754,1.504013997441499,1.645470219162602,1.6335838021523084,1.7553240941245123,1.7507824166149264,1.6628171737442297,1.6826887789739373,1.6789241752710244,1.6508783057175376,1.5831919452763765,1.6233105062244415,1.5068646420288911,1.4613947595367927,1.4974300274132444,1.4270322956940287,1.3837491075869484,1.422841539044925,1.6225321669381123
1.5132488741317032,1.5215309521825502,1.554647640588881,1.5593318258646978,1.4512315322125249,1.571050088330655,1.5209517230576193,1.5309483309436398,1.5681662033799129,1.5378631961088485,1.5123231159617423,1.5170897567314678,1.7141633640925094,1.5636811595839308,1.4742174302386646,1.6338358290975332,1.6323861249236191,1.769494766825525,1.8012174357255892,1.6525318589097546,1.6713928099017412,1.693190080821709,1.6481536391569227,1.554726195195224,1.6391703989975552,1.5778360160333582,1.5075671745175485,1.5322416625059674,1.4887928766731626,1.4356083766800254,1.4805580150858777,1.6188227985120405
1.5013006790529755,1.5473635704617632,1.559975518774471,1.5595625134245732,1.4281714352399804,1.598047119814031,1.5788726918567548,1.5827085719468381,1.5630468194026061,1.5748584966659274,1.5448370603277628,1.5499718234697408,1.732994850504686,1.5678372880512899,1.4833326605929698,1.6375929967732423,1.63254899490017,1.7687899406180658,1.7546000258093624,1.654862986613622,1.6818274318939839,1.7240569274937751,1.6883039283215822,1.5247399434350646,1.669364828454819,1.5730855875795418,1.5288357475211092,1.5167046170794032,1.4868068104232708,1.4269639659481823,1.4910106457429249,1.59952890502988
1.485983963117592,1.4993754919940452,1.5365745529840025,1.528910334559091,1.4681641264481358,1.5643056496613836,1.5616973311493743,1.5496537931847845,1.5959524103016376,1.5609036854717124,1.5454127403259532,1.4928352677281598,1.7277675739849103,1.5373294550652896,1.4969266376175914,1.6457204796005884,1.6211512241353871,1.751441218344878,1.7558682140106663,1.6170065981947828,1.671445672779999,1.6972932227623558,1.6500110849654004,1.521428014025293,1.6422677780149517,1.57580343315013,1.5270999141157375,1.5167000530111745,1.4867038757961637,1.455107897737194,1.4675218138542634,1.5872381090170447
1.50010943651585,1.4927526953353296,1.526151533336132,1.5212379944175898,1.4244899508817954,1.5115605631816962,1.5467111750755846,1.5243281378252196,1.5364324674394207,1.566542893276664,1.582030642180608,1.5522201649173322,1.7395513038420125,1.5915043075572854,1.4724643090434089,1.6260975501405006,1.6207103272929726,1.7670345157479146,1.7287020260960353,1.6308442513968708,1.6615844111499574,1.7023043058254717,1.6424458986659132,1.5097471393600606,1.6280556093363054,1.5418749197084345,1.5260844052615683,1.5115021264449608,1.50354817191971,1.457523196775423,1.4849006494322767,1.5877177237633047
1.4413488283736466,1.4739000074355262,1.572538397397385,1.5414926222525012,1.4331471047282736,1.5600467738219121,1.5775094177111784,1.569151042998591,1.4949759262454767,1.542650571544442,1.5839127097840158,1.5184030743386518,1.7171602438839089,1.5738756658993935,1.4768552618516173,1.614004306199795,1.6037482703092543,1.7366378952964232,1.7309360815745927,1.6125814886304994,1.6049579812895067,1.6381719586674939,1.569415095649064,1.4947417078111689,1.5917253064884838,1.5182525816280286,1.4619402915778668,1.504602267487572,1.4237486896929477,1.4463336798521718,1.463817453128509,1.592250532035129
1.4208557861170312,1.465532976604282,1.4933164828541428,1.5611172888825555,1.4573609437644193,1.4877947877208428,1.50658947213979,1.5285330469887868,1.5607920075320032,1.50295207481813,1.5251527902976414,1.5274651881466823,1.7430363071631851,1.6114956588484597,1.4738956656373772,1.6221180216562727,1.6070019050740036,1.768615128050501,1.7622627770919908,1.5860778756799006,1.6139251756436044,1.6826692289026155,1.5957710631124107,1.4544566722674481,1.5420198571939308,1.5095895113862166,1.4325134921411702,1.4202821558998384,1.3661659888917232,1.411240604765509,1.4852889748139844,1.545432880417626
1.4684777540716425,1.4725283961589182,1.5133831218071445,1.5342024050211132,1.4945027535409117,1.4949127680967325,1.5061016891416905,1.5629006958840084,1.5178769494473021,1.4721955762280148,1.50453315675213,1.4525181465524057,1.7588874754363275,1.5655211798280941,1.4966535128877432,1.6406399094418074,1.6273252688563689,1.784144286102251,1.7504012970712903,1.5829906982329243,1.6241569123421293,1.7085123268703528,1.6257795522683647,1.4564525990084753,1.5922329293299748,1.5299848504455729,1.5114577210654834,1.4760120918046369,1.4762852312924226,1.4183058381681557,1.4808111922613698,1.5905760877178021
1.4296114136569045,1.4429860866054585,1.4944879824540285,1.482979771160886,1.4698913698119862,1.5020336373729164,1.5406257955523608,1.5034230553523322,1.5163252306409365,1.4973112295900284,1.5124956031532724,1.4619659633186595,1.7134149273006163,1.5562784954272257,1.5197749595937549,1.6141870920525327,1.5811450570650143,1.7408254324067236,1.7039301651088152,1.5801098569790195,1.6141294024286856,1.65293005439161,1.5958376744933327,1.4416291331550373,1.5597956227557936,1.486069558723453,1.4701650882238426,1.4530461573912006,1.4121836518808384,1.3945166343483393,1.4574856429292191,1.5632473964320168
1.467176703296249,1.4764855944514055,1.5280989909529192,1.5308813501149994,1.4496004315689144,1.4566253253493542,1.4373588741862868,1.531215645471204,1.5597740391283197,1.422403279582744,1.4621975147872102,1.4589576959653272,1.7032734016177604,1.5619502599910162,1.4902546697413763,1.61003464987928,1.5425115846934374,1.7194809293746767,1.6875917129076752,1.544824616640073,1.5935249413891504,1.6565173141166212,1.6169966756677052,1.459666482611805,1.556983746839914,1.5177547557113578,1.4987968405417909,1.492912256331962,1.4719247164422924,1.4123445190878958,1.4750730335771696,1.569697104103948
1.4150710519120138,1.4419602193675836,1.4907139026833327,1.423409750030947,1.4269080000456054,1.448516866161948,1.4795539003908622,1.5251490133568388,1.5782315158826838,1.4291243701071978,1.4599155789313727,1.5342767660900432,1.703897888412638,1.6628123691368801,1.5967245925642206,1.6655667370908591,1.5650542382543982,1.716531089526715,1.6894339493971877,1.5201348649056183,1.5254934866722127,1.6168419831600311,1.494564277895799,1.345645238672686,1.4412014092342857,1.4225194498690867,1.420575353271548,1.4099376319299786,1.390565733635573,1.3836913203714045,1.4828916977837678,1.4572834375034724
1.4065418699930634,1.419705204409202,1.4303522359758583,1.3885375298087579,1.4030726106112157,1.3869398918005373,1.4314136002595412,1.5129940233468,1.5239490507277007,1.429705237822666,1.4382289310916345,1.534159187278922,1.697616302871879,1.6172109577876805,1.6047075113317701,1.6546702879022925,1.5882686701391298,1.6976021545850333,1.641667116728661,1.5654507528332546,1.5272119341200296,1.5981131116263227,1.482789793652707,1.3902289927659222,1.434508630978157,1.410949986263674,1.4243849901666448,1.419147494460144,1.3803345493363715,1.3860923184898015,1.441351729688172,1.493320986551755
