Fp1,AF3,F7,F3,FC1,FC5,T7,C3,CP1,CP5,P7,P3,Pz,PO3,O1,Oz,O2,PO4,P4,P8,CP6,CP2,C4,T8,FC6,FC2,F4,F8,AF4,Fp2,Fz,Cz
32,31,20,12,20,24,31,32,23,31,29,25,21,23,29,29,29,25,23,35,23,25,21,35,26,27,26,25,35,27,24,23
36,34,21,15,22,25,33,30,26,33,31,27,23,25,31,27,27,25,21,31,20,25,18,35,27,28,28,26,34,26,22,22
38,36,24,21,24,28,31,28,27,31,34,30,25,29,33,29,27,25,23,32,20,25,17,31,27,26,32,26,34,28,24,25
40,38,24,24,26,28,29,28,29,29,33,31,29,28,29,26,26,27,21,32,20,24,20,30,30,28,34,24,33,28,26,23
41,36,22,27,25,30,28,30,30,28,32,32,28,30,32,28,32,25,19,32,20,21,21,34,33,29,37,27,33,29,27,24
39,36,20,29,25,27,24,29,28,26,30,30,26,28,30,25,29,23,17,32,21,21,19,36,31,27,33,28,33,26,27,22
37,39,20,30,25,28,26,27,27,23,30,28,26,28,30,26,32,24,18,32,22,22,22,36,30,27,32,29,29,25,28,23
39,41,16,29,25,24,22,24,27,20,27,24,28,26,28,24,32,24,18,30,22,20,25,35,29,26,33,29,29,25,29,23
37,40,13,26,22,24,19,23,25,17,23,21,25,23,25,21,29,21,17,29,20,18,24,32,28,22,29,27,27,25,26,21
31,38,11,24,22,26,16,24,26,16,22,20,28,20,22,18,27,19,16,27,24,21,29,32,32,24,29,24,21,21,23,22
30,35,10,26,24,26,16,26,28,16,24,22,30,24,24,20,28,21,18,26,26,22,30,31,35,22,29,23,21,19,25,23
29,31,9,25,21,27,15,29,28,19,23,23,27,23,21,19,27,19,19,27,29,21,34,31,29,21,25,19,17,19,23,19
29,30,10,21,20,24,18,32,31,20,21,23,29,22,20,15,23,17,17,25,27,24,36,31,32,21,23,18,17,19,22,18
29,27,15,21,21,27,22,32,31,24,24,24,29,28,20,14,20,16,20,24,28,26,32,31,30,21,23,19,16,18,19,22
32,30,18,20,24,24,19,29,28,20,21,20,28,24,16,12,14,14,18,20,26,24,31,32,25,21,26,18,18,16,17,21
34,28,23,20,22,24,21,27,26,18,18,18,26,22,14,10,12,14,16,16,26,22,33,33,30,22,28,14,18,18,16,20
36,26,24,21,20,30,24,27,27,18,17,17,25,21,13,9,9,11,13,14,25,19,33,35,35,18,27,15,23,24,14,22
39,27,28,26,26,34,26,30,27,20,18,20,23,24,12,10,13,15,15,19,27,21,30,36,40,21,31,23,27,29,15,22
43,29,35,29,29,33,33,30,27,25,25,23,25,27,15,15,17,19,17,19,29,23,34,39,44,25,35,27,31,33,17,24
45,33,37,32,31,35,35,33,25,25,25,25,20,27,17,16,19,22,18,20,29,21,31,41,45,23,33,33,38,35,17,22
46,34,40,32,33,38,36,33,23,27,23,23,19,23,15,13,15,21,17,24,28,22,32,42,46,26,34,30,38,38,14,25
49,38,42,36,36,42,40,33,24,28,26,20,18,22,20,16,14,22,16,26,26,20,31,39,51,30,41,32,45,43,20,30
48,44,42,42,39,44,39,31,18,27,27,17,14,19,20,18,16,28,20,28,29,17,28,43,50,30,42,33,46,44,22,31
47,47,37,44,37,44,35,29,15,23,25,13,9,13,17,17,17,25,19,27,27,13,30,45,50,29,43,29,47,42,26,28
42,41,34,41,33,42,38,30,16,24,26,14,10,14,18,18,18,26,20,28,30,16,33,48,50,26,37,27,43,39,24,28
38,40,29,37,34,41,35,32,16,24,26,14,10,14,18,18,20,26,22,28,28,20,31,47,43,26,36,28,50,40,24,31
37,41,34,39,34,39,31,34,18,25,28,14,14,12,20,18,22,31,25,33,29,25,29,47,41,26,34,26,46,34,24,28
33,41,35,39,33,39,35,35,21,29,31,17,18,12,23,19,18,30,26,28,27,26,30,45,36,26,30,20,40,28,23,27
35,42,32,38,32,40,31,36,21,27,28,18,17,13,23,19,19,30,29,30,27,27,26,43,35,26,30,18,42,26,24,26
35,43,28,35,33,34,28,34,20,28,28,16,21,16,22,23,23,33,32,30,26,30,29,45,35,27,35,18,40,29,29,27
35,43,27,35,33,35,31,34,21,28,30,15,21,17,23,28,28,36,36,31,25,29,28,45,33,28,33,21,41,29,31,27
35,39,23,29,31,29,28,32,21,22,28,19,25,20,20,26,30,36,36,30,24,31,28,46,30,25,30,21,38,26,27,25
36,36,24,24,29,30,28,32,24,24,30,22,30,24,20,26,32,34,37,30,25,34,31,44,31,26,28,24,38,24,26,23
36,34,26,24,27,30,33,35,29,29,33,27,35,29,23,31,37,37,37,33,27,37,32,46,32,25,27,28,38,25,23,25
40,37,31,27,29,34,32,38,28,28,32,26,34,28,22,30,36,36,36,32,24,40,30,41,37,25,27,34,41,28,23,29
41,37,35,32,27,39,37,41,30,32,37,31,38,35,25,35,37,36,39,39,29,40,32,40,40,25,25,38,37,27,21,32
43,39,29,32,28,35,35,36,28,30,34,32,36,38,26,36,40,37,38,36,30,41,32,40,38,29,29,37,35,27,25,33
45,35,23,30,29,33,29,35,25,27,31,29,33,38,27,37,43,31,35,33,28,41,30,42,38,28,29,36,40,32,24,37
46,35,21,29,27,31,27,33,27,25,33,27,35,37,29,35,43,31,35,34,29,43,33,45,36,27,27,36,41,34,21,39
50,34,25,32,26,35,31,33,31,26,32,28,32,36,30,33,41,29,34,32,32,40,27,42,37,24,22,36,42,32,18,40
51,34,22,32,26,30,26,32,33,26,34,31,33,36,32,30,39,27,29,27,33,42,26,42,36,23,22,36,42,30,20,39
49,33,26,37,26,34,24,34,31,30,38,29,31,34,34,31,40,29,31,29,36,45,28,43,36,24,23,37,41,27,19,39
49,30,23,37,25,31,22,32,30,28,36,28,28,32,34,32,40,30,33,35,36,44,24,43,36,24,23,33,38,30,16,40
48,28,22,35,27,27,18,32,28,24,32,24,23,28,32,27,33,27,34,33,31,44,23,37,35,25,23,34,38,29,17,37
46,29,19,33,29,28,18,30,30,26,36,28,28,30,36,30,36,32,34,38,32,40,24,37,32,28,28,30,38,30,20,37
43,31,20,33,31,25,14,29,29,25,35,27,28,25,35,26,35,31,33,35,30,38,20,36,30,29,29,28,38,31,23,35
43,32,21,29,31,24,15,31,29,24,34,24,27,22,32,28,31,29,33,33,25,34,19,33,27,26,26,26,40,34,20,33
41,33,21,26,30,21,17,34,30,24,31,21,25,19,27,23,27,29,33,33,25,31,19,29,25,28,26,25,40,31,22,28
37,31,23,28,29,23,17,37,31,27,27,21,27,19,25,22,26,30,33,31,24,28,16,26,22,25,28,25,36,29,24,25
35,31,23,30,28,24,19,38,32,28,28,20,26,20,26,24,26,31,29,31,21,27,19,25,17,28,33,25,36,29,28,24
31,31,23,31,25,25,20,37,31,27,25,19,25,20,21,21,22,31,27,30,17,25,17,20,12,25,36,21,36,30,27,23
27,31,20,27,25,20,18,36,32,24,20,18,24,20,18,19,20,27,23,27,15,20,14,15,10,23,34,17,33,29,27,21
26,29,18,24,26,20,18,36,32,24,22,18,26,20,20,18,18,24,21,21,12,18,18,18,6,21,36,16,35,28,29,22
30,32,19,26,27,22,19,33,33,25,23,19,28,22,22,20,20,26,19,19,13,17,17,19,6,24,36,12,36,30,32,25
35,32,22,29,27,22,22,34,34,27,23,19,28,23,22,19,19,26,23,17,17,17,17,19,5,24,37,11,36,31,35,24
37,33,19,26,26,24,24,33,36,26,24,18,28,24,25,19,20,27,20,17,19,17,22,22,6,23,39,12,38,31,36,22
39,33,21,30,30,28,27,35,36,29,25,21,27,25,25,17,22,24,19,20,18,17,23,20,12,24,43,16,41,30,35,25
39,33,23,32,28,31,27,32,36,28,29,25,30,28,29,21,25,27,21,24,20,19,28,20,14,22,45,18,43,30,32,28
38,35,23,32,31,31,31,33,33,29,31,29,27,27,31,24,28,29,20,26,22,22,28,20,16,26,44,16,42,28,34,31
37,31,23,29,30,28,29,28,31,25,31,29,31,25,33,23,29,29,21,29,24,23,28,21,15,25,44,13,41,28,32,33
38,29,25,29,33,31,31,29,31,25,31,32,33,28,37,27,35,33,26,32,28,21,32,26,16,29,42,16,38,28,31,35
39,29,30,32,36,34,36,30,30,30,36,30,32,26,40,28,38,32,30,34,30,20,35,30,19,28,42,19,39,31,31,37
38,34,34,36,34,36,38,32,32,32,38,32,32,26,38,30,40,34,31,34,34,22,32,28,22,30,40,22,38,29,34,36
34,32,33,34,31,35,37,31,29,31,39,33,33,27,39,31,41,35,33,37,37,26,33,27,24,26,40,25,36,29,30,35
30,31,31,32,30,34,36,30,30,31,40,35,30,26,38,34,44,34,30,36,34,28,32,24,24,27,38,24,36,26,28,36
27,31,31,33,30,33,36,30,32,32,40,38,30,28,36,35,43,33,31,35,33,28,29,21,23,27,37,23,35,27,27,38
24,30,32,31,25,31,34,27,32,30,40,38,29,29,38,36,42,35,32,35,36,28,29,26,23,25,32,26,34,29,26,36
24,30,31,32,23,29,34,26,30,30,38,36,26,28,38,35,40,35,30,34,35,29,25,29,25,25,32,27,28,31,29,38
27,31,29,31,23,29,31,25,31,27,37,35,25,27,35,31,35,31,30,33,35,26,25,31,24,23,30,29,27,34,27,37
26,31,27,30,22,29,31,27,33,31,35,35,23,27,31,29,33,27,31,29,33,25,24,31,25,21,27,33,29,38,24,35
28,31,28,29,19,28,30,28,32,30,34,32,20,24,32,27,31,25,30,30,32,27,24,32,26,19,25,34,29,40,23,33
32,36,25,28,17,28,28,26,33,26,30,34,24,24,31,26,30,26,28,28,30,28,21,33,25,20,28,35,30,42,24,31
32,36,23,25,18,26,27,24,32,24,28,32,23,26,32,28,29,26,26,28,26,26,22,30,26,19,30,37,31,43,21,31
37,38,24,26,20,30,30,28,33,30,30,34,24,28,34,30,32,26,26,29,27,24,24,31,25,20,30,33,30,39,24,30
37,38,25,27,21,32,32,31,33,31,30,34,27,30,36,30,32,28,28,30,30,24,26,36,28,18,32,35,33,39,23,27
41,39,27,29,21,33,33,33,33,33,31,33,29,31,39,33,35,31,31,31,33,27,29,39,31,18,31,37,31,39,21,28
43,40,26,30,24,34,36,35,31,35,33,32,31,33,39,36,36,30,32,30,34,28,32,35,29,20,34,34,30,36,24,28
41,39,30,29,28,38,40,37,33,37,37,35,33,35,39,38,36,30,32,33,32,27,32,35,30,21,34,33,35,35,21,25
38,40,30,32,27,40,42,36,36,40,40,36,32,38,42,38,39,28,28,32,28,28,30,32,33,21,37,34,38,35,20,25
41,40,35,35,30,43,45,39,35,40,40,37,33,39,42,36,43,28,31,35,27,29,28,28,34,23,35,30,34,28,21,22
43,42,36,34,31,46,44,38,34,44,44,40,32,42,42,38,44,28,27,35,23,31,25,25,33,25,38,29,35,25,22,21
43,43,37,34,33,44,43,38,33,44,44,40,30,44,40,38,42,30,28,34,22,32,24,21,32,29,35,28,40,25,23,19
40,40,39,36,34,46,43,42,32,48,44,40,30,42,38,37,43,30,32,39,26,36,28,26,33,31,34,27,39,23,25,19
35,35,37,39,33,43,41,39,34,43,41,39,29,39,33,31,39,30,32,39,25,36,29,30,34,34,36,32,42,28,24,22
34,34,36,38,34,40,38,38,34,42,38,38,28,36,30,28,36,27,32,40,22,35,29,28,34,37,35,34,40,30,25,24
32,34,35,38,34,39,37,38,33,42,36,38,26,34,28,28,36,26,32,42,22,32,26,26,34,37,39,35,44,30,26,25
31,33,32,40,35,38,33,35,34,39,35,36,27,32,27,27,36,28,32,42,22,34,23,30,35,35,37,33,43,31,28,25
28,32,30,40,33,38,30,34,32,38,32,34,28,31,28,25,39,29,32,42,28,35,23,32,29,38,36,30,38,30,32,26
30,34,32,36,34,36,30,33,31,35,29,33,29,29,27,27,38,31,33,41,32,35,27,34,28,39,34,30,36,30,32,27
30,38,27,33,30,33,27,30,30,35,34,32,30,28,27,29,34,31,32,41,36,34,34,39,26,39,38,31,38,31,31,30
25,36,25,34,31,30,26,31,29,31,29,29,31,25,25,29,34,31,34,40,40,34,35,40,27,36,37,34,38,33,33,31
22,32,25,33,28,30,25,34,30,30,30,30,33,25,25,31,35,31,35,42,44,33,36,46,28,34,34,36,35,32,34,32
26,34,21,32,25,27,23,29,31,25,27,29,35,23,25,29,33,29,31,41,43,29,32,42,26,34,35,36,36,32,33,34
30,40,25,30,24,28,27,30,30,26,27,29,35,21,27,33,37,30,34,40,44,27,30,41,24,33,32,35,37,29,37,32
32,42,27,30,26,28,28,28,28,26,28,30,36,22,28,34,38,34,35,39,43,29,29,39,23,33,31,34,36,26,36,30
34,40,26,29,26,28,26,28,28,25,29,29,37,23,29,35,39,33,33,37,41,33,29,39,22,32,29,36,36,28,34,29
34,42,27,29,22,29,27,30,27,24,26,28,36,20,26,32,36,32,32,35,41,32,30,35,20,34,32,36,38,28,32,27
36,44,24,32,22,26,24,32,30,24,26,28,33,21,22,32,33,32,31,29,35,32,31,31,20,35,33,36,43,27,29,29
37,40,24,31,23,24,20,30,30,23,27,24,37,25,23,35,33,33,31,31,33,33,29,30,18,36,34,36,46,30,31,29
38,38,24,31,25,23,20,28,30,20,26,24,36,26,26,36,36,34,28,30,30,34,23,28,21,39,36,36,46,33,37,29
42,39,20,33,24,20,20,30,31,20,29,27,35,27,26,34,36,30,27,26,27,31,21,24,19,39,33,30,43,31,35,31
42,38,18,32,27,18,18,26,33,20,28,28,35,29,29,35,38,29,30,26,24,35,22,20,22,38,34,30,42,32,34,35
40,38,17,32,29,21,19,31,33,23,31,32,35,33,33,37,39,29,27,23,19,36,20,20,20,36,32,26,42,32,31,33
35,35,15,31,33,23,18,33,33,23,32,28,34,35,35,37,39,29,27,23,21,39,23,21,23,34,32,24,38,34,26,35
35,35,15,32,30,24,20,34,34,22,34,26,32,34,34,38,40,29,27,24,24,37,23,26,23,33,31,25,41,38,26,36
34,36,13,31,31,20,18,30,34,18,32,25,31,31,33,35,36,27,25,23,23,33,21,27,23,34,31,22,39,36,28,35
35,37,17,31,33,21,24,30,36,22,37,28,32,33,38,38,40,29,29,27,25,32,22,31,23,35,29,23,39,37,29,37
35,35,19,27,32,21,27,27,36,22,36,28,33,32,42,40,44,28,32,33,29,32,24,37,27,30,28,27,36,41,29,34
35,35,18,29,31,24,29,29,34,23,35,30,29,27,39,37,41,29,33,35,31,33,25,37,29,31,29,26,34,37,29,35
29,35,20,31,31,28,33,32,36,24,35,30,31,26,37,37,39,29,33,35,31,35,27,37,28,27,28,28,35,39,27,37
28,34,24,30,30,30,36,29,38,28,33,29,33,29,38,38,38,36,37,38,34,36,31,42,32,28,28,32,36,37,26,38
30,34,28,33,30,32,38,30,36,30,35,28,33,27,37,35,35,35,33,39,35,33,33,42,28,28,34,32,36,38,27,38
30,34,31,33,31,29,41,29,35,31,37,28,33,27,37,37,37,39,37,43,41,34,36,43,30,31,34,36,36,38,33,40
33,35,32,33,30,28,39,27,37,31,37,31,31,28,34,36,32,36,32,42,38,33,33,41,28,32,35,38,38,38,37,37
31,33,30,34,30,26,36,26,36,30,32,30,32,26,34,36,30,32,27,42,35,33,34,35,32,31,37,36,33,38,39,36
32,30,31,34,27,28,38,29,36,32,32,30,31,27,33,35,30,31,27,43,35,33,33,33,29,32,36,38,34,38,40,35
36,28,31,32,28,31,35,28,34,33,33,29,28,28,29,33,26,28,22,39,31,30,30,31,30,35,39,39,33,38,41,36
38,30,30,34,31,30,34,32,33,32,31,29,29,27,28,33,23,30,22,37,31,31,28,27,28,37,39,37,33,39,41,36
41,29,32,34,30,28,34,34,36,32,32,30,30,28,30,32,24,28,22,34,30,28,28,26,31,36,39,40,36,42,38,35
43,31,35,33,34,28,31,34,32,30,30,29,29,27,28,30,24,28,22,32,28,26,30,27,33,37,39,41,37,41,37,34
44,33,35,33,36,30,29,36,30,28,31,30,28,23,27,31,25,24,20,33,27,27,30,25,33,37,39,42,40,44,39,31
44,34,35,31,36,32,26,37,29,30,29,32,27,21,23,31,23,25,22,29,27,26,30,26,34,38,38,38,40,40,40,26
47,31,36,30,32,34,22,38,30,28,26,30,26,18,20,28,20,24,22,24,26,24,29,28,37,34,37,39,39,41,34,24
45,31,37,33,33,35,23,37,27,29,27,31,25,19,21,29,21,27,23,23,23,20,29,31,35,37,39,37,39,38,33,23
43,32,39,33,32,37,25,39,27,31,31,31,23,21,21,27,23,29,25,21,23,19,28,35,33,37,41,39,39,37,33,24
41,35,40,34,33,40,26,40,28,34,33,33,23,21,21,27,23,29,25,18,22,19,32,36,36,36,44,39,40,36,32,23
36,36,39,32,32,37,25,38,28,31,31,34,26,21,23,29,26,32,28,22,25,20,33,35,32,35,41,35,37,34,32,20
34,36,42,30,31,40,25,36,26,32,34,34,25,21,23,27,29,31,26,21,23,19,33,33,30,33,41,33,37,30,33,21
32,37,41,32,35,43,27,39,23,34,36,33,23,19,21,27,27,29,25,23,23,19,31,35,29,31,40,33,33,26,33,22
31,33,35,33,30,44,28,39,27,37,38,38,24,24,26,32,30,28,28,28,24,20,29,33,27,29,39,27,29,23,33,20
26,29,33,31,28,42,29,40,31,37,38,35,27,26,24,30,28,27,27,26,24,19,26,36,28,29,41,26,27,21,31,20
25,27,31,29,25,41,31,39,33,34,40,34,28,26,26,32,32,28,26,30,22,21,24,38,27,25,41,25,25,19,27,23
23,30,30,31,27,42,36,38,34,36,42,36,27,30,28,32,36,26,24,32,18,21,23,36,23,27,43,26,25,18,29,25
28,32,28,29,28,40,34,38,34,34,42,34,28,28,28,32,39,26,26,35,21,22,21,33,24,26,45,29,29,22,30,27
29,32,26,30,26,39,34,37,35,33,40,35,29,28,27,36,39,26,26,37,23,22,22,32,20,24,39,28,29,21,29,24
30,29,27,30,28,37,34,38,35,32,39,35,29,27,27,35,39,26,25,38,22,21,18,32,18,26,40,26,28,19,27,26
32,28,24,28,26,38,37,39,37,33,39,35,31,27,27,35,41,27,27,38,19,23,16,35,20,27,42,28,32,22,27,28
36,30,26,32,26,40,39,38,40,36,40,36,32,27,27,35,39,27,27,35,19,23,15,39,21,27,43,31,33,25,27,27
36,30,26,30,23,38,38,36,40,32,36,35,35,27,25,35,41,29,29,33,19,24,15,35,20,28,42,30,34,28,30,25
38,33,30,28,24,37,39,36,40,32,34,32,35,24,22,32,39,30,28,31,20,25,15,38,21,26,40,31,37,29,28,25
44,36,33,28,24,39,39,33,38,32,34,34,32,26,28,36,42,34,30,32,22,27,16,34,18,28,39,32,40,32,28,24
45,37,33,29,25,39,41,34,37,33,33,33,31,30,30,36,42,34,32,32,24,25,18,32,23,29,37,37,41,37,31,22
45,35,34,31,27,38,38,33,37,33,32,33,31,29,30,36,38,32,32,34,28,25,18,33,26,28,35,33,41,39,31,21
44,32,33,30,26,37,37,33,39,31,29,33,35,29,31,35,34,31,31,32,28,26,19,32,23,26,30,30,36,36,28,20
45,31,33,30,28,36,36,34,39,30,30,34,33,32,32,33,35,33,31,32,26,26,19,31,25,26,29,29,37,37,26,23
48,31,31,28,26,35,34,32,40,28,28,32,34,32,32,34,34,33,32,32,30,27,22,30,26,23,25,29,36,38,26,25
46,30,34,32,30,34,34,34,39,29,25,33,32,31,33,35,31,30,28,32,34,26,26,30,28,20,24,30,34,36,26,26
44,26,31,27,28,30,31,32,41,26,22,30,33,34,34,38,34,33,32,34,32,25,26,26,28,19,22,28,32,34,27,27
42,26,28,26,28,28,28,30,39,26,22,30,33,34,34,36,34,32,28,34,32,27,28,28,28,21,24,30,33,34,27,29
38,23,26,26,26,26,27,30,38,26,22,30,32,34,34,38,36,33,28,32,33,23,31,26,28,24,26,31,31,33,28,29
36,22,23,26,28,24,23,30,36,23,19,27,30,29,29,35,33,31,25,31,31,20,29,25,31,25,27,30,31,32,30,33
35,21,21,29,29,19,19,28,35,24,16,24,29,30,27,34,31,29,25,29,29,20,29,25,27,25,27,25,31,29,29,38
35,22,17,30,29,19,21,28,37,25,17,23,30,31,28,34,34,29,23,27,27,18,30,28,25,28,30,24,31,32,29,38
37,25,19,30,30,21,22,27,35,25,19,22,30,30,28,34,36,28,22,28,24,19,30,31,27,31,32,29,35,37,32,37
38,26,20,28,28,22,22,29,36,28,20,20,33,28,30,34,36,26,22,28,22,17,32,34,30,31,34,30,36,36,34,38
36,28,20,28,30,24,22,30,34,30,22,22,34,30,32,36,38,30,24,28,20,19,30,34,30,32,34,30,36,38,32,36
36,29,18,27,29,22,20,28,31,28,22,19,31,29,29,36,41,33,25,26,18,17,28,34,28,31,32,28,33,37,31,36
36,32,19,28,30,24,22,30,27,30,23,20,31,25,27,33,38,30,23,25,19,20,31,35,29,31,34,29,34,40,31,34
38,32,18,31,29,26,24,31,31,32,28,22,30,28,30,34,38,30,26,28,18,21,32,36,30,30,34,26,35,40,29,33
41,35,19,31,31,27,25,30,30,32,27,22,30,27,29,32,38,32,26,31,14,22,29,39,30,31,33,27,35,41,29,35
43,37,21,33,29,29,25,33,33,35,29,25,33,29,31,31,37,29,29,31,12,25,29,41,27,29,31,29,36,41,27,32
39,37,23,31,29,31,30,33,32,33,32,28,33,26,30,30,38,33,30,32,10,27,31,39,26,29,31,31,35,39,27,28
36,34,25,27,25,29,29,32,32,31,31,25,32,28,25,31,37,34,32,36,7,31,30,38,29,26,26,35,32,32,26,26
29,31,23,28,25,29,27,36,32,33,30,23,32,27,27,33,39,35,35,35,7,32,31,36,30,25,24,31,30,25,26,28
25,29,23,29,25,26,26,34,30,30,28,22,30,26,26,32,38,36,36,34,8,34,33,34,29,24,23,31,25,23,23,28
21,26,26,28,22,26,24,36,31,28,24,20,28,24,24,30,36,32,34,32,6,30,34,37,28,22,21,30,23,19,23,26
19,28,30,30,22,30,22,40,33,30,28,23,30,25,27,29,34,30,34,32,4,33,33,36,30,22,19,31,22,18,22,22
18,29,32,33,25,31,22,41,34,31,28,24,30,26,28,28,35,32,36,34,3,34,32,39,34,22,18,33,22,16,21,22
18,30,34,34,28,32,22,42,35,33,26,25,31,27,27,31,37,35,35,34,1,34,32,40,32,19,18,34,20,14,24,24
17,27,33,35,29,31,21,43,36,33,28,26,30,26,26,30,34,33,33,34,1,35,33,39,33,17,19,35,19,13,24,24
15,24,31,34,28,29,21,45,39,33,29,25,31,27,27,31,35,37,31,37,5,31,33,38,36,16,20,36,17,14,22,26
19,27,33,37,30,29,18,47,41,35,32,26,30,30,29,33,36,38,32,38,10,31,31,41,40,18,22,37,18,17,25,29
22,30,36,38,33,32,18,48,39,36,32,29,32,28,31,31,35,38,29,35,12,33,31,36,37,18,24,34,18,18,27,31
25,33,39,33,32,33,22,49,37,37,34,31,33,31,31,29,33,41,27,35,14,34,30,38,36,18,25,34,19,21,25,29
27,37,39,33,35,36,24,48,40,38,38,32,32,32,34,30,36,42,28,36,14,37,27,36,33,21,25,31,21,25,27,25
30,40,38,36,38,38,28,46,40,42,42,30,32,34,36,34,40,46,30,42,18,40,26,37,34,23,28,34,24,28,30,29
35,37,38,35,38,38,31,45,39,43,43,29,33,35,35,35,41,49,31,45,23,40,28,39,36,25,31,36,27,31,31,33
38,38,36,34,36,36,30,44,39,42,45,29,33,37,37,39,41,47,31,46,28,37,30,38,33,25,33,35,29,32,30,35
37,35,35,33,35,33,29,41,36,38,43,26,30,34,36,36,40,46,31,43,30,36,26,37,29,30,34,35,31,30,26,34
36,36,36,33,35,35,32,41,35,38,42,25,31,38,38,38,42,45,32,41,33,37,25,34,28,30,33,34,33,30,25,35
37,39,37,36,39,37,35,39,32,37,43,25,30,36,36,36,41,43,35,41,31,39,24,33,25,31,31,30,31,26,29,38
33,39,37,34,38,39,37,39,29,37,43,25,29,37,38,36,39,39,33,38,30,37,25,30,22,30,30,25,28,25,27,38
32,40,35,35,36,39,37,39,27,35,40,23,27,35,36,36,38,37,33,36,30,33,24,33,25,28,34,29,30,28,28,38
33,37,33,37,35,39,37,35,30,35,40,25,23,31,33,35,37,33,32,35,31,29,26,31,23,27,33,27,29,29,27,40
33,37,31,36,32,38,36,34,28,34,38,26,24,32,30,33,34,32,32,35,32,27,29,33,25,25,33,29,29,30,27,42
32,37,31,33,33,35,35,33,27,31,37,29,24,31,29,31,33,29,33,33,31,26,27,30,25,24,32,29,29,29,27,41
27,37,29,31,32,34,36,32,27,28,36,28,23,30,32,34,30,28,32,30,25,30,26,29,23,25,33,25,29,29,27,38
22,31,27,29,32,33,37,32,30,29,37,30,25,31,32,31,31,31,29,27,20,27,21,24,19,24,29,21,25,26,25,38
19,29,25,25,30,32,35,34,32,28,38,30,24,30,34,31,31,28,30,30,18,26,22,24,19,23,24,17,19,24,24,37
16,26,26,21,27,33,37,35,32,29,40,29,26,27,35,33,33,30,31,29,15,28,27,27,18,22,23,18,15,22,22,34
13,27,29,21,26,35,37,35,33,32,42,30,27,29,36,33,33,28,30,25,14,28,26,29,19,26,27,24,17,24,23,27
12,24,27,23,24,33,35,33,36,29,37,27,27,27,31,31,33,27,29,26,10,29,23,30,21,25,28,26,20,24,22,26
10,20,26,22,24,33,35,33,38,32,40,28,28,30,34,32,34,30,32,28,8,30,23,30,20,28,27,24,22,20,20,26
6,22,28,24,26,32,34,34,36,30,39,26,30,30,35,33,35,31,34,29,6,30,21,30,22,28,28,24,20,16,22,26
6,20,29,26,29,35,34,34,34,30,38,24,28,28,35,34,37,30,33,27,3,28,19,31,21,28,28,25,19,14,21,26
7,20,27,27,27,33,33,33,33,29,35,25,28,30,35,35,36,31,33,25,6,28,19,30,21,28,29,24,18,14,22,27
12,22,26,28,28,30,29,32,32,27,31,23,26,27,29,29,35,27,30,24,7,21,17,28,20,26,28,24,22,16,21,30
14,24,25,29,26,29,27,30,28,26,28,20,25,24,26,29,35,25,31,27,8,24,19,32,23,27,29,26,24,18,23,31
15,27,27,33,30,30,30,28,27,27,27,23,24,22,24,29,33,26,30,25,10,22,19,33,25,24,31,29,27,19,27,31
17,31,26,37,33,28,25,26,26,26,24,23,20,23,23,27,31,24,29,25,16,20,19,30,27,25,31,27,31,21,29,31
17,27,22,33,30,24,22,26,24,22,20,23,19,23,24,29,31,26,29,28,16,17,18,31,29,20,26,23,33,23,25,34
22,31,22,29,31,24,22,24,19,22,20,20,18,20,26,32,34,26,30,30,20,14,20,32,27,18,24,23,32,24,26,33
26,34,21,30,32,22,22,22,16,22,18,22,20,22,26,36,36,28,33,34,22,14,18,38,28,14,19,23,30,28,26,31
28,34,19,30,32,21,21,20,17,21,17,23,18,24,27,35,37,29,32,35,26,15,19,41,27,15,19,23,35,31,25,29
26,37,19,31,31,18,20,21,19,23,17,25,19,25,27,32,34,29,30,37,30,19,19,41,27,14,18,22,35,30,25,29
25,35,19,31,30,19,22,22,20,24,20,24,20,24,26,30,34,28,30,39,26,20,17,39,25,14,17,19,33,29,21,28
20,30,18,28,28,18,23,20,18,25,23,24,20,26,28,32,36,30,29,45,29,20,22,40,24,14,14,18,28,26,19,24
21,28,21,30,32,19,26,24,16,27,26,26,18,28,28,30,33,29,30,45,31,19,24,38,24,17,13,19,27,27,17,19
22,29,21,31,31,19,27,27,16,26,25,24,20,30,28,30,32,28,32,44,30,20,24,40,26,18,16,18,25,28,15,21
24,30,21,30,28,17,28,26,16,26,26,24,22,30,27,29,35,28,31,46,28,20,19,44,22,18,22,16,25,28,14,20
27,31,21,31,31,17,27,23,16,25,27,23,22,27,25,29,37,29,31,47,31,26,19,45,19,18,24,17,21,25,16,17
24,25,21,29,31,19,27,27,17,23,29,25,21,29,25,29,35,29,31,45,29,27,19,47,23,18,22,19,22,28,12,19
24,24,21,28,30,17,23,25,19,19,27,21,23,28,25,23,33,23,26,37,29,31,24,40,22,19,25,22,24,30,12,20
27,25,21,27,29,19,25,26,19,19,31,19,20,26,22,24,32,20,27,37,29,27,24,35,23,20,24,28,26,31,14,22
30,25,20,26,28,19,29,26,16,21,34,16,18,24,23,28,35,19,26,36,28,22,24,36,22,23,24,28,28,30,16,23
30,24,19,26,25,16,27,23,16,19,33,17,18,26,24,30,32,18,26,37,30,22,30,40,22,24,26,28,28,33,16,22
35,25,20,29,24,19,29,24,20,21,37,20,20,26,24,30,33,20,30,34,31,24,30,42,24,24,30,29,29,34,16,27
34,29,18,26,20,22,27,21,25,23,37,21,21,26,24,30,32,18,29,32,32,25,30,41,25,22,33,26,30,34,17,31
38,32,19,24,21,22,26,20,26,22,37,20,21,25,23,29,35,19,31,35,35,25,31,41,23,24,32,27,33,33,17,30
37,29,17,23,23,23,24,20,28,22,37,20,21,24,23,29,32,20,32,31,36,26,34,36,25,25,28,28,32,34,19,31
34,30,18,22,22,26,26,21,28,25,39,23,20,25,25,31,33,19,32,29,36,23,36,34,26,28,28,27,32,36,20,33
35,32,16,22,20,22,26,18,28,27,37,22,21,25,25,29,33,19,31,33,37,27,35,31,23,31,30,27,30,33,22,31
37,35,16,24,22,25,29,20,30,29,39,24,19,21,21,32,34,21,33,37,39,27,32,35,23,33,29,27,31,33,24,33
36,32,16,23,20,22,28,20,29,28,36,25,23,19,23,32,34,20,33,36,35,31,31,33,21,30,28,20,25,32,20,29
35,31,17,21,21,24,26,19,31,25,35,25,26,24,23,33,35,21,34,36,34,32,30,30,24,29,28,18,22,30,20,30
35,32,20,25,23,30,28,24,31,30,36,28,25,21,19,27,35,21,33,35,31,31,26,31,26,29,26,21,24,26,22,33
35,34,23,24,25,32,30,25,30,30,32,28,28,24,20,30,37,22,34,35,32,34,27,27,28,30,27,23,24,25,24,33
38,34,21,24,24,29,27,27,29,25,29,26,28,21,19,29,37,21,31,31,27,37,26,26,26,30,28,28,28,26,28,31
33,30,24,26,22,32,30,28,28,28,28,28,28,22,20,34,38,22,28,30,26,36,28,22,23,28,25,28,24,28,26,32
37,33,27,29,25,33,31,26,24,26,32,26,26,20,22,36,42,24,25,31,23,32,27,25,21,27,21,30,22,30,28,30
42,34,28,30,24,28,32,29,23,23,27,25,25,19,19,32,37,21,23,29,20,31,27,26,25,25,24,33,24,31,25,32
44,35,31,35,25,33,35,31,27,24,30,27,26,20,20,34,36,22,26,28,20,28,28,28,22,24,23,32,26,26,25,34
42,35,29,34,26,32,34,31,25,24,32,29,27,22,22,33,33,22,24,26,18,23,27,28,22,25,27,30,24,25,25,33
40,32,30,33,26,34,34,33,25,27,34,31,25,23,21,32,34,24,24,27,23,24,28,32,22,26,28,32,26,26,26,37
37,29,31,33,27,35,36,35,27,27,33,33,26,22,21,31,33,25,23,27,25,27,29,35,18,23,26,32,24,26,22,37
39,30,33,33,30,33,37,35,26,23,33,29,26,25,23,33,33,26,22,29,28,28,32,35,18,22,27,31,26,29,21,37
39,29,32,34,32,30,38,34,27,24,34,28,25,22,22,32,32,24,20,30,26,26,32,38,20,22,25,31,28,31,23,36
37,31,35,35,35,31,39,33,25,27,33,26,24,24,22,33,32,26,22,32,28,25,29,40,20,23,26,27,27,31,24,37
44,36,32,32,36,28,36,32,26,24,32,24,24,23,22,31,29,25,21,33,27,26,27,46,24,25,33,32,35,34,29,34
42,34,28,29,29,27,36,36,31,25,29,25,25,23,19,27,25,25,21,33,25,27,26,46,28,25,34,30,38,34,26,36
41,38,29,31,29,31,34,35,30,24,28,22,26,22,18,26,24,24,20,32,24,26,21,42,27,24,35,29,39,36,30,37
41,39,30,27,31,30,32,36,28,22,24,20,25,22,16,22,24,22,18,28,22,26,22,40,32,23,38,34,41,43,30,36
42,39,32,26,31,33,35,37,29,23,23,19,25,21,15,21,25,23,19,29,23,29,23,38,35,21,39,35,43,40,30,35
41,39,34,27,35,34,36,37,31,23,22,19,27,23,17,23,25,23,18,28,22,28,23,39,35,21,39,35,43,39,31,35
41,43,35,28,32,32,35,34,28,24,21,18,29,21,18,22,26,22,18,26,22,26,24,38,41,25,43,37,47,42,35,32
39,42,33,25,31,31,33,33,30,27,23,19,27,20,20,22,26,21,19,24,23,25,23,35,43,25,46,39,46,43,37,29
37,45,32,24,30,32,30,34,29,26,22,20,25,20,20,20,24,20,17,22,21,25,20,36,43,26,48,39,46,39,36,28
35,43,31,23,29,33,35,35,31,27,27,23,28,21,23,21,25,23,19,25,21,24,22,37,45,23,49,41,43,39,33,27
34,40,31,23,29,33,35,35,29,27,29,23,31,24,23,20,27,25,21,25,25,24,24,34,44,22,48,38,38,38,30,29
32,40,34,25,33,33,34,33,27,28,30,24,32,29,24,22,27,23,23,25,27,25,27,32,43,25,48,41,38,35,32,29
31,37,33,25,35,33,36,33,30,32,34,28,33,32,28,24,31,27,25,30,31,29,28,34,43,29,45,40,37,35,31,27
29,38,33,28,36,33,35,33,30,34,35,30,33,32,30,25,33,27,24,34,32,28,28,33,42,32,45,36,36,31,33,24
26,34,31,27,33,28,31,32,31,33,35,31,31,35,35,23,31,25,23,33,31,27,26,32,38,32,40,32,32,32,31,25
29,35,29,27,29,26,32,30,28,34,32,28,28,32,32,20,28,24,22,32,28,24,26,28,39,31,43,33,33,35,29,24
32,34,29,27,31,28,31,32,30,34,31,28,24,31,29,19,25,23,21,31,27,25,25,25,33,31,42,31,32,34,29,26
33,35,31,28,28,28,30,33,30,28,26,26,24,29,25,19,25,23,20,28,24,24,24,28,34,28,40,28,35,29,26,26
33,31,31,29,27,29,31,33,31,29,28,28,26,32,28,20,27,25,21,28,25,23,25,28,32,29,39,29,31,31,27,27
32,27,31,31,27,27,27,31,30,28,26,28,25,33,28,21,31,23,19,28,25,21,25,30,31,31,37,28,31,29,25,27
27,24,35,34,25,29,30,33,29,29,27,29,21,31,27,20,30,21,17,27,21,21,24,29,32,30,32,29,33,29,25,24
28,24,35,32,24,31,31,33,29,31,29,30,23,30,28,21,30,22,18,27,21,20,25,32,31,27,33,25,32,27,26,21
26,24,32,32,24,30,30,32,29,30,30,29,23,29,27,22,29,21,19,24,19,19,26,31,33,26,31,21,30,22,26,23
23,19,31,32,24,28,30,33,29,29,32,29,25,29,27,24,29,24,21,23,21,21,26,32,32,25,31,18,27,20,25,25
26,20,38,35,26,34,33,36,31,31,31,27,27,27,23,25,29,25,21,25,23,21,26,34,35,27,35,19,31,19,24,23
26,22,40,36,28,35,29,37,32,27,31,27,30,28,25,27,31,25,21,29,25,20,24,37,36,30,36,18,34,18,26,21
28,24,39,36,30,35,31,39,32,29,35,31,34,29,27,29,33,27,25,31,27,22,24,40,42,32,39,24,35,20,26,20
30,26,39,38,32,36,34,40,32,34,40,34,36,32,32,32,34,28,29,35,31,24,23,39,39,35,40,26,32,22,28,20
32,28,40,37,35,36,32,39,31,33,38,32,36,28,30,32,35,30,30,35,33,24,22,38,43,38,41,24,34,22,27,17
35,31,41,35,35,35,31,43,32,35,37,30,36,28,28,30,30,28,30,34,32,22,22,33,41,37,43,27,37,23,31,20
36,33,36,33,35,32,28,41,33,33,36,30,37,26,28,31,35,28,32,37,30,23,22,35,38,38,46,26,37,23,31,21
34,30,33,34,36,31,29,43,33,31,31,28,35,24,26,31,36,27,31,38,30,23,22,32,38,40,49,30,37,24,30,23
37,29,32,34,34,34,28,48,32,32,28,29,34,24,26,32,37,26,32,40,30,22,24,33,35,43,50,32,38,27,31,21
43,35,30,33,31,34,28,46,32,32,26,26,34,22,24,32,34,24,30,40,29,24,22,36,33,41,51,32,40,30,34,20
42,35,25,32,33,32,29,46,32,30,28,29,33,24,26,32,34,24,31,38,31,25,21,37,32,41,48,32,36,30,35,21
43,38,26,33,31,31,32,46,33,32,30,32,34,26,26,32,34,26,34,36,34,29,26,38,33,39,45,35,35,34,36,27
41,35,26,37,33,33,28,44,31,28,28,28,30,26,26,32,34,26,32,36,34,25,26,42,31,37,45,34,35,32,37,27
38,34,26,38,30,32,29,42,32,26,27,27,31,27,24,29,36,25,29,33,31,23,25,40,29,39,45,35,36,32,38,28
36,32,22,37,27,31,28,43,33,27,27,25,30,26,25,31,37,22,29,34,32,23,26,42,24,35,43,34,34,30,37,29
36,30,20,36,28,31,31,40,32,26,29,26,29,27,25,33,39,25,31,32,35,27,29,43,25,34,40,32,32,30,34,25
33,30,23,39,30,33,32,40,34,26,30,26,30,29,27,33,37,28,32,30,38,30,27,44,27,36,40,30,30,29,37,28
36,33,25,39,28,33,31,38,35,27,31,27,31,31,29,33,37,29,33,28,41,32,25,45,27,36,38,29,32,32,36,30
33,33,26,36,31,28,31,33,35,24,30,25,34,30,30,32,36,28,30,26,41,32,24,42,26,35,35,30,34,29,33,30
33,31,29,36,33,29,31,37,35,24,31,27,32,30,30,30,36,28,30,25,39,30,27,40,26,37,33,35,34,29,30,30
36,32,29,36,29,28,28,34,33,27,30,24,33,30,30,31,38,30,31,26,35,31,29,38,26,35,34,38,36,30,32,30
38,32,26,34,29,30,27,32,32,25,30,22,32,30,30,32,39,31,33,27,33,31,30,35,24,37,36,35,33,25,32,28
36,32,22,30,25,26,27,31,35,27,31,25,35,31,31,33,39,30,32,26,32,33,30,28,22,36,33,32,32,26,30,28
39,30,17,23,29,23,26,32,32,28,34,24,31,28,33,34,37,28,30,24,30,38,33,25,22,34,28,30,31,27,27,29
41,29,20,24,30,23,26,32,30,26,30,22,29,27,29,33,35,27,30,25,29,36,33,27,27,34,27,35,33,33,29,32
42,33,22,26,31,25,25,33,29,25,29,22,27,25,29,31,33,25,29,26,29,35,33,29,30,35,27,37,33,33,33,35
48,33,18,24,30,22,22,32,28,26,30,20,26,24,28,30,30,22,27,27,30,33,33,26,28,34,27,39,35,36,30,35
46,30,16,22,31,22,21,32,29,27,30,22,29,27,28,30,30,23,27,30,29,32,35,29,28,31,28,41,35,35,30,33
51,33,21,24,28,24,22,31,29,28,32,22,26,28,28,35,35,26,31,30,31,30,34,33,27,30,28,40,33,40,29,34
49,32,21,24,27,25,25,27,28,28,36,23,28,32,30,38,36,26,32,31,31,30,34,31,27,30,26,35,32,41,28,34
48,32,20,24,28,24,24,26,26,25,33,22,26,31,29,38,36,26,30,31,31,30,33,28,28,30,24,34,32,44,26,34
45,29,18,24,29,20,26,27,27,28,36,26,26,32,30,38,38,26,25,33,31,29,31,29,29,27,22,35,33,45,26,31
46,26,24,25,31,23,30,28,28,29,36,26,26,31,29,37,37,26,26,34,29,31,32,31,28,29,22,36,32,44,25,33
42,28,26,30,30,28,32,26,30,25,35,24,27,34,29,37,39,29,29,37,35,26,33,35,30,29,24,40,34,44,28,32
44,28,23,30,32,24,31,23,29,25,35,25,29,37,33,39,39,29,27,34,32,27,32,32,27,27,25,38,32,41,28,31
45,27,23,31,32,25,29,23,31,27,37,25,31,38,34,40,41,31,28,33,31,26,30,32,23,25,25,37,35,41,27,31
39,29,24,31,29,25,29,21,31,25,33,27,33,37,33,39,40,31,27,31,30,26,30,30,24,26,22,33,34,39,27,31
37,30,24,28,26,22,30,20,30,21,34,28,32,35,33,41,39,32,27,28,26,28,28,26,21,26,22,29,36,37,31,30
32,28,23,26,26,20,32,18,32,22,36,32,34,36,34,37,33,30,24,30,26,31,31,25,21,26,22,27,36,32,29,26
33,31,25,26,29,19,30,18,34,22,35,30,34,32,32,34,33,30,24,30,27,32,31,29,23,28,24,26,41,30,32,25
34,30,24,26,31,22,30,20,35,24,38,32,35,30,30,32,34,32,26,28,26,32,30,30,20,29,26,24,40,26,35,24
31,29,24,24,30,24,28,20,34,20,39,29,35,29,29,29,31,29,25,27,25,31,26,28,16,30,25,21,38,23,34,22
31,31,21,24,30,23,23,20,32,17,36,25,33,27,27,29,31,26,23,25,25,28,25,29,17,32,25,19,39,23,37,21
32,34,22,22,28,22,24,21,32,20,35,29,33,25,28,29,30,23,24,24,21,31,26,29,16,32,28,14,35,20,36,21
32,37,25,23,29,23,25,21,33,19,35,30,31,26,28,28,32,26,24,25,24,32,26,30,17,34,31,12,40,20,35,19
33,38,28,27,27,21,27,25,32,21,33,31,29,26,26,26,32,24,22,26,25,34,30,30,19,37,31,12,40,22,35,20
34,38,31,25,30,26,32,28,34,24,38,34,30,29,30,30,35,24,25,27,24,31,29,33,22,37,34,16,39,22,36,18
38,41,32,29,32,28,32,30,33,26,38,31,28,28,28,27,38,22,26,32,24,28,30,34,24,37,33,20,37,26,34,21
37,40,31,32,34,31,31,31,31,25,35,27,25,25,25,25,37,21,26,33,22,26,25,35,29,38,36,23,35,30,36,23
36,38,30,32,32,32,29,31,29,25,33,27,23,25,25,25,36,22,23,34,22,23,24,32,29,37,37,27,32,29,33,25
34,38,30,34,31,32,30,30,28,24,30,26,24,28,28,28,36,20,24,36,22,23,25,34,28,37,36,26,34,32,33,24
36,41,33,37,33,33,32,31,30,27,24,25,26,26,26,28,35,22,28,34,24,22,27,35,31,35,37,28,35,34,35,26
38,44,35,37,34,37,35,32,28,29,29,27,27,29,28,28,34,25,29,35,27,23,31,37,36,32,40,30,35,34,33,24
39,38,32,38,34,37,32,33,28,29,29,27,27,31,28,30,34,29,28,36,26,21,29,38,34,28,34,32,38,38,34,24
39,39,31,39,33,39,33,35,30,32,29,27,26,29,25,27,31,27,29,40,25,21,29,35,30,25,28,30,34,38,33,26
39,36,29,34,32,40,34,31,28,29,31,23,26,28,28,30,32,30,29,41,27,20,27,34,29,24,28,30,33,36,31,25
41,36,26,36,32,37,32,27,25,27,28,22,24,27,27,28,30,30,26,42,28,23,30,34,28,24,28,27,34,39,32,27
45,39,28,35,32,40,34,29,27,31,27,23,22,28,28,29,28,30,26,38,31,22,30,34,30,27,31,28,37,40,33,26
43,37,26,33,31,38,32,29,29,33,27,27,23,33,31,31,29,31,26,36,33,23,35,31,24,27,29,27,35,41,31,28
42,36,25,33,30,37,33,31,32,35,29,29,26,35,34,34,32,34,30,34,32,26,36,31,24,23,25,26,33,42,29,31
45,37,26,30,28,34,32,30,34,38,30,30,26,34,32,32,30,33,29,34,34,27,38,30,24,23,24,29,30,43,26,34
46,36,26,30,26,33,28,28,33,36,32,32,23,36,33,35,32,34,27,35,31,29,39,32,27,26,24,32,30,46,24,36
47,36,25,34,26,30,28,28,35,37,29,33,25,35,33,35,33,33,26,36,30,28,36,28,22,25,20,30,29,44,26,36
49,38,26,30,24,28,28,27,35,35,28,29,21,31,29,31,29,29,23,36,28,27,38,28,22,28,22,32,28,43,22,35
48,36,24,28,22,24,24,26,33,32,26,27,24,29,27,33,31,31,23,31,27,28,33,27,24,30,24,36,28,45,22,35
46,38,22,30,22,21,21,25,37,31,27,30,23,30,26,30,28,30,22,31,27,27,33,28,26,31,25,35,29,46,24,34
48,37,21,30,22,18,19,26,38,30,26,30,24,29,25,29,27,29,24,29,26,28,34,31,27,31,25,35,29,43,25,32
47,35,19,31,21,15,17,24,36,26,24,28,24,28,24,30,28,33,25,33,28,33,35,33,28,30,25,38,25,38,26,33
49,37,21,33,21,17,19,24,34,24,26,25,27,25,25,31,31,35,27,33,29,33,32,35,29,31,23,39,27,35,29,33
51,39,21,33,20,17,19,23,32,23,27,26,25,25,26,27,29,34,26,34,30,32,30,36,30,34,28,41,31,37,32,33
49,38,22,34,20,18,20,24,32,20,30,26,25,26,28,28,31,35,26,35,31,30,30,38,32,31,30,41,34,35,32,33
49,39,20,33,21,18,21,24,30,20,29,24,25,25,30,26,29,35,26,34,32,30,30,38,30,33,31,38,36,34,33,33
48,37,19,29,19,17,21,23,30,20,30,24,25,26,32,28,28,36,28,36,32,33,30,44,34,34,32,42,40,36,32,33
44,37,22,30,19,20,22,22,28,20,30,26,28,26,36,32,34,40,30,37,34,32,29,43,37,31,31,42,39,36,31,32
45,39,24,32,22,22,23,21,28,21,31,27,27,27,37,29,31,38,30,37,34,31,31,45,39,33,33,41,40,35,34,32
49,43,30,31,22,25,27,21,24,23,29,30,30,28,35,29,31,37,30,36,33,31,29,45,38,32,34,42,43,35,34,32
46,43,33,29,23,29,29,21,23,23,31,29,29,28,36,30,32,37,28,35,32,28,26,43,37,29,31,39,43,31,33,33
46,45,33,29,23,29,29,21,23,23,31,29,29,29,36,28,30,32,26,32,28,26,27,43,34,26,29,34,43,37,30,33
49,45,34,29,22,27,27,21,23,23,31,28,28,27,33,27,29,31,24,32,28,26,30,42,36,26,30,38,46,41,30,31
46,42,32,28,24,28,28,22,22,24,30,25,26,25,33,30,30,32,24,31,25,26,29,39,33,24,26,34,43,38,28,28
46,44,32,28,24,28,30,24,19,25,27,25,24,25,31,29,28,29,22,30,24,27,28,37,32,24,24,33,40,38,30,26
43,41,34,27,23,28,32,24,22,26,28,26,25,24,28,30,30,28,21,28,24,25,25,34,30,22,24,32,38,36,29,27
42,42,33,27,23,27,31,25,21,25,27,27,23,23,25,27,29,27,22,25,24,24,24,30,27,22,23,31,37,36,31,29
44,41,32,29,23,27,32,27,20,25,27,27,23,23,23,25,25,25,22,26,24,24,24,30,30,23,27,35,41,37,31,31
40,35,32,26,18,25,33,29,20,27,31,30,25,26,26,28,28,27,23,28,24,26,23,31,28,19,25,31,36,33,26,30
36,31,29,26,19,24,32,30,21,26,33,28,26,26,28,32,30,30,26,32,26,28,26,31,29,19,25,32,35,34,25,31
36,30,29,28,19,25,29,33,19,27,33,27,25,24,29,33,34,30,25,34,27,29,28,30,30,20,28,34,34,38,26,31
31,25,29,25,20,27,32,33,19,27,36,26,27,25,29,35,35,33,26,32,28,29,28,30,30,22,26,32,32,30,24,29
28,26,27,24,21,28,34,34,20,28,37,26,26,25,29,33,35,33,28,33,29,30,27,31,29,22,30,23,31,26,23,32
30,26,30,26,22,28,32,34,24,32,36,27,29,25,27,31,33,31,27,32,30,29,28,32,30,24,32,24,30,28,26,33
32,26,29,27,24,29,29,34,25,32,38,28,30,26,28,32,36,32,28,32,30,27,26,30,31,26,35,26,33,26,25,34
34,28,28,28,27,30,30,33,21,31,36,27,30,27,28,31,39,34,29,36,30,26,29,32,32,26,36,26,34,26,26,33
35,31,30,30,30,32,32,33,21,34,38,28,29,28,30,32,40,36,29,36,29,25,29,31,34,28,38,26,34,27,26,33
36,36,31,31,30,32,31,31,22,35,39,29,29,29,31,33,39,35,29,33,29,26,29,29,31,25,37,24,33,27,27,33
38,38,30,29,31,33,30,31,22,35,39,29,27,27,31,33,37,35,27,33,30,24,32,26,32,28,41,26,38,30,30,32
37,40,28,29,31,32,28,33,26,32,35,26,27,28,32,30,36,32,26,29,28,24,32,25,31,29,39,25,40,27,30,33
37,40,27,31,33,29,29,31,29,33,33,27,29,28,33,30,34,34,29,30,30,25,32,26,32,31,39,25,39,27,29,32
37,45,27,31,35,27,26,33,29,35,32,30,30,30,32,30,32,32,30,30,28,26,30,24,34,34,40,25,40,27,35,34
39,44,26,33,36,28,24,34,28,36,30,32,31,34,32,33,31,31,31,33,27,27,31,25,35,33,34,27,35,25,33,34
40,48,26,34,36,28,23,36,22,31,32,37,29,38,34,35,32,32,32,34,30,27,34,28,36,34,36,32,38,26,32,33
38,48,29,35,36,29,27,36,24,30,30,37,31,37,33,36,31,32,33,35,31,27,39,31,37,32,35,32,33,28,33,35
38,46,28,36,35,28,26,39,27,33,34,38,32,38,36,37,28,30,32,34,32,31,42,32,34,30,38,34,34,32,32,36
37,43,29,37,35,29,23,41,29,33,34,39,35,39,35,37,27,29,29,33,31,33,40,31,30,31,39,30,30,30,33,37
35,40,28,37,38,28,22,39,29,33,34,38,34,38,36,36,28,32,33,37,32,33,39,34,30,33,40,30,28,30,35,36
34,40,27,37,42,27,24,38,29,34,35,34,34,41,36,36,30,32,34,37,30,33,37,36,28,34,40,28,27,31,35,35
34,41,28,35,43,28,25,35,25,36,36,36,32,40,36,37,29,35,34,36,29,31,34,38,24,33,41,30,25,31,37,37
37,44,29,33,44,29,29,35,25,34,36,38,33,41,38,40,32,34,34,34,29,29,33,38,24,36,40,31,25,33,35,36
41,41,31,34,41,28,32,36,25,34,36,38,34,40,40,40,33,36,33,38,33,29,37,39,26,35,42,36,30,38,31,36
40,43,33,30,39,25,31,35,25,31,35,35,31,35,39,37,32,35,30,34,30,28,34,40,22,37,46,36,32,40,32,33
35,39,31,25,35,25,30,31,25,30,31,30,32,31,35,34,33,33,29,31,28,28,32,38,22,33,44,30,28,35,31,31
35,37,31,23,33,23,29,29,23,30,32,28,31,31,35,33,32,34,29,31,27,32,29,37,23,37,45,31,31,32,29,28
35,39,33,21,33,25,29,29,24,30,32,29,29,31,33,35,36,37,32,32,28,31,28,38,28,37,41,30,31,34,31,28
37,40,29,18,30,22,31,28,23,29,32,23,25,27,32,34,35,33,35,33,29,27,32,39,28,34,40,30,35,38,28,28
38,40,30,19,32,24,32,31,25,30,32,24,26,28,32,36,37,32,34,31,32,28,35,37,30,38,41,29,39,36,28,31
39,41,31,19,29,25,30,30,26,28,29,27,27,27,32,35,39,31,33,33,33,29,36,37,35,37,41,31,40,34,27,30
37,37,31,18,24,23,29,32,28,31,31,27,26,28,30,34,44,30,38,36,34,30,34,38,37,34,39,31,36,37,23,30
35,35,31,20,26,23,23,36,25,32,34,26,24,29,28,31,41,29,35,37,32,30,32,38,37,29,40,30,35,35,24,31
32,34,28,19,26,25,21,34,26,33,35,26,23,27,27,31,42,27,36,33,30,30,26,38,34,27,38,24,32,32,24,30
30,28,24,18,26,26,23,35,29,35,37,27,26,29,29,33,45,31,39,33,33,29,25,37,32,22,34,22,30,30,22,31
33,29,27,21,29,25,25,35,31,35,37,27,25,31,33,33,43,31,39,35,35,29,26,40,32,23,34,23,32,32,21,35
33,31,27,21,32,25,23,36,35,35,35,26,26,30,32,32,45,30,40,37,35,27,27,43,31,22,33,24,36,38,21,39
31,31,27,25,31,25,21,37,33,33,34,23,27,27,31,29,39,27,39,36,33,27,24,42,28,24,34,20,33,32,21,39
30,31,28,27,31,25,22,35,32,30,32,26,30,30,31,30,41,28,36,38,36,28,24,44,32,27,35,24,35,30,23,37
29,32,30,28,31,26,20,36,33,30,32,28,31,32,30,28,41,30,36,41,34,30,22,43,30,24,33,25,34,33,24,31
31,33,33,29,30,27,19,36,29,27,31,25,29,29,29,27,38,30,35,43,33,31,23,43,29,22,29,27,33,33,25,32
33,37,34,35,34,30,20,35,26,24,28,24,30,28,29,29,36,28,28,42,31,32,25,44,31,24,29,25,35,31,25,32
31,37,30,32,32,28,24,32,28,24,26,24,31,27,29,29,36,30,30,42,30,33,28,42,31,25,27,25,36,30,23,31
30,39,31,31,30,27,23,31,27,23,25,22,27,27,27,27,33,29,27,41,27,36,31,40,31,25,26,30,36,30,20,30
32,42,35,34,31,27,20,28,22,22,26,20,22,29,27,27,30,27,24,41,27,35,36,40,34,29,28,36,40,32,27,32
32,44,31,34,34,25,25,27,21,21,27,21,23,27,25,26,30,27,25,40,25,33,34,38,37,31,29,37,43,35,28,29
32,44,30,36,33,28,30,27,20,23,27,23,23,27,25,27,32,26,23,37,22,29,31,39,34,29,28,36,39,32,28,26
38,40,28,32,32,26,30,24,20,26,27,25,21,28,26,28,32,26,20,35,22,29,31,41,32,30,29,36,40,30,24,22
40,42,30,30,32,26,28,26,21,26,26,27,21,27,25,27,30,27,23,32,18,31,30,40,32,28,30,34,40,30,24,23
42,43,29,30,28,25,29,25,20,25,25,25,21,24,26,28,29,25,24,28,17,30,27,43,31,28,30,29,39,31,23,23
42,41,26,34,31,28,34,29,21,28,28,27,23,25,25,27,30,26,25,25,16,27,27,44,28,31,33,26,39,31,24,23
42,40,25,33,31,27,33,28,22,27,31,26,23,24,25,24,29,27,26,20,18,24,26,44,24,33,34,28,42,30,28,26
43,39,27,33,31,29,33,29,22,26,32,26,24,24,22,24,27,25,27,21,19,24,26,46,23,35,35,30,42,30,31,28
43,35,26,33,31,31,34,30,24,28,32,28,28,26,24,26,30,28,30,24,22,20,28,45,22,35,37,28,41,31,33,29
43,33,24,31,30,30,37,31,27,29,31,31,31,25,24,26,33,28,31,24,21,20,24,42,21,32,37,23,39,31,28,28
43,30,26,31,27,32,32,32,28,32,30,30,30,24,26,29,35,29,32,23,20,22,24,39,18,31,37,21,35,28,27,30
45,29,25,31,25,29,27,31,27,30,32,29,27,25,29,31,33,29,33,23,24,23,25,36,17,29,37,19,33,25,29,30
39,32,26,32,26,30,28,33,26,28,32,28,28,25,29,31,33,29,34,25,25,22,26,32,20,32,36,22,34,29,34,32
38,28,22,32,26,30,28,34,27,28,30,25,26,24,28,30,32,28,32,25,25,20,27,31,20,30,32,24,30,30,32,33
37,26,22,31,29,30,30,34,28,30,32,25,26,27,29,31,33,29,33,27,27,20,31,32,22,31,33,28,30,28,33,36
37,29,25,28,29,28,28,31,29,28,33,25,27,27,29,33,33,29,32,28,27,23,30,33,27,31,33,31,31,30,33,37
38,26,24,26,26,28,28,30,30,32,32,26,28,31,30,36,36,32,33,31,27,23,29,32,32,28,34,32,30,32,30,31
39,27,22,27,25,26,28,30,32,31,29,26,28,30,31,35,36,32,32,30,28,24,28,32,30,26,32,32,30,32,28,30
42,31,21,30,27,25,27,29,29,27,31,25,25,29,29,33,35,29,29,27,25,22,23,33,29,25,34,31,31,34,26,30
42,30,20,32,29,28,26,28,30,28,33,25,27,31,32,35,37,31,28,29,28,25,24,36,31,27,37,34,33,37,29,29
44,36,18,32,28,28,27,30,30,30,32,23,28,32,32,36,38,32,30,35,31,27,24,40,33,26,35,39,36,41,28,27
42,33,19,29,27,29,29,29,29,28,28,21,27,29,27,31,35,29,27,38,30,25,24,42,37,25,33,41,35,45,25,28
44,35,19,28,26,28,29,29,28,27,27,20,26,28,26,32,36,30,27,34,30,24,22,45,38,21,33,44,36,44,20,28
42,35,22,30,28,30,32,28,26,30,32,23,29,31,30,35,40,34,30,36,32,27,20,45,36,24,36,42,35,44,22,26
41,34,22,28,26,30,32,28,25,30,31,21,27,29,27,33,39,31,29,35,31,25,21,44,32,22,34,38,34,40,20,26
44,32,21,27,25,31,31,29,23,31,31,21,25,29,27,31,37,29,28,34,32,23,19,40,30,21,34,38,34,42,20,27
40,32,19,28,24,29,29,27,25,29,30,23,24,26,26,30,36,26,28,32,32,26,18,35,25,22,30,33,30,42,22,27
42,34,21,29,23,31,30,28,24,31,31,24,24,26,27,31,37,26,28,32,32,26,21,35,27,24,34,33,32,42,25,28
41,33,24,27,22,32,30,28,26,32,30,25,24,26,26,33,35,27,31,34,34,29,23,36,28,26,32,36,31,42,26,29
43,39,24,27,20,30,29,30,26,32,27,23,22,22,22,29,30,24,33,34,33,26,22,35,25,27,33,36,31,42,23,28
43,34,27,26,21,30,29,28,26,28,28,25,20,20,21,29,29,23,28,30,32,24,22,37,26,29,36,36,33,41,27,31
42,35,27,25,25,31,29,32,26,32,32,26,22,22,22,30,30,24,32,27,31,26,24,39,23,34,37,37,35,38,30,30
42,32,25,25,25,32,29,31,28,31,31,26,22,24,22,30,30,24,32,30,31,28,27,38,24,36,38,36,39,40,33,29
41,36,27,25,27,35,29,29,27,29,28,24,18,22,20,28,27,21,29,31,31,24,27,41,28,33,35,37,38,40,29,29
41,37,23,23,30,31,25,29,27,29,29,23,17,21,21,29,27,23,29,31,31,24,29,39,31,35,34,37,36,44,29,28
37,37,23,22,28,29,25,28,29,30,30,26,17,22,24,30,30,23,29,31,31,24,29,39,29,33,35,33,37,45,25,26
41,42,23,22,30,33,25,31,29,31,29,25,17,21,27,29,29,23,29,31,31,23,29,39,33,34,37,37,39,45,28,25
38,40,22,21,33,36,22,33,31,29,26,25,15,18,26,28,28,20,28,28,30,22,28,40,32,35,35,36,37,42,27,25
36,40,19,21,36,35,23,33,32,29,27,26,17,19,32,26,30,21,26,31,33,20,27,43,36,35,36,37,38,42,25,24
32,37,22,20,40,35,24,33,31,27,25,29,17,21,33,27,31,24,25,31,34,21,31,45,38,34,34,36,41,39,26,27
29,37,19,21,40,35,23,35,32,25,25,31,19,21,37,27,29,27,27,30,33,24,31,40,36,36,34,32,40,37,26,25
32,39,17,25,39,35,21,35,34,25,25,33,23,23,39,29,31,31,27,33,35,24,30,35,37,34,35,31,41,38,27,28
31,41,20,27,41,36,20,34,35,28,27,34,25,25,43,31,33,31,27,35,35,23,31,36,37,33,35,29,37,35,27,31
32,39,16,27,39,33,17,35,37,29,27,34,27,24,43,31,35,31,29,35,35,25,29,36,36,35,37,26,39,33,31,31
32,38,22,29,37,35,21,37,37,29,29,37,31,24,42,30,34,30,28,34,36,27,25,36,36,34,40,32,41,33,32,31
33,37,23,30,40,35,23,38,39,30,30,38,33,27,41,32,36,32,28,34,36,27,28,40,38,35,39,35,39,31,33,34
34,36,24,31,41,35,27,39,39,31,33,39,35,29,39,31,34,31,28,35,35,29,29,44,38,36,42,37,42,34,32,35
36,36,24,32,36,30,28,36,36,32,37,39,37,31,39,34,35,35,27,39,37,29,29,43,35,34,39,37,42,39,32,31
40,38,29,33,32,31,27,36,35,31,36,35,36,28,37,36,35,37,28,34,32,30,30,39,32,33,39,34,43,37,34,30
44,37,27,34,31,32,27,35,35,33,39,33,36,30,37,39,37,36,29,35,33,30,26,33,33,31,35,33,41,36,35,26
48,35,33,33,29,31,29,35,36,37,41,32,34,30,35,39,41,35,29,35,34,27,28,33,33,31,37,35,41,36,35,30
44,34,34,30,28,30,30,34,33,37,41,32,34,33,35,39,41,33,29,30,32,31,29,34,31,31,36,35,41,35,35,27
44,34,33,30,27,31,34,37,33,37,43,33,32,33,35,39,39,32,26,29,28,30,24,33,32,32,36,36,42,36,36,25
44,32,35,28,26,30,37,37,31,35,42,33,32,33,36,40,36,32,24,28,27,30,28,31,29,30,34,35,40,35,36,25
43,34,32,29,25,29,35,33,31,33,39,31,30,35,37,41,37,33,25,29,25,29,31,33,25,33,32,29,39,31,35,23
40,34,31,28,22,28,34,35,25,33,37,27,27,31,36,38,34,30,25,29,23,28,27,29,21,32,28,26,36,26,34,23
37,36,34,30,21,29,34,34,22,30,36,26,26,30,35,37,34,31,27,31,25,24,29,30,18,34,27,23,33,23,34,24
36,34,35,29,25,29,35,35,24,30,34,28,29,30,36,35,34,30,28,30,22,25,27,30,21,32,26,24,32,22,32,29
35,35,35,31,29,30,36,34,24,32,34,29,30,32,35,35,37,31,29,33,25,23,25,34,21,33,27,22,29,24,33,30
33,37,37,31,29,31,35,35,21,33,33,31,33,32,36,36,36,31,28,32,24,25,26,39,21,33,31,21,29,26,33,30
31,42,33,33,29,31,33,33,20,31,31,30,32,32,36,34,32,31,27,35,25,27,26,41,24,32,28,22,28,24,36,26
37,43,35,37,31,31,33,35,23,31,29,30,28,28,36,34,32,31,25,39,27,24,27,44,24,31,29,18,30,26,37,29
35,43,34,40,30,32,31,33,23,31,27,31,31,26,33,32,35,33,27,38,28,27,28,41,23,30,27,17,33,27,33,29
35,43,37,37,31,33,30,35,25,33,28,31,32,28,32,32,36,34,28,36,30,29,28,43,23,29,27,17,31,25,35,29
34,40,35,36,31,33,35,37,27,37,30,32,33,27,33,31,35,33,29,36,31,29,27,44,27,27,27,18,31,26,35,33
34,40,38,38,32,36,34,37,32,37,29,34,34,28,32,32,34,34,29,38,32,30,29,48,32,28,30,22,34,30,36,31
34,37,35,35,30,33,32,38,34,36,35,34,33,28,32,32,34,34,28,37,33,31,26,45,34,24,28,23,35,29,36,32
33,34,32,36,30,34,32,38,36,36,34,32,30,26,30,30,32,32,25,35,34,29,25,42,34,26,30,21,35,27,36,31
33,31,31,33,27,34,32,37,34,36,34,30,27,25,27,27,27,27,23,33,31,29,26,43,35,23,27,21,37,27,33,30
32,30,29,30,24,31,35,35,37,35,33,28,23,22,25,23,25,25,23,33,31,27,29,42,35,24,26,22,36,26,32,31
29,25,28,27,23,30,34,34,38,34,32,30,24,22,23,23,25,25,23,30,28,25,27,43,31,22,24,17,32,26,26,32
25,25,27,27,23,31,37,31,36,35,32,30,24,21,21,22,26,22,22,30,28,26,23,40,34,20,24,21,30,26,26,29
27,23,29,23,25,30,36,32,37,31,33,29,23,22,22,21,21,22,23,28,31,27,24,40,35,21,25,24,27,24,25,30
30,24,24,26,26,26,36,29,35,29,32,30,22,20,22,20,20,20,22,28,28,25,22,34,34,22,28,26,30,26,20,31
30,23,24,24,25,29,32,28,32,25,33,27,23,21,20,23,20,21,21,27,27,27,23,34,34,19,28,30,29,27,19,29
32,22,23,23,25,29,35,29,31,25,35,28,24,22,20,22,21,20,20,25,29,28,21,31,33,20,26,30,26,26,18,30
33,24,23,23,25,29,35,28,34,29,32,32,26,24,22,22,22,20,22,23,27,28,21,31,31,21,27,29,27,28,17,28
33,27,25,22,24,29,33,25,30,27,29,32,29,23,21,22,22,20,24,22,27,30,22,31,33,18,28,33,26,29,18,29
30,24,22,20,24,27,31,27,31,25,29,33,32,24,24,22,25,22,26,24,31,32,23,29,30,19,31,32,24,26,19,31
29,25,20,21,27,26,28,28,31,22,28,35,32,22,28,24,26,24,28,26,31,34,18,27,28,20,33,29,27,26,19,35
31,26,23,24,30,29,31,31,31,26,30,35,31,21,30,25,31,25,29,26,34,33,22,28,32,21,35,32,27,27,23,33
32,28,23,24,30,31,27,31,29,27,31,33,29,19,31,25,31,25,27,25,31,29,22,29,31,21,35,34,30,27,23,34
31,30,22,24,28,30,27,28,27,27,31,33,30,20,32,26,36,26,28,25,32,26,23,31,32,21,35,30,29,31,25,33
27,27,23,21,26,31,26,28,29,27,31,36,31,20,36,32,39,31,31,25,33,27,21,33,35,21,32,35,30,32,27,31
27,27,23,21,31,31,24,28,32,30,28,38,28,18,35,33,41,33,29,27,30,22,18,30,31,23,35,32,33,35,27,29
24,26,21,19,31,29,21,23,31,27,25,35,27,17,35,33,41,33,31,29,29,21,20,27,27,20,34,28,32,32,26,26
26,26,22,21,33,30,22,24,31,29,25,33,26,16,32,32,40,37,30,30,28,21,23,29,27,21,30,28,28,28,27,29
27,27,25,20,34,31,25,29,33,32,27,33,27,19,35,34,44,40,32,34,30,19,23,33,29,24,32,27,30,25,28,28
28,33,28,26,35,32,26,28,32,34,28,32,22,18,36,36,43,40,30,33,30,18,22,30,32,27,35,30,35,28,33,28
31,33,31,27,35,35,27,29,30,37,32,30,22,20,32,34,42,36,26,30,29,16,25,33,36,27,33,36,33,31,33,25
31,34,30,26,34,36,28,30,32,37,34,30,26,24,31,36,38,38,28,31,27,22,21,29,35,26,33,39,37,32,31,25
27,29,28,21,31,32,28,30,34,38,34,30,29,28,32,36,38,40,32,30,26,26,26,25,32,29,29,33,31,29,29,24
26,27,26,22,32,32,28,32,36,40,36,32,31,28,31,37,35,41,31,32,27,29,27,24,28,30,30,36,30,26,29,25
31,31,28,26,31,33,29,32,35,41,37,31,31,30,28,33,33,37,29,33,27,29,28,27,30,32,33,36,31,26,28,27
33,33,30,29,31,32,30,33,35,41,40,29,31,32,30,30,32,36,32,32,30,31,30,28,32,34,33,38,33,21,32,29
37,35,32,35,33,32,28,35,35,41,41,31,32,33,30,30,32,36,28,28,29,31,32,30,37,38,39,41,39,21,36,32
34,35,32,36,34,32,29,37,35,39,41,29,33,34,34,32,34,36,27,25,29,34,31,29,41,38,44,42,43,26,36,31
35,34,30,36,34,32,28,36,34,40,42,31,32,34,32,30,30,33,25,23,27,35,33,26,40,38,44,43,42,30,36,31
37,31,29,33,34,33,29,35,35,39,43,33,33,37,31,31,32,31,27,24,27,35,35,28,41,36,41,43,39,29,32,27
36,30,30,34,34,34,32,36,36,40,42,34,33,39,33,31,33,35,29,23,27,37,32,25,39,36,41,40,38,28,32,26
35,29,29,33,33,31,29,33,33,37,39,31,31,37,33,29,34,32,26,23,25,34,30,29,37,36,40,39,36,26,31,26
41,31,29,35,33,33,31,35,35,37,39,33,32,37,33,29,33,31,25,23,25,33,30,31,39,36,41,41,41,27,31,26
43,29,30,36,32,32,30,34,35,34,37,30,30,35,33,26,32,30,26,22,22,32,31,30,38,36,37,38,39,25,30,24
40,30,31,35,33,32,32,33,36,34,36,30,32,34,34,26,31,29,27,23,23,33,32,30,35,35,35,33,36,23,31,26
40,30,29,34,30,33,31,31,35,33,35,30,34,37,37,29,33,31,29,24,25,32,32,31,37,34,32,33,33,27,29,30
39,32,27,31,28,33,33,32,36,34,34,28,35,37,38,30,33,31,31,27,26,32,29,33,34,34,30,34,31,31,26,29
40,31,26,29,27,32,32,29,35,34,34,31,36,35,35,31,31,29,32,29,27,30,29,32,31,36,27,32,33,30,27,28
36,29,23,27,29,31,32,28,31,32,36,30,36,34,36,34,32,32,32,30,29,28,30,33,27,34,23,29,31,29,26,25
35,29,23,27,29,30,30,28,30,32,34,28,36,32,34,32,30,32,30,28,28,29,27,32,25,33,23,27,33,29,25,29
36,28,19,28,30,25,25,25,29,27,29,27,36,30,30,32,28,30,30,28,26,28,28,32,24,34,24,25,32,30,26,31
38,30,23,29,33,23,25,25,29,27,29,27,35,29,29,32,28,31,31,28,28,27,31,30,26,35,26,24,34,32,28,33
34,30,24,32,35,22,24,24,29,24,28,26,36,26,26,30,26,28,32,28,32,28,31,30,28,36,27,24,32,34,31,38
33,35,27,33,37,23,25,27,27,23,29,27,35,27,29,31,29,27,33,29,35,29,32,33,31,38,33,29,37,37,33,37
33,33,26,34,38,24,25,29,27,24,30,27,35,27,27,31,30,28,34,28,36,30,34,34,33,38,34,29,37,37,34,36
30,33,27,36,39,22,23,31,27,25,28,27,33,22,22,26,28,26,32,29,35,33,32,34,31,39,34,26,36,34,35,34
30,31,25,38,40,25,26,34,28,28,30,27,34,26,24,29,29,27,31,32,36,35,31,32,31,36,31,23,36,36,39,36
29,31,27,37,40,27,25,35,29,26,28,28,32,25,27,28,29,29,33,32,38,35,30,33,32,33,31,27,35,35,37,36
30,33,29,38,38,26,25,34,29,26,25,27,31,25,29,28,29,29,34,31,37,37,29,31,35,36,35,29,36,34,38,39
34,35,29,39,37,27,25,33,29,27,25,27,31,25,29,31,33,33,37,33,36,38,30,33,36,36,34,28,36,34,40,37
30,34,31,36,34,29,27,33,29,29,27,27,31,25,31,33,33,35,39,35,37,39,30,33,36,32,31,28,34,30,36,37
30,35,29,35,31,31,27,33,30,29,27,29,32,25,31,34,34,36,40,36,38,40,30,34,36,31,28,30,32,30,34,36
32,36,28,32,31,30,28,33,31,31,26,31,31,27,32,36,36,38,38,36,36,39,28,36,36,31,29,32,33,30,35,34
34,37,25,29,31,29,27,29,32,31,25,30,30,26,30,36,38,40,38,40,35,38,27,35,35,30,29,31,32,31,31,36
35,41,25,31,31,28,25,26,29,30,24,31,27,25,29,35,39,41,37,39,33,35,23,33,34,29,27,33,35,33,31,35
38,40,25,29,32,30,27,24,28,28,26,31,27,26,30,38,42,41,37,34,32,35,24,33,38,28,28,36,38,36,30,36
38,44,26,27,30,27,25,20,28,25,25,31,25,23,29,39,41,39,35,34,34,31,26,37,38,30,28,38,36,37,30,34
36,42,26,28,29,26,26,19,26,24,23,27,22,21,26,37,39,35,32,33,34,30,29,38,37,32,27,34,34,34,28,33
36,42,27,28,28,26,29,18,28,24,24,28,22,22,24,35,38,33,32,33,31,28,33,37,37,30,27,33,32,34,28,30
33,37,26,29,31,27,31,19,30,24,21,29,24,23,23,35,35,31,29,30,32,25,32,36,34,30,28,32,30,34,25,31
37,39,29,31,32,30,33,20,31,25,25,31,26,25,25,33,37,29,27,30,33,22,33,36,35,31,30,35,33,37,27,30
38,40,28,34,33,31,33,21,32,27,29,33,26,27,27,33,39,27,25,31,34,23,36,38,36,34,34,34,38,38,29,30
39,39,30,37,32,34,37,26,32,30,33,32,24,30,30,34,41,29,27,34,36,22,37,36,40,35,35,38,41,41,29,32
34,33,34,36,27,36,38,30,34,34,34,33,25,31,29,33,39,27,25,32,36,21,35,34,37,33,31,37,37,39,27,34
31,27,32,36,27,39,41,35,34,37,35,35,27,31,31,31,37,25,21,33,33,23,40,37,41,33,33,37,35,39,23,36
33,32,35,39,31,39,42,38,32,40,36,34,26,30,30,28,34,24,22,34,33,20,42,37,42,37,38,40,38,42,26,34
32,30,40,42,31,41,43,39,31,41,39,35,28,31,29,27,39,23,27,37,33,26,42,35,46,38,42,42,42,40,24,34
38,34,40,44,34,42,42,40,31,43,41,35,29,33,33,31,44,27,27,40,30,27,43,36,47,39,48,47,49,43,28,32
36,32,38,44,34,42,42,45,27,45,39,33,31,33,33,31,45,28,27,39,32,29,39,40,44,38,46,45,46,40,28,35
33,31,36,39,29,41,41,47,25,47,40,35,27,30,34,26,42,24,24,42,32,34,42,41,43,35,43,43,44,37,27,34
29,30,33,36,29,39,41,47,29,45,37,33,29,29,33,31,45,27,25,43,31,35,45,44,39,34,42,39,41,33,28,35
29,31,35,34,30,40,42,50,31,46,34,32,30,30,34,32,46,30,28,42,30,36,43,43,39,33,41,37,39,33,26,37
27,29,32,32,31,42,38,47,31,45,33,31,33,30,32,34,45,31,27,42,26,35,41,46,32,30,38,30,35,26,24,35
30,30,29,31,32,41,37,46,30,44,32,32,32,28,32,34,42,30,26,40,24,34,43,50,36,27,38,28,38,26,24,31
37,32,27,28,31,36,31,44,31,39,29,27,31,27,29,35,43,31,29,37,27,34,41,45,32,27,35,26,39,26,27,29
33,28,25,26,27,33,30,40,32,36,26,26,30,26,28,34,42,32,26,41,27,38,38,47,28,24,30,22,34,22,24,30
34,27,21,25,27,33,31,38,32,35,23,26,30,26,26,34,38,36,26,37,29,35,40,46,27,21,29,18,33,20,25,34
33,27,20,25,22,32,28,40,36,32,20,30,32,28,24,34,37,36,30,37,32,36,40,48,28,20,26,15,26,17,20,39
39,32,19,27,22,30,24,37,38,27,25,34,32,30,26,34,38,34,30,37,32,34,40,45,27,19,26,15,27,19,17,40
40,34,22,30,26,28,22,34,39,24,25,33,35,33,29,39,41,38,32,38,30,29,35,46,29,20,30,18,28,22,18,39
41,36,23,34,26,26,21,36,38,28,27,35,36,35,31,37,39,37,33,35,29,29,32,45,35,22,34,24,31,26,15,38
42,36,23,38,25,27,21,35,34,25,27,33,33,33,29,35,33,33,31,35,31,27,29,45,33,23,32,28,29,26,16,36
41,37,27,39,28,24,22,32,32,22,26,32,30,30,29,35,33,32,31,35,35,29,30,45,35,24,34,30,31,30,19,33
41,40,28,42,31,22,21,29,31,20,26,30,31,30,30,34,32,32,31,36,36,29,30,45,34,29,39,33,31,31,23,33
38,44,32,45,31,26,27,29,29,23,29,35,29,29,35,35,33,33,30,39,34,29,29,46,32,32,39,36,31,30,25,32
38,44,32,45,31,26,26,30,28,22,32,38,32,33,38,38,34,33,33,35,33,25,30,45,32,32,44,36,32,32,28,30
39,45,33,44,30,24,26,31,28,25,34,37,31,31,39,36,36,29,30,37,33,24,30,47,33,33,45,39,33,35,31,29
38,44,31,40,33,26,28,30,24,26,38,36,30,30,39,37,35,30,32,37,31,28,27,47,31,33,45,39,35,35,35,30
34,42,32,40,33,28,30,29,24,27,36,32,28,25,36,36,36,32,32,38,29,28,25,47,33,34,45,41,37,37,36,28
36,46,28,41,35,28,30,31,24,30,38,34,30,28,36,36,36,33,35,37,29,33,27,48,33,39,46,43,40,38,41,31
37,46,25,40,36,31,30,29,24,28,38,33,27,26,36,34,35,31,33,37,29,32,25,46,30,40,44,39,39,38,42,31
36,44,26,37,34,32,31,26,26,30,36,33,28,26,36,34,36,32,32,35,26,32,26,46,30,39,43,36,40,33,44,28
35,45,26,38,33,33,31,25,27,33,37,35,31,27,36,34,36,33,35,34,27,32,26,46,32,39,45,40,37,33,41,27
35,43,26,37,30,37,31,28,31,35,39,37,32,27,35,35,37,33,34,37,27,32,23,48,31,36,45,39,38,34,36,28
34,42,26,34,30,36,28,26,33,33,39,33,33,29,31,35,35,29,32,36,26,29,22,46,28,33,46,36,34,32,36,26
34,42,25,35,31,35,27,25,35,33,35,31,31,27,31,35,35,29,30,37,27,29,21,47,29,34,42,36,34,31,34,28
32,46,28,34,31,37,27,29,36,31,33,31,31,27,31,35,36,33,34,34,24,32,17,47,28,32,40,34,32,28,30,24
30,46,31,38,31,35,27,27,39,31,31,29,31,27,30,32,36,32,33,32,26,29,18,43,29,32,39,35,33,29,30,22
32,46,34,38,31,36,30,29,38,32,30,29,34,27,29,35,37,33,36,36,30,32,20,46,32,35,39,34,34,30,33,22
30,42,35,35,27,35,31,29,35,29,27,27,31,23,25,35,39,33,36,36,34,32,24,46,34,30,38,34,34,30,29,19
29,43,39,37,29,35,35,29,31,29,29,29,32,24,24,34,41,33,35,37,35,33,24,47,34,32,37,37,34,28,30,20
29,41,33,37,33,33,34,31,33,29,31,28,33,23,23,35,43,35,37,38,37,35,25,45,35,33,39,37,35,33,31,20
30,38,32,35,32,32,34,32,32,28,30,26,30,22,24,34,44,34,36,38,36,32,26,44,34,32,36,33,34,30,32,24
30,38,29,34,34,29,34,31,31,26,28,24,28,22,26,34,44,36,38,36,36,32,25,40,33,34,33,31,32,28,34,26
31,37,28,36,35,29,33,32,28,25,27,26,28,24,27,35,45,39,41,35,39,35,25,39,37,35,33,31,35,29,33,28
33,37,29,35,35,31,37,35,29,29,32,29,32,28,29,36,48,42,46,36,38,37,27,41,39,37,33,31,35,28,33,26
35,32,28,35,36,32,38,34,28,30,34,30,32,28,32,38,46,40,42,37,37,36,28,44,37,40,34,31,34,32,36,26
34,30,28,35,39,33,39,34,27,31,35,31,31,27,33,37,45,39,39,37,35,34,29,42,36,39,34,30,34,32,36,28
29,27,24,34,39,32,34,32,29,32,36,32,29,29,35,34,42,36,36,33,30,33,31,39,33,39,35,33,31,27,35,27
27,27,27,37,41,33,33,31,31,31,37,31,29,29,35,31,41,35,35,34,24,30,27,37,32,40,33,29,27,23,35,28
27,26,27,37,41,31,31,31,31,31,35,27,27,27,33,31,39,35,35,35,21,29,29,39,33,40,34,27,25,23,34,30
25,27,29,35,37,31,31,31,28,29,33,27,25,27,33,29,37,33,33,33,18,27,29,39,31,36,31,27,25,21,31,31
22,24,28,33,37,32,28,30,26,26,30,26,24,26,30,26,33,31,31,31,14,27,27,37,32,35,29,26,24,20,29,31
24,26,28,34,37,33,30,30,23,26,30,26,24,26,28,26,33,29,29,29,10,26,28,39,34,35,31,28,26,18,30,29
22,24,28,32,34,30,30,28,24,27,29,24,24,24,27,25,31,27,27,29,7,26,32,40,34,33,31,28,26,18,28,31
17,22,26,34,32,28,26,28,24,26,26,22,22,22,24,25,27,25,23,31,5,23,29,40,34,32,34,25,28,19,28,33
17,24,24,35,31,27,24,26,24,26,24,22,22,22,22,26,26,23,24,31,7,22,32,38,35,30,32,27,30,17,26,36
16,26,24,30,26,24,23,28,26,25,23,25,21,22,24,26,27,23,25,31,6,22,31,36,36,30,32,24,26,14,24,34
18,26,25,29,26,23,23,27,23,23,21,23,20,21,23,25,27,21,24,32,7,20,29,38,36,28,30,22,26,17,22,33
22,28,24,28,24,25,23,27,23,25,21,23,19,21,23,25,25,19,21,29,7,20,32,36,36,28,30,24,28,22,22,34
21,29,24,26,24,26,22,27,25,25,19,23,21,21,23,25,23,19,21,27,7,21,34,32,34,26,29,25,30,23,23,28
20,28,24,28,23,24,23,26,25,27,21,23,21,23,22,24,25,19,23,28,6,21,33,30,34,27,28,22,30,22,22,32
22,30,25,30,22,22,24,28,26,30,22,26,22,22,22,24,27,21,25,29,6,23,33,31,33,28,31,23,32,22,24,30
18,26,26,28,22,22,20,28,26,30,20,26,22,20,22,24,25,23,25,32,6,24,35,32,34,27,30,22,28,26,22,28
17,27,26,28,25,22,22,28,26,31,21,28,24,22,25,27,27,25,25,35,7,24,32,36,32,26,26,22,25,25,21,25
17,29,29,28,28,25,25,29,24,30,20,28,24,22,24,27,29,27,25,31,7,27,33,32,28,24,22,27,22,21,20,23
13,25,27,27,29,23,26,29,27,31,21,29,24,23,24,26,30,27,26,32,3,28,31,32,25,24,23,30,19,19,19,23
14,25,26,30,32,24,27,27,26,31,23,25,26,22,25,24,27,25,26,31,2,30,30,33,26,23,23,33,23,23,21,22
18,26,28,32,32,26,30,30,29,34,26,27,29,22,26,26,26,27,28,32,1,32,32,34,26,24,24,34,24,23,22,24
20,26,32,33,34,26,30,30,32,34,26,30,30,22,28,28,30,26,32,34,5,34,31,35,31,23,25,37,27,24,23,24
18,24,32,33,33,27,30,27,31,33,26,29,30,21,29,29,33,29,35,40,5,34,30,36,30,20,25,33,25,22,25,28
21,25,35,31,36,25,33,27,30,30,24,32,32,20,31,31,32,28,32,39,8,35,30,39,33,22,27,37,25,27,26,23
23,27,32,30,36,22,30,26,30,28,24,30,32,22,32,34,32,26,30,38,10,33,30,38,32,21,27,34,25,32,28,21
27,33,33,35,36,23,33,26,30,28,27,31,33,25,33,34,34,24,31,35,13,33,29,35,29,23,29,35,31,33,31,24
29,33,33,37,34,27,33,27,32,27,27,30,32,25,31,33,35,25,31,37,15,31,27,35,32,26,31,34,33,37,33,24
35,35,32,35,33,25,32,25,31,26,28,30,32,24,32,31,33,23,31,39,17,31,27,34,35,26,35,34,34,41,35,27
36,35,35,33,31,28,28,26,28,25,25,29,31,24,32,31,33,25,29,39,21,29,28,37,35,24,33,29,35,42,35,25
36,36,38,34,30,30,28,28,28,25,27,29,28,25,30,32,34,26,27,38,23,26,27,35,33,25,33,27,33,39,35,25
32,34,35,33,27,27,27,27,26,25,27,28,26,25,29,31,37,29,23,38,25,23,26,32,32,23,32,26,33,38,33,25
30,34,31,30,28,25,27,29,22,23,27,25,25,25,27,29,35,31,19,35,22,23,22,32,26,25,31,24,31,36,32,25
35,37,26,31,27,26,24,30,22,23,28,26,23,26,26,26,30,26,16,32,24,21,20,36,31,27,35,29,33,39,33,23
36,37,25,33,28,31,23,31,22,26,29,22,20,24,24,24,30,30,17,31,23,23,19,33,31,28,37,29,33,37,34,25
34,34,27,35,28,35,27,30,22,26,28,22,20,24,24,23,30,30,16,33,24,23,21,35,33,30,38,33,35,35,33,29
35,31,27,33,25,35,28,30,22,28,29,21,19,23,26,24,32,30,15,34,24,23,20,36,33,28,36,35,33,36,29,30
36,32,30,34,27,36,30,32,20,30,31,20,20,22,24,22,32,30,18,32,24,24,20,33,32,27,34,36,32,34,30,33
34,32,31,34,28,38,32,32,25,31,32,22,22,24,26,22,32,30,20,32,28,24,20,34,33,27,32,35,33,31,30,28
35,34,27,37,31,34,33,30,24,31,33,20,24,25,25,20,30,28,20,28,26,24,22,29,34,30,34,35,33,29,30,27
34,34,23,35,31,35,33,32,24,34,33,22,25,22,22,20,30,28,20,30,28,25,24,32,34,30,32,34,32,28,28,30
32,35,24,34,34,36,32,32,26,32,30,22,28,22,22,20,30,26,24,29,32,28,26,34,36,31,32,32,31,26,30,30
30,34,22,34,31,35,31,31,28,31,29,22,29,21,21,19,27,27,27,29,35,27,27,33,41,32,33,31,31,23,31,31
31,33,26,33,34,34,34,31,27,30,30,21,32,21,23,23,32,32,29,29,37,29,28,31,38,33,29,27,27,18,29,30
27,31,23,30,31,29,31,32,30,30,29,24,34,24,26,26,33,30,31,31,39,28,28,33,36,32,28,24,24,16,26,32
25,34,23,29,32,27,29,32,30,30,30,24,34,24,26,26,30,30,32,33,41,28,28,34,34,33,28,22,22,13,27,30
22,34,21,27,33,27,27,32,30,28,28,24,34,24,24,24,28,30,32,32,42,28,30,34,35,33,29,18,22,9,26,30
18,32,20,26,32,25,24,30,29,26,25,24,32,24,24,23,26,28,30,29,42,30,30,36,35,33,33,18,22,9,24,28
15,31,19,25,30,25,22,29,24,25,25,23,31,21,21,23,29,29,30,28,38,28,30,37,33,32,36,19,24,13,26,30
17,30,20,24,30,26,24,28,24,26,29,27,32,21,23,25,30,29,32,30,38,30,28,39,30,32,38,19,25,17,27,30
19,27,21,24,30,23,23,25,23,23,23,25,32,22,24,24,30,28,34,30,36,30,25,38,29,31,37,19,25,17,27,30
21,26,20,24,28,22,23,25,23,23,23,25,29,21,21,21,25,25,32,28,34,28,23,35,27,31,37,21,25,19,28,31
25,29,23,25,31,24,26,24,22,26,26,26,30,24,23,21,25,21,30,29,32,28,24,36,24,30,40,22,26,21,28,28
22,28,20,26,29,22,26,24,22,26,27,26,29,26,24,20,25,19,29,29,32,26,22,36,23,30,42,23,26,23,30,29
25,28,21,27,29,25,24,22,22,24,26,24,28,26,22,18,26,18,28,29,29,24,22,33,18,32,40,22,28,22,32,28
26,26,21,25,29,25,23,22,22,24,26,24,26,24,22,18,26,18,28,28,25,24,21,35,20,29,40,23,26,27,32,30
28,24,21,25,29,23,23,22,22,24,25,24,25,23,21,17,25,17,27,27,23,23,19,33,19,29,39,22,24,28,32,28
30,26,18,27,29,23,23,22,23,24,25,25,26,24,20,17,24,16,27,28,21,22,21,30,19,30,39,24,26,29,34,27
32,28,18,28,31,22,22,24,26,24,26,22,26,26,24,20,24,18,28,28,22,26,25,32,25,31,36,23,29,30,31,29
30,31,22,31,30,25,22,26,28,24,25,19,27,22,20,17,24,16,26,30,26,24,24,32,29,33,35,25,29,31,34,30
31,34,22,31,30,27,23,27,28,25,29,21,26,25,23,19,25,19,26,29,27,24,27,34,31,33,37,27,31,31,35,27
32,36,24,31,31,29,25,26,26,26,30,22,28,26,26,22,28,22,28,31,25,24,29,39,34,35,40,28,36,33,32,25
27,33,21,31,29,31,26,27,27,25,29,24,28,26,29,27,33,23,28,33,26,24,28,41,33,33,37,25,33,32,29,24
26,32,22,30,28,32,25,27,27,25,28,23,28,24,26,28,30,24,29,33,26,26,29,39,37,34,36,26,36,34,28,24
26,36,24,32,30,32,27,29,27,25,30,26,29,24,26,28,30,26,28,31,29,27,29,41,39,34,37,27,35,35,30,21
28,38,27,32,28,33,29,31,28,27,30,26,32,24,24,30,32,27,28,28,31,26,28,39,39,34,36,26,42,37,30,20
27,39,29,33,29,31,31,32,30,28,31,29,35,25,23,31,37,29,29,31,31,27,29,39,41,35,37,27,45,38,31,20
31,41,31,32,28,30,32,32,32,28,31,28,38,26,26,36,42,32,31,33,31,28,29,42,38,36,36,29,46,38,33,21
28,37,31,29,27,31,33,31,30,27,29,28,37,25,23,33,42,29,30,32,30,25,26,40,34,35,34,26,40,36,33,21
29,34,28,26,27,28,32,29,25,25,28,28,36,28,26,36,42,34,29,29,28,23,27,39,30,32,34,24,40,34,30,23
27,30,28,25,26,26,30,28,25,24,24,26,35,28,27,35,41,33,27,29,30,21,27,38,32,33,35,25,39,35,31,25
27,27,31,24,24,27,30,27,25,23,25,27,35,29,29,35,41,31,25,27,29,21,25,35,28,30,33,24,35,36,31,24
32,28,34,28,26,25,26,27,24,21,23,25,33,27,27,31,37,31,25,25,27,21,27,37,29,32,34,28,37,38,34,28
33,31,38,29,25,27,29,27,25,23,23,27,30,26,27,29,38,28,26,24,28,23,29,40,29,28,30,30,38,38,31,28
34,31,38,30,26,28,28,25,23,22,22,25,29,24,29,32,40,28,28,26,28,23,32,38,29,26,33,32,43,38,32,32
34,32,37,34,26,29,27,27,23,23,23,23,27,25,31,29,37,27,27,25,27,26,35,35,27,24,34,35,39,36,34,35
33,34,36,34,26,32,28,26,24,24,26,24,28,27,35,31,35,25,30,25,29,28,35,37,26,24,34,35,39,37,36,36
31,33,40,35,27,32,31,28,25,27,29,28,25,27,33,27,32,24,30,24,30,28,32,35,28,23,34,33,38,34,34,35
37,36,42,37,27,34,34,25,26,30,29,27,25,27,33,27,31,25,31,26,31,29,30,39,28,23,37,37,42,35,34,37
41,40,45,39,27,35,33,27,27,29,27,27,23,25,31,27,29,21,29,27,29,29,29,42,27,24,38,40,42,39,38,36
45,46,48,40,30,37,35,27,27,29,29,27,25,24,28,27,29,20,27,28,27,29,27,45,22,26,36,39,44,39,38,38
44,48,47,42,32,35,36,28,26,30,31,26,21,19,23,25,29,21,25,29,27,30,26,41,26,29,39,41,45,38,40,41
39,45,43,41,34,32,38,28,30,34,32,27,21,19,21,25,31,25,25,29,28,33,23,36,25,29,41,39,49,37,43,39
42,47,40,41,37,33,37,31,31,33,32,27,22,22,22,28,33,27,23,31,27,32,23,35,25,31,46,41,49,39,50,41
42,47,39,37,35,29,36,32,33,34,32,27,21,21,22,26,29,23,19,27,25,31,23,37,25,31,43,40,46,40,48,37
41,43,41,31,36,29,35,31,33,33,31,29,23,23,22,29,30,24,21,29,29,32,21,43,26,33,41,40,47,40,48,39
40,41,43,29,35,27,33,33,30,33,30,26,24,20,20,26,28,26,21,26,26,34,20,42,27,33,41,42,44,38,45,35
38,38,40,27,35,27,31,33,29,31,27,24,25,19,21,27,28,26,20,26,26,34,20,42,27,31,40,41,42,38,44,37
35,38,37,25,33,25,28,36,31,31,27,26,27,19,21,29,29,25,22,24,24,35,21,36,26,31,37,40,41,41,42,34
34,39,37,26,34,26,30,35,33,31,27,25,29,21,23,27,31,26,27,25,27,35,21,36,27,28,36,36,40,34,39,34
32,37,34,25,32,24,29,38,35,33,27,27,28,21,23,30,33,30,28,24,26,38,24,30,31,25,38,38,42,34,37,30
35,37,33,27,31,25,26,36,36,34,25,24,27,23,25,31,33,30,30,25,25,39,23,31,28,25,36,37,42,35,37,28
40,45,35,25,27,27,25,35,35,31,25,25,27,25,25,36,31,25,33,23,24,39,24,31,28,27,34,35,40,38,35,27
39,41,35,25,25,25,23,33,35,29,23,23,32,27,27,35,29,27,35,21,26,39,24,32,25,28,30,30,40,38,33,24
38,38,32,27,24,29,25,32,35,31,27,23,33,29,29,39,33,33,39,25,27,39,22,32,28,26,28,30,40,38,30,24
39,40,29,30,25,30,28,32,38,30,29,24,32,29,29,37,33,33,39,29,26,37,19,27,28,26,29,28,41,34,27,18
41,41,28,32,27,32,29,31,38,29,29,24,28,27,29,35,33,31,35,31,25,30,19,23,27,30,31,27,43,37,29,21
39,43,27,34,29,32,30,32,36,30,29,24,25,25,27,35,33,31,35,31,25,29,23,21,27,34,35,25,45,36,31,21
43,43,26,37,29,32,31,31,35,29,29,25,27,25,27,35,33,33,34,33,28,29,26,25,31,34,36,28,47,36,34,22
42,41,26,37,29,33,31,32,36,32,34,26,28,26,28,35,33,35,30,33,27,33,26,24,34,38,36,30,47,42,35,25
41,41,27,39,31,34,29,30,35,29,33,23,27,25,27,31,32,30,30,32,30,33,28,28,33,39,35,29,45,41,35,25
40,40,26,39,28,32,30,30,36,28,34,26,32,28,30,35,35,32,32,34,33,33,29,32,32,40,36,32,46,42,32,27
37,36,28,41,28,34,32,32,37,30,36,26,34,28,32,32,36,34,28,34,36,30,31,36,35,39,39,35,46,40,28,28
34,37,29,41,27,35,34,33,35,33,37,27,30,25,29,33,39,33,27,36,35,29,31,35,37,39,41,35,43,35,27,31
34,38,34,42,28,34,32,35,35,30,33,27,31,25,29,33,40,30,24,36,32,29,34,37,36,40,42,32,42,35,28,33
33,40,38,43,29,33,32,33,31,32,32,26,30,24,28,34,42,30,26,35,32,31,38,38,33,41,45,33,44,35,32,33
33,39,37,45,30,36,32,34,34,31,32,27,29,27,27,35,41,31,25,33,33,32,39,41,33,36,41,33,43,31,28,32
35,41,38,44,28,38,31,33,34,31,33,26,31,29,29,37,43,31,27,35,35,33,38,43,34,34,37,34,43,33,24,30
34,40,40,42,28,39,31,33,31,31,33,23,29,28,28,34,44,33,27,35,35,33,39,43,32,37,35,32,39,28,22,28
31,39,37,40,27,36,31,30,28,29,31,22,26,27,27,34,43,31,29,32,36,31,39,42,27,37,33,29,38,27,21,25
32,37,35,37,25,33,31,29,28,29,31,25,29,27,27,33,41,31,29,31,33,32,35,39,25,35,33,28,37,27,21,26
31,37,35,34,27,35,31,31,28,28,31,26,27,24,24,29,37,31,31,29,31,31,37,38,27,33,29,25,33,23,23,24
31,35,32,29,28,32,30,30,26,28,30,24,23,24,24,28,38,30,31,30,28,31,33,38,29,32,26,23,33,21,24,22
32,38,28,30,28,32,30,28,24,26,32,24,28,26,26,24,38,28,32,29,28,32,32,40,30,33,27,26,33,26,25,20
30,37,27,29,27,33,31,28,22,29,34,26,29,24,24,22,36,27,32,29,29,31,28,38,28,32,27,29,32,24,25,21
34,36,24,26,24,32,30,28,22,27,32,25,33,25,25,23,36,26,30,28,28,32,28,41,29,30,26,27,28,25,22,22
30,34,23,26,22,27,28,24,18,25,31,23,37,23,25,23,37,25,33,27,29,34,27,39,26,30,24,24,24,24,21,22
28,30,19,24,21,25,27,23,20,23,28,24,36,22,24,20,34,24,30,24,26,32,25,38,24,30,24,24,22,22,25,23
23,27,16,25,21,24,26,22,22,22,28,26,34,24,25,21,34,22,28,22,24,30,22,37,21,30,21,21,20,20,24,22
21,25,14,25,21,24,22,23,23,20,24,27,35,22,24,22,33,21,27,23,21,29,23,35,23,27,21,19,17,15,23,22
16,23,13,28,24,23,21,21,22,19,25,25,32,23,25,22,32,21,27,24,22,28,24,36,22,25,19,16,16,13,21,22
15,24,12,30,26,22,19,19,19,17,21,21,29,23,24,22,32,18,21,24,23,25,25,36,20,23,17,13,13,11,21,20
14,25,12,31,28,24,16,16,18,14,18,20,29,20,22,24,32,18,21,26,24,23,26,35,14,21,16,14,12,11,21,20
11,18,12,27,29,20,14,14,16,12,14,18,22,16,18,22,26,16,16,22,23,20,23,29,9,16,12,9,8,6,16,18
10,16,8,27,32,16,10,10,14,8,10,14,18,14,14,18,22,14,15,18,23,17,22,24,6,14,10,5,6,4,14,16
5,12,6,27,33,14,10,11,15,9,12,15,15,15,15,17,20,16,16,18,22,16,21,22,6,14,6,4,4,2,14,15
4,12,4,26,36,14,8,10,16,10,12,16,12,16,16,18,20,16,14,18,22,14,23,24,6,14,6,4,4,2,14,14
4,10,5,26,36,13,10,11,17,11,13,15,13,16,16,18,22,16,15,19,21,16,22,24,4,12,4,2,2,2,12,12
4,10,8,23,34,14,12,12,16,10,12,14,12,14,14,16,18,16,14,20,22,16,22,22,8,12,6,2,2,2,10,16
7,14,11,28,36,14,14,14,18,14,14,16,14,16,14,18,22,14,14,23,21,18,20,23,7,14,5,5,8,5,12,18
9,18,13,30,35,17,17,18,20,18,16,18,18,18,16,19,24,15,15,22,19,18,22,19,7,16,9,7,11,7,16,20
7,16,11,25,31,15,17,21,22,20,20,20,20,23,21,23,25,15,18,26,20,20,21,18,7,20,10,7,13,8,18,25
7,15,11,23,28,13,17,21,23,21,19,21,19,21,21,21,23,15,19,24,20,21,19,17,7,19,11,7,13,7,17,25
7,15,11,26,32,13,17,21,23,21,21,21,21,23,23,23,25,17,21,26,17,23,19,17,7,19,11,7,13,7,17,25
7,15,11,28,27,13,17,21,23,21,21,21,21,23,23,25,27,21,23,29,17,26,19,17,7,19,11,7,13,7,17,25
6,15,10,30,24,12,14,20,22,20,20,20,22,22,23,25,27,21,23,29,17,27,16,19,6,23,10,6,12,6,16,28
7,15,11,31,21,12,16,22,22,20,20,20,22,22,22,26,28,22,24,30,18,28,17,18,9,23,11,7,13,7,21,30
11,19,12,32,22,14,15,23,19,20,20,20,21,22,23,26,28,22,23,31,21,26,20,21,11,24,11,9,15,7,22,34
11,19,9,33,26,13,13,24,20,22,22,20,22,24,26,29,31,24,24,34,20,26,18,20,7,22,9,9,15,7,23,34
8,13,6,31,26,11,11,21,19,19,21,17,19,23,25,29,27,25,25,35,22,26,19,24,10,23,8,6,9,4,21,33
6,9,4,30,22,10,8,19,17,17,19,17,21,23,25,31,30,25,29,40,22,29,15,26,13,23,4,4,6,2,17,27
8,12,4,35,26,10,10,20,19,20,16,18,20,22,23,28,30,28,28,38,20,28,14,30,18,21,3,6,7,2,17,25
9,15,8,39,29,14,14,22,20,22,18,18,24,24,26,30,32,30,28,39,21,30,17,31,19,24,3,7,9,3,20,26
12,19,12,40,28,20,18,26,24,26,18,22,23,24,26,30,32,30,28,41,23,29,21,33,19,28,6,11,13,3,22,30
12,22,13,41,33,23,23,31,29,31,23,27,29,28,32,34,36,33,32,43,26,30,24,38,20,34,8,14,16,8,24,35
12,21,14,37,35,24,24,30,28,30,24,28,28,28,31,33,37,33,30,46,26,30,25,36,24,30,8,14,16,8,23,36
16,24,17,38,36,26,26,30,29,34,24,28,31,28,34,34,38,35,33,49,26,31,24,38,24,32,10,16,20,12,20,35
14,23,18,38,36,26,26,29,29,34,24,28,33,29,34,35,39,39,35,49,25,33,25,37,25,32,13,17,19,14,20,36
16,24,19,39,35,25,25,29,30,32,22,28,31,28,34,35,41,37,37,45,26,35,30,36,28,31,14,20,20,16,20,34
18,26,21,36,33,27,27,31,29,35,25,29,32,27,35,32,40,38,37,41,26,33,32,32,26,27,18,22,22,18,20,33
20,30,23,33,37,27,29,33,31,37,27,29,31,28,35,33,39,40,36,40,28,33,35,32,27,28,20,24,24,19,22,37
20,30,27,31,37,31,31,34,31,36,33,32,36,26,34,35,40,37,35,41,27,38,37,33,23,29,25,27,27,23,21,38
23,31,24,33,35,28,32,36,30,36,32,32,34,26,32,34,38,36,36,40,26,38,37,34,27,30,28,29,27,25,24,39
23,30,24,32,32,22,30,32,27,35,33,33,36,27,33,37,41,39,37,41,29,40,36,37,30,29,27,28,26,28,25,40
27,32,25,33,34,21,27,29,26,33,32,32,34,26,30,34,40,36,34,37,25,40,33,35,31,26,28,27,27,27,26,36
30,36,29,38,34,25,29,32,28,36,30,28,36,26,30,34,38,34,37,34,25,42,36,35,30,29,34,33,32,31,30,33
30,36,30,36,34,24,26,32,29,32,32,28,35,30,30,34,38,34,35,31,26,40,36,36,30,28,34,36,33,30,30,33
34,37,30,37,33,24,26,32,30,32,32,28,34,30,30,34,38,30,34,30,26,40,34,36,30,29,35,38,35,36,31,30
37,41,33,35,31,27,29,33,30,35,33,32,39,33,30,35,35,30,32,31,27,38,31,39,31,28,35,41,40,39,31,28
37,45,36,38,34,30,31,34,29,35,33,33,40,35,32,40,38,32,34,35,27,39,32,39,32,31,34,41,44,39,32,32
39,45,37,39,33,29,31,33,27,31,31,33,39,35,31,41,38,32,34,36,30,38,32,41,28,33,37,43,47,42,35,29
38,44,36,38,32,27,31,35,25,30,28,32,36,34,30,38,38,34,34,36,31,35,32,37,29,30,34,41,44,41,32,25
36,44,37,38,32,29,27,31,25,27,29,31,35,33,29,37,39,33,35,35,29,33,31,33,24,27,30,38,41,41,29,28
37,43,38,37,31,34,28,35,24,24,26,26,32,30,26,32,37,29,33,31,25,33,30,28,25,27,31,39,41,41,29,23
40,42,41,33,30,35,28,37,22,24,28,24,29,29,26,32,35,29,33,33,29,35,31,31,27,28,34,41,44,42,32,25
38,42,40,32,32,34,31,35,22,24,28,28,26,30,29,33,37,30,33,35,31,32,31,31,26,26,32,37,40,39,30,26
36,40,40,32,33,34,34,38,20,24,28,31,27,28,30,33,39,30,32,32,30,36,30,28,26,27,32,32,36,36,32,27
34,38,41,34,34,35,35,39,21,25,29,33,27,31,31,35,37,31,33,33,31,35,32,30,27,27,32,29,36,33,33,28
35,39,41,35,39,35,35,39,22,25,31,32,26,29,30,35,39,33,34,35,30,38,32,27,25,30,35,27,34,31,36,30
38,38,40,33,38,35,35,37,26,25,34,32,27,27,29,31,37,31,31,35,31,38,31,29,27,30,36,31,32,34,36,29
37,37,39,31,39,35,35,39,29,29,35,31,27,27,30,29,38,30,30,34,30,38,31,30,30,29,33,33,29,29,33,33
43,37,40,32,41,35,35,36,30,29,33,27,25,25,28,32,38,28,29,32,31,36,28,32,35,32,36,35,33,30,35,37
43,37,39,30,42,35,35,37,31,31,33,29,27,27,29,33,40,31,29,35,33,37,29,35,37,35,41,37,35,30,36,35
43,35,36,31,43,32,36,36,34,34,36,32,30,30,32,36,41,33,31,37,35,36,30,38,36,35,41,35,35,31,37,39
38,34,34,30,38,32,36,35,36,34,34,32,30,29,31,34,42,31,29,35,31,33,29,33,36,32,38,34,32,32,32,41
40,34,33,29,37,31,33,35,38,34,36,34,35,30,31,37,43,32,29,33,29,31,28,33,37,32,38,36,34,34,32,43
41,35,31,31,38,33,32,34,40,36,34,32,32,28,28,36,40,30,28,34,29,28,29,32,39,30,41,41,39,37,29,40
40,34,29,30,38,34,32,34,39,36,32,29,29,25,25,31,39,27,25,33,27,27,26,35,37,30,40,43,37,35,27,40
38,30,28,32,36,32,32,34,40,36,32,30,26,24,24,28,39,25,25,35,29,25,26,37,36,30,38,40,36,34,28,38
38,30,30,33,36,32,32,36,38,38,29,30,25,25,22,29,41,25,25,31,29,26,26,37,36,30,38,38,36,34,28,36
38,29,32,35,36,31,32,33,35,34,27,29,25,23,23,29,41,25,25,33,31,25,26,38,37,29,39,35,36,36,29,35
38,31,33,34,35,33,32,35,35,34,28,30,26,24,26,26,38,28,26,32,30,27,30,36,33,29,37,36,34,34,31,33
40,28,32,32,34,30,32,34,34,34,28,30,26,24,26,28,35,26,22,28,30,30,29,38,32,30,34,36,31,33,32,32
39,27,31,30,33,29,30,36,36,34,28,32,28,26,28,32,36,26,22,26,28,33,29,36,30,27,32,37,30,33,31,32
42,30,28,34,34,29,29,35,36,35,28,34,30,28,30,36,37,30,24,25,27,34,27,35,32,32,36,38,34,34,36,31
45,29,30,34,34,28,30,36,34,34,26,32,26,28,26,34,34,28,22,26,28,34,28,38,32,31,33,37,33,31,37,30
45,29,29,34,34,29,28,34,36,32,28,34,28,28,26,34,36,30,22,28,30,36,28,38,33,35,31,37,29,33,37,32
46,30,29,32,32,26,27,32,35,31,29,33,29,27,27,37,37,31,25,29,28,34,29,35,33,34,30,37,32,35,38,34
45,32,30,31,32,28,25,30,31,28,25,31,29,27,27,40,36,31,26,24,27,32,31,35,36,33,31,39,33,37,39,35
46,34,28,32,33,29,27,28,33,27,27,32,32,28,32,43,39,35,29,27,25,29,33,35,36,33,30,40,32,38,37,33
48,35,27,35,34,27,25,29,35,28,27,34,30,28,28,42,38,32,28,23,21,28,31,34,33,35,31,39,37,39,41,33
42,35,24,36,34,26,22,28,36,26,26,34,30,28,26,42,40,30,28,24,24,27,29,34,34,35,30,37,34,39,39,34
38,36,23,36,34,27,21,27,35,25,25,33,31,27,25,41,41,29,29,25,23,27,29,33,32,30,28,35,35,37,37,34
39,37,26,36,33,30,24,24,32,26,26,32,30,26,24,38,42,30,30,30,26,24,30,36,33,31,29,35,35,35,35,30
40,32,26,32,32,30,26,24,34,26,25,30,28,24,22,36,38,28,30,34,30,24,34,40,32,29,24,36,30,34,30,30
36,31,23,33,35,31,25,23,33,25,24,28,30,22,22,34,38,28,31,34,32,25,35,41,30,27,26,34,30,34,29,29
38,32,26,32,32,28,25,23,29,24,22,26,28,22,22,34,36,24,30,30,28,25,31,42,26,21,26,32,34,35,28,26
38,34,28,34,34,30,26,25,31,26,24,29,31,24,24,34,39,28,31,31,32,26,30,43,29,22,28,32,35,34,28,24
37,34,29,32,32,33,26,25,34,29,28,32,36,26,26,33,41,29,33,32,31,30,31,45,29,21,28,34,33,35,25,23
37,30,29,30,29,31,21,22,34,28,25,30,31,24,21,29,35,23,29,29,31,33,29,47,28,21,31,33,34,34,27,24
32,30,28,28,28,32,22,25,32,27,23,28,30,24,22,30,36,22,30,27,29,34,27,45,30,20,30,32,32,36,24,24
35,31,32,28,28,30,22,24,30,28,24,28,30,24,22,30,34,22,30,26,27,34,27,45,28,20,32,32,34,36,25,23
36,32,34,30,28,32,24,26,32,30,26,30,30,26,24,30,34,24,32,28,28,33,29,44,30,24,34,33,36,38,24,24
36,32,34,30,28,31,23,27,31,27,23,27,27,23,21,27,31,21,30,27,27,34,30,43,32,26,36,34,38,40,24,30
33,35,36,30,29,33,22,29,30,26,26,28,28,24,22,26,32,20,28,27,27,32,27,41,31,26,36,32,38,37,26,30
33,37,36,28,26,32,22,28,29,26,25,30,27,24,23,27,35,21,28,25,24,32,26,41,31,28,35,33,37,39,26,29
29,35,33,29,27,31,24,33,30,26,25,30,26,24,23,28,36,22,28,28,24,30,30,41,33,30,35,33,35,37,29,34
27,33,31,27,25,31,23,32,27,24,25,27,23,22,23,29,34,18,25,27,22,29,31,40,30,29,33,31,32,34,27,37
27,31,28,27,25,28,21,35,25,21,21,23,19,21,21,32,34,19,23,26,24,27,28,36,29,29,32,29,31,31,27,36
24,30,26,24,24,27,25,39,23,23,23,23,20,21,23,34,37,24,25,27,23,25,29,32,26,26,28,26,30,29,24,35
24,26,28,22,22,30,28,37,24,23,25,23,20,22,23,33,35,27,23,31,25,24,28,33,24,22,24,26,28,28,22,33
23,22,25,20,21,31,29,37,25,23,25,23,19,25,25,35,37,27,23,33,27,23,27,33,25,21,24,27,29,29,20,32
23,21,26,19,19,29,27,35,23,21,23,21,17,23,23,32,37,25,20,33,26,23,27,34,23,17,21,27,29,27,19,29
20,20,26,18,20,30,26,34,24,22,26,22,18,24,24,36,38,28,23,30,26,21,26,33,20,13,17,24,26,24,18,25
21,18,27,20,21,29,24,31,21,21,23,21,18,23,23,36,38,30,26,29,26,24,26,35,21,14,17,27,26,26,18,23
23,18,27,21,24,29,27,34,24,23,26,22,20,26,25,37,37,31,27,33,27,25,25,33,21,16,20,27,29,29,20,24
26,18,26,24,28,28,26,29,23,23,26,21,21,25,26,37,37,33,29,33,29,27,23,32,20,20,20,26,32,30,22,20
24,16,26,24,30,26,24,28,23,23,24,21,21,25,24,34,35,33,29,32,28,25,22,30,20,18,18,24,34,30,24,17
25,18,28,24,30,25,25,25,25,23,25,21,25,28,28,33,36,34,32,35,29,24,22,33,23,19,20,27,36,32,24,18
27,19,31,26,31,26,24,23,25,22,23,21,23,29,28,31,33,29,28,34,28,24,20,36,24,17,22,29,37,34,25,20
27,21,28,26,30,26,24,22,26,24,24,22,25,30,30,32,34,28,28,34,28,24,24,36,26,17,26,29,37,31,23,18
31,24,31,28,34,27,23,25,26,25,24,23,26,26,28,30,32,28,30,32,28,26,25,37,27,19,28,29,39,34,28,18
31,27,26,30,35,25,23,27,26,25,23,25,27,25,27,30,29,27,31,30,26,24,27,36,34,21,33,30,43,35,29,21
34,28,26,31,35,23,25,29,26,27,23,26,30,27,29,30,30,27,30,31,27,24,28,38,36,25,35,32,49,40,33,19
37,30,23,33,35,21,25,29,25,29,25,26,30,29,31,32,32,25,26,29,27,22,30,40,36,23,36,28,47,40,31,17
34,27,20,30,31,18,22,25,22,26,25,23,28,27,31,31,33,22,26,30,26,22,30,40,36,19,32,28,44,39,29,14
35,25,19,25,27,19,21,25,23,25,23,25,27,29,29,29,33,21,27,27,23,21,27,41,37,16,29,29,39,39,25,16
40,29,19,27,27,19,19,27,23,25,21,27,27,29,27,29,33,23,28,30,24,24,26,42,38,17,33,31,43,43,22,17
41,26,18,28,28,19,18,28,20,24,21,26,23,25,23,25,29,19,25,27,21,25,29,39,36,19,30,28,46,40,26,16
40,24,17,25,26,21,19,29,21,25,24,30,25,25,23,25,29,21,27,27,23,26,29,39,37,20,27,28,42,38,24,14
40,24,17,27,30,20,17,28,19,25,25,31,23,23,21,23,27,21,27,25,23,25,27,39,37,22,25,28,42,40,26,18
40,26,16,30,28,20,18,25,18,26,27,33,25,23,21,23,27,21,25,25,20,26,26,38,38,24,25,28,41,36,26,19
44,28,16,29,28,20,18,26,19,28,30,32,27,26,24,26,30,24,29,30,24,25,21,40,33,22,20,27,36,38,26,20
42,30,18,31,29,21,18,23,20,27,30,32,25,28,24,26,30,22,28,30,23,28,20,39,34,18,20,28,34,36,22,24
37,27,18,29,29,22,19,24,22,26,31,33,24,30,25,23,27,23,30,34,25,26,17,36,35,17,19,31,37,35,21,24
37,31,21,31,29,23,21,25,22,27,31,34,24,30,22,24,24,24,28,30,26,24,18,38,38,21,23,32,39,35,23,25
37,31,23,29,27,23,23,25,23,29,35,33,24,28,22,24,22,24,29,34,30,23,19,38,35,23,25,28,38,30,23,28
34,27,21,25,23,21,25,23,23,29,39,33,25,29,25,25,25,26,28,32,32,20,18,40,32,23,21,30,32,25,22,29
33,30,23,25,23,23,26,24,26,30,41,36,28,32,26,26,28,28,30,32,32,22,15,42,30,22,24,30,27,27,19,32
36,32,22,29,26,21,24,23,28,28,38,32,28,34,26,28,28,29,31,34,33,23,17,41,33,24,26,32,32,30,22,34
36,32,26,28,24,23,28,25,27,26,38,30,30,34,26,30,31,31,31,35,35,21,17,41,35,24,26,34,34,32,22,35
36,29,23,25,22,24,32,27,27,24,38,28,30,34,26,30,32,32,32,36,37,21,20,41,35,22,27,35,36,34,20,36
32,22,23,22,18,25,37,28,28,24,38,28,30,36,28,32,35,32,30,33,35,24,22,37,34,24,26,36,36,34,20,33
33,21,21,21,17,25,37,31,29,25,38,29,31,34,28,32,34,35,31,32,36,24,24,36,31,27,27,36,35,34,23,33
37,24,24,21,17,26,37,30,31,26,37,29,31,31,26,33,35,33,31,28,36,25,26,39,29,29,27,35,34,36,26,37
35,21,23,21,17,27,35,31,31,25,37,28,31,32,28,30,34,34,31,26,32,25,26,36,28,29,25,34,33,35,23,38
32,22,23,26,21,27,35,31,32,25,33,25,31,30,28,28,33,33,30,23,29,26,28,35,28,28,24,37,35,37,24,37
33,23,27,29,25,29,35,31,33,25,31,25,29,31,29,31,32,33,30,22,26,28,30,31,31,29,27,35,35,37,27,35
33,23,24,31,23,26,35,29,33,25,28,23,29,30,28,30,30,30,30,22,26,28,31,28,31,29,25,33,33,37,27,35
32,22,24,29,22,26,34,30,33,26,30,25,29,31,31,29,32,30,30,20,23,28,32,27,27,28,24,30,30,36,27,33
30,24,20,28,24,22,30,28,34,26,28,28,28,34,30,30,33,30,33,21,23,30,32,27,25,30,24,30,28,35,26,34
28,25,21,29,27,20,26,28,36,28,26,28,25,34,28,28,32,28,34,22,24,29,29,29,26,31,23,29,25,33,27,34
27,27,23,29,29,21,21,24,35,28,26,27,23,31,26,25,29,25,31,23,25,27,30,31,25,29,23,27,25,33,25,34
26,27,22,29,29,19,20,23,33,25,23,25,21,29,23,25,29,23,31,24,22,24,31,32,29,29,23,28,27,32,25,32
24,27,21,29,29,19,18,24,31,24,22,25,21,29,24,25,29,23,31,26,20,25,31,28,29,29,23,27,27,31,24,32
26,28,20,30,28,18,18,26,31,24,20,26,20,30,24,26,29,22,30,27,23,25,31,29,28,28,24,28,26,32,26,33
27,29,21,30,28,18,19,27,31,25,23,29,22,33,25,29,32,22,32,30,26,24,32,30,29,27,25,27,27,33,27,31
28,32,20,30,28,18,20,28,30,26,24,28,23,31,26,27,31,20,31,31,27,25,35,34,28,26,24,30,30,36,26,33
27,35,23,27,32,20,22,29,29,25,24,27,21,30,26,28,32,20,30,32,27,24,34,37,31,25,27,31,31,37,27,31
26,35,23,29,31,21,23,29,27,25,24,28,21,27,26,30,30,19,29,33,28,23,31,37,31,27,30,31,32,35,29,30
28,35,24,31,31,21,22,31,25,25,25,23,20,23,27,25,26,18,26,32,28,22,31,36,30,25,33,28,35,38,31,29
26,38,24,30,29,23,25,31,26,25,27,25,20,23,29,27,25,17,23,33,26,22,31,34,28,24,34,26,34,36,32,27
30,40,26,30,29,26,24,32,23,22,24,23,20,22,27,27,25,17,26,37,26,21,31,32,30,26,36,30,36,34,36,27
32,40,28,30,28,29,27,33,24,23,25,23,19,21,27,27,25,17,25,37,29,22,31,33,29,24,36,29,35,35,34,27
33,39,28,29,30,29,27,33,25,25,27,23,19,21,29,27,25,17,25,35,29,21,30,33,29,23,35,27,33,35,33,26
36,43,31,28,33,31,27,31,24,25,26,22,19,18,27,28,26,18,26,36,28,22,28,34,31,24,36,30,34,37,31,27
35,43,32,27,33,31,26,30,24,24,28,22,18,18,28,28,27,20,24,34,26,22,26,32,33,26,36,35,38,39,32,28
37,46,31,24,29,29,25,29,23,23,29,21,18,18,26,27,27,20,23,33,25,21,25,31,36,26,38,35,38,38,32,26
38,45,31,27,29,30,26,30,24,26,32,24,18,20,28,28,26,20,24,34,26,20,28,29,37,26,38,37,38,40,32,27
39,44,31,26,30,29,25,30,24,26,30,22,18,20,26,26,26,20,24,33,26,20,27,31,36,22,34,37,35,38,28,29
39,42,32,24,28,32,29,30,28,28,32,26,21,21,25,29,26,20,24,32,24,22,28,31,37,21,29,41,32,37,26,28
41,37,31,23,28,30,26,28,26,26,30,24,22,22,24,28,26,20,24,28,23,22,27,31,37,22,28,45,33,37,24,28
37,36,28,24,27,26,26,26,27,26,30,25,23,23,23,27,25,19,23,22,19,23,24,30,34,22,28,40,33,40,22,28
38,36,27,22,26,27,25,25,26,27,31,25,23,23,23,25,22,18,21,20,16,25,23,28,35,22,28,39,34,39,22,30
42,40,28,26,25,31,25,26,26,24,28,26,24,24,22,26,24,20,21,20,15,27,23,27,34,21,30,42,38,38,23,30
40,38,25,28,23,29,26,29,30,27,30,26,27,26,26,28,28,22,22,22,17,28,22,27,33,23,28,40,36,38,25,28
42,38,24,29,23,31,27,29,31,29,31,27,28,27,24,26,28,20,22,24,16,29,22,28,32,19,26,38,34,38,24,25
40,35,26,33,28,36,29,32,32,28,33,28,30,31,26,28,28,22,24,26,18,32,23,26,31,19,26,38,34,39,25,27
37,30,26,28,27,36,30,34,28,28,34,24,30,30,28,24,30,22,22,26,20,32,18,28,26,20,24,36,34,35,24,28
38,31,26,29,28,36,30,33,28,28,34,24,32,32,28,24,30,24,22,26,20,34,17,28,28,24,28,36,37,36,28,27
36,32,26,28,32,36,30,32,26,28,34,23,31,33,29,23,31,25,23,27,21,33,17,28,28,25,31,34,40,32,28,28
32,30,29,28,34,39,31,32,27,29,35,23,31,33,31,27,35,26,24,32,22,33,20,24,26,23,29,28,36,30,25,30
31,30,30,28,34,41,33,33,28,31,37,24,32,34,34,27,37,27,24,34,25,32,21,26,26,22,28,28,33,26,24,31
31,31,33,31,39,39,32,33,28,32,39,24,35,35,37,28,40,31,27,32,25,29,21,28,23,25,31,29,35,25,27,29
26,25,34,31,39,37,34,32,29,35,41,25,35,33,37,27,39,31,26,33,26,28,22,30,24,28,30,28,34,24,29,26
26,22,36,32,40,37,33,28,24,30,40,26,33,32,33,26,37,31,25,34,26,28,22,28,24,24,32,27,36,24,30,27
26,21,34,30,38,36,32,28,22,28,36,24,31,30,33,26,36,32,26,31,26,27,23,28,23,24,33,24,37,19,28,27
26,19,31,31,39,37,33,25,23,31,34,25,30,29,33,27,35,31,24,29,26,24,20,28,22,24,32,25,36,18,28,24
31,19,29,35,38,37,31,23,27,29,31,27,33,27,29,28,35,30,26,26,26,26,24,28,24,26,31,27,38,19,28,22
36,17,30,35,34,40,30,25,28,28,30,28,34,24,28,32,38,32,28,27,27,26,29,31,24,26,32,28,39,24,28,24
38,16,32,40,32,40,25,21,27,23,27,25,37,23,25,31,39,31,27,26,30,23,30,29,22,26,31,30,38,26,28,24
45,19,32,43,33,40,24,21,29,22,28,26,34,22,24,30,38,33,27,22,29,21,29,35,25,27,33,32,41,31,31,22
47,19,31,44,33,39,22,20,29,23,26,27,34,23,26,30,36,34,29,24,30,21,30,37,27,29,35,35,43,33,33,23
51,22,27,43,31,39,24,21,30,22,26,28,32,26,24,34,37,32,28,27,31,22,29,37,27,30,33,33,41,32,37,23
51,28,25,40,29,37,23,21,30,22,23,26,30,25,21,33,35,30,28,28,34,20,28,40,25,30,35,33,45,37,37,25
48,28,26,36,26,41,25,24,34,26,24,29,29,27,23,34,33,27,27,27,32,18,28,41,25,33,36,36,46,35,36,26
47,29,30,35,25,39,25,23,35,27,25,31,32,29,25,36,34,28,29,30,35,21,28,38,27,36,39,39,43,37,37,26
45,32,32,33,21,35,24,24,33,26,25,29,30,27,23,33,33,31,30,33,36,22,30,38,26,36,40,36,42,38,36,28
42,36,35,35,23,37,24,23,33,27,25,32,29,29,24,35,33,33,29,36,35,20,27,39,29,34,42,34,42,40,36,30
40,42,38,34,28,38,26,23,34,28,26,31,27,30,24,32,32,31,29,37,35,20,25,36,31,34,43,37,42,42,38,30
40,44,36,32,26,36,31,27,36,31,26,34,22,30,28,33,33,30,28,37,31,22,23,38,33,34,43,37,40,42,38,28
34,45,37,28,23,36,30,27,36,30,24,32,24,32,30,34,36,30,32,39,32,26,22,35,32,33,41,39,40,43,37,28
34,48,41,30,22,38,31,27,35,29,25,31,24,30,28,35,35,30,30,37,29,27,20,32,31,32,42,37,38,40,36,28
30,46,42,31,23,39,28,25,33,26,22,29,23,27,26,30,32,30,30,36,29,26,21,30,33,28,42,38,39,43,33,27
34,44,44,30,26,39,29,25,33,25,25,31,26,29,27,31,35,32,32,36,26,28,20,26,33,28,42,40,37,44,34,27
34,44,43,33,29,37,29,25,31,25,27,31,30,30,27,30,37,35,33,37,27,29,21,29,31,26,38,41,32,43,36,28
32,41,44,38,29,40,28,26,30,24,26,28,30,30,23,31,35,31,30,33,26,24,20,33,29,24,36,38,32,42,38,28
34,40,45,36,32,40,28,26,31,23,25,31,31,31,25,35,35,27,33,31,25,21,21,37,28,24,36,40,33,41,39,31
34,43,45,34,32,40,27,28,32,22,26,30,33,32,28,35,36,27,33,33,25,24,25,36,29,22,36,42,28,40,36,32
31,43,40,33,31,35,25,28,31,23,25,30,31,31,29,33,37,27,33,31,25,23,25,37,26,23,31,37,27,39,31,31
31,43,41,33,33,34,22,26,31,22,28,31,33,33,30,33,36,26,35,34,26,25,24,38,26,25,31,39,29,41,33,34
35,42,38,36,35,33,25,28,29,25,29,33,35,33,29,31,31,27,33,33,28,25,24,39,30,26,32,40,33,38,32,37
38,41,36,35,37,33,28,28,29,26,30,35,37,32,30,31,33,29,36,33,30,29,26,37,30,27,31,43,37,41,35,35
39,42,37,33,35,32,31,29,28,29,33,34,36,32,31,31,33,27,35,35,32,27,28,38,30,28,28,45,36,42,32,39
36,42,36,34,34,32,32,31,27,28,33,32,33,32,31,31,33,27,35,35,33,29,29,37,29,27,25,44,38,39,29,41
39,47,34,36,33,30,30,31,26,28,32,30,32,30,32,30,31,25,35,35,35,29,29,35,29,28,24,42,39,39,24,39
44,53,31,36,36,28,31,32,28,28,33,32,30,30,35,27,31,27,37,39,35,34,31,35,30,32,26,47,42,42,26,42
44,51,30,38,36,32,31,33,29,30,35,31,31,31,35,25,32,27,35,42,31,37,30,30,31,32,28,46,42,40,28,39
47,49,29,38,36,28,31,30,26,30,36,32,30,30,34,26,32,28,36,42,32,38,29,31,27,33,27,45,45,39,35,37
46,45,34,42,36,29,30,29,24,30,38,34,32,30,32,28,30,28,36,42,32,40,30,30,28,30,26,48,44,36,36,36
44,43,34,41,35,28,30,30,24,32,36,36,32,30,31,29,29,29,39,41,31,41,32,25,30,31,24,42,45,30,35,33
41,45,35,43,36,27,31,32,26,33,37,37,33,30,31,30,30,28,38,42,33,39,36,30,27,29,23,39,43,32,39,33
37,42,34,42,36,26,28,32,29,32,36,35,33,30,34,32,30,26,37,42,33,35,35,28,27,28,20,34,37,32,34,32
35,38,33,40,34,26,27,32,31,31,35,37,35,31,35,34,31,27,35,41,32,35,32,26,24,28,21,30,34,28,34,32
31,35,35,40,33,25,26,32,33,31,35,39,36,33,36,36,32,26,34,42,34,34,30,29,27,26,22,29,30,31,32,29
32,33,39,37,34,29,29,32,35,33,36,39,38,35,36,38,34,28,36,42,34,36,32,30,30,28,28,30,34,32,34,30
30,32,43,39,34,33,31,31,33,33,37,37,37,33,37,41,36,30,36,42,34,34,32,30,31,26,26,26,32,32,32,29
27,29,41,35,31,31,29,29,31,31,33,35,35,31,36,40,36,32,36,38,38,32,31,34,34,25,21,23,29,31,29,29
25,29,39,33,31,31,29,29,31,31,31,33,33,29,35,41,35,32,36,37,36,28,29,33,36,27,23,23,29,31,25,29
25,29,36,29,29,32,28,31,34,30,30,30,32,30,36,40,34,32,36,36,36,25,29,32,35,27,25,21,29,29,25,27
25,28,38,28,30,34,28,32,34,30,32,26,30,28,36,40,35,33,33,36,38,22,29,36,32,24,27,25,27,29,26,27
23,25,35,25,27,34,26,32,33,28,30,24,31,28,36,39,33,33,31,35,36,23,26,33,33,25,27,27,23,27,23,25
25,27,36,27,29,34,26,32,30,28,28,24,28,30,30,36,36,36,32,34,36,24,26,39,35,27,31,32,27,27,27,28
26,29,37,29,31,37,27,32,32,30,29,26,26,32,31,37,38,36,32,35,37,26,27,41,35,28,30,33,28,27,29,29
29,31,37,31,34,39,30,31,31,31,29,25,28,33,33,37,37,38,34,34,35,27,30,41,33,32,31,29,29,21,32,31
32,29,37,28,33,37,27,29,31,29,28,25,25,30,33,37,35,37,35,35,34,27,28,43,33,31,29,29,29,21,35,30
28,27,36,24,32,34,26,28,31,28,28,27,27,35,33,40,38,36,36,34,32,30,28,45,33,32,30,28,31,20,36,31
35,33,35,25,33,31,25,29,33,27,27,27,29,35,33,39,39,36,36,35,32,32,32,43,33,35,35,35,37,27,39,34
35,35,37,27,33,33,27,29,34,27,27,27,28,35,31,35,37,34,34,33,32,33,33,45,33,33,35,35,37,27,37,37
36,35,37,27,31,35,31,29,36,29,29,29,29,37,33,35,37,33,33,33,30,32,33,48,36,31,35,34,37,30,35,35
41,35,31,25,27,31,29,30,34,30,29,30,32,37,33,35,38,34,36,29,29,33,33,49,39,29,35,33,37,32,31,36
41,34,30,24,26,29,27,27,35,31,27,33,30,35,34,34,38,32,36,26,26,34,32,45,39,31,37,31,41,36,31,35
41,32,29,22,26,31,29,29,37,33,31,33,31,35,38,34,36,32,36,28,26,33,32,42,38,30,36,27,40,38,30,35
43,31,27,21,27,30,28,31,37,33,30,34,33,33,36,32,33,31,37,26,24,31,34,42,38,31,39,29,39,43,29,33
44,32,28,21,26,30,27,31,37,34,30,33,31,30,33,29,31,29,35,24,23,32,37,40,40,32,40,34,40,48,28,33
41,31,25,23,25,27,25,31,35,33,29,33,32,30,30,26,32,28,33,21,24,31,38,37,41,31,39,35,37,48,25,34
41,32,22,25,25,28,24,32,35,34,28,31,29,25,27,21,27,27,31,21,25,27,38,36,41,29,37,35,35,45,23,31
37,29,25,27,25,31,27,33,33,37,29,30,26,25,27,23,26,26,29,19,23,26,35,35,41,27,35,32,31,39,21,30
35,27,25,26,24,31,25,33,32,37,29,30,27,24,27,23,27,26,29,21,23,26,34,34,39,28,35,31,31,39,22,29
37,27,25,27,29,29,21,33,28,35,27,28,26,22,24,23,27,27,27,21,22,26,32,32,36,31,37,32,31,38,25,33
33,29,27,29,31,31,23,30,30,32,25,27,23,22,22,20,25,25,23,23,21,24,31,31,33,35,37,31,31,40,29,33
33,30,28,30,32,32,23,31,29,31,25,23,22,22,20,20,24,26,24,24,22,26,31,33,31,33,35,31,29,36,29,33
34,30,27,29,29,29,21,29,27,29,23,23,21,21,18,20,22,24,24,22,20,26,33,31,31,31,34,34,30,32,28,33
31,29,27,31,27,26,20,27,27,26,22,20,20,20,18,20,22,24,24,22,20,28,34,30,31,29,31,32,29,28,27,35
29,27,24,29,25,24,18,25,25,24,20,21,19,20,18,20,22,26,24,22,20,29,33,33,33,27,28,30,27,27,25,32
27,27,27,27,28,26,20,26,24,22,18,20,19,18,18,20,20,24,21,22,17,28,32,32,33,25,27,30,25,26,25,31
28,28,29,24,28,26,20,26,24,24,18,20,19,18,18,20,20,24,20,20,19,29,33,31,32,22,29,30,26,26,22,33
29,27,28,21,29,28,20,28,24,22,18,21,19,19,18,19,19,23,20,22,17,28,32,34,29,19,29,32,27,27,21,31
31,25,26,19,27,26,21,30,25,23,18,21,20,18,18,20,20,24,21,21,17,27,33,33,29,18,27,35,25,25,20,33
30,26,29,20,25,29,25,29,28,26,19,20,20,18,18,22,21,25,23,25,21,29,34,29,32,16,24,36,26,25,20,31
35,25,29,25,27,27,23,29,28,25,21,23,21,21,21,23,22,26,24,23,19,27,33,25,31,15,25,37,27,25,21,32
34,25,31,25,27,28,23,29,29,24,23,22,20,20,21,23,23,25,23,29,23,25,34,27,32,15,29,39,28,27,20,33
32,25,32,26,28,29,25,29,29,25,23,23,19,22,20,22,21,23,19,29,22,22,30,29,31,14,29,35,29,27,21,33
33,25,33,23,27,31,27,29,27,25,23,22,19,22,20,24,22,24,22,32,26,21,30,34,33,13,28,36,31,28,21,33
32,23,35,25,27,31,27,29,26,25,23,21,20,23,21,25,24,22,22,34,28,18,28,33,28,11,29,33,29,24,19,38
32,25,30,25,22,28,26,26,26,24,25,22,20,25,23,26,26,22,22,34,28,16,27,36,27,11,33,37,32,26,18,40
29,19,27,25,19,26,27,25,27,23,25,23,21,25,23,29,27,21,21,33,26,14,24,35,23,11,28,33,29,25,19,38
29,17,26,24,15,20,26,24,28,23,25,23,23,25,23,29,27,22,21,33,27,14,28,34,23,12,30,31,30,27,22,38
30,20,27,29,17,21,27,27,29,25,27,24,21,26,26,28,28,22,20,34,28,14,26,36,24,12,34,28,32,30,25,37
33,19,24,29,16,20,24,28,31,22,24,29,25,28,28,27,27,23,21,29,25,15,28,37,23,13,37,27,33,32,25,39
33,20,27,25,17,25,27,30,31,25,27,32,26,28,27,30,31,26,24,35,31,18,31,42,26,12,36,26,36,32,25,40
37,24,29,26,18,26,30,32,31,27,26,35,29,33,30,34,31,27,25,29,27,23,31,43,27,13,34,28,37,32,27,41
37,22,27,24,16,25,31,31,30,27,29,36,32,34,36,36,33,29,27,32,30,28,31,43,26,12,32,26,33,32,25,41
36,24,26,26,18,23,30,31,31,27,32,37,34,37,39,35,31,29,27,29,29,30,28,39,25,14,35,26,32,32,26,38
41,29,27,28,19,25,34,31,32,27,36,37,37,37,41,37,32,32,30,30,30,33,30,40,30,19,39,31,37,37,31,35
43,28,30,30,22,28,33,35,35,29,34,37,37,37,41,38,34,34,34,32,32,38,32,40,30,20,37,28,37,35,33,34
45,31,34,33,29,34,36,37,35,30,34,36,38,36,40,38,34,36,36,34,34,41,33,40,33,23,39,31,39,37,35,35
43,34,35,36,32,36,37,37,35,29,33,35,35,35,39,37,33,36,37,33,36,43,29,42,34,24,37,30,37,36,33,36
45,32,35,32,33,36,37,32,33,29,33,36,36,37,39,39,33,37,39,33,37,43,31,41,35,26,35,31,36,35,32,35
42,34,35,32,34,36,37,32,28,29,35,32,32,35,37,38,32,34,38,35,38,44,28,42,33,28,34,33,35,33,32,31
37,32,33,30,30,33,37,32,25,27,36,29,29,35,37,35,31,30,36,29,33,42,25,38,32,27,31,34,32,32,28,27
35,29,30,29,31,32,35,31,23,25,33,27,27,31,35,33,30,30,34,30,34,36,26,36,29,27,31,33,31,31,27,27
35,31,31,33,33,33,35,31,23,23,31,26,26,29,31,33,31,31,35,27,31,34,27,33,31,29,33,35,33,31,29,27
35,29,29,31,31,35,36,31,21,25,30,27,24,28,30,34,32,29,34,26,30,32,29,34,30,29,35,36,34,32,27,28
34,26,26,28,28,32,32,30,22,24,28,28,22,28,28,32,30,28,34,26,28,32,27,34,27,27,34,34,32,27,24,29
32,28,28,29,29,34,34,31,20,26,30,30,22,28,28,31,27,27,31,26,29,29,25,31,25,27,34,32,30,25,26,27
31,27,24,27,24,31,30,31,19,24,30,30,21,28,28,28,26,26,30,28,30,27,28,32,26,27,33,32,31,24,25,28
30,27,23,25,25,31,31,30,18,26,32,32,20,28,29,29,30,24,27,27,27,26,27,27,25,25,32,31,31,23,24,27
27,25,20,23,25,31,30,31,19,26,30,32,22,26,26,26,28,22,28,25,25,26,25,25,24,22,31,28,32,22,22,29
30,27,21,22,23,31,33,30,19,27,33,31,21,27,29,29,31,23,33,27,23,23,27,27,25,20,35,31,33,23,20,32
31,29,18,23,27,32,34,30,21,28,32,31,23,28,29,29,29,25,32,28,22,25,28,28,22,22,33,30,33,23,20,33
32,28,19,24,24,33,33,31,25,29,31,31,23,27,29,27,29,23,35,27,20,25,29,31,24,23,32,30,34,24,21,34
33,28,20,26,23,32,30,33,24,32,32,33,24,28,28,26,28,22,34,28,19,25,30,32,24,25,33,32,37,25,23,32
33,29,22,30,26,31,29,33,25,31,31,32,23,25,29,23,29,24,33,31,15,23,28,34,24,26,33,31,37,24,26,31
34,32,24,32,30,34,30,34,24,32,30,30,22,24,28,22,28,22,29,30,13,21,28,34,27,27,30,32,38,29,28,29
31,27,23,30,28,33,28,33,24,30,28,28,22,24,28,22,28,22,29,30,9,21,27,33,26,26,30,31,35,28,23,29
30,25,24,30,28,32,29,31,24,30,29,31,22,24,28,22,28,22,29,26,5,21,27,32,24,26,30,30,34,26,24,26
30,24,26,30,26,34,30,31,27,31,29,31,25,25,30,24,27,23,32,28,3,21,28,35,28,27,32,32,32,26,24,26
28,27,27,31,28,34,30,30,28,32,30,30,23,27,34,28,27,25,31,30,3,22,30,34,30,30,32,35,30,29,27,26
24,27,31,36,32,34,28,30,30,32,28,32,26,28,32,26,26,24,28,32,3,24,29,35,29,31,29,32,30,29,27,26
21,23,34,36,31,34,28,28,29,33,29,33,27,28,32,28,28,23,30,34,6,25,28,34,30,31,30,32,31,29,31,25
21,25,33,35,32,33,29,27,25,31,29,31,26,29,33,27,26,22,26,36,11,26,28,32,31,32,31,33,31,29,32,25
20,24,33,31,32,33,29,24,26,29,27,28,27,29,35,28,26,24,28,36,13,26,28,34,32,30,30,33,28,29,30,26
19,24,32,29,30,33,28,24,26,28,26,28,28,30,34,28,24,22,28,33,14,26,27,29,31,27,28,31,25,27,27,26
16,22,34,28,30,32,30,26,26,28,26,30,31,32,34,28,25,23,28,30,16,29,27,26,30,27,28,30,26,24,25,28
20,28,34,30,32,32,32,28,29,30,29,31,33,34,34,28,24,22,32,29,17,30,29,29,32,27,30,34,28,28,28,32
22,32,36,32,34,32,32,30,31,30,27,32,33,34,34,28,24,24,32,30,21,31,31,30,32,30,30,34,28,30,30,34
24,34,36,34,36,30,28,28,28,28,26,30,31,36,32,26,24,26,32,30,25,31,35,29,30,31,29,34,28,32,30,35
27,36,36,38,37,34,27,30,26,28,26,32,31,33,30,24,24,26,32,30,27,31,32,32,28,28,28,34,28,29,28,34
27,36,29,35,33,30,25,29,25,27,25,31,29,31,27,23,21,27,33,27,31,29,34,32,27,29,27,34,26,27,29,34
28,36,27,35,33,29,23,29,24,24,23,28,27,29,25,23,21,27,31,27,30,29,35,35,30,29,30,39,24,28,24,35
31,35,27,37,35,29,23,29,24,25,23,29,29,26,23,25,23,29,31,25,25,29,32,35,27,29,31,39,25,31,23,34
32,38,28,39,37,30,23,28,24,24,23,28,27,24,21,23,23,27,27,24,24,28,34,32,28,31,33,41,25,31,23,34
33,41,28,37,38,32,24,28,24,24,24,28,26,24,21,25,25,29,29,25,25,31,35,33,29,32,35,43,26,31,24,35
34,40,25,36,39,31,23,27,25,25,25,26,24,23,21,25,24,28,29,25,25,28,35,33,25,32,32,44,24,34,29,34
32,38,24,35,37,29,22,27,24,25,23,26,24,24,21,25,25,29,25,25,25,26,33,32,22,33,30,38,24,32,26,32
34,36,22,35,36,29,23,24,20,25,23,25,24,24,22,26,26,28,24,24,24,27,30,30,22,30,30,40,26,36,28,31
33,37,19,33,35,29,26,25,21,25,24,26,25,24,24,28,26,26,26,24,24,27,25,32,23,33,33,39,29,37,29,33
33,35,20,31,31,26,28,24,21,23,21,23,25,25,24,28,28,26,26,22,24,29,27,32,24,33,33,40,33,38,27,32
31,33,21,29,31,29,28,24,22,24,22,22,24,24,27,29,29,25,23,21,22,29,26,30,22,29,33,42,33,40,23,28
33,33,24,31,30,28,28,27,22,24,25,24,25,25,27,26,27,25,23,19,22,29,26,29,23,30,33,40,33,41,27,30
31,36,28,31,29,31,31,27,24,25,25,25,28,28,28,26,29,24,24,20,23,26,26,32,26,31,34,42,33,35,27,32
33,38,27,30,25,31,32,27,26,25,24,25,27,27,29,27,29,23,25,20,22,32,24,34,26,30,34,41,35,35,27,29
33,37,25,34,25,29,29,27,27,23,21,25,27,29,27,27,30,22,24,20,22,28,23,36,27,29,31,39,37,35,29,26
30,36,22,35,22,28,26,26,26,22,18,25,26,28,26,26,30,22,24,20,22,28,21,37,29,26,30,35,34,30,24,26
32,36,21,34,24,27,27,25,24,20,18,24,24,26,26,26,30,22,24,22,24,28,22,38,28,24,30,34,32,28,24,26
30,38,23,30,24,28,26,26,28,22,18,22,24,25,25,25,29,21,25,23,22,26,22,38,26,24,30,34,31,26,19,27
29,35,29,29,23,29,23,27,27,21,16,20,23,22,22,22,29,21,21,21,21,23,24,35,21,19,25,31,27,21,17,27
28,37,33,26,26,31,23,29,27,20,18,20,24,24,24,24,28,18,19,21,20,20,26,34,18,20,23,26,23,20,18,26
30,36,35,28,28,29,23,28,26,20,18,22,25,26,23,23,29,19,21,22,22,20,26,35,23,20,22,24,24,19,20,28
28,38,31,29,30,29,23,25,25,19,15,19,24,26,22,23,31,19,21,21,21,21,24,35,20,18,18,18,22,14,16,24
25,35,25,27,30,26,20,27,22,19,13,19,20,23,22,22,28,19,21,21,22,23,26,32,16,15,14,13,17,13,15,22
21,31,25,27,36,25,19,28,18,20,14,20,21,24,22,21,28,20,21,22,24,18,26,30,12,15,10,8,13,11,15,24
17,27,26,26,36,26,21,29,19,21,15,19,21,21,21,21,25,19,21,23,23,19,27,31,10,15,9,8,9,10,11,23
18,28,26,25,38,24,22,28,19,21,17,19,21,21,21,21,25,19,21,23,22,19,29,31,11,18,12,11,12,12,12,24
14,26,27,24,36,24,20,26,19,21,18,19,20,21,21,21,24,18,22,22,20,20,28,29,12,18,10,12,12,12,10,23
14,26,24,28,32,25,20,27,18,20,16,18,20,20,20,20,24,18,22,24,23,22,27,29,16,18,8,8,9,8,11,21
12,26,19,28,30,24,21,28,17,21,15,17,19,19,19,21,20,16,20,24,22,22,24,31,20,18,8,8,8,8,10,17
12,23,15,29,27,21,22,27,20,24,16,18,18,18,20,20,20,16,19,25,20,25,23,30,20,16,9,8,7,6,9,21
13,23,13,31,27,25,23,29,23,22,14,18,19,16,19,21,22,18,17,27,21,25,27,27,18,21,11,7,7,3,11,23
11,21,13,28,25,23,21,27,21,23,13,17,19,14,21,21,21,18,16,28,22,24,27,27,19,19,11,7,7,3,13,21
12,24,18,30,21,24,22,25,22,21,16,15,20,16,22,22,20,19,16,30,23,23,26,29,20,18,10,9,8,4,14,19
14,22,22,28,16,28,23,23,24,23,19,15,22,18,25,26,24,24,18,33,27,26,26,31,20,19,10,12,8,4,12,22
18,26,25,29,17,29,26,24,24,26,22,18,22,20,28,28,26,24,20,32,28,28,26,30,24,22,14,15,10,5,16,26
22,29,29,30,18,34,29,28,24,28,24,18,23,23,29,27,27,22,23,30,27,28,27,31,23,26,16,17,12,8,20,24
27,31,33,33,19,39,33,29,26,29,25,22,24,25,29,29,29,26,24,32,28,30,31,34,24,28,21,21,18,13,25,26
27,27,32,29,21,37,32,28,27,28,27,25,25,25,31,31,29,27,25,30,26,29,30,34,23,27,21,21,19,13,23,28
31,25,32,29,24,34,32,27,31,29,29,29,29,29,33,31,33,31,29,30,26,31,29,33,20,27,21,21,19,13,25,29
34,28,33,32,24,34,30,24,28,26,28,29,30,29,29,35,35,32,29,33,31,30,30,35,25,29,24,27,23,19,28,26
30,26,35,28,22,30,28,22,26,28,28,30,30,32,30,36,34,30,28,34,32,32,25,40,25,26,20,28,24,22,26,26
32,24,37,25,25,37,31,24,28,28,28,30,28,32,26,34,36,28,28,34,33,32,24,40,22,26,20,28,24,24,24,28
36,21,32,24,27,34,28,24,28,28,25,30,28,29,24,31,35,26,29,34,30,30,23,38,23,27,19,30,23,27,21,28
40,23,27,28,26,30,26,25,29,27,22,31,27,27,19,27,35,23,32,31,25,31,26,39,26,25,22,29,27,29,23,28
39,19,22,25,25,27,24,25,29,27,21,31,29,27,19,26,36,25,31,35,23,32,27,38,28,24,22,25,27,27,21,25
36,17,24,26,25,26,25,25,29,27,19,33,30,26,18,28,38,29,32,40,23,32,27,37,27,20,20,25,26,23,20,26
35,17,25,27,27,25,22,25,28,26,18,30,30,25,19,26,37,26,30,38,20,29,25,37,29,20,21,24,26,17,21,27
34,20,26,29,27,25,24,25,26,28,19,29,31,27,19,27,39,27,31,40,19,27,26,38,30,21,24,28,26,20,23,24
32,22,26,30,25,25,24,23,24,29,23,29,30,29,23,31,41,29,31,42,17,29,28,37,34,23,27,30,28,22,23,24
28,19,26,27,25,25,23,23,23,29,23,29,29,28,24,26,41,29,33,36,11,29,26,36,32,21,28,28,26,18,21,23
31,21,26,29,25,26,24,24,22,28,26,26,28,26,24,24,38,28,34,32,5,26,26,32,31,21,29,29,25,20,21,21
34,23,25,31,23,21,24,24,22,28,28,30,33,28,26,28,38,31,37,35,3,29,28,31,37,23,33,32,29,24,23,22
30,25,30,32,25,23,24,25,22,30,30,32,32,28,26,28,38,30,36,32,2,31,31,34,41,25,37,32,35,23,27,22
26,28,30,32,30,24,23,25,20,27,31,33,30,31,29,29,37,29,33,29,1,28,30,32,43,28,39,34,35,24,30,20
28,32,35,37,30,28,25,25,20,29,30,30,28,33,30,32,38,30,34,29,3,25,26,30,40,28,40,36,38,30,30,21
29,33,33,37,30,27,25,23,23,27,32,31,26,31,31,31,37,30,30,25,4,25,27,28,38,26,39,34,37,33,28,22
30,30,31,34,26,26,27,24,24,27,33,34,26,33,33,31,35,30,30,25,8,26,30,27,37,26,36,36,35,38,24,22
33,34,36,36,26,28,27,26,24,27,31,32,23,32,30,30,34,30,28,24,11,27,30,28,38,26,37,38,39,37,26,22
35,33,42,38,25,32,32,27,25,30,30,29,24,30,28,26,28,26,26,20,11,26,30,25,35,29,39,38,42,40,28,23
39,38,40,38,26,32,34,26,26,30,30,28,22,30,29,27,29,25,27,23,12,30,29,23,35,33,39,35,45,41,32,24
41,40,43,39,27,33,35,29,27,33,31,31,23,30,31,29,31,27,27,25,14,29,32,25,39,37,43,37,47,44,35,30
40,43,47,41,29,37,37,31,29,33,31,29,20,29,31,27,29,26,24,22,16,26,34,25,35,37,45,38,47,42,35,29
41,43,46,41,29,39,39,30,31,35,29,31,21,31,31,29,29,27,23,23,18,29,35,22,33,37,43,36,45,43,35,34
42,41,51,39,27,39,43,29,32,37,29,29,22,29,29,29,30,27,23,25,23,30,35,23,31,35,39,36,44,41,33,36
39,39,48,38,26,38,40,28,30,34,28,30,22,26,26,28,28,26,18,22,23,31,36,25,30,35,37,39,43,39,33,37
40,38,47,35,25,37,37,27,27,35,28,27,23,25,25,29,27,25,18,22,24,30,36,30,34,35,36,40,44,40,33,37
39,39,48,37,27,39,36,28,28,38,28,26,25,24,24,30,28,27,20,23,25,30,35,31,35,35,35,41,45,39,35,34
39,36,45,37,29,39,37,29,30,39,31,27,27,27,28,32,29,26,22,24,24,30,33,29,35,37,32,39,43,42,34,33
39,38,39,36,32,37,31,30,32,37,29,30,26,25,27,33,33,27,21,25,27,28,32,33,38,35,33,40,43,42,33,33
38,35,41,37,31,41,29,33,31,37,29,33,28,26,27,33,31,29,21,25,29,25,33,37,37,33,31,42,42,42,32,31
35,34,40,35,30,40,28,30,30,34,26,30,29,28,27,35,33,29,23,25,31,28,31,37,33,33,30,39,39,37,29,26
34,30,40,34,30,38,26,28,29,34,26,30,30,28,28,38,35,29,24,26,30,30,29,36,34,36,26,37,35,33,30,26
30,30,40,34,29,38,25,29,29,31,28,27,29,29,31,39,37,29,27,29,32,27,24,38,34,37,28,38,34,30,29,22
31,31,39,37,31,41,24,28,28,30,28,26,28,29,31,39,35,29,27,29,29,24,25,39,35,35,31,39,35,31,31,21
33,33,40,36,30,39,24,28,28,30,28,26,28,30,32,39,37,27,30,29,30,23,26,38,41,35,31,39,35,35,31,17
34,34,39,36,33,42,22,28,28,28,24,24,29,32,33,37,37,27,32,29,31,24,25,36,38,38,32,38,34,34,32,14
35,33,38,35,31,37,20,25,25,25,22,24,26,30,32,38,40,28,33,31,33,27,21,35,39,39,33,33,33,35,31,14
33,30,33,31,27,35,15,23,24,23,17,22,26,25,29,38,40,26,32,31,31,26,20,36,34,37,34,33,33,30,30,13
31,28,33,30,28,37,19,25,25,21,15,23,25,24,27,35,39,24,32,33,30,25,23,36,33,37,30,35,30,27,30,13
30,26,33,30,33,37,20,26,28,22,21,24,25,25,29,34,38,22,31,32,30,25,25,34,30,35,31,35,28,26,29,14
32,27,29,33,35,37,19,25,29,23,21,25,25,25,26,30,34,20,28,32,30,22,26,36,32,34,31,35,30,29,30,15
38,25,23,31,31,33,17,23,27,21,21,23,23,25,27,29,33,21,25,32,29,17,24,38,35,31,33,38,36,35,27,13
42,27,23,29,30,32,20,23,26,25,20,25,21,23,25,30,32,24,22,32,28,15,26,34,32,28,32,36,34,38,26,14
43,29,24,25,28,29,19,25,27,25,21,28,24,26,29,33,35,27,23,31,27,18,23,33,29,27,29,37,33,39,21,12
42,32,22,25,30,30,18,26,28,26,22,28,24,24,28,34,36,25,22,31,26,18,23,34,27,28,30,38,33,36,22,13
39,33,24,26,27,31,20,26,28,26,24,30,21,23,27,35,37,25,19,31,27,18,25,36,25,25,29,39,35,39,23,16
38,34,24,26,29,32,24,27,28,29,28,29,24,24,30,36,34,22,16,28,24,16,28,38,24,24,30,42,38,39,24,19
38,34,26,28,32,33,27,27,28,29,30,30,24,26,30,36,32,25,14,28,26,16,27,40,29,25,33,42,39,44,26,24
42,38,29,30,31,31,25,24,26,28,33,29,23,29,31,39,33,26,14,31,28,16,28,42,30,26,32,41,42,47,28,25
47,41,28,29,25,25,28,21,25,29,32,27,22,27,30,42,36,28,14,32,28,17,27,42,32,27,31,40,43,49,29,26
42,42,31,28,24,27,29,24,26,29,31,28,21,27,31,43,39,29,15,33,27,19,27,41,30,28,30,41,44,51,28,26
38,46,39,30,28,31,35,29,29,35,33,31,21,27,29,43,39,29,17,32,31,21,30,42,25,30,30,39,42,48,30,31
36,44,38,32,31,32,33,30,31,34,34,29,23,29,31,42,40,27,20,33,31,25,29,45,25,32,31,38,43,46,32,31
36,42,36,36,32,34,35,31,31,35,35,26,20,26,26,38,38,22,20,34,34,22,30,46,28,36,36,37,44,48,36,33
39,39,38,37,32,35,37,33,31,35,34,25,19,25,28,39,37,27,23,35,35,23,30,47,27,37,35,34,43,47,35,36
42,40,41,40,30,32,38,36,31,38,36,26,21,25,32,42,36,28,26,37,34,23,31,48,29,37,35,37,38,45,31,34
43,41,37,41,33,31,33,33,31,37,32,26,20,25,29,40,36,30,28,39,31,23,31,45,25,37,35,39,35,47,27,35
46,44,38,44,32,32,35,34,32,38,32,23,22,26,30,40,38,32,34,39,33,25,33,44,26,39,33,40,35,46,27,31
44,42,36,44,33,31,34,37,32,37,32,23,23,25,33,41,40,34,35,39,35,25,32,42,26,38,36,40,34,46,26,32
40,40,34,43,33,34,30,40,33,33,32,23,25,26,34,40,38,34,38,40,36,22,32,44,28,41,38,42,34,46,24,34
43,41,36,44,36,32,30,38,34,34,32,22,26,24,32,40,36,34,36,40,34,20,32,42,30,37,38,41,31,41,24,33
43,38,31,41,32,29,25,33,33,29,31,21,27,25,33,38,36,35,37,41,35,21,31,42,32,34,38,42,30,40,22,31
47,36,31,38,31,29,23,32,33,30,33,23,30,25,33,37,37,36,38,41,37,19,33,45,35,35,38,45,32,42,23,31
45,34,29,36,30,27,21,32,34,30,31,24,31,26,33,37,35,37,35,41,37,19,33,45,33,34,34,48,30,42,24,33
44,34,28,36,30,29,23,29,33,29,32,27,36,28,32,34,34,34,34,43,39,20,36,44,34,34,36,47,34,42,26,31
41,33,26,34,32,30,24,30,36,30,33,29,36,30,29,31,35,35,35,45,39,22,36,40,34,34,36,44,37,40,28,33
40,30,31,34,29,31,26,31,38,29,34,31,36,31,31,31,35,35,33,43,42,22,39,43,36,35,34,40,36,38,32,31
39,31,31,35,30,31,26,31,37,28,34,31,34,30,30,32,34,32,33,43,41,24,38,42,34,34,34,41,36,36,34,32
37,31,31,35,31,35,28,29,38,29,34,30,35,30,27,29,33,31,35,39,37,25,36,41,31,37,31,38,36,36,35,32
35,30,34,38,32,35,29,27,36,33,31,29,36,29,25,27,30,28,34,38,36,25,34,40,29,34,28,37,37,33,36,30
36,30,35,36,31,38,29,29,37,33,31,27,35,33,27,25,31,29,38,38,40,26,36,42,30,34,30,42,38,34,36,33
35,34,35,39,35,41,30,29,34,34,30,24,34,30,26,25,31,28,38,39,39,27,34,39,29,35,30,43,39,35,37,35
31,36,35,43,35,41,31,30,34,32,27,22,29,28,27,27,31,27,39,35,37,28,35,39,29,30,28,44,36,33,36,33
32,39,40,43,37,42,34,29,33,32,30,25,29,30,28,27,33,27,41,35,35,29,35,37,31,31,29,39,37,30,35,31
29,37,39,41,35,39,31,31,33,33,31,25,26,31,29,26,30,28,40,31,31,28,33,35,29,30,29,37,35,28,35,33
30,37,35,41,38,35,27,29,28,29,28,20,24,28,26,25,28,26,37,29,31,26,31,34,30,32,29,38,32,30,36,32
30,36,35,40,37,39,29,30,27,27,29,17,21,27,25,25,27,25,35,27,29,25,29,32,30,29,28,38,34,28,34,32
30,34,36,38,37,39,29,30,29,29,31,22,22,26,24,22,27,26,34,25,29,23,27,33,33,27,29,36,31,27,31,32
34,36,34,38,36,38,29,28,29,29,30,23,22,28,26,24,26,26,30,26,31,22,27,34,36,24,34,39,34,30,30,30
35,36,34,38,38,40,30,32,31,30,33,25,22,29,29,27,29,29,31,27,31,26,29,31,36,26,35,35,31,31,32,33
33,33,32,39,37,39,30,32,29,30,32,30,20,24,26,26,26,26,29,25,29,29,27,29,35,26,31,30,29,30,31,31
32,31,31,39,36,37,30,35,32,30,32,32,18,26,26,26,28,26,30,26,28,26,27,32,34,26,31,26,28,30,31,28
34,30,31,39,35,38,30,35,29,31,35,34,18,28,24,24,26,24,27,27,27,24,23,30,32,31,32,24,28,30,31,34
34,27,29,37,33,37,29,37,31,31,33,31,20,27,23,26,23,25,27,27,27,23,23,30,30,29,31,26,27,31,30,35
34,28,29,38,36,40,33,37,29,29,31,27,17,25,26,28,26,26,26,29,29,22,24,31,33,30,29,27,25,32,26,32
33,26,33,36,35,43,35,39,31,31,32,29,19,25,25,27,25,26,25,28,27,23,23,31,31,30,29,25,27,31,27,33
33,27,32,36,36,40,32,37,33,35,33,35,21,25,25,26,24,26,26,30,30,22,26,32,33,34,32,27,26,34,26,34
31,27,33,38,36,38,30,36,31,32,30,34,21,27,25,27,26,27,26,30,27,24,27,29,30,35,34,28,30,36,29,34
28,24,33,40,34,40,31,37,28,32,28,32,20,25,23,24,24,26,26,30,28,27,30,31,30,38,32,30,30,36,30,37
30,26,32,40,34,38,28,34,28,30,25,31,19,25,23,23,23,23,23,27,27,27,31,35,31,40,36,34,34,38,30,35
30,26,32,38,32,36,28,32,27,30,26,30,20,28,26,26,26,26,20,28,26,26,31,32,28,38,36,32,34,36,30,35
31,28,34,38,30,37,28,32,28,30,26,32,22,28,26,26,24,26,18,26,26,28,34,30,30,39,35,34,35,37,31,36
30,27,32,36,32,33,29,35,32,30,24,31,25,27,27,27,25,29,19,27,27,28,37,31,31,35,35,35,37,36,35,34
30,27,29,37,31,31,27,31,29,29,23,31,24,27,27,25,27,29,19,27,25,29,38,30,30,39,38,36,39,37,34,33
33,26,27,36,28,26,23,29,31,29,23,33,25,27,24,24,26,28,20,27,25,30,37,29,29,37,41,37,43,36,37,34
33,29,23,36,27,23,21,25,31,29,23,33,25,27,25,27,28,31,23,28,26,30,38,30,32,36,41,39,41,33,33,33
29,32,20,36,24,20,20,26,27,26,21,29,25,27,25,26,30,32,24,28,24,30,36,28,29,34,36,35,38,28,36,30
27,29,14,33,22,17,17,25,25,25,21,27,23,25,23,25,27,27,22,25,24,28,35,30,28,31,30,32,32,24,31,29
25,29,15,32,20,14,15,24,27,23,23,27,23,26,24,27,29,26,23,23,20,24,34,25,29,27,27,29,27,19,27,29
21,31,12,31,19,10,14,22,26,20,22,26,22,24,22,28,30,28,28,26,22,22,34,24,28,25,23,29,21,13,23,29
25,35,8,33,23,10,10,24,24,18,20,24,22,22,20,28,28,26,32,24,22,20,34,26,29,29,25,35,23,13,25,29
22,31,6,29,20,11,10,22,22,18,20,22,20,20,18,28,26,24,30,24,22,20,33,30,31,26,22,31,20,9,22,31
19,32,9,27,18,17,13,19,19,19,21,21,17,19,19,29,25,25,27,26,24,21,33,30,30,24,20,30,16,9,14,31
22,38,13,28,21,20,13,21,20,19,21,22,16,20,19,29,24,24,26,26,26,18,30,34,31,23,21,30,18,9,17,32
19,38,18,30,22,26,16,24,22,20,24,24,18,22,22,32,26,25,28,27,29,20,31,38,30,23,20,30,15,10,17,35
22,36,21,33,23,31,19,29,24,21,26,25,20,22,22,31,27,23,29,30,32,22,29,38,24,22,22,30,16,14,20,36
28,38,27,36,26,35,23,31,26,25,29,28,22,24,24,32,28,24,30,30,33,24,26,40,28,22,26,32,20,18,20,38
33,42,31,38,28,39,27,33,28,28,29,31,22,24,26,34,27,25,31,33,35,24,30,42,30,22,28,35,24,24,24,40
36,45,29,38,28,42,30,38,28,32,30,30,20,22,26,36,26,26,32,37,36,27,31,47,30,21,29,36,28,28,29,39
42,44,34,40,27,46,33,37,27,35,33,29,19,21,25,33,23,23,27,35,35,25,29,47,34,17,32,38,32,34,32,36
37,43,34,40,25,46,34,36,28,34,34,30,20,22,26,32,24,22,24,34,36,26,30,46,33,17,33,37,28,36,31,37
41,47,32,45,29,42,32,36,27,32,32,29,21,23,27,31,25,23,25,32,34,27,25,42,29,21,37,41,31,38,35,36
45,45,28,48,29,38,28,36,28,28,32,30,23,23,27,31,27,21,27,31,31,28,26,42,28,22,36,40,32,36,36,35
41,37,26,47,27,35,28,33,28,27,31,30,27,25,30,34,28,23,26,28,28,28,30,38,27,18,33,36,27,35,32,32
37,35,22,50,28,30,24,28,24,24,26,26,22,20,28,32,29,23,27,26,24,29,28,35,25,21,31,33,25,32,29,26
39,37,19,45,25,25,21,25,24,25,22,28,21,21,28,32,29,23,25,24,24,27,32,34,30,21,29,33,25,28,29,24
39,35,13,41,21,23,19,23,26,21,20,24,19,20,26,30,26,22,24,22,26,26,34,34,29,21,29,35,27,27,27,23
36,33,11,39,19,23,18,23,25,20,20,22,19,21,27,29,30,24,24,22,24,27,32,32,26,23,32,34,28,26,25,22
38,33,14,36,22,20,17,20,28,16,18,23,22,24,26,28,32,24,24,19,26,27,27,32,23,28,33,34,27,23,22,23
39,32,11,36,22,18,16,23,29,13,16,28,24,23,25,28,31,23,24,18,26,28,30,34,20,32,31,34,29,23,23,26
43,29,13,35,23,19,18,24,30,16,16,28,23,23,25,27,33,26,26,20,26,28,30,39,23,31,29,33,32,23,21,25
45,28,16,32,21,22,20,24,32,18,18,31,26,24,30,32,36,29,28,22,28,29,32,42,26,30,28,34,32,27,20,21
46,28,17,31,24,24,22,24,32,22,16,33,27,27,29,31,35,29,29,20,28,28,30,40,29,31,30,38,34,32,20,21
47,29,19,32,25,28,23,26,32,22,18,32,26,26,26,28,35,30,33,23,33,32,30,45,33,34,29,45,33,31,21,26
52,30,21,28,24,30,26,30,36,26,22,36,30,28,26,27,35,30,32,26,34,28,30,46,40,31,32,48,36,35,22,29
49,30,26,31,28,35,28,31,35,23,22,33,28,26,25,29,34,28,30,26,32,28,27,48,40,32,34,49,37,40,22,30
44,26,30,32,30,36,28,32,36,24,22,36,29,26,24,28,35,28,29,27,31,28,25,47,39,30,32,49,36,41,22,30
46,24,28,30,30,35,25,30,35,21,21,35,28,24,22,26,32,26,28,26,30,26,24,48,39,30,31,52,35,42,20,30
45,19,25,32,29,32,23,29,32,24,21,33,24,20,22,24,30,26,26,26,28,25,26,47,37,25,29,51,33,45,19,28
37,17,23,31,29,33,22,27,32,24,20,28,24,22,24,26,32,28,28,28,27,25,23,45,35,23,25,44,27,39,17,25
33,15,22,33,31,32,19,25,31,21,17,27,21,19,23,25,29,26,26,26,28,24,22,39,33,23,25,41,25,40,19,25
27,15,19,33,32,29,17,25,28,19,17,26,20,18,18,20,28,25,25,27,28,23,22,37,28,21,22,36,22,34,19,26
24,16,21,33,30,28,16,26,27,19,19,25,21,15,16,18,26,24,24,28,28,22,22,37,26,21,20,35,20,33,22,28
25,20,21,34,27,27,17,29,27,21,19,25,20,15,18,20,27,23,21,27,25,22,20,33,22,21,25,29,20,33,25,25
25,22,23,36,26,25,17,28,26,20,18,24,20,16,17,20,24,21,19,24,24,24,21,35,19,23,25,31,19,32,28,23
22,19,20,36,26,23,16,27,28,23,24,27,23,21,21,21,23,25,20,23,23,25,22,33,19,23,22,30,20,30,29,24
25,24,20,39,26,26,16,28,26,22,24,24,21,20,22,22,24,26,20,23,24,26,24,35,18,24,20,27,20,31,30,24
24,28,23,42,30,30,19,30,27,25,25,25,22,22,24,24,24,26,22,24,24,26,23,34,22,27,18,25,20,27,34,23
26,34,24,43,34,32,20,31,29,22,26,26,24,24,24,24,24,26,22,24,24,26,22,30,23,32,22,26,23,28,36,25
28,36,26,46,36,36,21,32,31,23,28,27,26,24,24,24,24,26,22,24,22,26,22,28,25,32,23,28,25,32,36,26
30,39,28,47,37,38,22,34,31,28,30,28,31,27,25,27,27,27,23,27,23,29,25,31,27,32,22,32,24,32,37,29
37,39,31,46,38,39,24,36,33,31,30,30,33,31,27,31,29,28,26,26,23,32,28,33,31,36,26,37,29,39,35,32
39,39,32,46,41,42,26,37,32,32,33,30,32,30,31,37,35,29,30,28,24,33,30,34,32,37,31,39,30,41,35,32
41,37,30,43,42,40,24,34,32,30,34,30,33,33,31,38,37,30,31,29,25,33,31,35,34,37,27,39,34,43,31,33
40,37,28,43,45,45,26,35,33,30,34,30,32,34,31,40,38,32,31,30,26,35,31,33,32,36,28,37,34,46,31,35
40,38,29,42,44,46,27,37,31,31,33,31,31,33,31,39,39,32,34,32,30,36,34,34,30,36,29,36,32,48,30,33
40,37,29,37,43,41,29,37,31,33,37,35,36,37,35,41,40,32,35,36,32,35,34,33,33,37,35,41,33,47,31,34
38,34,27,36,38,36,27,34,29,31,35,33,37,35,33,39,39,31,33,33,31,35,38,33,30,36,36,40,30,50,29,36
33,31,29,33,37,36,29,36,29,33,37,35,39,37,35,41,41,33,35,35,33,37,41,35,32,31,33,37,26,45,25,34
36,31,29,30,35,31,29,35,28,35,37,37,38,39,37,43,41,35,37,35,35,37,41,36,35,33,37,37,26,46,25,35
36,32,29,28,34,30,29,33,28,32,37,33,35,37,36,40,38,34,36,32,31,35,40,35,33,31,39,34,31,46,25,32
32,32,32,28,32,33,30,32,29,30,38,30,33,33,36,37,35,33,34,32,32,34,38,36,33,29,38,33,29,42,27,30
35,34,32,29,31,31,29,30,30,29,36,30,32,36,32,32,30,32,31,31,33,33,39,35,33,27,37,33,32,40,25,31
30,36,36,32,33,33,29,29,31,29,35,29,33,33,31,29,27,29,30,32,34,34,40,34,34,28,40,32,32,38,28,30
33,37,33,33,33,28,26,28,31,30,36,30,32,30,30,27,24,26,30,30,32,31,40,33,35,29,41,34,35,38,29,29
34,38,34,36,34,30,24,29,33,27,33,29,31,27,27,24,22,24,27,28,28,29,38,30,34,30,42,34,38,33,30,31
35,37,33,36,36,31,23,27,33,27,29,27,30,23,24,23,23,24,26,25,23,29,36,27,35,31,39,31,35,35,29,33
38,40,36,36,38,31,23,30,37,27,31,27,32,24,25,24,23,25,29,27,27,31,35,29,38,31,38,30,38,32,31,33
38,40,33,38,38,30,21,29,37,27,31,27,30,23,25,22,21,25,29,27,25,31,33,27,36,36,40,32,38,32,32,31
38,38,35,37,37,29,22,28,38,27,31,26,30,23,23,21,21,23,27,27,25,31,34,27,32,37,39,32,42,31,34,30
37,37,33,36,37,29,23,29,35,25,29,27,33,23,22,20,22,24,30,26,29,32,35,25,33,38,40,33,41,31,32,32
36,38,31,39,35,25,24,30,34,26,29,29,32,24,22,21,22,24,30,26,28,31,32,20,32,40,42,30,39,30,30,31
35,36,33,41,36,24,24,32,34,24,28,26,32,22,22,20,22,24,28,26,26,29,30,20,30,42,42,25,36,30,32,27
36,34,32,38,32,28,24,32,34,24,25,27,34,21,21,20,26,25,32,27,27,27,31,23,29,40,40,28,39,32,28,28
36,36,33,38,29,29,25,33,35,24,27,28,37,24,26,25,31,29,34,33,30,27,32,28,30,36,42,24,34,28,28,30
35,35,32,38,31,26,24,33,33,23,25,25,38,24,27,25,31,29,37,35,33,28,31,30,29,36,40,21,28,28,28,31
35,39,34,40,29,28,23,34,32,22,28,24,34,23,24,23,30,27,36,37,35,25,36,35,29,31,37,24,27,30,25,31
34,38,32,40,26,31,27,35,31,25,27,27,30,24,23,25,29,25,35,35,33,27,34,35,26,29,39,24,25,29,21,33
38,40,33,38,26,32,27,35,31,25,25,27,32,25,23,27,28,23,35,32,35,27,35,37,27,28,37,22,26,31,24,36
40,44,34,41,29,36,29,37,31,27,27,29,31,25,23,27,29,23,35,33,35,27,34,39,29,27,35,24,22,28,25,36
42,46,35,42,30,38,29,37,33,27,27,29,29,27,29,29,33,23,33,35,33,26,34,43,30,26,36,28,22,32,26,37
42,46,34,44,33,40,29,34,34,29,27,29,31,27,29,28,34,23,35,35,33,27,34,47,29,26,38,33,27,35,29,36
40,46,32,42,31,39,28,32,36,30,24,28,32,28,28,28,34,22,34,32,33,26,35,49,29,25,35,33,27,35,25,36
40,50,32,44,36,36,28,32,34,30,27,27,31,31,33,33,33,23,33,31,31,27,33,46,30,26,36,32,23,34,30,34
39,47,30,39,35,38,29,31,31,27,23,23,28,29,31,31,29,20,31,24,27,25,31,43,29,27,31,33,25,35,27,31
40,46,31,34,33,37,31,31,31,29,24,25,27,31,32,32,30,20,30,22,24,26,28,43,32,25,34,36,29,38,25,31
41,41,29,32,33,38,31,31,31,29,24,26,29,32,32,32,30,22,31,21,23,28,23,40,31,28,37,32,31,35,26,29
39,43,30,33,33,35,28,28,30,26,22,22,28,30,34,32,34,27,32,23,25,26,26,37,31,28,38,34,31,36,30,25
36,40,34,36,34,38,30,30,28,24,22,20,26,28,32,29,35,27,30,25,26,24,26,37,31,26,39,34,32,35,28,25
37,36,33,38,32,35,27,29,27,21,20,18,28,26,32,28,36,27,33,25,29,23,27,37,34,28,41,37,35,41,29,25
37,36,35,36,28,34,25,29,25,23,23,21,29,27,27,29,35,30,34,28,26,20,25,37,34,28,40,33,33,37,32,20
40,34,33,29,26,31,23,30,27,21,25,21,27,27,29,31,37,32,35,30,30,21,27,34,33,23,33,33,27,36,28,20
42,36,32,31,27,33,22,32,24,22,26,22,26,26,30,36,38,36,36,30,31,24,25,29,31,23,32,36,27,36,30,25
42,36,31,33,25,30,22,33,23,23,24,23,25,25,27,33,37,35,35,29,29,20,24,27,30,25,32,38,28,38,31,26
43,37,35,37,32,31,22,36,26,26,26,26,26,26,26,32,38,37,37,34,32,23,23,27,27,23,33,41,29,39,33,27
44,40,37,44,36,36,24,34,25,26,28,28,26,29,25,31,37,37,35,35,31,24,26,25,23,26,34,40,30,40,36,26
44,43,39,49,39,37,25,34,26,26,28,28,29,30,30,34,39,41,39,37,33,27,29,26,25,25,34,43,32,39,38,24
44,40,37,50,40,38,28,37,26,29,31,30,32,32,32,36,40,40,38,40,33,26,26,26,24,26,33,42,32,36,36,26
48,44,35,50,40,38,27,34,25,29,31,31,33,33,33,37,41,41,39,39,31,27,27,24,24,28,36,46,32,40,40,26
48,45,36,49,40,43,30,34,26,32,35,33,33,35,35,39,41,46,38,40,30,28,25,23,22,30,38,42,32,38,40,24
51,45,33,52,44,46,31,34,30,31,35,33,32,33,35,37,37,42,36,36,32,31,26,24,22,30,36,45,35,41,38,24
52,48,35,58,46,50,31,36,30,32,32,36,32,34,34,38,35,41,35,35,29,31,28,27,22,36,42,44,40,41,42,28
54,47,34,56,44,50,34,35,31,30,34,36,32,34,34,34,36,40,36,38,30,33,28,30,22,38,45,45,42,43,43,24
56,49,33,56,47,52,34,37,33,29,32,33,29,31,31,36,35,37,38,37,34,37,32,31,21,36,48,46,43,43,43,27
55,44,32,54,44,51,33,34,32,28,31,32,27,28,28,37,37,37,36,34,34,37,33,33,25,38,47,43,41,41,42,29
53,41,30,47,37,48,31,33,35,29,29,33,27,27,29,37,38,36,36,32,36,36,33,35,32,37,43,47,41,39,37,28
52,44,27,44,36,43,29,34,36,28,30,32,24,26,28,38,37,33,33,31,33,36,31,35,32,39,45,47,41,39,37,29
52,44,26,44,38,44,26,32,35,28,28,31,21,25,25,35,33,31,30,28,30,33,30,38,34,40,44,48,38,41,36,28
52,42,26,43,36,42,25,32,38,28,29,29,19,25,25,33,33,31,29,27,29,32,28,37,36,38,40,48,40,44,32,26
48,40,24,40,38,39,22,30,37,26,28,29,20,27,27,35,33,29,29,28,30,33,29,39,36,37,39,46,39,42,31,26
42,38,28,36,35,35,28,30,37,26,26,30,20,30,30,36,35,31,30,28,29,32,29,38,35,38,39,40,38,36,28,30
36,33,30,32,33,35,31,27,36,24,26,26,17,28,28,34,34,32,27,28,32,32,26,36,34,32,32,36,32,32,24,27
31,30,31,30,34,34,26,29,37,26,24,25,15,27,27,33,31,29,23,27,31,30,29,35,37,28,28,31,28,27,20,25
29,25,33,26,30,32,29,25,37,25,30,29,17,31,32,34,33,33,21,30,33,30,29,38,41,30,27,29,29,24,17,23
28,29,33,27,29,33,31,25,39,25,29,27,17,31,31,29,31,31,21,32,32,33,29,36,40,32,27,32,30,27,17,23
28,32,34,32,32,34,32,27,39,26,30,26,18,32,32,30,33,34,24,36,33,34,29,36,40,31,29,30,29,24,18,23
27,24,37,30,32,34,34,27,37,27,29,27,20,31,33,31,34,34,24,36,36,32,30,38,37,30,27,29,29,24,18,25
29,24,41,26,30,32,36,26,40,26,30,28,24,34,38,34,36,38,28,36,38,34,32,37,38,26,28,29,32,24,16,30
26,24,41,27,28,32,35,28,39,28,29,31,25,34,37,37,37,37,27,35,39,34,35,39,38,24,28,24,28,20,16,31
29,27,44,25,28,33,38,30,39,30,28,31,25,30,35,35,35,33,25,34,38,33,34,38,36,22,26,27,26,21,14,33
33,30,41,26,29,31,33,29,37,31,29,28,25,29,33,34,35,31,26,34,41,36,37,37,39,23,28,31,29,27,18,35
35,35,40,27,31,29,31,30,38,32,30,28,29,30,34,37,38,30,31,34,36,36,38,39,41,26,33,33,33,31,21,37
40,39,40,29,32,30,32,26,36,30,31,29,31,33,35,37,41,33,33,35,35,35,41,39,45,30,37,38,37,38,26,36
39,45,41,34,34,33,30,29,36,32,30,28,32,34,36,37,40,34,36,35,31,35,39,39,41,28,39,39,35,37,27,36
41,44,40,34,34,32,28,29,33,31,31,31,33,35,37,41,41,35,35,34,33,33,38,41,43,26,39,39,36,38,28,36
41,44,41,34,35,32,27,27,31,29,29,29,31,33,37,39,42,34,34,34,33,33,39,41,43,26,39,39,37,41,31,39
47,46,38,36,34,33,27,27,33,29,29,29,29,33,33,35,41,33,35,33,31,32,37,37,43,26,39,39,40,47,32,38
47,48,36,40,36,36,28,30,32,30,30,30,26,32,30,34,40,30,32,37,34,32,37,38,43,27,39,38,39,49,36,36
49,49,39,39,37,36,30,30,33,30,32,30,28,35,32,34,41,32,34,39,34,34,36,37,44,31,41,41,41,47,37,37
47,50,37,42,38,36,30,30,33,31,31,29,27,36,34,36,45,35,35,41,32,35,37,37,46,34,44,42,44,51,40,36
48,48,38,42,38,42,30,34,34,32,32,32,28,36,34,37,45,37,35,44,33,35,35,37,43,32,42,41,41,47,38,34
49,47,39,45,41,44,32,34,33,32,32,32,26,36,34,36,44,38,34,44,39,32,36,35,43,29,43,43,41,45,40,34
49,45,39,44,39,44,32,34,31,32,32,31,25,33,33,38,42,35,35,42,39,33,33,36,36,29,41,42,39,44,36,35
46,40,37,40,40,41,30,32,30,32,30,30,24,30,30,38,44,30,33,39,39,29,33,33,36,28,36,38,38,44,34,34
45,40,36,38,37,40,34,36,33,35,33,29,23,31,29,38,43,31,33,38,37,27,31,35,38,27,34,36,36,41,31,33
47,41,38,39,35,39,37,36,32,35,35,29,23,30,26,38,41,29,31,37,37,23,27,38,35,26,36,38,36,43,33,29
44,41,40,39,37,39,36,37,30,34,32,26,22,28,26,38,38,28,29,36,36,21,27,40,33,25,33,38,35,41,33,29
45,44,39,40,37,39,36,39,31,35,32,24,22,26,24,36,36,26,28,34,32,21,28,39,34,28,35,39,35,43,34,28
40,42,37,40,38,40,37,38,30,32,32,22,20,22,22,34,34,24,26,32,32,18,29,42,29,28,34,39,36,42,36,29
41,42,38,40,36,42,35,35,31,32,33,22,19,21,20,32,33,23,28,30,33,17,29,42,28,28,34,40,37,38,34,32
41,43,38,42,35,39,34,35,29,33,30,21,19,23,21,35,33,22,26,28,29,15,29,39,29,27,33,39,38,39,34,30
38,43,38,39,33,39,33,37,29,33,32,19,20,21,22,35,33,21,26,28,26,18,28,41,33,27,29,38,35,39,30,30
38,42,39,40,32,41,35,37,30,33,33,20,22,22,24,33,35,26,28,29,25,18,28,42,34,26,34,39,38,36,30,32
39,43,39,41,31,43,38,39,31,34,34,22,24,22,24,30,34,28,28,32,23,22,26,45,33,29,33,41,39,37,31,30
39,43,41,43,34,43,36,35,30,32,31,21,28,23,25,28,33,27,29,33,23,26,29,44,33,32,35,43,41,39,34,31
