Fp1,AF3,F7,F3,FC1,FC5,T7,C3,CP1,CP5,P7,P3,Pz,PO3,O1,Oz,O2,PO4,P4,P8,CP6,CP2,C4,T8,FC6,FC2,F4,F8,AF4,Fp2,Fz,Cz
0.6424338375140808,0.6393923584151731,0.6087130814346845,0.6035183634881937,0.5813320037825193,0.5999356484036987,0.6055392134976152,0.5983333774655729,0.6153244677575345,0.5865901135211167,0.5964491088716035,0.595860022003648,0.6068427362866765,0.5945460166872587,0.6131236440003517,0.6185919310861996,0.6250389949998082,0.6128538150073044,0.5928589262931633,0.6032814551824065,0.5715334633479517,0.5916179086481705,0.6031904826509964,0.6516928058669521,0.6277250844017248,0.5900338028837567,0.6274216539400651,0.607516565385486,0.6571426728268563,0.6132505304869394,0.5894086798977647,0.6069365358428929
0.6372070101696602,0.6395628130786012,0.6096467086033643,0.6068427362866765,0.598607850021224,0.6019620462626971,0.6182800652175345,0.603893305034822,0.6109531559807728,0.5974050950753238,0.6064119031261589,0.5999415042670558,0.6004135123470463,0.6057586348799957,0.6162702405730549,0.6075716523112935,0.6215879970146765,0.6068427362866765,0.5934635874517642,0.598524794425807,0.5759267343950456,0.5880844993607576,0.6020328153013546,0.64897910310739,0.6188933102742779,0.5937301748901535,0.6402910608380339,0.6109987562358055,0.6562458924940054,0.6200694978509286,0.6019554248015101,0.5999293849699782
0.6348174274839186,0.6371414048877567,0.6213524910847972,0.6129419904842934,0.5994142587636856,0.603661844292411,0.6179448278582255,0.5962290636078118,0.6115430105380132,0.5919104224607543,0.6100363132424088,0.5971622892204571,0.5969095095289738,0.6026817548193879,0.6220844913402882,0.6091007256297929,0.6161461433532347,0.5939665782069601,0.5795802844091613,0.6030512515747872,0.5732147020916093,0.5844590212311623,0.6083694229195685,0.6479113771129856,0.6190569363988628,0.6034046705668552,0.64605371882859,0.6207932120127937,0.6511946617629817,0.6214989687861345,0.6044581948004879,0.5933793246556273
0.6424338375140808,0.6400518852293792,0.6192974979172844,0.6126439200223249,0.6018412240131406,0.6101015884892866,0.618150998007026,0.5938536156938228,0.6083653786426314,0.5996728775455934,0.6071899939083061,0.6004668276215325,0.5871097806501434,0.6056430655558961,0.624225919382545,0.6160309406372283,0.6130262532804303,0.58640279773407,0.5732586395910305,0.6026615004724376,0.5754958634948155,0.5825363773235581,0.6052996661029597,0.6468127671209242,0.6254458673039905,0.6037325081898255,0.6490573804137704,0.6205184963589817,0.6540060804562732,0.6235737360227659,0.6081085955804482,0.5996373060270421
0.6465859863651293,0.6428686674433952,0.62539662468271,0.6181774426836074,0.6084340991888146,0.6074903760320802,0.6211582871040792,0.5941260050791981,0.5989438372449157,0.599843535196701,0.6079495232316176,0.6000430760756056,0.5800183407319206,0.6126211393216681,0.6250887282057409,0.61223302821286,0.6216892445116294,0.599656823248558,0.5767794499822928,0.6015815958165298,0.5709486602170244,0.5821152829963784,0.612500229720806,0.6489087142115475,0.6248359142342388,0.5990342787882653,0.6488413740235949,0.6234522044216633,0.6537826025004714,0.6260384050472458,0.6171232943361369,0.6020010530340627
0.6407033628552709,0.6389855209071892,0.6303234981917261,0.6188706325420432,0.6089668779799442,0.611506945074825,0.630346141494057,0.6049944645995933,0.5984073575044428,0.6065698658591053,0.6176375155457475,0.6069269990828133,0.5672637536689908,0.6152727628277616,0.6260384050472458,0.6146671553941795,0.6214296332826407,0.5968384450695425,0.5590688961806011,0.600781220701939,0.5601876969137606,0.5748978437987968,0.6189618052824587,0.6476453109129204,0.6249124443731742,0.5990608397716176,0.6436551698027585,0.6211444282448262,0.6506714420577745,0.6266670298808055,0.6098525718166677,0.5992972562369838
0.6363698590622902,0.6354917425977126,0.633390338197014,0.6272092474996388,0.6129320483660736,0.6125567685630141,0.6342801029804132,0.6086232194648284,0.5992389082637478,0.6026865128107345,0.6241826281583744,0.6096227452678947,0.5650427010855803,0.6161317439834288,0.6243768716992645,0.6156568408780957,0.6136762000845348,0.5907249756814436,0.5557803595993321,0.6083694229195686,0.5622082214405321,0.5689458660626672,0.6245107680926649,0.6511024490450963,0.6270208472769847,0.6012598940325398,0.6394714152215631,0.6193065312729087,0.6511305606783125,0.6250887282057409,0.6117627754028292,0.6080390668614281
0.639406412009285,0.6335640165295097,0.6327773882952827,0.6389668146930696,0.6216023435284665,0.6144251489370405,0.6339783780740235,0.6084962397755566,0.6010940288825307,0.6112119109263192,0.6260721834781237,0.6095797308803849,0.568402089770125,0.6190908541624113,0.6255762795812485,0.6178128710995702,0.6153204877145128,0.5939916930824741,0.55849133143687,0.6210182914081774,0.5665508864809881,0.5659528992582211,0.6245319677959339,0.6510235738175656,0.6313025510678459,0.6135015596501824,0.6369121876231371,0.6256569795502513,0.6571426728268563,0.6359311559806894,0.6255064469213472,0.5998675128891148
0.6395628130786012,0.6321687728358311,0.6419443177823138,0.6361049518670847,0.6305816474239362,0.6260384050472458,0.6389760477235484,0.6147778935522944,0.6045314290287559,0.6172152466039923,0.6317992953893675,0.6250098756190884,0.5715417505521465,0.6238220349894408,0.6210570818278977,0.6237101939577852,0.6194330127489772,0.6003577371364222,0.5654077721310804,0.6370536566117159,0.5808246068222653,0.5711392320740617,0.6337065803164311,0.6514852753308908,0.6317980747676832,0.610699359435513,0.6335080267752535,0.6261121691222986,0.6540298378269251,0.6312283697876894,0.6262292800972029,0.6026745438327078
0.636263451319292,0.6331706545548458,0.6448102704644266,0.6402082395155994,0.6369463945263804,0.6326710158582444,0.645744187221356,0.6213958845538056,0.5994390014811612,0.620758657324283,0.6428931884858786,0.6239808212431618,0.5708139429651835,0.6240046485247611,0.632265133744042,0.6308730183255371,0.6219529802340891,0.6000528575210137,0.5656419532295998,0.641970717764181,0.5799527077578414,0.5683705442868088,0.6294464609122766,0.6538832716851422,0.6293817355758519,0.606389285779564,0.6325590702898701,0.6238616717363921,0.6517273148294305,0.6277686762076227,0.6252497667977479,0.5994617428405514
0.6245457593498839,0.6332533771148376,0.6324645867960461,0.6334520534703802,0.6281196266437333,0.6266514122885758,0.6400863311804553,0.6189618052824587,0.6033705823064515,0.6107663779936257,0.6414631586136668,0.6163758889990054,0.5866213976256748,0.6229742032715074,0.6392017705932967,0.6361844714720404,0.6212969158220222,0.6096800939559565,0.57600739698183,0.6458966632144182,0.5897318576322333,0.5890216671201692,0.6278990092795259,0.6476937099769323,0.6271930441019151,0.6198359735730816,0.6318799747274363,0.6176181636116039,0.645366351470681,0.6249157531587094,0.6324973996638616,0.5931345766128309
0.6296017006187088,0.6415034540968296,0.6299106141804144,0.6292135976357691,0.6275419227915324,0.6224652821389522,0.6310130313750634,0.6154264177083746,0.6079798388024852,0.6049189053556677,0.6391223185705805,0.6229010578688913,0.5930310587201388,0.6185512853026699,0.6360818886288235,0.6334900533833451,0.6203166899722227,0.6057761352848693,0.5799996227425436,0.6513817470424229,0.5837008628559289,0.5996663186337569,0.6252312210088654,0.65106149638255,0.6339155971054486,0.6211190973516203,0.6292506661615658,0.6214296332826407,0.64754246684319,0.6241247979880924,0.634675153017824,0.5889717463630194
0.6421764359642844,0.6533523906583263,0.624267290791217,0.6326482427876277,0.6272704108063226,0.6320903327424521,0.6325667344418928,0.6212994511902307,0.6077580764446927,0.6138487802582281,0.6359183210188987,0.6285573048352799,0.5963019792184268,0.624767473725813,0.6370049030541387,0.6342723111579306,0.624915676902462,0.618136328261749,0.5934747766407861,0.6600232825513639,0.5934721052217038,0.6050251810672925,0.6161813518398147,0.6487577156588482,0.633534419776406,0.6194068819321317,0.6307382042518347,0.6246982251115275,0.6513275120679438,0.6214955879516032,0.6324973996638616,0.6005258136583591
0.6427272171599961,0.6558430891356631,0.6264588434014224,0.6419037706567711,0.6311938874817885,0.6242655990859647,0.6287167904565691,0.6123955243677658,0.6022777727773335,0.6029280361903385,0.626444308732131,0.6192833330219392,0.5952683230466723,0.6154264177083746,0.6283413354918865,0.622188628373065,0.6172344881779257,0.6173103933457547,0.5995641198138285,0.6625085514146692,0.5936913925736611,0.611873014900867,0.6177114355831465,0.64567574671293,0.6389966228671198,0.6232599523472013,0.6217911313824644,0.6307994547175227,0.6572070826233928,0.6303239655271499,0.6296830941114964,0.5954530893448113
0.6401056357657907,0.6555192420657845,0.6267017402356295,0.6413389589120984,0.6365097724690123,0.6265169629092612,0.6283907982007292,0.6160741437338405,0.608625284579674,0.6091963165008533,0.6275955501213335,0.6186459417425402,0.6063103852440054,0.6089668779799443,0.6282046191601415,0.6240289255948133,0.6204002421117812,0.6152092650415281,0.6062225876946984,0.6597496572611178,0.6091207574653643,0.6249808848815999,0.6136714003561555,0.6456162014795048,0.6357259178482167,0.6277152794603332,0.6213179363962866,0.6282832254393218,0.6562531448535024,0.6310503099093524,0.6256957633212503,0.5915234685067363
0.6427411826020608,0.6585199993173533,0.6244938208075873,0.6476017164159655,0.634031157258833,0.6270644328037743,0.6239517466848135,0.6096639936765216,0.6084962397755566,0.6096561992009517,0.6208933574111594,0.6197839521584435,0.6151128229035734,0.6085488162591072,0.627259784522764,0.6210784064952468,0.6230743252319444,0.6185993957456027,0.6223752164907527,0.6625881487030647,0.6233518624081029,0.6281658803893887,0.6197839521584435,0.6488413740235948,0.6391175875790133,0.6260451431965813,0.6221657098786479,0.6372245866963069,0.6536206881773898,0.6369598068304602,0.6230501226240989,0.5984988210287622
0.6478969379332515,0.6588188505178414,0.6267017402356295,0.6381012586323138,0.6306884967515489,0.6294949924677291,0.6283916016655078,0.60631218063068,0.6099338905012163,0.6131600124762038,0.6250934719401864,0.6189283580075055,0.6199477604095426,0.6114705765989727,0.631222511993562,0.6240943919966211,0.6371043097577694,0.6266648771246106,0.6272713098304002,0.656149079783253,0.6309287685789265,0.6275723810971622,0.6203449252895683,0.6399734060147876,0.6452734603827179,0.633370882372523,0.6249721917886627,0.6448318191228274,0.6500677920735725,0.6399241460768949,0.6260621484881934,0.5964643978463317
0.6500677920735725,0.667752113604597,0.6295544556633013,0.6387816799314949,0.6279356934742273,0.6336662288323911,0.6247444386087853,0.6077852703161681,0.6122232358503144,0.6085706746862162,0.6215984561603578,0.6251777347363232,0.6242259193825449,0.6204002421117812,0.6343433489020238,0.6230033961768842,0.6367450946064317,0.626656042955519,0.6272379763532274,0.6540752714874892,0.6332978725975498,0.6245107680926649,0.6136570009863497,0.6403252616333612,0.6478225013140557,0.6273193785823539,0.6283908830462747,0.6491945536701978,0.6507030553681341,0.6402082395155995,0.625734458608941,0.6114858230507509
0.6468776423711161,0.6672238598960688,0.6325400702136131,0.6482851678219056,0.6254072112288346,0.6308540596163094,0.6287890125808321,0.6104280266387266,0.6160061945430475,0.6094749784107746,0.6213179363962866,0.6094650138100924,0.6265068077428225,0.6213179363962866,0.6332772970151075,0.6173259372920878,0.6275754735307268,0.6211249759729297,0.6276631013676786,0.6488413740235949,0.6308013310661043,0.6278280358672744,0.6075716523112935,0.6430503465749674,0.6516629490452441,0.6272047804464909,0.6282046191601415,0.6495940917321672,0.6511055996605135,0.6458478587486546,0.6175901964632843,0.6156812022332356
0.6541507082523143,0.6678799960224522,0.6278909917383293,0.6480007164097552,0.618315519256461,0.6311657117426784,0.6353003741261132,0.6095849871766261,0.6178529637263176,0.6118204318315056,0.6142485516718442,0.6096944304444152,0.6336822992500412,0.6214537385817502,0.6310186607468004,0.6197301065350312,0.6310602486565546,0.6279721561844505,0.6344016787351238,0.6458478587486546,0.6326145519292706,0.6307029126249784,0.6024348181645233,0.6343676299684139,0.6541482812624625,0.6357552875601274,0.6339776457099091,0.6541058783224459,0.657286319659269,0.6574552031174574,0.6321281456833435,0.6185819382535682
0.6602987864077196,0.6656167963436807,0.6424735035972293,0.658288582687478,0.6241747985444439,0.6488905659638103,0.6442802195703557,0.622956615579444,0.6213937930339584,0.6242590613405807,0.6234831509115182,0.6158156373101128,0.6193167394912177,0.6142541184721722,0.6251804452832073,0.6166101499893109,0.6221905254792343,0.6314130774660502,0.6248939058858018,0.6518848133928602,0.6394110646292926,0.6114848410446301,0.6033242825024019,0.6403252616333611,0.6572466696616558,0.6302711339885059,0.6353979296721243,0.6639104139838018,0.6598613278446775,0.6628303618208989,0.6413114707538845,0.6209468450399086
0.6580960393401338,0.6600044118544576,0.6473349029759768,0.664485301577563,0.6244103044743231,0.657286319659269,0.6538703795739704,0.630271133988506,0.6217951762642896,0.6342070932054399,0.6257030234069095,0.6093522644735108,0.6224764639877056,0.6221657098786478,0.6267396895056174,0.6244395532014698,0.634593327031127,0.6426117502146939,0.6312909525019877,0.6517667516428491,0.6422511998183292,0.6078727760087231,0.6031797351550306,0.6373610885299248,0.6541839869455647,0.6303019011664741,0.6347319809617207,0.671417561995817,0.6542828050749802,0.6630094569549346,0.6364088983053897,0.6275118582339361
0.660360907454506,0.6572818703252938,0.6542943550847269,0.6643839167334875,0.6310921481346642,0.6568629337909041,0.6514852753308908,0.6320876528045163,0.6266386742623884,0.6399734060147876,0.6271276106018552,0.6087334421308155,0.6214720263927274,0.6224764639877056,0.6221748116916652,0.6240511595503702,0.6338878387684741,0.6361160625170302,0.6254458673039905,0.6430503465749674,0.6369999546043577,0.6122990170324558,0.6055675618802184,0.6397582676278586,0.6620747727054841,0.6362671785397365,0.6373491995251123,0.6770023789301676,0.660148520024972,0.6736347924447652,0.6412568651380492,0.6250451490195443
0.6582364518056607,0.6570016239983497,0.655176309830371,0.6585734584256783,0.6302711339885059,0.6611466610925422,0.6516484347994301,0.6389760477235484,0.6287890125808321,0.6485018813710767,0.6388467527636751,0.6117048210294074,0.6254159512130865,0.625129411815681,0.6286043748582697,0.6302979598670158,0.6417483652882175,0.6360575539892721,0.6217229871921544,0.6432897305876746,0.6388440706237901,0.6113611687727345,0.6034998456888926,0.6427270742189276,0.6623617198979461,0.6368049442429814,0.6467714006489682,0.6805336708886025,0.6596210866022791,0.6766206702147451,0.6487818999757601,0.6245919105393223
0.6574017383319556,0.6571872447245143,0.6538802607826008,0.661047158312234,0.6336230286294605,0.6608572366769658,0.6543404329237146,0.6429371079518209,0.6224126368592843,0.6460976216185096,0.6419866965087133,0.6143778732358494,0.6205969137626731,0.6283558622938838,0.6394549834043347,0.6395628130786012,0.6375929643795348,0.6380624768757299,0.6161317439834288,0.6489889399053446,0.6366147583853251,0.6028370636589283,0.612989532195945,0.6485764792408011,0.673236894580162,0.6395132588646673,0.6516909599058281,0.6810520972261042,0.6651278949852732,0.6709127228568681,0.650538182662622,0.6306343759741412
0.6552669335072915,0.6569489948448223,0.6540655360918899,0.655886252839982,0.6279006727218366,0.6695772187818216,0.64754246684319,0.6426094828894834,0.6158354397940193,0.6426978126278371,0.642079387685626,0.6101477848693623,0.6175951685058734,0.6278994965596384,0.6419823003222159,0.6430743845822621,0.6377689354804099,0.642366562445232,0.6131216948179706,0.6469426686821598,0.6370978123460217,0.6058982121036331,0.6123857320052202,0.6487970668254541,0.6712515958648143,0.6427760459866063,0.658566562778501,0.6779338631392263,0.6680399210230098,0.6685296823527479,0.6505086509715466,0.621935272548602
0.658288582687478,0.6514613495199889,0.6573259349319599,0.6589331544652703,0.6371511540513118,0.6710574117876256,0.6507868968909463,0.6457592436429085,0.6177929608538499,0.6516928058669521,0.6355110653188876,0.614849142184015,0.621410264055595,0.6272916036830287,0.6454793204626533,0.6457592118980782,0.638062127052095,0.6450762084671796,0.616107744418149,0.6563472860907591,0.6418882689400882,0.6087619891930272,0.6123805449799529,0.6599685831737222,0.6706943301498429,0.642366562445232,0.6534098581818599,0.6751357869163466,0.6703815996385312,0.6710164758653024,0.6532044131226297,0.6213320306968257
0.650461328628926,0.6445894013786634,0.6517812851043923,0.6510975195934625,0.6342946201934405,0.6659695575871054,0.648074753841656,0.6458478587486546,0.6208261452390977,0.653694766783427,0.6399559616664736,0.6168755431699312,0.6213320306968257,0.6272715190376511,0.6458960929149297,0.6458233210301484,0.6506831929765421,0.6458233210301484,0.6156568408780957,0.6504280521020587,0.6454347919791067,0.6158049376631957,0.6217037073168297,0.6678720515176868,0.6648618402098083,0.6397240668325314,0.6563710073642475,0.6727539162585012,0.6676895554588176,0.6711932483880011,0.64440427171344,0.6139867598243526
0.6541482812624625,0.640790176746212,0.646063267430738,0.645478399914372,0.633740629083141,0.6599562753419617,0.6497526782017217,0.6400081602712359,0.6198359735730816,0.6513672135808798,0.6373778267129925,0.6221627246990572,0.6221051558723628,0.6282046191601415,0.6455389347231422,0.645862580984988,0.6568975989291224,0.6506585447180745,0.616107744418149,0.6482257872681372,0.6426390350009236,0.6162942401383349,0.6184753857133845,0.6623791053131282,0.6648917555975904,0.6428686674433952,0.6513342062466925,0.6702731656646069,0.6643525241525094,0.6710687352146031,0.6464997561560761,0.6143934984847655
0.6484418359616254,0.6382639507467542,0.6518848133928603,0.6400667892322004,0.6390603203098977,0.6591590200421571,0.6451249655172183,0.6403643463088745,0.6207630402754203,0.6510975195934625,0.6427359273674412,0.6219302039487686,0.6149250340584851,0.628051915855579,0.641788454966362,0.6453117997892763,0.6565294846826433,0.6506979815314933,0.609122847839188,0.6455533518181427,0.6396364075655115,0.6160782163384195,0.6277311756628463,0.6651434260005097,0.6644879931543506,0.6339783780740235,0.6450600333342816,0.6681780922258829,0.6617900982356447,0.6673659113020707,0.6392054107831063,0.6120831593259064
0.644354237657681,0.6310983525985365,0.6426978126278371,0.6335647201205289,0.638091108678405,0.6466274889721414,0.6428348081193617,0.6343238506759742,0.6179610747374019,0.645862580984988,0.6392700891616019,0.6253526045149342,0.6218303373144053,0.6366929917440942,0.6420923150479797,0.6481770207530415,0.6595120570613473,0.6423762442848147,0.6176274123529059,0.6431384875195758,0.6326482427876277,0.623585574414503,0.6314860872410235,0.6564056499489656,0.6590170598203766,0.6341089853179824,0.6449969797753672,0.6566872373160174,0.6582897173221678,0.6663593933739059,0.6259012740611104,0.6109867003293992
0.6544748095494586,0.6324219596896117,0.6431482803042755,0.6249607616410392,0.6298329346546864,0.6399115267755202,0.6344405896895037,0.618744434408474,0.614089429344656,0.6308250375890407,0.6390580476695185,0.6185819382535682,0.6037967585630147,0.6245202736113459,0.6305823416164238,0.6423567696605325,0.6567435362197793,0.6336092894750678,0.6095271543968342,0.6343529885468475,0.6334033449872924,0.620523151394404,0.6428685245023267,0.6598257665784415,0.659578303410693,0.62539662468271,0.6480481810669939,0.6537826025004714,0.6649216697434472,0.6703615654593793,0.6285573048352799,0.6023569508791742
0.6516191127829358,0.629551259036241,0.6370926571354224,0.6216320096380495,0.6208944595097466,0.6287016534899366,0.6254941845718555,0.6190195419063019,0.6119259980698506,0.6248737882980182,0.6369969767033649,0.6087130814346844,0.6070426406863716,0.6160309406372283,0.6331860960141641,0.6425311276083666,0.6539722146503222,0.6369804558903541,0.609778693240552,0.6343433489020238,0.6327949166548223,0.6220603860411785,0.6398469065173057,0.6541643542213054,0.6513817470424229,0.6163134392365198,0.6455713781413039,0.6567314784954336,0.6609766490646414,0.6681631010809947,0.6272085531209504,0.6009458022695779
0.6564799303598747,0.6390196560453598,0.6366586525897396,0.6238813883335765,0.6213999294356307,0.6223880619422316,0.6248254653773762,0.6192686346268282,0.6115036083410572,0.6230171227135207,0.6325424148551957,0.6109319744758431,0.606820652694072,0.6179623603807226,0.6351080356657596,0.6474534396176133,0.6551515153065256,0.6394949572821125,0.6182492348628149,0.6373123407775905,0.6370536566117159,0.6273591549293734,0.648443628935839,0.6511305606783125,0.6397582676278586,0.6160309406372283,0.6443390024581775,0.6540438777421093,0.6583420097196436,0.6654552425906242,0.625425036447506,0.5987411182276908
0.6585039705533573,0.6376757149102104,0.6371511540513118,0.6119349588517592,0.6089668779799443,0.6227006295130483,0.6275196223758216,0.6059392621766438,0.6124242613268981,0.6155889138632804,0.6343676299684139,0.6079188075613963,0.610000366129665,0.6185042490038405,0.6287704025169397,0.6412702154921609,0.6577157567495436,0.6430156141449342,0.6281319823055794,0.6427663676109359,0.6403692317472534,0.6279258112881436,0.6399150479439143,0.6458674883313089,0.6305176435091838,0.6099608046092913,0.6364525849817502,0.6537175271567195,0.6501416463384668,0.6680407809943405,0.6199094235690773,0.5985786220727849
0.6639261272305974,0.6356169800713207,0.6430056372146137,0.6119062218926268,0.6185438262218101,0.6076189794634633,0.6320996583696045,0.6032225581565452,0.6159157201835136,0.6214537385817502,0.6398319557313886,0.6135735814455544,0.6088770160100883,0.6265157867470631,0.6343962877261878,0.6424996798539286,0.6584543322738884,0.6344405896895037,0.6279356934742273,0.6399388025867708,0.6402082395155995,0.6220614772021044,0.6335640165295097,0.645862580984988,0.6271225428563391,0.6100324897858119,0.6319543749781862,0.6452084307023664,0.6471639703949749,0.6678660799162787,0.6268559300999568,0.6048468959229879
0.66453515986723,0.6442420330523992,0.6428739797159144,0.6037510048401499,0.612586447204928,0.5985841696889311,0.6296066677421095,0.606143437092064,0.6055423623823973,0.6126151841640604,0.6366586525897396,0.611480155096085,0.6050381149714821,0.6168217251994255,0.6345882453507875,0.6430798397958498,0.6564799303598747,0.6309256665558343,0.6252163908114791,0.6337795400375209,0.6307673224215147,0.6190195419063019,0.6278824187965888,0.6419443177823138,0.6232917466549259,0.5998533918414883,0.6338780207369463,0.64182776503044,0.6469426686821599,0.6627382585301914,0.624638282368139,0.6085591138109818
0.6699236580800586,0.6438674305691648,0.6431189015580661,0.6111477637093543,0.6159884469267081,0.6032178001651985,0.6366453618525498,0.6099099957462115,0.6085843246567216,0.6186667451587463,0.6401298070841037,0.6141662696316227,0.6115777799298492,0.6164974142658153,0.640652932952826,0.6487732430274546,0.648507599387399,0.6302785476266395,0.6310421506901396,0.6322417826108043,0.6269046066826454,0.6216651392125198,0.6280373890535818,0.6355260866726357,0.6286043748582697,0.5994054589212451,0.6272455397850561,0.6351771800812572,0.6476360763552842,0.6565492919134076,0.630328545071164,0.6124437272272458
0.6680149350868615,0.6484512417671929,0.6427804852843225,0.6110042146585734,0.6191458857080041,0.6044175361912373,0.6340932515597489,0.6130737949920818,0.6119455980403877,0.6176696422249266,0.6430056372146137,0.6179738321068431,0.6100257234275541,0.6239109143576727,0.642150909580597,0.6541936846818148,0.6538506167538819,0.6368049442429814,0.6365064538514008,0.6351771800812572,0.6280567580597065,0.6158049376631957,0.6280519158555788,0.638890140943798,0.6260153089178706,0.6032178001651985,0.6275494862233612,0.635993936284599,0.6506979815314933,0.6509498807335494,0.6306375123956579,0.6055541632458514
0.6705974765982171,0.6456508913307666,0.6428685245023267,0.614849142184015,0.616107744418149,0.6023291090952337,0.6319170350719137,0.6037325081898255,0.6111426396955209,0.608625284579674,0.6334633479719872,0.6188274370160787,0.6118964295300812,0.6236837564674768,0.636715861165653,0.6487818999757602,0.6544787839462853,0.6367123139313362,0.6426488408601585,0.6349500410836089,0.6308541557587207,0.619232476695081,0.6281658803893887,0.6411146332148504,0.6268995156267463,0.6065889397414166,0.6279143069854888,0.6327458076301253,0.6489505958473728,0.6505411844004361,0.6326892571380982,0.6067092089679306
0.6734193474492377,0.6517519630878981,0.6510421248510385,0.6272047804464909,0.6215879970146764,0.6081492947657141,0.6307804803369379,0.6098335274256447,0.6074439363935672,0.6091533021133434,0.6400564982273134,0.6158193370330015,0.6089668779799442,0.6232966356530928,0.6422449651614335,0.6486347316760387,0.654079245884316,0.6364685649107451,0.641229972250573,0.6355547881820127,0.630757616492211,0.6161461433532347,0.6341478962723621,0.6474387103283124,0.6325577046531146,0.6094454126678884,0.633024780725403,0.6452734603827179,0.6457161441338379,0.6503836858370063,0.6451249655172183,0.6091207574653643
0.6628850900469145,0.6489098145320206,0.6486494890157743,0.6302132911890949,0.6249607616410391,0.6123074986464512,0.6359280701824539,0.619232476695081,0.604862705771938,0.6188370576171516,0.6368783362319077,0.6181710015040459,0.6237833789142849,0.6303239655271499,0.6474885104735344,0.6480884210585781,0.6531450361624914,0.6423840501232914,0.6416415516813587,0.6364365880081401,0.6292149740124495,0.6251901083600284,0.6253236149077367,0.6477545376540041,0.6309742038396203,0.6216892445116293,0.6361989289776991,0.6386919542848438,0.6307950717046207,0.6477889905248699,0.6460684410649234,0.6158436983881416
0.6574453325030848,0.645862580984988,0.6459310214934139,0.6280131770848261,0.6278824187965888,0.6159157201835136,0.6394741741891542,0.6163086395081406,0.6005655933369268,0.6153100683877287,0.6335460435534571,0.6244387688578463,0.624633955320806,0.6325813258095755,0.6421607023652967,0.6444042717134398,0.6570529916796217,0.6396905054479896,0.6422566009105771,0.6448590749301902,0.633024780725403,0.6254072112288346,0.6370978123460217,0.6460291811100838,0.6331963638856877,0.6209137431876405,0.6445157635339148,0.6288528281195809,0.6265024361072639,0.6505411844004362,0.6397390768430393,0.6130737949920818
0.6513722874175207,0.6371414048877566,0.6399641854823918,0.6217477379134561,0.6216313904836848,0.6154352589826675,0.6458328497428268,0.6159692478285229,0.6002096954918152,0.6159836471983288,0.6349067376391393,0.6209188837223963,0.6218248801112995,0.631472801630299,0.6393681683914588,0.644354237657681,0.6601037466694646,0.6311254469733627,0.6306702574013154,0.630129820209692,0.6297033914426508,0.6189799403383532,0.6311254469733627,0.651594199824951,0.6379194790139202,0.6204977591484442,0.6444713536070129,0.6198604128169767,0.624676938443295,0.6534303457606598,0.6333320655102271,0.6124699948013571
0.6482960212911413,0.6343433489020238,0.6296017006187088,0.6187262993525795,0.6247851984545484,0.6118205537687841,0.6398805271264384,0.6281196266437333,0.6127631682635103,0.6222439432374169,0.6314327604750534,0.620015517390216,0.624414131672823,0.6233207362621234,0.6294462372223726,0.6406397121104416,0.6599785091958563,0.6249607616410391,0.6343238506759742,0.6305573103209929,0.6279006727218366,0.6154352589826675,0.6309256665558343,0.651505137722483,0.6417287793267078,0.6249124443731742,0.6475469369713862,0.6214216626331261,0.621473022259644,0.6583770110895384,0.6361648160746074,0.6095430796028978
0.6393523141268072,0.6402082395155995,0.6261554199464456,0.6246224747973619,0.624700708156131,0.6171108799380489,0.63729759647128,0.6254458673039905,0.6161736294206371,0.612970726342558,0.6227517615867022,0.611384364620455,0.6309256665558343,0.6171232943361369,0.6231516650057318,0.6446097101950339,0.6599189510212804,0.6311933938238821,0.6366722686239182,0.6302132911890949,0.6246146287904295,0.6192301485041408,0.6310130313750635,0.6541047054191811,0.6410567818473389,0.6216892445116293,0.6475419767611929,0.6274636514696802,0.6182063048586135,0.6590372724342887,0.6330393720930857,0.6037325081898254
0.6304990613782167,0.6310186607468005,0.6079857069981102,0.6247875815897178,0.6178529637263176,0.6098060397853861,0.6307230977073351,0.6190569363988628,0.6258753263761115,0.6131332224974639,0.629558876510576,0.6130122571750434,0.6338317042068286,0.6200362546007534,0.6200104487903826,0.6439940813424012,0.6599548420429381,0.6335209454409729,0.6401056357657907,0.6272047804464909,0.6201791989871024,0.6151619716026286,0.6362379295014057,0.6458126277297817,0.6431384875195758,0.618150998007026,0.6449572386380845,0.6261582129789569,0.6120893268988665,0.6562862523778408,0.6236877103515425,0.6034570183688973
0.634250840901001,0.6367123139313362,0.6060901279461751,0.6207630402754203,0.613940862307879,0.6161931071691412,0.6245072093662721,0.6192301485041408,0.6163074484905797,0.6067514358963225,0.624996995770908,0.5993913303442463,0.6304802008731281,0.6148809138933571,0.6166094901143608,0.6368202163190648,0.6621742754857923,0.6411253110444881,0.6370246278851496,0.6273597962546926,0.6155464503035488,0.6120218436509427,0.6299101913917982,0.6453419008911436,0.6458574073508027,0.6248658149484868,0.6474642930868487,0.633486896674263,0.6154594649623768,0.6624538231886536,0.6280507396933809,0.6066519757275095
0.6342703391270506,0.6370049030541387,0.6080484222478036,0.6153244677575345,0.6150125451844679,0.6279258112881436,0.6281658803893887,0.6156219611172827,0.6133155594956061,0.6093745540106241,0.628463319657118,0.5996761289990481,0.627086733219485,0.604481496901269,0.6155110161322703,0.634763864179802,0.6579838108184325,0.6366281128896123,0.6344405896895037,0.6275131939379437,0.6177044084134156,0.6193757312760535,0.6348002305237579,0.645950654883013,0.6489889399053446,0.6247145718147444,0.6508463524450815,0.633025586229712,0.6126111817824382,0.6645442509430117,0.6248939584298936,0.6185676339237238
0.6341341104089885,0.6422880974566711,0.6041823264726901,0.6156616406064749,0.6145942166159274,0.627086733219485,0.6280519158555788,0.6217951762642896,0.6132297335585257,0.6159884469267081,0.6307085872884202,0.6069055560776994,0.6271200666966579,0.6054106822482263,0.624693049332603,0.6358305727428578,0.6590968306088644,0.6340611006340152,0.625077664369409,0.6306932066956745,0.6107903512866716,0.6190331286969492,0.6259012740611104,0.6432212900792489,0.645788966842377,0.6237637634576035,0.6564254878478438,0.6331567070105122,0.6063656909436852,0.6638862381146837,0.6230690295100393,0.6217131832249453
0.6309081803937171,0.6354333841415709,0.5921506792040035,0.6002958709936311,0.6112499942479291,0.6236283085820427,0.6312128060642582,0.6183994930323462,0.6176070110196348,0.6193468679855975,0.6256137957428096,0.6097286967760368,0.6309811901686904,0.6117538451298554,0.61447867658205,0.6393535118815827,0.6561692484003733,0.6336947161461303,0.6277745681544012,0.6328058756090219,0.6155848412587014,0.6238813883335764,0.626444308732131,0.63991043494598,0.6457447948030774,0.6238080160993082,0.6536727271951098,0.6313542563476573,0.6183491875798153,0.6524077916809192,0.6158354397940193,0.6239590375038779
0.6392696143458937,0.6291138687909867,0.5933302667634823,0.5998772943345231,0.612189930681986,0.6247368811866834,0.6312383443889686,0.6153440114594821,0.6173313475058548,0.6093134876650906,0.6270027545736699,0.6146047421126745,0.6170164346078868,0.6133155594956061,0.6123326506596681,0.6368477965317804,0.6593747525033689,0.630867417613058,0.6305335074141225,0.6351005429505322,0.6122905010302568,0.6114173577967063,0.6228647055185424,0.6420128727654124,0.6486578423518011,0.612195712856849,0.6479511001753651,0.6340311572588329,0.6267821705768133,0.6580641038561608,0.6202459547202618,0.6294097003727523
0.645744187221356,0.6318068284100932,0.588851416856624,0.6032814551824065,0.6154352589826675,0.6216662303734455,0.6300514503463378,0.6119806923262181,0.6234831509115182,0.6049311587191247,0.6214635204354435,0.6165004357408702,0.6182492348628149,0.6234892348902054,0.6212994511902307,0.6371511540513118,0.6539269969248076,0.6312183599729756,0.6308730183255371,0.6316225007420392,0.61561844194301,0.6114113526171597,0.6106598940091662,0.6504231226504249,0.6514606270724234,0.6188432851170341,0.6439307767701066,0.6286721029693864,0.6343169538124147,0.6568801873980756,0.6263908583418257,0.6231580974814688
0.6458674883313089,0.6292333443838675,0.5855449818766268,0.5969095095289738,0.6188706325420432,0.6244923650315921,0.6168967630962089,0.6115880535893258,0.6185946342173021,0.59917801803819,0.623455698482831,0.6099628497194566,0.6105691589272323,0.6214418563715496,0.6187408460290018,0.6312909525019879,0.6482212713635402,0.6309144135346707,0.6241540385906754,0.6405605784752222,0.6063943026726145,0.6014121684690192,0.6105434525849495,0.6471709387109376,0.6536971891707365,0.6154873713378013,0.6461387366758913,0.6353452879122677,0.6408501254111891,0.6457751788366962,0.6309506978512651,0.6278171403762486
0.6518996019478114,0.6357584303547198,0.5900364355025394,0.6097188103553522,0.6186589343140778,0.6213999294356307,0.6132643799212381,0.6050267730676172,0.6154147321671222,0.5925514671137929,0.6220084373075377,0.6073827214841085,0.6089549537589065,0.6250311437336917,0.6216892445116294,0.6279792790010168,0.6391174980069473,0.6281233993181928,0.6146433561670046,0.6373586392031676,0.6025370983798732,0.6089673853202549,0.6044356098308209,0.6448590749301902,0.6508608666908953,0.6126280237492786,0.6489091138219207,0.6395239437912918,0.6488298389840167,0.6418251839006437,0.6340611006340152,0.6289124757641992
0.6601981583044408,0.6367990429742032,0.5863363434452945,0.612586447204928,0.6185438262218101,0.6291036869385287,0.612189930681986,0.606280098314761,0.6118864493889754,0.5987345982193382,0.6188706325420432,0.6123169217266413,0.6067998547012067,0.6215202228015886,0.6210729545582916,0.6249704247178602,0.6395976265596401,0.6283558622938837,0.6203301909710471,0.637309710223305,0.6097643567520933,0.6083168781409564,0.6145787318197952,0.6337844037626971,0.6454143225271323,0.6146047421126745,0.6525359587986508,0.6386431967610153,0.648918318221457,0.6406723794829168,0.6335640165295098,0.6319871931356449
0.6658417524668415,0.6421491419250038,0.5955945464218305,0.6185512853026699,0.6220844913402882,0.638672800652904,0.6137725410202273,0.6069415859822866,0.6069403347573351,0.6014674865412954,0.6161461433532347,0.6075050405413079,0.6030631637040671,0.6247427152961512,0.6147538435023348,0.6221030214978079,0.638388992260828,0.6252806549494235,0.6103527978044503,0.6436818459036371,0.6219832438433353,0.6088911655275572,0.6147625379035792,0.6366853003768745,0.6475419767611929,0.622972786341625,0.6528366682407671,0.6389231302148939,0.6523786553260176,0.6399788018443687,0.6373610885299248,0.62154487424116
0.6575047574402261,0.6328640135933707,0.5922832012439326,0.6158684444823224,0.6192686346268282,0.6267046869662144,0.6075923048435508,0.5995313308983174,0.6094181745303205,0.5940811944541284,0.6099482269896751,0.6143910842818404,0.5966012664686596,0.6186538139755327,0.6112398289660127,0.6215202228015886,0.631686392475546,0.6193468679855975,0.6026309296711333,0.6532622829665603,0.6215241101696974,0.601134639694007,0.6107027527768312,0.6275955501213335,0.6385108529122631,0.6145835724873674,0.6538876296025984,0.6326892571380982,0.6436082317610261,0.6396772148587786,0.6281319823055793,0.6081516034174153
0.6517812851043923,0.6337392386073645,0.5899158697702748,0.6184040077991386,0.6097070080640314,0.6233256263905814,0.6124427458909345,0.6118593474960368,0.6127000597402896,0.5985710011756459,0.605442234528467,0.6152096072801377,0.6030526963369196,0.625077664369409,0.6149701624872378,0.621053098309939,0.6307889789076995,0.6187793321516893,0.607936470698977,0.6506619583205806,0.6210140010748472,0.6060562159374776,0.6104280266387266,0.625129411815681,0.6359280701824539,0.6088790158946102,0.6482315581250248,0.6302295609758176,0.6380817814610653,0.6401525816595591,0.6249607616410391,0.6011420058009086
0.651588979245295,0.6312433912684066,0.5938040188259752,0.6125481295466948,0.6118294217966064,0.6173969843328316,0.6180489569463431,0.6061148253631347,0.6218207745730248,0.603989961317088,0.6058083696935463,0.6123832798285925,0.6100731373704057,0.6251550006518828,0.6186345466952704,0.6278994965596384,0.6334466710811507,0.6186927355860689,0.6216651392125199,0.651426118109945,0.6344746885100971,0.6035331541470987,0.614523242709329,0.6315054994813997,0.6355553357109663,0.6077182978896691,0.645788966842377,0.6302711339885059,0.6442358720984899,0.6418953460146352,0.6279356934742273,0.6040938888928231
0.6540702365846083,0.6371318899704849,0.5973530835838571,0.6160741437338404,0.6054549507014783,0.6143402960069284,0.6183077403750372,0.6030041719685401,0.6126763073527725,0.598556903574708,0.5999480631788924,0.6072026429405731,0.6051199315465945,0.6155889138632804,0.627968383509991,0.6280275706692096,0.6364883407687355,0.6147587099131012,0.61564244150829,0.644328763186453,0.6279721561844505,0.6033242825024019,0.6078360462988268,0.6342703391270506,0.6269576256793112,0.6045091327929233,0.6459359288397346,0.6278194528798879,0.6285948672633742,0.6515000638858419,0.6253236149077367,0.5992060308031698
0.6512785707610346,0.6429470426819963,0.5935548878421181,0.6108218031911326,0.6064075536643341,0.6108134001989713,0.6186927355860689,0.6032225581565451,0.6176658952685669,0.6079450592673727,0.5989438372449157,0.6081967906977871,0.6210571504941538,0.6189152909759206,0.6297360215710879,0.6357018512104035,0.6350042931851505,0.6176816990289069,0.6223344600753677,0.6415034540968297,0.6275131939379437,0.6035569450033347,0.608625284579674,0.6246436183976272,0.6172045462789785,0.6061229935489507,0.6365891198344367,0.6242632056713555,0.6293605877744549,0.6432212900792489,0.6131216948179706,0.5905692846814741
0.6454793204626533,0.6367905472901053,0.5936967527871353,0.604357889659181,0.6065813368266114,0.6167005947473169,0.6214537385817502,0.6097404619970884,0.615446225958068,0.6141098728372073,0.6137700671257798,0.6092375649094803,0.6242760411218349,0.6090950162198997,0.6256576900550896,0.6377860497451388,0.6324414946752109,0.6139269331897502,0.6221657098786478,0.6440887765854209,0.6216320096380495,0.6035759771486132,0.6016133130246077,0.6250389949998083,0.6052522543339645,0.5990038549448442,0.6253236149077367,0.6212994511902307,0.6203423880838367,0.6285071054276262,0.6065851981160364,0.5937534913478423
0.6484133024544121,0.6396364075655115,0.6034046705668552,0.6143879316844376,0.6084647367605158,0.6204737361379601,0.6283908830462747,0.6092292248689538,0.6179542764093248,0.6204315014294123,0.6122659256179057,0.6159116475789346,0.6249884127835214,0.6079720944349291,0.6277745681544012,0.6381213200895317,0.6336092894750679,0.6157620653029006,0.6281319823055793,0.6448590749301902,0.6269046066826454,0.6123572067095326,0.6014800476888724,0.62748050390218,0.6037087173335896,0.6113682550862858,0.6311938874817884,0.6210824304664074,0.6146603718351409,0.63737083769348,0.6096944304444152,0.5870713535694013
0.6517270501299133,0.6342070932054399,0.6033428003017028,0.5993543160202971,0.5991395430789076,0.6207092420678393,0.6284344685730642,0.6053786000593607,0.6209167561766304,0.6201419988662842,0.6200529674828511,0.6219832438433353,0.6293380653792192,0.6136100448653212,0.6327422953353098,0.6444478931323347,0.6352028263552554,0.6220306821941688,0.6344259983218208,0.6451940136073657,0.6271419118624639,0.6158156373101128,0.6076237582321964,0.6383470429592799,0.6037515403351039,0.6156424415082898,0.6278280358672744,0.6188956775422164,0.608625284579674,0.6338552529091044,0.5964512113519889,0.5803030684205652
0.651515584494468,0.6221089155529378,0.5997294881791615,0.5868400752064065,0.593154449840923,0.6049311587191247,0.6250037575181404,0.5975356550454529,0.6224435724734064,0.6212032093316989,0.6272704108063226,0.6185676339237238,0.6321893484182733,0.6202614996981909,0.6261978782747245,0.6388440706237901,0.6378070152397005,0.6150702272675443,0.6222187497732145,0.6453765907424054,0.6150806498225679,0.6089998686436553,0.6001987385882095,0.6503836858370063,0.6061692027114397,0.6136536176160705,0.6212367628093907,0.6192974979172844,0.6082745300403738,0.6298422445412788,0.59711016811886,0.5800931380612637
0.6479402467061293,0.6190400386412277,0.6010862257652871,0.5862928537683244,0.5907249756814436,0.6014451552555121,0.6207827854782982,0.5857417965836301,0.62982024439965,0.6167971406494006,0.6161635736503529,0.6217951762642895,0.6297814168642071,0.6128347166118361,0.6302785476266396,0.6370926571354224,0.6420980596644468,0.615012545184468,0.6247682515882612,0.6449969797753672,0.6032291073803645,0.6094650138100924,0.5960765495584074,0.6562466371051497,0.5968871035871582,0.6108322097404753,0.6191861049821302,0.618561536920297,0.6054208933666346,0.6281548146579595,0.6002949232591239,0.5861842399146174
0.6490278696224858,0.6156513271447854,0.6035280718533587,0.5866031342744336,0.5969882084936136,0.6012695920690214,0.6269039653573263,0.5850932617535748,0.6339330763553702,0.6178470585467768,0.6218908946556985,0.6215202228015886,0.6292328842547361,0.6191713760022525,0.6321921239690688,0.645862580984988,0.6510580827800438,0.6151815153045761,0.6238220349894408,0.6362380686562634,0.5997322652414782,0.6128794259522041,0.5958337787515225,0.6587791846557182,0.6061923056288931,0.6120218436509427,0.6210386003402719,0.6191638639373847,0.6126062233821518,0.6274264892946441,0.5967958031968044,0.5956134161831407
0.6547368717248557,0.6066519757275095,0.6135796560210713,0.5795963163109907,0.5970055473131802,0.5933484477717456,0.6176444305159056,0.5786578978383393,0.6271070812182016,0.6103687762495638,0.6227556680571229,0.6248457070845822,0.6199372840314468,0.6142254355295317,0.6204206214426058,0.6335647201205289,0.6442802195703557,0.6115430105380132,0.6176155672254494,0.6418310791591673,0.591790166091938,0.6025061916328973,0.5878012097313303,0.6567039209470883,0.6067092089679306,0.6157041343169952,0.627323936150706,0.615501847659607,0.6212032093316989,0.626502436107264,0.6096992092131482,0.5940839543357174
0.6546724619283193,0.6003623587178933,0.6086685874528585,0.584044660679419,0.5883290719603255,0.6095430796028978,0.6172344881779257,0.589847638977545,0.6208412736341894,0.6065920304343331,0.6258867009937472,0.6217037073168297,0.6115166073304792,0.6156708177797151,0.6201068821539575,0.6310421506901396,0.63819904172075,0.6058940170781408,0.6054422345284669,0.63616505888129,0.5769943607105411,0.5984474244831124,0.586735119150278,0.657286319659269,0.6030512515747872,0.6123572067095326,0.6262726468421621,0.6156219611172827,0.6243102534200049,0.6307570907385214,0.6064175732034658,0.5957099657303253
0.6515944645244683,0.5968861796604538,0.6106598940091662,0.5938040188259752,0.5952934199247719,0.606222615995759,0.6075807482199996,0.5870553920824305,0.6248658149484868,0.6078727760087231,0.6274706217160962,0.6243106823521247,0.6075716523112935,0.6190581736971223,0.618072234445158,0.6246715167450883,0.6423371836990227,0.6114113526171598,0.6053672645609719,0.642268628715924,0.5788582543805018,0.590224725720919,0.5859288024658311,0.6603519084259007,0.6063789430219432,0.6097070080640314,0.6209806086887087,0.6167329084926405,0.6339783780740235,0.6247551454992697,0.6094775695431224,0.6052137917658397
0.6518256561719142,0.6000954951410487,0.6168354527033969,0.5938953192163292,0.5982651604431017,0.6060122719516171,0.6048955156228341,0.5858284490741488,0.6192420972961536,0.6053331516578802,0.6226260041914979,0.6242032629279672,0.595076754455059,0.6127100861488256,0.6171901288268711,0.6172814292172251,0.6359282534170381,0.6047975821991692,0.5955181362092378,0.6361502797144609,0.5826621579351715,0.5922633686823967,0.5861860521102924,0.6655591731670776,0.6063314015707765,0.6032714052311199,0.6264065772184139,0.6219529802340891,0.6400518852293791,0.6310130313750634,0.617684766497923,0.6017720361345589
0.6546724619283193,0.6030000423329673,0.6262793915551029,0.6035712191572667,0.601881986115607,0.6084144980466107,0.6052522543339645,0.5792399104662121,0.6131044866391994,0.598937367220582,0.6234463066254339,0.6187262993525795,0.5832565315012114,0.6160309406372283,0.6152096072801377,0.6136075709708737,0.6378363536500193,0.6019173597913421,0.5888942914671482,0.6276644370716861,0.5682155025775651,0.5846215173860682,0.5869556785011932,0.6654339356934694,0.6145787318197952,0.5957099657303253,0.631175724872523,0.6244938208075873,0.6400518852293791,0.6397677917906746,0.621409247903506,0.6027344208902062
0.6574552031174575,0.6061080428327563,0.6232487370273048,0.6067514358963225,0.5977227522817166,0.6058428976761324,0.6120321394116043,0.5868461530568528,0.6191458857080041,0.6063232908681973,0.623354615997779,0.6186667451587463,0.5893217604427539,0.6120072811819439,0.6130163111622104,0.6107027527768312,0.6322941377600786,0.604778508316858,0.5895149392771641,0.6302366064362545,0.573625010797597,0.5775019396701486,0.5821555115594618,0.6650761921074546,0.618095051688655,0.5820222517854547,0.6263564636331577,0.6281000776714828,0.6428685245023266,0.6432897591333655,0.6248359142342387,0.6026944661133771
0.6482462856297424,0.6122110742422637,0.6232019282403656,0.6162366398887463,0.6116572793177558,0.6059687911494387,0.6124242613268983,0.5854978139646916,0.6127024821727922,0.6045765247465577,0.617944969931837,0.6114177710062546,0.5837161881264067,0.6047115165329309,0.6096639936765216,0.6077852703161681,0.6337297904963264,0.6003843517259869,0.5873020318058122,0.6272092474996388,0.5765468082261781,0.5740525921086564,0.5829254928042271,0.6564700597455019,0.621409247903506,0.5812385614179663,0.6249490103796347,0.63111640672856,0.6459310214934139,0.6425807244573043,0.6371561461878811,0.6147576480099566
0.6481770207530413,0.6185286105713101,0.626604776178579,0.6193263600922905,0.6182636874854189,0.6087130814346845,0.6151620246696465,0.5954900689468652,0.6156568408780957,0.6050323048621178,0.6202822369087284,0.6146555721067617,0.5845902283011435,0.6065851981160364,0.6120893268988666,0.6072512439960481,0.6227088442829262,0.6012598940325398,0.5906148229060292,0.6193981812379005,0.5777182275845288,0.5757597652444928,0.5803030684205652,0.645862580984988,0.6184503772125409,0.576663853458635,0.6286460973092524,0.6272961119480099,0.6432309719188314,0.6458243707769117,0.63709279629028,0.6233611949245923
0.6416896288757682,0.6182800652175344,0.6228678089092629,0.6190908541624113,0.6247059291807834,0.6115430105380132,0.6161461433532347,0.6018412240131406,0.6126439200223249,0.6045765247465577,0.629849005204656,0.6122518230537725,0.5815635354111611,0.6111402065192044,0.6129591986630647,0.6042155269377587,0.618677158604287,0.605798589656825,0.5935289934230371,0.616528493804084,0.5834516755691603,0.5717951556088456,0.5771784494194009,0.642435002953658,0.6216215332599538,0.5776072656864513,0.6292333443838675,0.6279362823251482,0.6428446009697049,0.6502806486841628,0.6372390879435219,0.6261132807276448
0.6472567953001892,0.6268161202583529,0.6224164357224922,0.6188090474781409,0.6218675155679287,0.6144510872320614,0.6161461433532347,0.6015746882952397,0.6089998686436553,0.6004563578686156,0.6290616587002084,0.6157041343169952,0.5851464863474102,0.6082810534939239,0.6192974979172844,0.5984886546334589,0.617223569416442,0.6063137541081177,0.5980192162523027,0.6192314402147033,0.5901376858312779,0.5878876925415857,0.5765702109567152,0.6445894013786634,0.6150471111252318,0.5822960195191074,0.6283663819981178,0.6233611949245923,0.6429860512531039,0.6547376472902356,0.6388145359829316,0.6243098731237314
0.6473314843603686,0.6362488812685769,0.6136271090905637,0.626656042955519,0.6243102534200048,0.624633955320806,0.6254458673039905,0.604715904510589,0.6084962397755566,0.6035876028399929,0.632554276844715,0.6158436983881416,0.5956501711486326,0.6145809247924053,0.6337795400375209,0.6076365180293685,0.6199747341240821,0.6125270086870714,0.5961697431184807,0.6136888018992692,0.5939382136921648,0.5992787393593718,0.5728114692160491,0.6441921456723307,0.6214722687392699,0.5813892112806578,0.6229010578688913,0.6337135271289668,0.6458917615385741,0.6552963247289278,0.6335250632453535,0.6268791907660439
0.6423605346052572,0.6394549834043347,0.6220814042768075,0.6368477965317805,0.6312618343323078,0.6125395728083379,0.6157473374136073,0.5980114673018921,0.6094650138100924,0.5984029502621654,0.625752183683563,0.6160741437338405,0.5960564660884419,0.6145327203173024,0.6335598563953527,0.6107027527768312,0.6230308536904218,0.6157620653029006,0.6033955777122922,0.6205656969009263,0.5964796927431227,0.6037818683986184,0.5841151150795317,0.6420923150479797,0.6264449500574502,0.5906689080913169,0.622229776209073,0.6370461142418422,0.6430210811270065,0.6495172376984713,0.6369463945263806,0.6247904250212015
0.6516354628451541,0.6474973998712822,0.6231033148391419,0.6310871012552262,0.628317123523131,0.6211823509697878,0.6267495908744435,0.6078010908322026,0.6119541162129115,0.6085734398766139,0.6377002125278061,0.6220266373123435,0.5960776289068928,0.6140177503783363,0.6334730607570057,0.6211249759729297,0.6147203048049988,0.6093120304677723,0.597928446455777,0.6210140010748472,0.6018279687006154,0.6112397205884526,0.5901166598443016,0.6361390761160857,0.6261294841253683,0.5964643978463315,0.6344447106060198,0.638076783561971,0.6483053084046708,0.6501169980799991,0.6427956576684218,0.6174089245860264
0.6501864697478578,0.6511055996605135,0.6211492491175198,0.6341819950929557,0.624643618397627,0.6281863652348937,0.6325007652957914,0.6079445137024163,0.6179957685877473,0.6087847884977913,0.6373052294112203,0.6280351221011512,0.5941650440154457,0.6193688490814323,0.6384975864927903,0.6274227621713935,0.6139370343174012,0.6096561992009517,0.5988817754219169,0.627746793255076,0.6025222693962284,0.6126439200223249,0.5967958031968044,0.6341527599975384,0.6385555216878179,0.6165100565849363,0.638814250936303,0.632554276844715,0.6430895216354323,0.6510610890104539,0.6343724436397065,0.6289289378164312
0.6495813387831404,0.6572466696616558,0.6136415084603696,0.6282832254393217,0.6220844913402882,0.6218675155679287,0.6302494283115632,0.6118041477569887,0.6245919105393223,0.6115503512117288,0.6263697118623615,0.636579463626374,0.6113496303586751,0.6275723810971623,0.6382730108454904,0.6215349571201099,0.6148351652823956,0.6159781334650187,0.6051326219311685,0.6276682097461456,0.6150899719832345,0.6189283580075055,0.6033242825024019,0.6283607044980114,0.6338379584448114,0.6260516181707753,0.6398655171159303,0.6379889174067859,0.6399734060147876,0.6509279740059745,0.6341478962723621,0.6294188252592111
0.63933341929665,0.6569867685245819,0.6210824304664074,0.6224764639877056,0.625129411815681,0.622340376600992,0.621857039189833,0.5993145530181421,0.6121169209070128,0.6045359533464403,0.6299383942829311,0.6333708823725231,0.6079832905108363,0.6335250632453534,0.6414627252179846,0.6174714566534191,0.6089411916787202,0.6191061384719224,0.6055048383347359,0.6245600118442365,0.6177732550406008,0.621473022259644,0.6068236624043651,0.6222969831319834,0.6281233993181928,0.6266474245930062,0.6343529885468475,0.6326108170447191,0.6335460435534571,0.6401056357657907,0.6274760368490321,0.6297328795804209
0.6380034980911305,0.6508907235126034,0.6225330325895927,0.6252806549494235,0.6182760996693709,0.6248939584298936,0.6221657098786478,0.5960656215895374,0.6093933067469857,0.6025046722817246,0.6252067945394114,0.6298975367601086,0.6046410456075252,0.6315152054107034,0.6286809312356006,0.6148351652823956,0.6082424432302966,0.6219486891548247,0.6029708635103338,0.6220989541454885,0.6155416381620893,0.6146866460291092,0.603357590960608,0.6223982306289365,0.6222187497732145,0.62332828474534,0.6310769096895766,0.626279391555103,0.6302295609758176,0.6370246278851496,0.6216662303734456,0.6216215332599538
0.638654891040841,0.6591373562457316,0.6233110731853024,0.621409247903506,0.6153100683877287,0.6215202228015886,0.6248658149484868,0.5922049678851636,0.6087785914944598,0.6049659314083273,0.6256908776340607,0.6274410160966413,0.601439644757355,0.6283607044980114,0.630896215104432,0.617444967131684,0.6181966842575407,0.6369208063067537,0.6035712191572667,0.6313839581509739,0.6156513271447854,0.6151326586421437,0.6035712191572667,0.6315054994813997,0.6252647080793441,0.6278619339510838,0.6312909525019879,0.6297996562144407,0.6369463945263805,0.6308730183255371,0.627553520459631,0.6120844863809196
0.6466517425712384,0.661056246353037,0.6275967262835316,0.6276631013676786,0.6150940445878134,0.6209468450399086,0.6243433801625676,0.5927365554366496,0.6087074822609652,0.6044356098308209,0.6243730047596023,0.6250934719401864,0.6078360462988268,0.6279356934742273,0.6237955207814426,0.6139464291082071,0.6116285423586235,0.6283413354918866,0.5971704828031492,0.6339874095632717,0.6148500490295621,0.6210287179426729,0.5991395430789077,0.631222511993562,0.628492578625629,0.6238895208528079,0.6309870060636829,0.6238727353924752,0.6311703814934333,0.624216327173041,0.6295977040460191,0.6146000417486732
0.644468301363234,0.6629358730975506,0.6341333049046795,0.6310600158386561,0.6144875622185457,0.6260069698452145,0.6276931659252748,0.5967436820952071,0.6060562159374775,0.6143934984847655,0.6221771875042577,0.6188370576171515,0.6042943494876599,0.6250388652262859,0.6178470585467768,0.6156219611172827,0.60264368980922,0.6337392386073644,0.5969882084936136,0.6366281128896123,0.6102190796266513,0.61345155983274,0.6060795138620692,0.6303407287019172,0.6341478962723622,0.6293676653362466,0.6293897070895311,0.6373568658332256,0.6300620480553525,0.622719547848018,0.6291497976015471,0.6119829279864115
0.6462535143993867,0.6676208668851542,0.6338136388581144,0.6280373890535818,0.6112789809646947,0.6108452500460003,0.6249264212356668,0.59396657820696,0.6059678739055733,0.6113730349589266,0.6066519757275095,0.6127100861488256,0.6076064543610196,0.618150998007026,0.6171108799380489,0.618315519256461,0.6061625109743752,0.6339776457099091,0.5998207885695153,0.6485594684102667,0.6141802465332422,0.6136617675145408,0.6092727804461069,0.6319981496577421,0.6267046869662144,0.6269558380844591,0.6354075858801868,0.6315790375249675,0.6167329084926405,0.624957664776574,0.6275723810971623,0.6042155269377587
0.6552021834916711,0.6706779404204932,0.630644675140222,0.6127281828184618,0.6129611478454458,0.618744434408474,0.6298649509446603,0.6002912644350418,0.6089759738886504,0.617444967131684,0.6094775695431224,0.6149403897072004,0.6086685874528585,0.6213961697550556,0.6207630402754203,0.621912195449006,0.6092680016773739,0.6365942427932032,0.596351637387277,0.6539722146503222,0.6188081954421455,0.6139269331897502,0.6065412541301759,0.634617493228346,0.6237457020031058,0.6218675155679287,0.6341225005980796,0.6282169133973392,0.6093261092736622,0.6197856462175648,0.6246224747973619,0.6150837022229131
0.6541254617265152,0.6619086077775874,0.6203046703977361,0.6079618175735929,0.6127357356506852,0.6053212709198263,0.6204413586531433,0.5933870053241894,0.6040732605657926,0.6138638246665296,0.6019756901031658,0.5999897683125485,0.6011197078638185,0.612397008372962,0.6066519757275095,0.6065889397414166,0.6062474360702089,0.6292878472828376,0.5923958907223257,0.6479415148231623,0.6189283580075055,0.616319133747774,0.6089612788062251,0.6383062417301524,0.6320907681848247,0.6182148712826618,0.6305918046219123,0.6288657809514204,0.5993642985554816,0.6262374407924586,0.6149212060680072,0.615833313934621
0.6584414208860747,0.6589116503024268,0.6276631013676786,0.6053633880513368,0.6181685018692595,0.6069562927170672,0.6148595266375355,0.5959565715508324,0.6120532602712279,0.6196004676432025,0.6096800939559565,0.6016152079438458,0.6064867558876101,0.6142674102956943,0.6033242825024019,0.603103599376829,0.6095271543968342,0.6331567070105122,0.5947266612091419,0.6555742239822492,0.6277311756628463,0.6189265179455957,0.6155995691479946,0.6451400219387711,0.6158038431058174,0.6121319354599604,0.6379595233022863,0.635155040234722,0.6029078641712521,0.6284432515460889,0.6248209486549203,0.6088129103562415
0.6591240260130646,0.6561048386038367,0.62739067965779,0.6125481295466949,0.6148500490295621,0.6127367719663727,0.6155889138632805,0.5957005063066974,0.6081803026435548,0.6197017781015676,0.6150806498225679,0.6003801277311426,0.6130543738033349,0.6131450822608062,0.601502526506649,0.6159781334650187,0.615501847659607,0.6383062417301526,0.6021138548750857,0.6582458143068376,0.6237795517157851,0.6324504611702573,0.6185993957456027,0.6393535118815826,0.6233149471291263,0.6117217717671247,0.641270215492161,0.6283875821334794,0.6105966806642965,0.61539009827948,0.624598506970115,0.6081233296575649
0.6681097682435618,0.6520012881461892,0.6251550006518828,0.6176155672254493,0.6060980103175709,0.6111486095113656,0.6190619919874052,0.5985408902892143,0.6156616406064749,0.6201832663394218,0.6118964295300812,0.6104066627723264,0.6193201246177844,0.6130617642761844,0.6054762266058066,0.6246136952158706,0.6241139036700563,0.6400643995004864,0.6157532240286077,0.6590950476736824,0.6220306821941687,0.6414944397444582,0.6211644235057515,0.642032458726922,0.6259012740611104,0.6171901288268712,0.6478910547659137,0.6292135976357691,0.6190137293728752,0.6172815400379617,0.6304953868972215,0.611491843311721
0.6686654688804491,0.6548196749740418,0.6249264212356666,0.6175770811027618,0.6101415778788314,0.6116669256417004,0.6191542433363119,0.6073833658258089,0.624498659057143,0.6290466944776183,0.6150806498225679,0.615501847659607,0.6277745681544011,0.6213320306968257,0.6235320654136285,0.6283413354918865,0.6278861459198393,0.6374595914075877,0.6160309406372283,0.6593712211858379,0.6213999294356307,0.6458478587486546,0.6251901083600284,0.6450762084671796,0.629962073300995,0.6238550638479575,0.6529064093033834,0.6297996562144407,0.6303019011664741,0.6206294437258577,0.63349155033887,0.6138551429435734
0.6601424087031538,0.6448486339771158,0.6249808848815999,0.6258796833763577,0.619730655074256,0.6221812548565769,0.6155889138632805,0.6043267143208626,0.6210539114068755,0.6244678731225886,0.6160309406372283,0.6160309406372283,0.6283607044980114,0.6222969831319836,0.6209089223149471,0.6272871366298807,0.6217433725712889,0.6273683792420792,0.6157324484526129,0.6644271654772789,0.6224454253296898,0.645695430171317,0.6241139036700563,0.641788454966362,0.6290777891375471,0.6258760747101886,0.6535244526324283,0.6308540596163094,0.6288823099267244,0.6277686762076227,0.6327605714792173,0.620002319635042
0.6538362170668262,0.6430474856251085,0.6217867615482923,0.6201791989871024,0.622859757557079,0.6153721034350437,0.6222187497732145,0.613940862307879,0.6274264892946441,0.6318854830075935,0.6210229813564876,0.6269558380844591,0.622340376600992,0.6264862261350491,0.6317894115182745,0.6419443177823138,0.6298784818844064,0.6367243009005811,0.6249520216567873,0.6648917555975904,0.6228581458324417,0.6490573804137704,0.6295152047828404,0.6423370692243499,0.621535943324445,0.6325007652957912,0.645679080050696,0.6312909525019877,0.6351492907028663,0.6287847373070884,0.6235744513018721,0.6136075709708738
0.6568111632966378,0.6363335774787489,0.6238809982667687,0.6249969957709077,0.6274211379634199,0.6180523751277559,0.6253008966566295,0.6164018938207418,0.627426489294644,0.6240326314673189,0.6203614078327939,0.6261173466802848,0.6282746424519353,0.6255581802892007,0.6340299256535523,0.6459012902512524,0.6380185067618379,0.6332533771148376,0.627015432144049,0.6628643222152201,0.6196152019617237,0.6509792027500435,0.6209042043615718,0.6398469065173057,0.6155052277208626,0.6298649509446603,0.6466717822911807,0.6339776457099092,0.6350007735804243,0.6330393720930857,0.6305372536178065,0.6223567025687922
0.6597198775612785,0.6349884382800148,0.6261702791748635,0.6251482389046502,0.6274022773258886,0.6210182914081774,0.615339351504701,0.619678579850598,0.6273683792420793,0.6277311756628463,0.6333443328873416,0.631686392475546,0.625233234010652,0.6325752330126544,0.6333503067900809,0.6461368815733493,0.637304824784926,0.6336370263044829,0.6256957633212505,0.6541839869455647,0.6159215487474597,0.6482351936140694,0.6293791476731916,0.6398319557313886,0.626323130155985,0.6294837078004826,0.6402087165684719,0.6397240668325314,0.6444271863058523,0.631281246572684,0.6311254469733627,0.6339874095632717
0.6562713969040729,0.6373048247849258,0.6268559300999568,0.6317976581628592,0.6187032894211325,0.6155699522977068,0.6112397205884526,0.6151564578693184,0.6209715907699286,0.6221771875042577,0.6279980257632766,0.6252268997059175,0.6278171403762486,0.6269599893938239,0.6332772970151077,0.6460684410649234,0.6387754044027126,0.6328305006868872,0.6247428438578471,0.6430743845822621,0.613603109525284,0.6511946617629817,0.6267482724930039,0.6304178287534897,0.623649376464865,0.6352763074883,0.6429396964807181,0.6390107894819137,0.6435986831588779,0.6369804558903541,0.6337392386073644,0.6231900956437488
0.6541366272762518,0.6409775205025634,0.6318799747274363,0.6308010521562524,0.6205275343455411,0.6216313904836848,0.6108132918214112,0.61445467701677,0.6213999294356306,0.6253429414381132,0.6314148808497551,0.6359380025805932,0.6365780382915391,0.6341527599975384,0.6428739797159144,0.6566228275194811,0.6437779819907413,0.6330311822602384,0.6243334094134788,0.6487732430274546,0.6126343415252127,0.6415001013979597,0.6187793321516893,0.626656042955519,0.6245319677959338,0.6389315111959877,0.6424499831836806,0.6369452939713763,0.6486370970029065,0.6314421956357301,0.6395132588646673,0.6271200666966579
0.6532705361713173,0.6434462545815406,0.6260961188936585,0.6286043748582698,0.6151564578693184,0.6152860688224487,0.6203046703977362,0.6078584395202644,0.6142254355295317,0.6091207574653643,0.6344983208678026,0.6340749365512723,0.6392509081317741,0.6340506554848824,0.6515300987402819,0.6622820844361755,0.6502098006496785,0.6358403645102434,0.6265857995817538,0.6458674883313089,0.6099099957462115,0.6452734603827179,0.609144962072817,0.6168267864993444,0.6369598068304602,0.6455713781413039,0.6390441114925456,0.6400518852293792,0.6486671318573466,0.6305634711747531,0.6396800920436873,0.6371561461878811
0.6502560004256951,0.6417680041143694,0.6299056470570139,0.6333896058328997,0.6175289706598289,0.6119636947100238,0.6182931322491193,0.61223302821286,0.6180862781416245,0.6085489995566526,0.6300621790580037,0.6312128060642583,0.6262899342492483,0.6277844503404849,0.6514852753308908,0.6565533734336121,0.6499349417686103,0.6373568658332256,0.630896215104432,0.6458674883313089,0.6156708177797151,0.6336662288323911,0.6077228659986728,0.6291497976015471,0.6340749365512726,0.6569867685245819,0.6412391461999563,0.6438674305691648,0.6610811187065554,0.6404787066123465,0.6455225672155326,0.6371708221209951
0.6478423209870585,0.6452084307023663,0.6278194528798879,0.624498659057143,0.6240746762488024,0.6119062218926268,0.6154594649623768,0.6160309406372283,0.6227538189924942,0.6078345447652596,0.6229197138673133,0.6279006727218366,0.624700708156131,0.6246982251115275,0.6419443177823138,0.655466656564379,0.649850717695088,0.6374973824496435,0.6232440385201843,0.6429174962700053,0.6158684444823224,0.6271358934961384,0.6047115165329309,0.6261582129789569,0.6305823416164238,0.6498313461635765,0.6341374281263067,0.649992726271194,0.6590324208123279,0.6387605003998914,0.6454450312508312,0.6313639622769611
0.6533523906583263,0.6483823619137907,0.6242086555368684,0.6305421217287046,0.6176444305159055,0.6058534204691386,0.6155699522977068,0.6060122719516171,0.6136075709708737,0.60195542480151,0.622207983530946,0.6214296332826407,0.6160741437338404,0.6155889138632804,0.632033792542448,0.6557378205682052,0.650570205063172,0.638462023158023,0.623324379850079,0.6402082395155994,0.6163134392365198,0.6333896058328997,0.5994390014811612,0.6258242019830558,0.636203816598314,0.6442358720984899,0.6365714329812613,0.656271396904073,0.6562323112986782,0.6415238362175834,0.6484477191289634,0.6335647201205289
0.6559470859704627,0.6458132353115033,0.6173488794684422,0.6179342696068231,0.6053919986937277,0.5963883923527689,0.623587368337982,0.6127020689632439,0.6160365937795702,0.6122011837031496,0.6276334057624905,0.6240906231188821,0.6117291314411517,0.612500229720806,0.6351452031786523,0.6589189343292845,0.6509249677755644,0.6448258095466937,0.6323478293255117,0.6363698590622902,0.6125157556659079,0.6299101913917982,0.6053667991959066,0.6298131545162491,0.6358575862973195,0.634969353773606,0.6264171499259307,0.6482960212911414,0.6535742200744046,0.6409187500652357,0.635993936284599,0.6278763275354672
0.6491878938552287,0.6456908031344828,0.6215202228015886,0.6113401193214674,0.6017270059459462,0.606852273046756,0.621410264055595,0.5999348355870548,0.6062813342789333,0.6055790606541976,0.6251210900092011,0.6182636874854189,0.6212537973380566,0.6093689487226349,0.6330442358182617,0.6526319859428658,0.6521701887535892,0.6398044477388763,0.6298649509446603,0.6309870060636829,0.6130757496800671,0.6231632721652096,0.6018563887583898,0.6372710286158929,0.6361648160746074,0.6220000638132073,0.6252196233407669,0.6516928058669523,0.6532087141879819,0.6484156038780992,0.6391175875790133,0.6224175143068303
0.6414194716140367,0.6444800715849838,0.6056044333878037,0.5951025933991944,0.5924939055052169,0.59396657820696,0.6052161786587413,0.5896537596026389,0.6086549374823531,0.6063137541081177,0.6233302417808045,0.6214682013869505,0.6208686116811395,0.6099530057584082,0.6281658803893887,0.6525181138018944,0.6483131439529318,0.6371583121034824,0.6241540385906754,0.6279792790010168,0.6161461433532347,0.6186349989622254,0.6075050405413079,0.6433211575131985,0.6377734979986466,0.6131036453694545,0.6134171598661654,0.6426607160988372,0.647439450832985,0.6430983161484306,0.6297699043506223,0.6096639936765216
0.6341479463262457,0.639406412009285,0.6060289836556293,0.5915456300322428,0.5963358083938559,0.6004704864456146,0.6115179787068049,0.5936967527871353,0.6084030913109739,0.6059717504152083,0.6243323920176704,0.6151620246696466,0.615501847659607,0.6036754088753833,0.6283558622938838,0.6539112051387534,0.6514588661956089,0.639147296594536,0.6164012026776655,0.6272085531209503,0.6145857805471009,0.6121847530153969,0.5957005063066974,0.6423348760876156,0.6221414788913848,0.6137783661529731,0.6129176100560952,0.6366147583853251,0.6449915928258558,0.6412310404316961,0.6276631013676786,0.6034570183688973
0.6220266373123436,0.6396309545052098,0.6083380341013571,0.5955424253202334,0.6017655874610872,0.6096639936765216,0.6119062218926268,0.6033813818168439,0.615833313934621,0.614435731583346,0.62539662468271,0.620778495144968,0.6157809380979159,0.5967985936368432,0.6126904861782886,0.6413389589120984,0.6356742958761803,0.6315807329588216,0.6250887282057408,0.623880015334127,0.6093140332300472,0.6065005591496306,0.5875344278586513,0.6520764580526135,0.6143544365379179,0.6026814114360499,0.6026152947940765,0.6339144267668204,0.6449572386380844,0.6447226791870062,0.6171789307627928,0.6064175732034658
0.6224175143068303,0.6310769096895766,0.6073178557660336,0.5890667535559923,0.6021384984868972,0.6095271543968342,0.6177018149820737,0.6068236624043651,0.6247875815897178,0.6126258233526888,0.6248421584395298,0.6183421883416845,0.6151564578693184,0.5937472908550027,0.6120844863809196,0.6397778578489106,0.6448159918733107,0.6414094044831925,0.6270183236183597,0.6214682013869505,0.6061558383842858,0.6139688937159039,0.5920809442190079,0.6562862523778408,0.6064733652781551,0.6042600466443303,0.599312704294038,0.6313348441072811,0.6385555216878179,0.6528073297428887,0.6081492947657141,0.6031797351550306
0.6192974979172844,0.6253008966566295,0.606266068496877,0.5888400892088826,0.6035712191572667,0.6064096349295457,0.6048955156228343,0.6066480992178744,0.6189799403383532,0.6191350017623785,0.6116187917201545,0.6161317439834288,0.611647337199536,0.5836022230611724,0.6098335274256447,0.6399150479439143,0.6477183571623443,0.6409972268222812,0.6273045239103299,0.618894440243957,0.605983932880037,0.6106266179822919,0.5970188677285061,0.6595069789855625,0.6079832905108362,0.596927433417169,0.5973240046622812,0.6253676339452214,0.6365793706708813,0.6481090087440657,0.603068055987591,0.5938040188259752
0.6246363384559753,0.624700708156131,0.6068427362866765,0.5794214445957441,0.6004135123470463,0.6059324796462656,0.6099225578499676,0.606222615995759,0.6192132351211476,0.6222439432374169,0.6155168920679084,0.6122905010302568,0.6138040046152755,0.5892177570606026,0.616107744418149,0.645695430171317,0.6450368055627602,0.6405492216355881,0.6259846694295038,0.6190812335613386,0.6064175732034658,0.6083623921257079,0.6023890040604931,0.6620747727054841,0.6085877763650727,0.5794932350676659,0.5972066291754956,0.6221627246990573,0.6274227621713934,0.6423156096148656,0.6029636602366008,0.5940578785973138
0.6220266373123436,0.6157473374136073,0.5992787393593718,0.5832374748877777,0.5937756553697978,0.6062362714450298,0.6117625205786335,0.6034998456888926,0.6099482269896751,0.6186927355860689,0.6178978854204604,0.6066480992178745,0.6173969843328316,0.5859107487856919,0.6251804452832073,0.6393523141268072,0.6375753275430834,0.6291354245905708,0.6278407717947696,0.6184572296561897,0.6100181532973531,0.6045655419318476,0.5970008099193278,0.6625085514146692,0.6025109496242437,0.5806882024436827,0.5982657046559154,0.6099608046092913,0.6132681386666282,0.645744187221356,0.595477305167717,0.6064764125410188
0.6208412736341894,0.6188752762089453,0.6057294096172444,0.5733523359212624,0.5936967527871353,0.6117291314411517,0.6111239224446875,0.6055239122170472,0.616107744418149,0.6274458583007688,0.6267495908744435,0.6161934367921342,0.6168121045983527,0.5888422621713755,0.6311642745088057,0.6417061677466414,0.640932763428392,0.6331269474011656,0.6267830709315019,0.6268319470578333,0.6068411628092388,0.5915657994695247,0.5969629097030709,0.6685296823527479,0.599929384969978,0.5835430818040295,0.5959851513636242,0.6161317439834288,0.6152096072801377,0.6543419592444965,0.5916905235981775,0.6062279178345433
0.6241628181721666,0.622181254856577,0.6107267654394086,0.5800652412656345,0.5999348355870548,0.6087947530984734,0.6096639936765216,0.6021384984868972,0.6099482269896751,0.6208366054818021,0.6216662303734456,0.6094262974106966,0.6206439302596954,0.5832374748877777,0.6220844913402882,0.6472709521058592,0.6499924807062355,0.6246441649172523,0.6194149974109416,0.6214722687392699,0.6032814551824065,0.5887703702626411,0.5930955152339196,0.6628643222152201,0.6066179085775766,0.5922718670561702,0.6065336457814398,0.6251804452832073,0.6240296408739194,0.6538815935054553,0.5996059178135839,0.6078345447652596
0.635155040234722,0.6183400746868843,0.6094406338991555,0.5864775716400635,0.599168236025379,0.6045655419318476,0.6097313660883823,0.6117994637259679,0.6161934367921342,0.6237514032801211,0.6216131904788789,0.611895254201598,0.6209129896672664,0.5756865533191317,0.6092292248689538,0.6481769411788317,0.6531263993223548,0.6319724403269004,0.6211840934992855,0.6183421883416845,0.606143437092064,0.5941548410515498,0.5935193788248991,0.6597073157247667,0.6120452204871959,0.6011433509634757,0.6189799403383532,0.6303201405167077,0.6231792044732133,0.6552939835134285,0.603175605519458,0.6139358464619015
0.6420452209401699,0.6184906378632143,0.6123382829261793,0.5896490006716887,0.6091207574653643,0.6056473465230826,0.6132174852936008,0.6197453840541337,0.6221048706711128,0.6243106823521246,0.6265068077428224,0.6152524681381402,0.6202819945621859,0.5759264142868247,0.6132174852936008,0.6483402926794388,0.6504820271794902,0.6238239353618747,0.6181267076606763,0.6113730349589266,0.6064175732034658,0.5948930622556863,0.5968716093127169,0.6530462180330759,0.605528108865587,0.6099331573632596,0.6307230977073351,0.6303534189569533,0.6254416174359152,0.6539722146503222,0.6092645499690227,0.6174714566534191
0.6426094828894833,0.6251804452832073,0.6117511884378372,0.5919285569293012,0.6116285423586235,0.6093689487226349,0.6161317439834288,0.6196152019617237,0.6249036987361453,0.6274410160966414,0.6300904565528092,0.6158193370330015,0.6244527877479789,0.571524420368625,0.6131236440003517,0.6445448625381129,0.6443980057522661,0.6075716523112935,0.6141050972726352,0.6059741212892834,0.6125157556659079,0.6035183634881937,0.6063981791822497,0.6528207252288811,0.6164933293034716,0.6147203048049988,0.6310308976689761,0.6367535499389118,0.6299011399299024,0.6594028971036091,0.6155168920679084,0.6213958845538056
0.6564403150871836,0.6301824283227113,0.609881077181131,0.5982056160407794,0.6116764366789083,0.605644181443561,0.617944969931837,0.6175508141984604,0.6217096238424539,0.6238006195986074,0.6296559415307753,0.6152524681381404,0.6222621432422227,0.5822358379076268,0.6191350017623785,0.6538035488276009,0.6565443401564112,0.6137896052454697,0.6012919233548049,0.6076008905341934,0.6153156351880568,0.5970709888301032,0.6092211818655147,0.655652959585257,0.6288710943731166,0.6206331057512604,0.6337844037626971,0.648826156167274,0.6385298831848968,0.6602974246514984,0.6281658803893887,0.6203301909710471
0.6495014918376113,0.6387949463509676,0.6072466492262556,0.6079429941525273,0.6085488162591072,0.606222615995759,0.6120532602712279,0.6133147021401365,0.6115644178922218,0.6180727646482568,0.6169735551158917,0.6127186043213495,0.6190908541624113,0.5818143472948987,0.6213958845538056,0.6504053323576598,0.6501124999479088,0.6087334421308155,0.6003801277311426,0.6143726527989251,0.6214537385817502,0.5873161778088287,0.6154594649623768,0.6567435362197793,0.6259846694295038,0.6140860555169382,0.6329226330795563,0.6457592118980782,0.6341111168045868,0.6517273148294305,0.628051915855579,0.6298687759551026
0.6461245293757087,0.6305712410437809,0.6044369492297685,0.6045655419318476,0.6060766747008008,0.6067092089679306,0.6180619828275309,0.6137896052454697,0.613603109525284,0.6217477379134562,0.6230890397623352,0.6126594569799013,0.6192132351211476,0.5898026367950815,0.6147631656630013,0.6445600977376165,0.6415524821386028,0.6055675618802184,0.5925171652276564,0.6182934335608141,0.6123805449799529,0.5870713535694013,0.6088462519891641,0.6617245558496577,0.6184563816542856,0.6082335575618509,0.6302979598670158,0.6427272171599961,0.6260574086071926,0.6489299171304163,0.6249607616410392,0.6236094016961024
0.6490738421424256,0.6324375193741807,0.6022894180615764,0.6084466549218446,0.6092536651889151,0.6033428003017028,0.6140510669156163,0.6153100683877287,0.6068536214551628,0.6159116475789346,0.6209188837223963,0.6159836471983288,0.6155848412587014,0.5834516755691603,0.6076008905341934,0.642874032907023,0.6415415338522679,0.5962806465243697,0.5849321204459088,0.6181572274013719,0.6083953827894188,0.5928990515915555,0.6014720708555038,0.6575179318612636,0.6168884402837593,0.6103759464565981,0.6303045532867736,0.6427804852843225,0.6292328842547361,0.6513232786353708,0.6157620653029006,0.6271225428563392
0.6516709457376344,0.6404904511982603,0.609778693240552,0.6095797308803849,0.6131236440003517,0.6061080428327563,0.6129306240898025,0.6150467688866221,0.6008888779259678,0.6069562927170672,0.6239047090985635,0.6153440114594821,0.6156513271447854,0.5825965589350389,0.6009677877769851,0.6518848133928602,0.6516484347994301,0.6084030913109739,0.5862025326755773,0.6181091788380524,0.6052996661029596,0.5969629097030709,0.6040729177756028,0.6640876747724813,0.6236354335468347,0.6115756252513465,0.6333369292354033,0.6480987078200626,0.6351492907028665,0.6484512417671929,0.618894440243957,0.6120844863809195
0.6514709298892051,0.6317392397555687,0.6032178001651985,0.6099177902217814,0.6160741437338405,0.6029179862390518,0.6136909440581031,0.6143531271416686,0.6032467574292346,0.5975322400367625,0.6110909646860215,0.6046337579869786,0.6227507554995085,0.5795963163109907,0.5957021397357538,0.6518848133928602,0.6515944645244683,0.6083168781409564,0.5908781471168945,0.6152852736149467,0.6094262974106966,0.5936621909574884,0.6038559889808351,0.6592967756686688,0.6275955501213335,0.6151326586421437,0.6367827978164705,0.6389668146930695,0.6303407287019172,0.6395628130786012,0.6221771875042577,0.6128649783276983
0.6585199993173533,0.6351590398664215,0.5996093445351885,0.606852273046756,0.612515755665908,0.6055201705916669,0.6055545731482865,0.6120114766059462,0.605442234528467,0.5918078475696035,0.6114848410446301,0.6047768220658042,0.6189265179455957,0.5867956655701363,0.6091395102017259,0.6489594291140601,0.6489146933108538,0.6100746076466586,0.5904151115460571,0.616898217901291,0.6065984765014962,0.5867887663786685,0.6085160911885522,0.6598257665784416,0.6223752164907527,0.6241102806376204,0.6341479463262457,0.6416993994040742,0.6309256665558343,0.6484288715961035,0.6248421584395298,0.6123756758525593
0.6599877901614611,0.636259756654771,0.5925456325994874,0.6004609910604157,0.6063943026726145,0.599064880346827,0.6030422369787078,0.6064229992566996,0.594514281171078,0.5863622741703703,0.6109619810408818,0.5981567056366451,0.6136100448653212,0.5865246418977116,0.617577365169691,0.6426094828894834,0.63737083769348,0.601134639694007,0.5882754221979198,0.6180778202367991,0.5997592724005641,0.589958327795051,0.6101373155071529,0.6482454612614671,0.6182148712826618,0.6183321279938446,0.6277745681544012,0.6330888051728008,0.6308730183255371,0.6372001395325222,0.6179873718824408,0.6111426396955209
0.6594445527363235,0.6326564244905617,0.5958656724799145,0.6035759771486132,0.6034004139621225,0.6017888762110984,0.6028138181231442,0.6028370636589283,0.5943591399690162,0.5884313453483765,0.6068458269795928,0.5988830356545229,0.6120184163231404,0.5934097622461298,0.6177018149820737,0.6342946201934405,0.6402228960254754,0.5944638983302817,0.5873526141247153,0.6268209093475661,0.595477305167717,0.5869188578129811,0.6024665664899432,0.6518601651343926,0.6221871489117069,0.6152969688074709,0.6273906796577899,0.6338136388581144,0.6341341104089885,0.6390107894819137,0.6149701624872378,0.6142485516718442
0.6580441194875678,0.6326710158582444,0.6017270059459462,0.6029893813096349,0.5997724999924017,0.6043778451691924,0.6029470136399765,0.6014745497085474,0.5946178766223873,0.5877473606353482,0.59774757997069,0.604944880981399,0.6076008905341933,0.5969095095289738,0.6178295100757605,0.6309629508184569,0.6456908031344828,0.60195542480151,0.5912039964261169,0.630250865545436,0.590146739945289,0.5785169874707078,0.5991864164939539,0.6518996019478114,0.6161406296199246,0.6103269339156655,0.6265557755188538,0.6281863652348937,0.6249124443731742,0.6367256103292083,0.6114152837749433,0.6110143058659181
0.6546732559873989,0.6208366054818021,0.5965106921503452,0.6056936055161397,0.5896844419789097,0.6029568538811658,0.5998533918414883,0.5910777913091156,0.59403228100961,0.5849226205680707,0.5980353322334768,0.5999273756900569,0.6066865382120754,0.5972049310931954,0.6219457489266979,0.6276233250206589,0.6400667892322004,0.6015746882952396,0.5956940403948764,0.6390889603911332,0.5948930622556863,0.5818897852873275,0.6054127145827438,0.6461221593370157,0.6128270360410392,0.6009677877769851,0.6259846694295037,0.6280507396933809,0.6097834720092851,0.6297937072574927,0.5949134759302076,0.611695450540258
0.6588153715637699,0.6238616717363921,0.6055389512378276,0.6113837124257282,0.590411736856015,0.6081085955804482,0.602742423052561,0.5925583868772316,0.6021996672183766,0.5959565715508325,0.6065920304343329,0.6052984476398195,0.6139562179565943,0.6033428003017028,0.6339589222495325,0.6208686116811395,0.6397240668325314,0.5956227570149175,0.5883845755982401,0.6201791989871024,0.5817452077936762,0.5925843906523106,0.5975006302142989,0.6489594291140601,0.6186911343339043,0.602314431292742,0.6293192028124028,0.6371660781685486,0.6180786027962869,0.6299101913917982,0.5964350107408016,0.6021176411623406
0.661618541932576,0.6297033914426508,0.6055675618802184,0.6174714566534191,0.5906689080913169,0.6054438460694501,0.5993048548714692,0.5952374707358599,0.6045930993777281,0.5929425285087709,0.6097241507409761,0.6063291379803669,0.6132297335585257,0.600152479967822,0.6310186607468005,0.6200637655075152,0.6456908031344828,0.5960686257594068,0.5939594532128393,0.6204751073819783,0.5849916992415913,0.5865709674235539,0.5978330437999272,0.6489889399053446,0.6266648771246106,0.6118211275799088,0.6291036869385287,0.6402910608380339,0.6328305006868872,0.6335598563953527,0.5979986906162903,0.6006548243130516
0.6592539924770825,0.639210863843408,0.6061404787336143,0.6237224125426326,0.5914312103011837,0.6054244978013928,0.5984132130610296,0.5905914081021268,0.6042600466443303,0.5934358412822565,0.6093810725109386,0.6050021142218199,0.6095914746607485,0.5998533918414883,0.6310053027500516,0.6212886042398182,0.6479798176214113,0.6055447931115651,0.6063137541081177,0.6225813498574577,0.5891626692001816,0.5806312453476942,0.5861932313215161,0.6518848133928603,0.6275723810971622,0.6127192647179199,0.6355637444446417,0.6429470426819963,0.633044235818262,0.6371511540513118,0.6065088735938197,0.604435609830821
0.6569494962776906,0.6396653940746908,0.6020328153013546,0.6210584917530914,0.5894010272949238,0.6076189794634633,0.601027534692915,0.5928697215345182,0.6087947530984734,0.6068101507197791,0.6029549432819453,0.6035992389309426,0.6040494987677437,0.5986506423903115,0.6312327150172314,0.6127695522111677,0.6461221593370157,0.6013122418345818,0.5968952971698502,0.622497678521001,0.5895451803819495,0.5699457231273235,0.5831378524409694,0.6517812851043924,0.6339589222495325,0.6193367640521724,0.6371908280015398,0.6453765907424055,0.6389315111959877,0.6402228960254754,0.6094749784107746,0.6122232358503144
0.6517716810944829,0.6426094828894834,0.5994728194234745,0.6185512853026699,0.5920055712460575,0.6045765247465577,0.5984797007852919,0.5959858371889049,0.6001867955314026,0.6042376261133818,0.6075067956613772,0.6041925753377898,0.5980243039820552,0.6049189053556677,0.6294461453723884,0.6054549507014783,0.6401056357657907,0.5877996958637611,0.5871097806501433,0.6238703522573058,0.5837900157017667,0.5870216850732942,0.5791739327314177,0.645695430171317,0.6277745681544012,0.6088083703068543,0.631472801630299,0.6485018813710767,0.639133629166688,0.6431917968583665,0.6058502530983851,0.6088911655275572
0.6427957463571452,0.6366100151941441,0.5999480631788924,0.6222958919710577,0.5923765309312155,0.6073833658258089,0.5988643574456087,0.5947571734067095,0.5988012057889124,0.6046093059116032,0.6164224331832984,0.6043520795498167,0.598195679718357,0.6092555699978546,0.626031036563002,0.6020328153013546,0.6396800920436873,0.5875541552486532,0.589958327795051,0.6249607616410391,0.590757996953109,0.5969095095289738,0.5762100161908039,0.6424331749209881,0.6277745681544011,0.599074375732026,0.6314776653554752,0.6429329342988631,0.6306231229529777,0.6307831548169213,0.5998207885695153,0.6130757496800671
0.6374438474684533,0.636473308101926,0.6131332224974639,0.6368720527491765,0.5985698536593488,0.6170978492270935,0.6094262974106966,0.5891601472640233,0.6019756901031658,0.6021845956633782,0.6115166073304792,0.6027085698696129,0.5954623986536398,0.6026442522885735,0.6158168799747776,0.6012695920690214,0.6390984000691883,0.5861860521102924,0.5894010272949238,0.6331860960141641,0.5967155465731891,0.5898119441179227,0.5727928020475088,0.6518601651343926,0.6304223771222484,0.6058428976761325,0.6363280062168083,0.6486494890157743,0.6296435880346546,0.6321921239690685,0.6049623821134815,0.6099338905012163
0.6373610885299248,0.642643126155533,0.6130737949920818,0.6373123407775905,0.5984873216824309,0.617577365169691,0.6123805449799529,0.5926852312762924,0.5996679720102103,0.6038661311947552,0.6114183562599966,0.600171269721099,0.5960832280980592,0.5992012454775987,0.6143018970718427,0.6059964845479642,0.6369355448078212,0.5979184423045536,0.599022070603685,0.6360527241684499,0.6053212709198263,0.5985260201556134,0.5793709063994832,0.6571233627849736,0.6366929917440942,0.6055103395088981,0.6300494725186484,0.6488655073338799,0.6295847784373454,0.6261582129789569,0.604357889659181,0.6065984765014962
0.6425725751542289,0.6397390768430393,0.6094775695431224,0.6310053027500516,0.5997724999924017,0.6086373689822974,0.6087130814346844,0.5906358173309197,0.6026802354682153,0.5990343740674994,0.6211058601405164,0.6088462519891641,0.595979070324155,0.5992012454775987,0.6114366955947116,0.6126782518208138,0.6334868966742631,0.6062609545013501,0.6081492947657141,0.6342541754185782,0.5987369052324436,0.6018563887583898,0.5790896699352809,0.6625657974114557,0.6362464021504838,0.6063137541081177,0.6296658290145565,0.6516928058669521,0.6310505802658503,0.6296885339559148,0.6017533727157658,0.600295870993631
0.6488462528024281,0.6457592436429085,0.6065336457814398,0.6177687009301809,0.6030149194645056,0.6050031681518047,0.6059717504152082,0.5959858371889049,0.6000443146786505,0.5962729837193617,0.6179642115057703,0.612126811446127,0.6004349546530623,0.6013339094167828,0.6050497978387652,0.6117048210294074,0.6366853003768745,0.6089778129525915,0.6110863227762074,0.6290473036559525,0.5984873216824309,0.605122377767619,0.5715703142963805,0.6588749419939132,0.6364365880081401,0.6126151841640604,0.636520850804277,0.645862580984988,0.6443336511860248,0.6325632129332719,0.6140177503783363,0.5968871035871582
0.64307004701115,0.636989055868791,0.6035802337533459,0.6052418229664658,0.6031464266968245,0.6030512515747872,0.6062644895855085,0.5962170920321593,0.5937458106792801,0.5897554449398523,0.6119349588517593,0.6057589527080313,0.5938429681424201,0.5932539825480326,0.5902807259152761,0.6172441087789985,0.6364576131435739,0.6149915793875931,0.6172607083505789,0.6359087547030344,0.6051094438634294,0.6014747844481367,0.578855111375465,0.654079245884316,0.6297616403854269,0.6127836354765741,0.6428741638615352,0.6420137968683098,0.6357744718241809,0.6273464877570509,0.6110143058659181,0.6000528575210137
0.6486403927224925,0.6309870060636829,0.6026466233408992,0.6060766747008008,0.6001858054271167,0.6031904826509964,0.6030422369787078,0.5925625845142065,0.5867887663786685,0.587029352815332,0.6092375649094803,0.6019756901031658,0.5893573337067942,0.5901522768762147,0.589448923149278,0.611506945074825,0.6247059291807834,0.6070636416055938,0.6101348737263907,0.6249414351106626,0.6016222711110977,0.6114124904028351,0.578273095626271,0.6510235738175656,0.6240758052319064,0.6059324796462656,0.6419902611853459,0.6443980057522662,0.6396309545052098,0.6316357626861766,0.6117994637259678,0.6087619891930272
0.6456567209050526,0.6180786027962869,0.6033660458374871,0.5945460166872587,0.5965964236794179,0.6095271543968342,0.6098335274256447,0.594911949944496,0.5834516755691603,0.5890541813073048,0.6099608046092914,0.5957099657303253,0.594914743461656,0.5922840842222392,0.5888942914671481,0.6085488162591072,0.6179368811651859,0.599511155412395,0.6042386800433667,0.6219832438433353,0.598668651611617,0.6100324897858119,0.5908003833696311,0.6487240570504809,0.623585574414503,0.6061692027114397,0.6367271159930952,0.6390603203098977,0.6418824541679965,0.6322211279851053,0.6077845114482148,0.594914743461656
0.6501564348934178,0.6114113526171597,0.6068411628092388,0.5970486427914643,0.5999415042670558,0.6065412541301759,0.6118808065770921,0.5936054523967813,0.5865918544264298,0.5860617347544389,0.6092297704339105,0.5960686257594068,0.5936606789911972,0.5930072866087108,0.5858455212925584,0.6025675540310185,0.606266068496877,0.595658104073133,0.6104550267939147,0.6188706325420432,0.6049813573303394,0.6189946425742616,0.5924939055052169,0.6432212900792489,0.611895254201598,0.5977491004782945,0.6248939058858018,0.6414055354370637,0.641376918952112,0.6410700231055398,0.6055672107579076,0.5949555266736885
0.6504820271794902,0.60496395613126,0.6054532018346584,0.5986506423903116,0.5925893765817717,0.6060408836805465,0.6185512853026699,0.5867887663786685,0.5859774719583021,0.5845997726697795,0.606143437092064,0.5987345982193382,0.5932710784204104,0.5893637150079065,0.5786578978383394,0.5991395430789076,0.6032178001651985,0.5991352072521341,0.6141098728372073,0.6186667451587463,0.607192550696422,0.6066655996227481,0.5999758305588416,0.6458574073508027,0.6030000423329674,0.597910814655495,0.6216131904788789,0.6376024872025503,0.6450992932891212,0.6429113158009689,0.6057260948700011,0.5887693310941013
0.6590324208123279,0.6119636947100238,0.5986694761061571,0.5958419846227813,0.5852606415580793,0.5956025860187,0.6120114766059461,0.580506371962941,0.5865978435415062,0.5864951261542047,0.6001953008123156,0.6009800929112383,0.5965206175635054,0.582110444979535,0.5762205415358255,0.5956227570149175,0.5964322615990127,0.5998911337001717,0.6119349588517593,0.6152860688224487,0.6043806901922074,0.6098030731514891,0.5937472908550027,0.6425605075310005,0.6000954951410487,0.597802669085078,0.6246982251115275,0.6404218797353224,0.648650229520447,0.6467487238223925,0.606266068496877,0.5896351290125155
0.6593382315319157,0.6062946802258063,0.5859380656529181,0.5785641459500056,0.5782561374937344,0.5867211456573628,0.5983430189237121,0.5805281191734297,0.5935548878421181,0.5866933772757122,0.6063789430219432,0.603805099010878,0.5993484848226768,0.5936913925736611,0.5871213075201025,0.5923133591413695,0.5996568232485577,0.6022976758935421,0.6182063048586135,0.6055103395088981,0.5996663186337569,0.612586447204928,0.5972049310931954,0.6359183210188987,0.5907957337962249,0.59057521692665,0.6193468679855975,0.6355770190042807,0.642435002953658,0.6450376792027628,0.6001953008123156,0.5851910478854422
0.656149079783253,0.5951343113660184,0.5828168836167206,0.582531935592263,0.5756000014258242,0.5902058576499406,0.6030512515747872,0.5773549494495513,0.5972014685092139,0.5893379007349164,0.6094775695431224,0.6079429941525272,0.5960673865087693,0.5965632594362436,0.5905906598620089,0.5954754985991283,0.6019243537852653,0.6064008450434738,0.6159452482632432,0.602610381351014,0.5964998741322334,0.6063943026726145,0.5971622892204571,0.6303045532867736,0.5771784494194009,0.5938413600222714,0.6223344600753677,0.6331706545548458,0.6458478587486546,0.6478901738099967,0.5969297454598965,0.5852664497498354
0.653301959554196,0.59967529114291,0.5790108485244232,0.5903997370248468,0.5722233735921629,0.5938531137946506,0.6097313660883822,0.5727824043854634,0.5970008099193278,0.5864108633580679,0.6033428003017028,0.5969572654426228,0.5884626365895216,0.5968716093127169,0.5889770810475685,0.5878055881554463,0.6022777727773335,0.6083623921257079,0.6032291073803645,0.6002664367460683,0.5961333881085805,0.6146411727369558,0.5971622892204571,0.6243106823521246,0.5769364713983962,0.5936847595765877,0.6243323920176704,0.6369512068520234,0.6423178862476834,0.6474973998712822,0.5996378321207012,0.5894791712016271
0.6456508913307666,0.5867781110559951,0.5727397708283065,0.5864847793305488,0.570306560822707,0.5870216850732943,0.6063314015707765,0.572861614991948,0.593419216613907,0.5790613535933733,0.6003280431543127,0.5867404527595982,0.5846971748669987,0.5870532966892941,0.5858550336091878,0.5859209344085171,0.5984678095990335,0.6045823189987132,0.6061802267893718,0.6000430760756056,0.5994397852130308,0.60264368980922,0.6004704864456146,0.6242816916146361,0.5732403234026152,0.5897318576322332,0.6220084373075377,0.6280567580597065,0.6426683037815998,0.648029333534134,0.5900149348127784,0.5869094441097799
0.651505137722483,0.586213041329438,0.5770521627468216,0.5935693786008434,0.5710159146867577,0.5905692846814741,0.6099942585423482,0.5682155025775651,0.589958327795051,0.5823915151884164,0.6030512515747872,0.5900548962508574,0.5888422621713755,0.5896442836977639,0.589059403963285,0.5924646022751119,0.6028138181231442,0.6091207574653643,0.6087130814346844,0.6026428370536445,0.5995398354860221,0.595442334355954,0.6004704864456146,0.6243396719593222,0.5797834489674364,0.5894628367654766,0.6144251489370405,0.6249808848815999,0.6481868575509958,0.6572818703252938,0.5894300550782996,0.5924415568259201
0.6532603659181471,0.6032035260112665,0.5831942164802191,0.5999627635272566,0.5666727306446295,0.5936606789911973,0.6220269225135936,0.5698180851191528,0.5996778286549976,0.5890796961177299,0.6031464266968245,0.5919825691048226,0.6040365597532888,0.5964464739581364,0.6015786622848506,0.6013550691545773,0.6158684444823225,0.6099482269896751,0.6125732394957792,0.6028370636589283,0.6078345447652596,0.5882690811335768,0.5985799550238128,0.6217085281895232,0.5835186235544365,0.5862928537683244,0.6085183619849515,0.627271519037651,0.63774974335579,0.6595167774551008,0.5856140605501475,0.5922554323474766
0.6587394080152872,0.6060694943229374,0.5866933772757122,0.6001285774747873,0.5723997092132347,0.593225412316816,0.6182800652175345,0.5678991186767657,0.6058083696935463,0.5915225106915376,0.606143437092064,0.5986221548047989,0.6050087477657545,0.593188401818465,0.6054762266058066,0.6059392621766438,0.6247948615313695,0.6127281828184618,0.6183491875798153,0.609272780446107,0.6121394722497456,0.587161691287553,0.5988450392926478,0.6185053400991226,0.5802275797574982,0.5928248825116509,0.6050428606688462,0.6309870060636829,0.6301727223934076,0.6571526021397963,0.5862928537683244,0.5979899748098028
0.6549200133596003,0.6124486856275325,0.5906095279329874,0.6005617868359685,0.5799087383388954,0.5940862420534913,0.608190267244237,0.5700178757659347,0.6024533359638241,0.5945538851409621,0.6047498965879285,0.6008519715064243,0.6087525573880074,0.5897390597568556,0.6046651088104079,0.6079747121700518,0.6332686700696417,0.6149939617144126,0.621226286431295,0.6156708177797151,0.6092805792969902,0.5870789017071326,0.6083694229195685,0.62748050390218,0.5936967527871353,0.6001203078071403,0.6168903379571219,0.6307831548169213,0.6242065928521684,0.6503922643331633,0.5916137340135011,0.594962285102561
0.6597165486286747,0.6207691766770926,0.5902200087469944,0.6033660458374871,0.5871778019345888,0.600441999932559,0.6020010530340626,0.5710491972359272,0.6040758030245934,0.5952636451079838,0.6089698644968677,0.6027050307782721,0.6126151841640604,0.5861289884900802,0.6140860555169382,0.6172920099248677,0.6397582676278586,0.6217674778703985,0.6280275706692096,0.6159245614578065,0.6156513271447855,0.598524794425807,0.6059798914152609,0.6338552529091044,0.6028905173719413,0.6047903682218366,0.6263474658502709,0.6281863652348937,0.6208944595097466,0.6503035173061649,0.5885039710684995,0.6007913612340202
0.6485095757599513,0.6210721114116814,0.5965304220796069,0.6029708635103338,0.5971622892204571,0.6032755926813088,0.6087785914944598,0.5739447790943124,0.6008376973524924,0.5937175505279222,0.6093120304677723,0.5958674301606449,0.6054055337159632,0.5869920162891695,0.6115423248745014,0.6117511884378374,0.6430056372146136,0.6248457070845822,0.63349155033887,0.6222969831319836,0.6209756780481064,0.591423680068285,0.6015029697663217,0.6397735976605153,0.6097809509420941,0.6144319035928681,0.6263474658502709,0.6282019828271233,0.6199158283099748,0.651426118109945,0.5958475862894315,0.5910263171607505
0.6437784035890829,0.6331706545548458,0.5961132067194699,0.6084198232221227,0.6064118346315205,0.6026428370536445,0.6111477637093543,0.5818686920470895,0.5976819132414086,0.6025372314695593,0.6055545731482865,0.5944663618585242,0.6080817638807261,0.5867404527595982,0.6238510257269293,0.623878397740177,0.6538703795739704,0.6242355824593661,0.6313113541639419,0.6283607044980114,0.626588446371875,0.596375409498705,0.5974088050338212,0.6458966632144182,0.6159157201835136,0.6135419642183977,0.6366120996555128,0.6275723810971622,0.6321359401882946,0.6620747727054841,0.6005258136583591,0.5895429316335303
0.6503922643331633,0.6341089853179824,0.5958600220036477,0.6035569450033347,0.6095658270130322,0.5965982432077842,0.6017064229291162,0.5836155022634828,0.5877972390318674,0.5949269339011191,0.6014674865412953,0.5844268311127125,0.6106638543252623,0.5771304158765932,0.620605144433748,0.6203667067714995,0.6447952614585988,0.6213999294356307,0.6221657098786479,0.622295891971058,0.6209756780481063,0.6059324796462656,0.5967241281039406,0.6457447948030774,0.6159884469267081,0.6150471111252318,0.6341478962723622,0.6216892445116293,0.623348359474113,0.6569489948448225,0.608190267244237,0.5796544031474374
0.6541989826403154,0.6314569679259471,0.592727070840588,0.6069269990828133,0.6093134876650907,0.598664460654792,0.5935105170042608,0.582026561618218,0.5789486618040107,0.5971622892204571,0.6033705823064515,0.5892252193278779,0.6207527669823533,0.5790276491455242,0.6230690295100393,0.6244885378330923,0.6425746856471073,0.6185993957456027,0.6369563620626227,0.6275131939379437,0.6204147049169816,0.5926324796630822,0.6016793963092865,0.6489983576388422,0.6152916356227769,0.6155995691479946,0.6307570907385214,0.6218248801112995,0.6269675725993462,0.6573809227065484,0.6092211818655147,0.587654626756363
0.6510565908783637,0.6338567099466511,0.5942473517917832,0.6099338905012163,0.6084030913109739,0.6068157145466052,0.5996663186337569,0.5910016968961311,0.5853929453606597,0.6100785213384852,0.6123234066651061,0.598764987488219,0.6119353877851871,0.5885777894657027,0.630239586270834,0.6220269225135937,0.6484477191289632,0.6192301485041408,0.6310421506901398,0.6310421506901396,0.6298101776692131,0.595202119534418,0.5973240046622812,0.6542030868895704,0.6084205003174918,0.6156513271447855,0.6214722687392699,0.6226909664362271,0.6140860555169382,0.6487240570504809,0.6128538150073045,0.5876996971486893
0.647821733301571,0.6402082395155995,0.5875918268249077,0.6026745438327078,0.612126811446127,0.600402459016926,0.5903006719823432,0.5900534799887585,0.5823915151884164,0.6030279628247759,0.6059949341571456,0.5939233251460122,0.6113392349144999,0.5816694851597569,0.631155360012716,0.618894440243957,0.6456162014795048,0.6160309406372283,0.627905514925964,0.6275196223758216,0.6206439302596954,0.6025710473162593,0.5923214398143336,0.6509377207245914,0.6079798388024852,0.6121468107287379,0.6180778202367991,0.6260185675133131,0.6127631682635103,0.64201379686831,0.6191820380612079,0.5781883030821103
0.6392691887629061,0.6396364075655115,0.5828567956358882,0.5968716093127169,0.6252559680950922,0.601086225765287,0.5798715361926838,0.5902151496900993,0.5736782792368282,0.5989319324407241,0.6019103552948686,0.593342973249992,0.5992815727515751,0.5775912492828916,0.6265846736974156,0.6150940445878134,0.6394110646292928,0.619260271419977,0.6283908830462747,0.6334033449872923,0.621106951301442,0.6017604358830176,0.5926551524360089,0.6507945630605844,0.6087847884977913,0.6120218436509427,0.6238510257269293,0.6141710693600019,0.6134974573492137,0.6286440303133335,0.619097775265071,0.572960220754765
0.6269599893938239,0.6453765907424054,0.5875541552486532,0.6032035260112666,0.6156219611172827,0.6002519343301137,0.5821453696564158,0.5919945403264049,0.5766947538785073,0.5973463267879368,0.6025255319227922,0.5964706275210834,0.6048625517849914,0.5837993300707944,0.6245011050158438,0.6122518230537725,0.6369513460068811,0.6190676523492349,0.6187793321516893,0.6269558380844591,0.6156791726490058,0.6044977908890584,0.590024260210732,0.6566715970243694,0.6154264177083746,0.6090385850430512,0.6274458583007688,0.6130025047053828,0.6217557287314678,0.6281209885844574,0.6210182914081774,0.5798615565428265
0.6178529637263176,0.6391277384795071,0.5813892112806579,0.5994663493991408,0.6097070080640314,0.6046640548804233,0.5789419772074833,0.5958065083368794,0.5859686704098901,0.5914993446695123,0.6077946257025438,0.5896273874450045,0.6050381149714821,0.5901169399055682,0.6306932066956746,0.6177114355831465,0.635189037415774,0.612913253525161,0.6128794259522041,0.635189037415774,0.6133003027703308,0.6043449557549915,0.5886513393342134,0.6534098581818599,0.6122857762630781,0.6028443738870972,0.6176825734081403,0.6036831838990439,0.6306343759741412,0.6271333002264652,0.6114366955947116,0.5803874702008026
0.615779379354748,0.6424766325845213,0.591930432244311,0.6048739379335503,0.6096114171929711,0.6084730768010423,0.5803874702008025,0.6016808255718991,0.5871466924727845,0.5920334282539271,0.6127100861488256,0.5873658941259936,0.5993885566273378,0.5947592767028589,0.6292376173147805,0.6136714003561555,0.628457450207883,0.6131236440003517,0.6126151841640604,0.6349693537736061,0.6192748291917067,0.6009677877769851,0.5953287711262137,0.6449285392669416,0.6098030731514891,0.5998132664148226,0.624589959447497,0.6077538738765136,0.6371219061737531,0.6187590511882011,0.6242401544546402,0.5774110725874434
0.6211041176110186,0.6451604913907456,0.6022424682749269,0.6072918691226279,0.6121203148885932,0.6210777754309852,0.5838510889353111,0.6186538139755327,0.593256720459001,0.60120868479072,0.6161317439834288,0.5953777790324933,0.6097313660883823,0.601027534692915,0.6336092894750678,0.625197322925056,0.6322974327008499,0.6190195419063019,0.6193949728499869,0.6413374877443764,0.6233449529209579,0.6013842479772107,0.61561844194301,0.6518996019478114,0.6095797308803849,0.5996834269058893,0.6280519158555788,0.6020385718524597,0.6394705339993446,0.6233256263905814,0.6214722687392699,0.5867956655701362
0.6269664643680177,0.6473495153633533,0.6095492766062293,0.6066786162368256,0.6045400440285291,0.6273683792420792,0.5863363434452945,0.6157324484526129,0.59096221914844,0.5977769920211546,0.6190195419063019,0.5972601734497512,0.6083694229195686,0.6113304729975227,0.6308561645918945,0.6201906398559099,0.6225216474142364,0.6178776205186933,0.619260271419977,0.6292164222025041,0.6144210763324615,0.600966924420511,0.6281863652348937,0.6575245646709905,0.6155995691479946,0.6115327263677782,0.6305176435091838,0.6160309406372283,0.6369999546043577,0.611298818406861,0.6280883967787899,0.5964464739581364
0.6187308141193718,0.6528192745119475,0.6126062233821518,0.6100018898851877,0.6056144549135053,0.6311703814934333,0.5917641114424962,0.6192974979172844,0.5983944478848692,0.6055239122170472,0.617657128299097,0.6050674743745665,0.6057260948700011,0.617944969931837,0.6310053027500516,0.6230216799522765,0.6291138687909867,0.617741905448608,0.6249906514291489,0.6363903315519759,0.6174089245860264,0.5921013452979165,0.6312128060642583,0.6546479348040705,0.6192301485041408,0.6068573609368069,0.6279792790010168,0.6217477379134561,0.6431919113330393,0.6212477083980188,0.6240906231188821,0.6086760934427536
0.6152148318418562,0.6504053323576598,0.6150702272675443,0.6148828009599047,0.6101954439295474,0.6277311756628463,0.5952148833135663,0.6216892445116294,0.6015786622848506,0.6094650138100924,0.6144319035928681,0.6028370636589283,0.6025222693962284,0.6159116475789346,0.6276931659252748,0.6208366054818021,0.627746793255076,0.6152092650415281,0.6160741437338404,0.6347421472143423,0.62472525571116,0.5961582927207041,0.6337065803164311,0.6458478587486546,0.6221812548565769,0.6194149974109416,0.6283558622938837,0.614686646029109,0.6431428250906878,0.6174699030973263,0.6280131770848261,0.6063981791822497
0.6215879970146764,0.6565774557871126,0.6218012205509235,0.6205656969009263,0.6204992126810878,0.6217085281895232,0.5957743720895606,0.6217096238424539,0.5998642533331158,0.6065889397414166,0.6116580576138781,0.599568349563402,0.6090142051321141,0.6083380341013571,0.6295175440740741,0.6306702574013154,0.6266270765942898,0.6214537385817501,0.6155699522977068,0.6343178303733358,0.622340376600992,0.6086232194648284,0.6393959986049828,0.6419941981587316,0.6337586944318553,0.6315195561134005,0.639406412009285,0.6224957476655995,0.6508052795098196,0.6320551628868922,0.6336190533284304,0.6126994469601971
0.6210584917530914,0.6562952856550418,0.6241102806376204,0.6265611906517895,0.62472525571116,0.6312668972567618,0.604316685290509,0.6248394082954064,0.6093438764380613,0.6119478766154676,0.6178507722117454,0.6045154929485879,0.6107515850600873,0.6165284938040841,0.63349155033887,0.633757962067741,0.6327422953353098,0.6249422288064439,0.621053098309939,0.6405856285847581,0.62539662468271,0.6110042146585734,0.6395145041132367,0.6476456367746146,0.633161814947774,0.6331860960141641,0.6342946201934405,0.6161934367921342,0.6482960212911414,0.6315440811073644,0.631281246572684,0.6192686346268284
0.6232599085850516,0.6509082873989934,0.630684750547865,0.6295419567432589,0.623735055993643,0.6370085545827945,0.6085526742281467,0.6306375123956579,0.6071782142079631,0.6174051062957434,0.6229238718395147,0.6025061916328972,0.624510768092665,0.6231329400351021,0.6386431967610152,0.6401838113499622,0.6383062417301526,0.6367827978164705,0.6251611187528308,0.6426986093897635,0.628051915855579,0.6170677995685011,0.6455176598692117,0.6448155702749693,0.633161814947774,0.6393923584151731,0.6370183037463497,0.621935272548602,0.6458276524065039,0.6407868240473421,0.6335598563953527,0.6193468679855975
0.6269675725993462,0.6427956576684218,0.6249906514291489,0.6187840359764227,0.6271225428563392,0.62539662468271,0.6032467574292347,0.6201259019029147,0.6013991251087489,0.6069411798136513,0.6137783661529731,0.5956227570149175,0.6150467688866222,0.6252196233407669,0.6389231302148939,0.6391277384795071,0.6322218110330428,0.6335452650276701,0.6221812548565769,0.6400245331294115,0.6280373890535818,0.6256957633212505,0.6453998736873012,0.6344447106060198,0.6300368260187259,0.6397042633620001,0.6309506978512651,0.6240968860877912,0.6515300987402819,0.6414631586136668,0.6336947161461303,0.612786744968929
0.6272085531209504,0.648826156167274,0.6310871012552262,0.6184935486788266,0.6268319470578333,0.6249871573679812,0.6151326586421437,0.6213320306968257,0.6022063777067505,0.6150467688866222,0.6150806498225679,0.6020385718524597,0.6108363820181779,0.6238550638479575,0.6395976265596401,0.6392696143458937,0.63774974335579,0.6398655171159303,0.6188956775422164,0.635620821498829,0.6274410160966414,0.6231954344403778,0.645478399914372,0.6312283697876894,0.6255713799378065,0.6398469065173057,0.6399150479439143,0.6302333071795017,0.6477886455989411,0.6388924265204744,0.6397973523033719,0.6128270360410392
0.6192833330219392,0.638556336995276,0.625077664369409,0.6126881939390336,0.6252743711561651,0.6249704247178602,0.6216662303734456,0.6118560380482017,0.5994004027914194,0.6127826641819671,0.6120957394020831,0.6012598940325398,0.6167005947473169,0.624216327173041,0.6368001028731386,0.6454698866329946,0.6468127671209242,0.6344746885100971,0.6155995691479946,0.6273134866355754,0.6245107680926649,0.6231406453183885,0.647429475770676,0.6403747856275127,0.6252433667817144,0.6371660781685486,0.6253526045149342,0.6349281342832797,0.6454849430545474,0.6441714125249841,0.6239047090985635,0.6254159512130865
0.6139562179565943,0.632869853894747,0.62539662468271,0.6184953081894926,0.6253289778700655,0.624585638052941,0.6253676339452214,0.6082745300403738,0.6025710473162593,0.6166088830206123,0.6190195419063019,0.6018529587146823,0.6152727628277616,0.6275723810971623,0.6452734603827177,0.6448840107833951,0.6481162358671082,0.6312965933317447,0.6123720268074291,0.6298784818844064,0.6246982251115275,0.6271070812182016,0.6381150271797973,0.6326751759924013,0.6322424608098778,0.6281863652348937,0.6218634482156093,0.6396800920436873,0.6394549834043347,0.6419941981587316,0.6237707298104975,0.6220614772021044
0.6118631243617528,0.6156616406064749,0.619260271419977,0.6126994469601971,0.6253526045149342,0.6183242101123039,0.6193468679855975,0.6055201705916669,0.5998903613661078,0.6110490015618649,0.6128698474550919,0.598204515151993,0.6095797308803849,0.618894440243957,0.6421317114687449,0.6479010898301157,0.6465164222383386,0.6310130313750634,0.6123524268368918,0.6375035615214798,0.6303336714564536,0.6273591549293734,0.6257411967582764,0.6295415637530855,0.629967187550201,0.6129975163212978,0.6060599575628579,0.6347128241157293,0.6341527599975384,0.6483245189885116,0.611695450540258,0.6187408460290018
0.6154888309898796,0.6119349588517592,0.6188994958324993,0.6123955243677658,0.6218682690883028,0.6181485793931513,0.6193949728499869,0.6025152062289766,0.5994663493991408,0.6115036083410572,0.6129419904842934,0.5993048548714692,0.6123857320052202,0.6181662900916383,0.6414060457514796,0.6545198488032685,0.6535643388657744,0.6370097037679128,0.612786744968929,0.6356890710608664,0.6305712410437808,0.6312965933317447,0.6217131832249454,0.6263564636331577,0.6303201405167077,0.6096800939559565,0.6107685491046901,0.6351345605327287,0.6314130774660502,0.6457592436429085,0.6160741437338404,0.6187262993525795
0.6157809380979158,0.6122990170324557,0.6190676523492349,0.6064133765549259,0.6214296332826407,0.6185438262218101,0.6193263600922905,0.604620477089273,0.5989308451698709,0.6170420501240724,0.6189465321313287,0.5961651753065914,0.6091000485344239,0.6157041343169951,0.6428112071734747,0.6627316678814951,0.656818361893246,0.638696971971217,0.6095797308803849,0.6337795400375209,0.6213860273300745,0.6284683666568734,0.6181710015040459,0.6306343759741412,0.6267783197280322,0.5969629097030709,0.6132763032050509,0.6453167071355972,0.6310769096895766,0.6419722111651968,0.6096944304444152,0.6155168920679085
0.6156568408780957,0.6094650138100924,0.624734918787981,0.6032035260112665,0.6149939617144127,0.630253363882688,0.6275922592303838,0.6117048210294074,0.5904186050958251,0.6204147049169816,0.6158156373101127,0.5886350152746667,0.6095492766062293,0.6191061384719224,0.6397677917906746,0.6569251564774675,0.6513722874175207,0.6322417826108043,0.6092645499690227,0.6297354583147167,0.6153100683877286,0.6219302039487687,0.6160741437338404,0.6281233993181929,0.6273597962546927,0.5823439503615876,0.6076046429750045,0.6455468404227976,0.6283171235231311,0.638414886711877,0.5973530835838571,0.6137592491967051
0.6126151841640604,0.6062946802258063,0.6335209454409729,0.6004668276215325,0.6116860151760205,0.6174445148647288,0.6296875590472442,0.611480155096085,0.5871097806501433,0.6177515260496806,0.6130262532804303,0.5864619165333014,0.600204570603277,0.6128506900939396,0.6338114736166648,0.650538182662622,0.645282068547115,0.6301778557704626,0.6031035993768292,0.6304982312688077,0.6239109143576727,0.6126782518208138,0.6157473374136073,0.6237566705478458,0.6161665570526241,0.5801589638929587,0.6095701727585939,0.6450357601270164,0.6278861459198393,0.6347344563012457,0.590378361844312,0.618561536920297
0.5994728194234745,0.6060694943229374,0.6220844913402882,0.6001953008123156,0.605644181443561,0.6078360462988268,0.6275971014345113,0.60195542480151,0.5864027977340701,0.6094406338991555,0.6097404619970884,0.5871097806501434,0.5829626973511031,0.600152479967822,0.6217951762642896,0.6396653940746909,0.6401056357657907,0.6092536651889151,0.5965425117423427,0.6281233993181928,0.6177602626578681,0.6031672371152121,0.6156513271447855,0.6298864848688617,0.6029201589906835,0.5762205415358255,0.6118389328338141,0.6420367962980341,0.6272047804464909,0.6239590375038779,0.5930563432540618,0.6189946425742616
0.6000443146786505,0.6092680016773738,0.6252453815489676,0.6023569508791742,0.6016556108753631,0.6112005812647909,0.6295419567432589,0.6037594936377464,0.5930787852396957,0.6106297430018579,0.6128538150073044,0.5856375262369866,0.5871778019345888,0.6004135123470463,0.6250451490195443,0.6394016810177179,0.6370831364129077,0.6066179085775766,0.6068427362866765,0.6251901083600283,0.6126151841640604,0.5989878299966443,0.6152431459774738,0.6325632129332719,0.6079040993444206,0.5725906006180885,0.6136463081887489,0.6393386078787614,0.6170978492270935,0.61785432217498,0.5864775716400635,0.6218682690883028
0.6048512098811265,0.6066519757275095,0.6182844628762222,0.597944850379632,0.5991053139925646,0.6050674743745665,0.6281823626399302,0.59774757997069,0.5864009315892675,0.6052776386481677,0.6062798492361801,0.5793901191303281,0.5769925945362882,0.5967958031968044,0.6188864288009145,0.6421923328770704,0.6310871012552262,0.6004609910604157,0.5966895435981381,0.6160309406372283,0.6087785914944598,0.589958327795051,0.6152524681381404,0.6301824283227113,0.6048672974823553,0.5655602411666444,0.6098008095610795,0.6364317466382974,0.6191539132893056,0.6244103044743231,0.5792580554739932,0.6223199972701674
0.6035569450033347,0.6068427362866765,0.6151475722328228,0.5954747071258063,0.595860022003648,0.5966109940271549,0.6220834985466988,0.6017888762110986,0.5853276221790275,0.5983942904728581,0.60114553763257,0.5731923121987031,0.56551093456898,0.5964796927431227,0.6160309406372283,0.6297360215710879,0.6219457489266979,0.600152479967822,0.5925171429493106,0.6160741437338405,0.6032291073803645,0.5869059760057357,0.6025152062289765,0.6185331111788466,0.5978425391851262,0.5700224104789682,0.6115902247003905,0.6278619339510838,0.6121711962680678,0.6157097874593372,0.574849005371564,0.6099099957462115
0.6127863317593807,0.6129611478454458,0.616107744418149,0.596076451753978,0.5936054523967814,0.5964240680163209,0.6197839521584435,0.5890452528662312,0.5749252151641161,0.5864536277661015,0.5944514755758429,0.5655261292805868,0.5572221601559015,0.5866528194543408,0.6021813876926835,0.6208686116811395,0.6085183619849515,0.5895219128729581,0.5830430236992681,0.6093120304677723,0.5898639734136952,0.5907957337962249,0.5947889748073296,0.6152524681381402,0.5896209779154618,0.5653491638540046,0.6145403693907553,0.6250714201641179,0.6047057184248968,0.616578497093362,0.5697031664305556,0.6030469949700544
0.6155699522977068,0.6219302039487686,0.6159452482632432,0.6095492766062293,0.590106792607437,0.5966343238956748,0.6204751073819783,0.5935337308168895,0.5752361763862105,0.5864536277661015,0.6018462482263085,0.5619523090391954,0.5575520220789286,0.5894360269816292,0.5958190914943126,0.6142537395099833,0.6085183619849515,0.5831511361532289,0.5738996923271455,0.6087074822609652,0.583889638148575,0.5937756553697978,0.5976884721532453,0.6096227452678947,0.5798554700424602,0.5763768127941745,0.6211503447704504,0.6221386193999477,0.6071669811999113,0.6132832385450883,0.5756585599657834,0.589330990035796
0.615339351504701,0.6249414351106627,0.6193083818629098,0.6127024821727922,0.5888422621713755,0.599656823248558,0.6241628181721666,0.5941726705733658,0.5782955775017112,0.590067108107246,0.6045236585270088,0.5659090750613699,0.56314828492686,0.591907312903606,0.6044175361912373,0.6138242636694466,0.6084466549218446,0.5807308677945023,0.5778400717481703,0.6085716169032476,0.5835512980159686,0.5933302667634823,0.6013102028804977,0.6188994958324993,0.5899227804693954,0.5821391895741604,0.6155733255822295,0.618136328261749,0.6036551385700654,0.6110376719003366,0.5757451901890239,0.5895973921693997
0.6043578896591809,0.6301264578518888,0.6193167394912178,0.6124437272272458,0.5808931978278937,0.6001953008123156,0.6241747985444439,0.5852959654933422,0.5788079899682899,0.5885867395410577,0.5994973143591028,0.5692930634400291,0.5670535560464931,0.5895919501320859,0.5937049824761871,0.6129825861059003,0.6086685874528583,0.5766390195869806,0.5806671812519982,0.6073827214841085,0.5824607149492179,0.5953291653046331,0.601134639694007,0.6184572296561897,0.5919735071427527,0.5838532620638197,0.61487520778519,0.6121394722497456,0.6108390957550965,0.6150899719832345,0.5729785369431806,0.5919285569293012
0.6014747844481367,0.6332533771148376,0.6127073513001859,0.6158684444823224,0.5827431877895782,0.5938669557601517,0.6220269225135937,0.5724322961639623,0.5896516332904712,0.5871148174142105,0.60264368980922,0.5767119378254381,0.5682155025775651,0.5904915948195053,0.5999018968961416,0.6134974573492137,0.6145403693907553,0.5748987894785613,0.5796957057684532,0.6042231873300561,0.5773590127299044,0.5955945464218305,0.6060470245082077,0.6208894700430506,0.5896537596026389,0.6022424682749269,0.6186912769751134,0.608625284579674,0.6152431459774738,0.6220269225135937,0.5832498341652881,0.5885428609312837
0.60595358474102,0.6425605075310005,0.6066767098602653,0.6148828009599047,0.5782955775017112,0.5997724999924017,0.6175169351471043,0.5752489354369099,0.5922943844731452,0.5902852769544568,0.6105116762693453,0.585825983623589,0.5792399104662121,0.5872126079104565,0.6029201589906835,0.6093335140555484,0.6153420556775706,0.5743245821507832,0.5813320037825193,0.6004769685074741,0.5817091584091477,0.598556903574708,0.615501847659607,0.6206331057512603,0.5996972182039377,0.6089754283236939,0.614465842474751,0.6204784754705505,0.617657128299097,0.618561536920297,0.5864009315892676,0.576328015703824
0.6204547220028437,0.6423821531031513,0.6160741437338404,0.6185053400991226,0.5823439503615875,0.6032714052311199,0.6212537973380566,0.5876146653182841,0.5966820798093239,0.6034744751169165,0.611950871804472,0.5922049678851636,0.5830030286117326,0.5925470526894692,0.596600750871449,0.613511564107073,0.615383550339994,0.580731584061165,0.5817091584091478,0.595477305167717,0.576778647249706,0.6011433509634759,0.6118204318315056,0.623794456753922,0.6043922669087998,0.6093120304677723,0.6161998963249388,0.6245600118442365,0.6221030214978079,0.6302765738329243,0.5862526575916011,0.5822607998814658
0.6273193785823539,0.6390694184428782,0.606222615995759,0.6210140010748472,0.5867211456573628,0.6002437803581759,0.6147625379035792,0.5873315881377388,0.5904985055186258,0.6082424432302966,0.61242039916562,0.5961570759657138,0.5891469778977544,0.5898119441179227,0.59144539145054,0.6177522844683936,0.6224787572141055,0.5783672807479783,0.5741699961367469,0.6029703624199341,0.5771178685128738,0.601941150647578,0.6150837022229131,0.6203614078327939,0.6013169618544832,0.6158193370330016,0.6143879316844376,0.6209907805014158,0.6277311756628463,0.6341341104089885,0.5884313453483765,0.5757767434717805
0.6208415159807319,0.6325083660884857,0.6079880692795694,0.6245354618571015,0.5865089920171873,0.6002854278739249,0.6087947530984733,0.598248006026999,0.6002912644350418,0.6181966842575407,0.6137320049958813,0.605640220532881,0.5921608303874192,0.583677378344343,0.5959773253690528,0.6145943997477741,0.6217799941828085,0.5824011210494409,0.5819360019979369,0.60646179535981,0.5826249533882957,0.6050879559293251,0.6145943997477741,0.6208894700430506,0.6094262974106966,0.6120957394020831,0.608196790697787,0.617577081102762,0.6161509430816139,0.6281863652348937,0.5872513637959768,0.5799304860410079
0.6268152212342752,0.6299802524643856,0.6114688254345567,0.6240055856974374,0.587382078608158,0.600019737625825,0.6111477637093543,0.5982651604431017,0.6064554124226708,0.6184572296561897,0.6171371812404768,0.6115423248745014,0.6054427682366496,0.5870815391922265,0.598499092289459,0.6176904675714117,0.6253073696701507,0.5866638514427153,0.5814536140898245,0.6084748510148449,0.5859451437393667,0.6073895628291405,0.6184503772125409,0.6219302039487686,0.6247851984545484,0.6055392134976152,0.6090950162198997,0.6186378818682903,0.6219302039487685,0.6313113541639419,0.5903178401789222,0.5796714458154146
0.6261963863303237,0.633044235818262,0.599073299189378,0.6220266373123435,0.5838191629703681,0.5865246418977116,0.605644181443561,0.6019243537852653,0.6032178001651987,0.6186956073337525,0.6168121045983527,0.6175407822888305,0.6116426329848215,0.592334064176565,0.60195542480151,0.621053098309939,0.6272379763532274,0.5864326853540398,0.5816897506965893,0.6021996672183766,0.5890162250828556,0.6058619715584439,0.6208933574111596,0.6248359142342388,0.624638282368139,0.6088469290845331,0.5961586868991233,0.6221820083769511,0.6246499021908855,0.634250840901001,0.5955133988153853,0.5859491758664339
0.6201891603945516,0.6268257515516937,0.6085495451216092,0.6096800939559565,0.5870216850732942,0.5900290859098323,0.6024533359638241,0.5895451803819495,0.5996373060270421,0.6153292674859138,0.6117590925325939,0.6207691766770926,0.6111491964843052,0.595860022003648,0.6031797351550308,0.6141049141407884,0.6250801261955026,0.5932304779212181,0.5895451803819495,0.6067569000131021,0.596351637387277,0.6001203078071403,0.6233954072227622,0.6306737944552984,0.624585638052941,0.6028756883882965,0.5917836673164679,0.6162942401383349,0.6305816474239362,0.6310186607468004,0.582185737396491,0.5922660802438998
0.6120896232414758,0.6179738321068431,0.6025109496242437,0.6032178001651985,0.5902200087469944,0.5833079292878903,0.5958727728230185,0.5968349824855611,0.6035759771486132,0.6153244677575345,0.6073071194800793,0.6209042043615718,0.6071050450038671,0.5885238371952004,0.5899935596322436,0.6103009090608531,0.6275723650470689,0.5991219763622982,0.5962045071098239,0.6130757496800671,0.5967985936368432,0.6035331541470987,0.614028373433862,0.6339143997882984,0.6156616406064749,0.6035331541470987,0.6015514427594556,0.6096471032922454,0.6392696143458937,0.6398319557313886,0.5789486618040106,0.5900149348127784
