Fp1,AF3,F7,F3,FC1,FC5,T7,C3,CP1,CP5,P7,P3,Pz,PO3,O1,Oz,O2,PO4,P4,P8,CP6,CP2,C4,T8,FC6,FC2,F4,F8,AF4,Fp2,Fz,Cz
0.549915541627537,0.58818511495579,0.5409613862709346,0.4728837294458019,0.5242275401975944,0.542107679553264,0.5532105064181039,0.5511176084925422,0.5356011518287924,0.5240704523385835,0.5449069325494875,0.537450086287977,0.534189329692579,0.5143032353907944,0.576177634892308,0.5996314967507819,0.6056947573667513,0.564512407814814,0.525953846954196,0.5721219004890021,0.5292207429356552,0.4724586665110051,0.5087484462187843,0.5790459460146762,0.5611942696324594,0.5519384487355921,0.5608871388475545,0.5581148065255417,0.6271254000052711,0.6023009239182757,0.5226290762293089,0.5182372006853586
0.5746986001318719,0.5911055701371959,0.5519377381686112,0.5169659964484938,0.5353823342397313,0.5547496442089597,0.5578621727266895,0.5514059782935918,0.5288146081864094,0.5130028607550967,0.5535846430660833,0.5352013428094562,0.5408306087575032,0.5279394507075552,0.5618544537053118,0.5927468910948277,0.5934410950841857,0.5520890903580136,0.507612513693009,0.5524583700837176,0.5352089638757849,0.4957700139389276,0.5030398620490968,0.5922701497188374,0.5413358504868091,0.559632721711504,0.5676714934054656,0.5516017451903648,0.6227367014164455,0.5784466322514397,0.5241334972473792,0.5338642821839725
0.5932613561876248,0.5964129091556591,0.5753476809676155,0.5475995350284375,0.5366152756648965,0.5696418563653625,0.5466095551261354,0.5350730789855156,0.5229783405455293,0.5067601968117175,0.5542292329661676,0.5331288259470877,0.5282592091140583,0.5476078238276121,0.577092438715006,0.5952869141692956,0.5895238133739862,0.5573621658180423,0.5168184767366557,0.5771408591675122,0.5380353727844329,0.5011876125952721,0.4877884022458594,0.6012252903957349,0.5396379419646915,0.5531084003761135,0.5699803268098753,0.5572069928231462,0.6180884804662399,0.5866057200426718,0.5347751750052545,0.5442802346213673
0.5978126920372588,0.604644993772836,0.5843200718483099,0.562368884948119,0.5555056757956445,0.5776565582320652,0.5453869479306643,0.5405648886651582,0.526234780108743,0.516914330144814,0.5698608035978969,0.5371712316041886,0.543331020007535,0.5498788827342502,0.566693685723501,0.6027315582314801,0.579314743190595,0.5607522090400812,0.5058545658864446,0.5527050072102027,0.5219003568040987,0.4960731315773321,0.4907639017044976,0.6064557194093201,0.5381058260991809,0.5483406870309766,0.5876269291317615,0.5731225796307355,0.6379753049284456,0.5894505071894263,0.5530266766202856,0.5423354541779446
0.6041054410755069,0.6201759998836374,0.590324785257117,0.5759793087242029,0.5553846519361398,0.578543943699557,0.5625438265823108,0.5616776939447572,0.5429450868679191,0.5314034891582828,0.5766086780484319,0.5370663313770061,0.5421094632297456,0.555645327576221,0.5689579565680338,0.6186430569561514,0.6008328349526622,0.5544001478237246,0.5152576649558069,0.573996108080002,0.5314172116415148,0.5030390736264665,0.48874217593962666,0.5998584285029072,0.5490026770424232,0.5537537514371604,0.5827104503791043,0.5743803131416474,0.6286447960279338,0.6025983869418026,0.5719186688939284,0.5497070238196957
0.588875412151499,0.634370516100323,0.590646239378104,0.5742864690926983,0.5620595211972885,0.574558682612019,0.5637108565035613,0.5556454682067593,0.5179972724908644,0.5215284283048707,0.5741825864482437,0.537554428494714,0.5269439725018317,0.5697066280838055,0.5680455661783399,0.6168142912751544,0.5861153764984501,0.5490918426209856,0.5148317941363318,0.5795977056134118,0.5242463700944167,0.5043240267009925,0.496717376394884,0.6174406213327845,0.5304060600732861,0.5639538354147424,0.5958333710853285,0.5519466610637509,0.6116877968162755,0.5886475760871996,0.5569418489058569,0.543136132815754
0.5651313645216374,0.6324059443431023,0.5823647630890054,0.5824434051184073,0.5748751810778954,0.5725831652991706,0.5666915247530051,0.5314557564913294,0.4996547212453599,0.5370224508027377,0.5847491992800897,0.5556059452019793,0.5355101752849545,0.555974281840129,0.5644987335791374,0.6039390494478751,0.593626547958122,0.5421614166164757,0.5140303375181299,0.5849824815502633,0.5309921531095041,0.4971316233953602,0.4797806806985747,0.6164510495098994,0.539867937363042,0.5558228821376434,0.6053157168294243,0.5477034085895061,0.6085196927640286,0.5714987549921422,0.5593850192431442,0.5369885247145434
0.5778976310066968,0.6305596315684499,0.5419683979972469,0.5768568724323004,0.5718121405844441,0.5489668201311448,0.5426472708089962,0.513430646755574,0.4817759393005572,0.5452799491089313,0.5764591555019409,0.5420660178028536,0.5303373231839377,0.5320605086421115,0.5662652068117162,0.5911584664955054,0.5849736403015386,0.5268341974166919,0.500758941206441,0.5800750344978893,0.5288259726515072,0.47393816673793054,0.48678394430239047,0.6006920655812067,0.5363275847756799,0.5514365237444263,0.6081024613602151,0.5407649523814304,0.5872928519294147,0.5367595945389145,0.5618288710081814,0.5329648824213651
0.5724311061272447,0.6178451310027824,0.5027964628084063,0.5715464788374178,0.5770456288615069,0.5372613430242086,0.511487120743531,0.5558294194409279,0.5365224151837871,0.5393411972948567,0.5535596626425692,0.5353420404011011,0.500728381336828,0.4833892029928353,0.5440658452076876,0.5321628411732044,0.5637031229281564,0.5164103153702388,0.48591623146494145,0.5562011247307161,0.5200803979501019,0.45278602577460303,0.4817099656161581,0.5999572370854915,0.5297295384069365,0.5328090780218271,0.5854144083169786,0.5170311986980622,0.5667609340910986,0.5071777587486022,0.5521124530063299,0.524655742832258
0.5611429796179448,0.6066636632608633,0.47778643907827023,0.5790079347800834,0.5733841500329908,0.5190555035372224,0.5021660504500369,0.5574705196281804,0.5336810744444951,0.5448059947496042,0.534888073528403,0.5196986556170429,0.5076324257716678,0.47692882576800155,0.5457073447208085,0.5427249252415813,0.5651889659026823,0.4955468738821396,0.48503695895761956,0.5438905932750373,0.5278444578032429,0.4901637777172092,0.47817885743790134,0.5986496249957209,0.5397142170300442,0.5530359048887807,0.5720292059393,0.4854794281113328,0.5632879860284707,0.4730597989854548,0.5475229214229969,0.5220796456770591
0.5616418028653705,0.5961158283137142,0.45896544277469653,0.5938341820267192,0.571075463941082,0.5362521204801105,0.48358514667846686,0.5289674697890967,0.5447203009638901,0.5555818557086583,0.5410008052936437,0.5303556117663635,0.5353620448237515,0.5096324345490224,0.5592191293260185,0.5605539812007851,0.5825557920107731,0.5133073733400151,0.4886238773436018,0.5472045554933533,0.5192533538935251,0.4872461279751561,0.5011200658996184,0.5900746982961542,0.5450940143884413,0.5633182872931544,0.566119046789153,0.4896646375597351,0.5722339799373186,0.48018468247060264,0.5559754719381167,0.5188555848266052
0.5499770014291334,0.5973401260042288,0.45609459597299784,0.5885016705825836,0.5656773166218425,0.5402621128779268,0.47997251384063855,0.5500127453482664,0.5472296383252053,0.5707619130051436,0.5481773412360744,0.5362240831236487,0.5401704557552218,0.5108655950344811,0.5570941058067054,0.5538715150504947,0.5789808812197323,0.4996635288002511,0.49154399768908297,0.5505955101618443,0.5317799544085964,0.4874052798959303,0.5055505919201586,0.5982168722165406,0.5430868919681626,0.5535674445235665,0.554215363296652,0.48664959101678074,0.5587388541687592,0.45832099437861773,0.5535284594590579,0.5084537044814144
0.5607317538611785,0.6059086605798605,0.46302019360072677,0.5871938161233508,0.5580512296812112,0.5492443507325033,0.4790434466433582,0.5614470937726437,0.5511924562223696,0.5752253697904459,0.5523746053900274,0.5359272605663143,0.5367781284631024,0.5188953481624661,0.5426976849230489,0.544215747017947,0.5800635483825185,0.488528538058024,0.48718333095182764,0.5520694748064447,0.5248191400438005,0.4774696466150643,0.5215863715196418,0.593432815673216,0.538140388748706,0.5522443252759253,0.5547788886580318,0.49176991980912677,0.5686525427220199,0.45927355761571054,0.5416280614248721,0.5099489164210387
0.5483888206896004,0.597320758287541,0.4732868417888363,0.5750220950294995,0.5515815245104077,0.5410360864589494,0.49429633990001953,0.5573130759255354,0.5539875435579722,0.5809781923024397,0.567246153035172,0.5313642486534178,0.529915942293119,0.522542391055048,0.5311898091200926,0.5367188974198043,0.5633717209966864,0.49615614770020455,0.5197109685738504,0.5610456131730652,0.5460668910945512,0.5193626667423961,0.5203486458630127,0.6030866005606148,0.534792243137606,0.5636290935206625,0.5323756920091065,0.487625279379599,0.5784434413829049,0.46637920355507756,0.5438928342878242,0.5166552220777612
0.5400232773044076,0.5884634881590043,0.4868276097693638,0.572650109953527,0.5419718133044431,0.5510551120967517,0.4810953503113611,0.5436350562142356,0.5529014163153816,0.539722288833357,0.5129334948481601,0.47425520616747363,0.5103554055616115,0.469422187862258,0.4860301578093038,0.500956089031837,0.5219614553185803,0.47512325660065136,0.5082067352661066,0.5044383932390875,0.5318386337052501,0.4852180575899774,0.5178921449126492,0.6012368385263778,0.5218566399393634,0.5695062945684843,0.5299865717700563,0.46755183038135284,0.569426133945182,0.45509839057653156,0.554209166805026,0.5076012521145641
0.5933902801651523,0.5837316182378851,0.4998603277203939,0.5635987030419933,0.5346908199387528,0.5535026014444258,0.4950087553598581,0.5378336979235563,0.5296943202848494,0.5119388276887222,0.48925550063223167,0.4212382993526491,0.47331082850780604,0.42867174788046647,0.4836497867019105,0.4732865000870472,0.5019968475868164,0.46590819032251085,0.48466485246391544,0.4891487497589635,0.5214210367149184,0.4626553522583281,0.5512133580226708,0.6095004785605909,0.5616079601634909,0.5553356128136935,0.5328047315464493,0.4986849411020189,0.5644378125148415,0.5027721505702387,0.5257101744122918,0.5032035699968751
0.5577649497928623,0.564332873704068,0.5382718523064018,0.5707202010869645,0.541958662619864,0.5838805536666962,0.5146008246428035,0.5384332105352096,0.5451913687565662,0.5138782026663717,0.4763542495761506,0.4208882412286714,0.4696811395634186,0.41661582372740025,0.4747148527749836,0.4612248236123633,0.47899887398453433,0.46148567763885273,0.46568282588761045,0.48367840717309596,0.5336671288021235,0.43862922203660526,0.5596086710020574,0.6027907889843349,0.5740039141786761,0.5542197592748948,0.5413418778750803,0.48154750867467033,0.5701091194321748,0.5132659834319164,0.5192988362964717,0.5222110296131635
0.5709512583361724,0.575107953021905,0.5601115161210766,0.5686852701820113,0.5488390926563986,0.6006854012578313,0.5566613986511539,0.5438199643967452,0.5492904636417397,0.5109560678723915,0.4905552409429865,0.43698670053558697,0.46470841704580756,0.41617981315219943,0.4544132094669777,0.45964010071202965,0.4864305996685734,0.4755525138347392,0.4794396585344378,0.49547212516243766,0.5307820773272054,0.4469397088759979,0.5615706999001957,0.5991388941224041,0.5533705758690206,0.5594432282120736,0.5470932275032077,0.5126991713961613,0.5824706542649096,0.5447254992966388,0.5158796984285465,0.5211840899499638
0.5670163733573128,0.5862828049350699,0.5789710377340938,0.5912374698626266,0.5538611627788295,0.6166980130743616,0.5877105398560527,0.5407389108237712,0.5516260855662773,0.5299139489524873,0.5171635121158982,0.46578905048140795,0.4828268888607572,0.437798704807173,0.48082536700605427,0.47221942026470165,0.5012147084533889,0.49357268612214344,0.5047407136338546,0.5115884824937953,0.5596663870141363,0.4827103487942064,0.5835963382903486,0.5963709396127252,0.5398637607692622,0.5729028662750344,0.5758527315256723,0.5277687422169137,0.5588071632395017,0.5496396539865409,0.5305579628772779,0.5372040869673684
0.5866201066350283,0.6158352313821145,0.5818507922109943,0.5869919415734914,0.572928262973039,0.5821756593397227,0.6046389123137104,0.555498651465085,0.5562519220390008,0.5590970522851384,0.5316032062214018,0.48776970031355527,0.4946852948324918,0.4717365296764555,0.5052336601654455,0.4766036303677219,0.5109841967428816,0.5027920449377481,0.5161990411895521,0.51953142243452,0.5641301337374025,0.48624319490619516,0.5780889356577159,0.6060217252360474,0.5463007072113313,0.5659713842923919,0.5761392747233249,0.553826956084615,0.5823204018896782,0.5576948757201383,0.5354242050089759,0.5323587329659998
0.5910086692138261,0.5974632747759023,0.587727506071289,0.5828654857925675,0.5837762867354708,0.5797763807255238,0.6179736000620855,0.5647108146588615,0.5537415036828559,0.5855775318359768,0.5261046662713107,0.4625541404596736,0.4811431334548697,0.4399539552596501,0.4598881033058202,0.44288777892049636,0.47540983410622983,0.4728159315014935,0.48443815296842185,0.5370561969435839,0.5502676455320858,0.47839195392400935,0.5674635350357575,0.6164591337259471,0.5650375729805037,0.5551917454344988,0.5826508227206286,0.5420311570271013,0.5827644921163149,0.5643368779915732,0.5377747227528085,0.5415596921848693
0.6203080106667946,0.5915718092320517,0.5728175669217865,0.5682363849373102,0.5787162129180139,0.54313907511448,0.5837160207119996,0.5630108063444887,0.5463984122385099,0.5244770680377089,0.5418924242054008,0.4474367292241377,0.47897492806768716,0.4351278345997516,0.4933202346207022,0.45111656768202124,0.4854751740570431,0.5007611226533686,0.4849260737649743,0.5374101392082329,0.5476270867759685,0.44639484793844764,0.5689462147760644,0.6006940930698388,0.5697351717456027,0.5698481368763386,0.5737475293757943,0.5825524281101226,0.5942516913197369,0.5930959035013901,0.5869709817270201,0.5358606328180393
0.6273391876286625,0.6142223722172351,0.5725046169993542,0.5938229740048575,0.5779839087515941,0.5561453985841536,0.5951014898389246,0.571724774877528,0.5192975855515378,0.5141078007742497,0.5470418687518843,0.42726490745727475,0.4606383513668737,0.42496039156784304,0.4977303287827226,0.46216515573645855,0.4887799936131687,0.5228870886663453,0.5073788096564726,0.5601687186594595,0.587185735513609,0.4341049999051947,0.5778409232819985,0.6045994415038045,0.5681224505715403,0.5727140390457475,0.5914848317246615,0.598563611276258,0.6074733587130106,0.6029515590917054,0.5858292377889578,0.5306007492430269
0.6240354028739383,0.6012950833155633,0.5843003588629072,0.6004598314902685,0.5808599574963358,0.5502663898744591,0.5896595176962598,0.5574779591899239,0.48122176849423504,0.49469045002093726,0.5302416618713552,0.406468684924318,0.40432846165408876,0.3931048583527219,0.4705551547596727,0.436746079596118,0.4857198980070807,0.4971419120374647,0.4976522891375441,0.563436305853406,0.5794055851344564,0.40291786576646116,0.5770805771873841,0.6031227572880549,0.5736203923267009,0.5661200052033846,0.6047225871330526,0.6016450746254134,0.606976214314642,0.6149564241959706,0.5746943909528346,0.5247050545030079
0.6332921028196625,0.5855795908703882,0.6058597793453364,0.5816095940865424,0.5426428653789301,0.5570752157044869,0.6025142311095135,0.5411929556459847,0.4722545988087328,0.49810100181262307,0.543641699017047,0.4321370675675036,0.3910566937570774,0.4139472867600591,0.4800631365790089,0.43125212486218834,0.4916257405868416,0.5101649638765378,0.5105676352030555,0.5886214490990609,0.5971069880612503,0.39850004492791413,0.5985637647385134,0.6113885097127381,0.5784260829890218,0.517881464916413,0.6118322214090055,0.5954498012927365,0.6143701241412325,0.6074292016858194,0.534966559731274,0.5137651021745193
0.6217877787923984,0.6003207982421515,0.6010539790350662,0.5839647621190718,0.5388068229774503,0.5516342525292637,0.5877245717083639,0.5404263175755273,0.4765311330738018,0.49114500126945204,0.5533639204241401,0.47416378967124295,0.4441394563875942,0.4550452681453221,0.5210216194996304,0.494545883187429,0.5366665126728245,0.5254125301694565,0.5345437656146479,0.5900436034668477,0.5871615551066296,0.4552886473749309,0.5869558737358465,0.6276454906028368,0.5604073889582804,0.5208596024820502,0.5923597556778892,0.5713194987754164,0.6013627437614963,0.5811655565401734,0.5423727281896862,0.5562094957728068
0.6101557486564428,0.6166812224470188,0.5812754020602302,0.5782859012211525,0.5382989789339359,0.5319263348435679,0.5859930826481539,0.5393012129014862,0.509966185062757,0.5059339073864129,0.5780238262030091,0.520997437394191,0.4777790736107832,0.5011581245851446,0.5540623470246957,0.5403276959458347,0.5604801006470357,0.5658045121072974,0.5611928603785223,0.6331660401884172,0.5850966762917298,0.5220478991068203,0.563910585152426,0.6474109458315347,0.5565021404631474,0.5123046546004719,0.5867947088818952,0.5539987799000654,0.6117669962284982,0.5797537632026084,0.540358341505017,0.5443733907852617
0.5972432163806238,0.6203304572644845,0.5855913027662263,0.5769025688499343,0.5426360994764416,0.5194821258803493,0.5989909013389263,0.5451893280393061,0.5313132095816253,0.5193722535252108,0.5942494962278819,0.5495367669402729,0.4872217841139377,0.5238487380922487,0.5662545769486345,0.538139161223913,0.5448493738896159,0.5463274556696449,0.5495945860743472,0.6208229686361255,0.6045885200650845,0.5394771640829883,0.5720908505941087,0.6450126955808368,0.553711461586007,0.5146233760990202,0.5845946351544375,0.553492038946851,0.6057761509671127,0.5594298119377581,0.5380205962987503,0.5318175570969941
0.603605847261349,0.5830017598058639,0.5758784214418151,0.5792501795908302,0.563410336077931,0.518759342433988,0.5876404885051691,0.5502088266554175,0.5412234201636057,0.5162648163910859,0.5888672887146447,0.5527402449891468,0.47923035014878534,0.5270536042611216,0.5540709686128658,0.5229064255063194,0.5505087710150876,0.5485607242434152,0.5541935375495934,0.6097672228724345,0.5895476125535648,0.5312108140168519,0.560898515004332,0.649401961134398,0.5592894869192881,0.49891743510170317,0.5781032279486698,0.5473175168892901,0.6002174480654561,0.5334862993548688,0.5317674480946843,0.5319100939195751
0.5982593503853506,0.5822871746700371,0.5724179759178813,0.5828527821533038,0.5668202873328454,0.49912425437252006,0.5780570547472519,0.5563417282387819,0.540746518881019,0.49343285900482403,0.6053503234043567,0.5408067590297385,0.5085750513955061,0.53742153193802,0.5671783089487215,0.5486170305292553,0.5598432549338774,0.5576694721553692,0.5405423811502064,0.6096105604282118,0.5885294902992579,0.5350499664130841,0.558536436243819,0.6419985246905724,0.5884345837264444,0.48822039579108933,0.5992440237193755,0.5832396814623877,0.607304013507155,0.5809902359662966,0.5648535591069548,0.5240801024771002
0.6163176225938738,0.5793830111592517,0.5627425287835268,0.5818586890473001,0.5624325273229256,0.47625558976353277,0.5641377627262059,0.5543735926871283,0.539061030137979,0.5019234879194889,0.6041069647549531,0.547342529001094,0.5139646322619766,0.5152297713522129,0.5637838130133339,0.5763882148140906,0.590752968370976,0.5738321283748604,0.5364471282574326,0.6092764323421438,0.58305592307422,0.5437915753550637,0.5730978000483091,0.6253227558347736,0.5854851732397677,0.4923302996187222,0.591262545905054,0.5688893396668244,0.5927155999436744,0.5884137412934907,0.5704365416060484,0.5413168669326827
0.5898808683944878,0.581263699312776,0.5554662973983029,0.5713426369480104,0.5615069861212412,0.5284810081604276,0.5538912674232326,0.5762510547336679,0.5377552712781664,0.5236764647268664,0.5795154160146239,0.543458314243983,0.5135283767148797,0.5284568728038037,0.5458875864828427,0.5676148189870611,0.5912917343965125,0.572634005467608,0.5476242674994252,0.6112861168595058,0.572522252863322,0.5451656702053942,0.5736739635178933,0.6055308896548679,0.5826746797715892,0.4793698280364249,0.5896258428634074,0.5499930017010319,0.5769975017734841,0.5760900498545651,0.543345251883264,0.5437840254920081
0.5755918620861613,0.5864303558636439,0.5464741543232758,0.5501058143441262,0.5623978736846698,0.5472469589589801,0.5550834294254314,0.5777325511087201,0.5289984136556383,0.5548577851363325,0.5735504040068098,0.5644964307642693,0.5417138822549132,0.5493660738151616,0.5425247085150793,0.5757646049526204,0.5871453183331936,0.5793221081071964,0.5492385190484406,0.6026154379962123,0.5660868953998803,0.5620299361649761,0.5711800734865515,0.606853667142599,0.5978196837363088,0.46914793561972923,0.5751467127459677,0.5244306535538925,0.5748108482994834,0.5807061102793503,0.5368101893963382,0.5499027864698007
0.5873709904838234,0.569452695497036,0.5503439954188614,0.5402445597862955,0.5547053317366646,0.5523494882587006,0.5578083374976104,0.5949704951515389,0.5546899659651632,0.5762324478575431,0.5933243675109092,0.5804745151042554,0.5684267029813004,0.5692657850963347,0.5463341722727484,0.5926252523511275,0.603559082588148,0.5964766272571351,0.5714900215879428,0.5993444710297093,0.5642289853305069,0.5718301101079497,0.5638308985643166,0.6090393554608942,0.5999084088064142,0.4622931398543195,0.5769129516876585,0.5610508125050164,0.5581277720966802,0.5691234111307297,0.509041559779067,0.5689389343953728
0.6177410313007856,0.6172886567824172,0.5656303430175886,0.5561073091951689,0.5948984086514733,0.5594936953076939,0.5681931775029927,0.5997179313319849,0.5525782678611444,0.5736923935959206,0.5994702103155403,0.5833286073742712,0.5862251683032182,0.5774797692501878,0.5388196103699325,0.5914676808197532,0.6002339987540819,0.6031407612075945,0.5689920450020103,0.6031587062008361,0.5611444125027445,0.5841507528688044,0.5795838748414068,0.5998503255218934,0.6096112147948851,0.4854183532187961,0.5776431437590404,0.6041946367770392,0.5779954885325522,0.5829270477530848,0.5482781071108698,0.5914854061702197
0.6091252463949424,0.6079694743442143,0.6175565657591995,0.5947896690582808,0.605594424614226,0.5840252629580496,0.58905471760889,0.6071627371776263,0.5637262063880684,0.5990926816669804,0.6097615616135958,0.5990033069168308,0.569774247016793,0.5889408870887904,0.5477170722658946,0.5959000883469279,0.5987503065982076,0.5849178356294629,0.5791877805867478,0.5883150010531075,0.5786666296606051,0.5826206107277128,0.5894131693927815,0.6040616899029643,0.6120044988280573,0.5230997934251951,0.581829695127563,0.5867325288448906,0.5741900900778809,0.5484709496518825,0.5616726167574164,0.5950460947918539
0.62116104063012,0.615165523628721,0.622491263737698,0.5977427078308395,0.5936028948649832,0.5867165697820118,0.5889174540453181,0.605753955196747,0.5644538141051929,0.5997454833948082,0.5939755275011795,0.5665400879706493,0.5784836658877226,0.5891608025027795,0.5591215955429854,0.5967326021625965,0.6075051295201446,0.5920508439699614,0.5812359675691883,0.6022049231824971,0.569513742467874,0.5781338184303451,0.598773606911208,0.5901628789903413,0.6124318679459244,0.5351580027624192,0.5857603213291687,0.5879698239645439,0.5766192303244115,0.5453889013917839,0.577145660214403,0.5874497987083331
0.6329510564416121,0.6381016728610183,0.6073801512882597,0.6035222579066084,0.6044086903077517,0.5916850329313288,0.5901157068855327,0.5898263105035322,0.5653351817664976,0.6013169365266751,0.5850016442253416,0.5772424337494209,0.561539968681128,0.5821345607400636,0.575887788197122,0.5981726710712603,0.586616587040695,0.5756018258621469,0.5648672025434216,0.5855300159185086,0.5543884669830796,0.5706359035375947,0.602442265704414,0.5960775421389171,0.6060608607874802,0.5359282157857659,0.5753390025373628,0.6059928353195283,0.559728051035969,0.5730951440663739,0.5750075634485277,0.5821820167172334
0.6180282621489805,0.628222058255202,0.5783842520510105,0.5752506603481145,0.5623021795747274,0.5378451889719011,0.5622470509059831,0.5976306709676882,0.5680770060387874,0.5961385598228524,0.5990191446743824,0.5678403308451583,0.5788158293229393,0.5877443306514412,0.5659570323511813,0.5932568474298581,0.58334515336671,0.570704421169296,0.5587993627496388,0.5718136117717263,0.5637638847398172,0.5764852457871878,0.6009754523435893,0.6015587051885749,0.6099024135375122,0.5306395660338472,0.58260759242373,0.6121859606844029,0.5662032221347046,0.5850142711579065,0.5533579669061139,0.5834515019520721
0.6139483840074327,0.6228040680387963,0.5655989031028401,0.5882741555795499,0.5733716572967138,0.5504476015955557,0.5850929452947145,0.5895007503855538,0.5654590428977824,0.5938479141496327,0.5972587278569508,0.5780703337922315,0.5649272751391163,0.5859755716672703,0.5744987220556621,0.6028566811167155,0.5851101573470494,0.575025698444898,0.5819052349223481,0.5510026237356955,0.5676708803596457,0.5712867071580416,0.6005598245450807,0.5965611506185522,0.6056456939204011,0.49908861912815583,0.5817784618474287,0.5918211132853148,0.5680092170367428,0.5721070152421825,0.5447113948019702,0.5782643393582863
0.6056458992061713,0.6190910265357483,0.5398956512749642,0.5803872982169609,0.57164483413192,0.5507638810409463,0.5575909106864101,0.5825528328082319,0.5719400111407995,0.5790131197884301,0.5995020621289218,0.5794951354908959,0.5802694301769975,0.5793609295857656,0.5750224184491834,0.6100853218321318,0.5944332356615338,0.5591702923201258,0.5835173503797058,0.5513273269224483,0.5660562660147819,0.5837021257712576,0.5862516487637128,0.6163834506415333,0.5910014963569474,0.47948892016927713,0.5756925686429066,0.594663340452243,0.5681005706534257,0.5616731582220913,0.5414181434132077,0.5840409654459675
0.6062023964851577,0.6058784055690132,0.5508165714140927,0.579549214069413,0.5825549912880708,0.5586123573656652,0.5743634503551678,0.5863588342369708,0.5678820273200031,0.6032584084293751,0.6027563135742025,0.5739204883222224,0.5788271342491833,0.5716004499193734,0.5739658026266805,0.6045404349097385,0.6066914421953107,0.5555273978006601,0.5783069715402758,0.5720819351701141,0.5870550231542686,0.5774424225873487,0.594686622212059,0.6145205672545129,0.5848674030680661,0.4729080753059689,0.5774533244866706,0.5800635119508475,0.5715626519198067,0.5562274695630038,0.5323992550746786,0.5940342062700474
0.5921513726917489,0.6242577726949805,0.5372009602850882,0.5784381763754332,0.5675812692143842,0.5328425828073113,0.5738573460745098,0.5907796784000463,0.5682411631593554,0.5996838168783136,0.5983789812991969,0.5714557675895269,0.5696703239236567,0.5679229700906672,0.5772187267571431,0.6105466087995559,0.6097761083034241,0.560662494629748,0.5765740679218516,0.5921282854581498,0.5703601607543294,0.5705653254407523,0.5740180161188997,0.6113272264556242,0.5784698984052987,0.4827003612855547,0.568329737363364,0.5875378625995062,0.5876611738690669,0.5500361009243662,0.5335735550445992,0.6001209087922015
0.6023550163451623,0.6138726541980097,0.5218240019696032,0.5761592871163859,0.5613256710861321,0.5199419612517535,0.5646047382561394,0.5895032369564648,0.5490704571769545,0.576940020694614,0.5802397194074778,0.5580812853898691,0.554509579598006,0.5440010254780332,0.5669191027416169,0.5989696235843449,0.5977190190876032,0.5402220770183241,0.5757429097799172,0.5895367601121362,0.5546511873953142,0.5755706976364308,0.5572281051283983,0.6118388294867705,0.5710484962022777,0.49504873258090853,0.5658620241069232,0.5879108547197127,0.5965315175633812,0.550378035709886,0.5508432317325962,0.5961174107750775
0.6037440184120881,0.6092192371231291,0.5155152969277603,0.5322854715128749,0.5655397348324493,0.5218289947840722,0.5650152708170277,0.5896978845088587,0.5711106225187703,0.5720222764440384,0.5802635421490385,0.5771607824055964,0.5720195856455832,0.5545967719350569,0.5537179907141896,0.5988902202095501,0.6098338569116661,0.5598395611227573,0.572270532521971,0.6168312072165252,0.557022413426691,0.5782755655791769,0.5462318395376906,0.6187886897014212,0.5593752346994885,0.5364377067179551,0.5796204574184025,0.5920965026532872,0.600978567891203,0.5583249243904373,0.5852995137718091,0.5926499630284594
0.5976051515681973,0.6150145050337259,0.4995528928676407,0.5196252018143048,0.568693805656884,0.5077693054751973,0.5375667374049242,0.5817571837392843,0.5673538933051288,0.5655335976306306,0.5732385958899817,0.5628413704711206,0.5812438483122602,0.570717010197114,0.5630115167631966,0.5921692426122376,0.6029227998038564,0.5677077240077839,0.5680450089073661,0.609578129630973,0.5543915054419761,0.5386509266001034,0.5253842449868995,0.6147181144983871,0.5685293815830126,0.5366880167682124,0.5813478482063932,0.5679736418130363,0.5882001558893784,0.5686538425191436,0.5675195704891771,0.5866867105335931
0.5818877196880554,0.5991749275104237,0.5024710781299517,0.48468287753117245,0.5513908335895019,0.482981570907032,0.5385398142355418,0.5866018425579078,0.5743776254095398,0.5548226510106797,0.5811034487727245,0.5462534713103024,0.573826521678996,0.5512227366465741,0.5635070307383936,0.5913762425788849,0.6035092647737534,0.5613724776531761,0.5720391578700319,0.5937108206161827,0.5396954508578116,0.5297944681176512,0.5376447421176405,0.6043581258860846,0.55235066300851,0.526861892869344,0.5772207859528686,0.5691097378189078,0.5702199067404918,0.5942741558526667,0.5463006892743505,0.5953357262898775
0.5924847421152664,0.5902726117163493,0.5015918372383217,0.48025385160801326,0.5380036427964292,0.455393248443253,0.536750997636914,0.5826700048735574,0.5740311973949175,0.5576353168567696,0.5667641919530473,0.5400607875768291,0.5766506135151843,0.5252113786945212,0.5303021418724088,0.5888432867483648,0.6081347733798923,0.5607120433669626,0.600438132951127,0.6010380482480087,0.5226870036096627,0.5230760251631734,0.5422400446593905,0.567875971881068,0.5054641108565492,0.536259884219433,0.5808562829576931,0.5788531469960327,0.5642037505594248,0.5986496340805623,0.5591536203261152,0.5506471608329262
0.5881084930709424,0.5793255238905886,0.4961324616537497,0.4869777752424804,0.5504348877902387,0.4840629618224517,0.530909652732956,0.5702048530170338,0.5650675215463488,0.567550575402572,0.5579405577306229,0.527415325457067,0.5796904734319481,0.525967685973741,0.5207716042467578,0.5789277568358142,0.5849649546345823,0.5673637670001361,0.6053195755520999,0.6100469053721196,0.5239846943936839,0.5176275650126119,0.5253934535744209,0.5621708239080894,0.5225385793234518,0.532410425803648,0.5808530181265401,0.5575906161365087,0.5717878514661057,0.6167829167119541,0.5424621836855388,0.5369083022469265
0.6040267021073649,0.5771184989152998,0.5109576079709974,0.478016170841415,0.5533160034418674,0.47996789079353075,0.5434796675976319,0.5516835347814943,0.5644619542567089,0.5706952264840948,0.5636957315300775,0.5102152001415217,0.5440480409333919,0.517259371049426,0.524538739400326,0.5765909235311546,0.5944917747517948,0.5555326026356475,0.5728155889984299,0.5926785244190427,0.5274015002454435,0.4971597646288952,0.523676099672723,0.5363967579786646,0.5066669228117711,0.5340571159432992,0.5869502685778074,0.5580921871109847,0.5689123118843713,0.6082767700009013,0.5385950852777524,0.5355342162707242
0.6040292391680913,0.5624388162903773,0.4851032002285649,0.47564150152491225,0.5448429100602805,0.49335412349519103,0.5392149467796057,0.5621378812181312,0.5749590038606995,0.557987760870156,0.5637679599503653,0.5069456341786296,0.5311251903590657,0.5074177134727891,0.4919194218350289,0.542508826379037,0.5728071658010618,0.5648790090181439,0.5397429752182052,0.5619937325903956,0.4835304089094099,0.47927756708861446,0.5076218476406651,0.5185484419529183,0.47561433871088443,0.5186093861157395,0.5939946647921381,0.5320088815967838,0.5687807355996046,0.602379718843256,0.5495544942884978,0.5521590620858317
0.5985682116679638,0.5565146779352896,0.4452876556348224,0.44972820212755993,0.5466435208947713,0.4804712168513019,0.5177098598998442,0.563987447785189,0.558587176853599,0.5459312654003372,0.5342224780312681,0.5291382405612777,0.5365989613620994,0.5158551790131716,0.49721927696605484,0.5410200578109028,0.5614425760936754,0.5356738122098239,0.5252953272987786,0.5559277392131277,0.44490503735757736,0.456496727572127,0.4970624212070751,0.4948284970482626,0.4525965233060596,0.5256994913372961,0.5821621252634026,0.48276985859910404,0.5707935927398387,0.5972009757383869,0.5286069741290853,0.5349524969295651
0.598397963217483,0.5632777040871959,0.44634577400441966,0.4483007325220565,0.5603310779015711,0.48973150830844503,0.5106055442100343,0.5812368688090999,0.5641229666375089,0.5494076148762224,0.5503834492618869,0.5263435133429497,0.5264489975122237,0.5119726731511935,0.49016380822735695,0.5366470260123721,0.5493766849234443,0.5374978092228466,0.5094051732968565,0.5490856684710894,0.4312219425273933,0.4660752752663888,0.5043442584337186,0.5066003650061446,0.4418288586415082,0.5277136419554367,0.5852986770094573,0.48258784292882506,0.574139360627913,0.6018399933260317,0.5285706206434737,0.5261064800272539
0.5965359462912416,0.5669056821022189,0.43994373910888207,0.4234371559397836,0.550194078347134,0.5024762750856899,0.5092215433126563,0.5734010508102636,0.5614957368098423,0.5602245838719386,0.5503422333167154,0.5468783969294955,0.5270872004108687,0.5239916168602994,0.509411654541192,0.5406625102479952,0.5496185042151884,0.5377105770749981,0.5132825204974427,0.5412438896368865,0.44772712198771547,0.4552918530386467,0.5236363326303257,0.516630340717191,0.44682711905236694,0.5402343152307854,0.5739043808847613,0.46061649980420105,0.5819726942608381,0.591030653620364,0.5358095396968623,0.5594958809816433
0.6039495525484355,0.5740189629376005,0.4512981121280353,0.48509836109467974,0.5563480352202559,0.500270229035817,0.527070319510373,0.5742943508913316,0.5670081745225213,0.5689315551446956,0.5559612469811421,0.5539790848279971,0.5310034206407104,0.5313128343335638,0.5240516353220208,0.5565087202153336,0.5593804326443776,0.5506300516445397,0.5152226451940285,0.5341155816091252,0.46057644878267556,0.4514608880787616,0.5068621638637802,0.5124926310079889,0.43977083309294684,0.5312610654946877,0.5870730385906247,0.4841528796278194,0.5832441772702053,0.6029239479560768,0.550027042646009,0.5553410113728874
0.6123368014839796,0.5627950137996649,0.45141141059102763,0.47522002482579095,0.547238261341942,0.5027030072684893,0.5189664837865138,0.562280682558916,0.5646630897112415,0.5675384101375496,0.5476512925996508,0.5589012435767713,0.5454496853607083,0.5305762281562454,0.5323510406764878,0.5559959629876019,0.5625730386946004,0.5570539924281839,0.5315344224826704,0.5367863369439072,0.47176805969567503,0.4619862982124423,0.5281444348239557,0.5252724613305468,0.4548786549461741,0.5302944344079275,0.5856393816996808,0.5005128036346806,0.5653805778760606,0.5989396474108264,0.5335858096038222,0.5486156434849812
0.6468295173048122,0.608765161493416,0.46603468320675834,0.5474316110205777,0.5813624388248098,0.5264169050903273,0.5256987679927949,0.5868516632554366,0.5699828168533876,0.5704616122722488,0.5789577029985353,0.5844702979318197,0.5596598918415325,0.5399482993506362,0.5213144912835217,0.5529313383469896,0.5700371052702078,0.5457805857180213,0.511674407079528,0.5328126253841576,0.45730010021666434,0.4855345600962573,0.5287460238006636,0.5187011480879482,0.451730776325757,0.579314941392767,0.6252372043376475,0.5165250262658048,0.587836275875496,0.6202825435949157,0.5766371905765406,0.5455625141711744
0.6289882137597624,0.6077438023945683,0.5076622132531781,0.5517740538366525,0.5837322608518307,0.5523323800507156,0.5238154198604499,0.5913569722718068,0.5750830649518663,0.5733022917866757,0.5838768516080348,0.5838981085730053,0.5574028318807582,0.565392272529031,0.5374892610701276,0.5749504362802895,0.5807746878865179,0.5512549082306499,0.5278583828523766,0.5852435550333843,0.4988689178615431,0.5048813423520002,0.5516824376543732,0.5356849470096918,0.5070993550196685,0.5816039699760043,0.6198165691322357,0.5448439492514434,0.6280909185460923,0.6103645287551824,0.5755729085897987,0.5594976062730646
0.6357012693540058,0.599110491491909,0.532800732584322,0.5630287215804417,0.5921870195407353,0.5698051137924462,0.5352217986979859,0.5895488468260388,0.5891141746578139,0.5644091425970146,0.5848873296883466,0.5845384140746996,0.5661012993131855,0.5806836110051861,0.5353964519918244,0.5703051406212798,0.5840100047320691,0.5567327095422425,0.5323727062284274,0.6219177095157127,0.5264667865729504,0.5151085659866514,0.5466184123649014,0.5394923787649639,0.5106033610300669,0.5870966605586889,0.6209310301337032,0.5620258330549155,0.6229852412456549,0.5886702953954348,0.5754812394804025,0.5781084906756884
0.6165547214700928,0.5853205883709784,0.5158701771205632,0.5643910059627033,0.5789690603553495,0.5680256440244182,0.5414265883997031,0.5879177528156454,0.5727220127307451,0.538570547123681,0.5735073580067969,0.5681719819566675,0.5822020477694458,0.5684028409710815,0.5249744304429895,0.5694011850661034,0.5829295521806599,0.5677239820986237,0.536904095370514,0.6133133125398205,0.5266982258320718,0.5418663908558363,0.5429373004210474,0.5418059821640915,0.48078938171431096,0.5782863600613468,0.6234847134017043,0.517975226755615,0.6111183424769817,0.58846047176077,0.557663323938729,0.5776166620379479
0.6176965677953934,0.5678690923319492,0.5419348741104164,0.5667507481833418,0.5964119954676081,0.5756779388178153,0.5402632502784064,0.595717529633327,0.5699553387590535,0.5282921614921987,0.5804404134276604,0.5657597037248672,0.5876267201501486,0.5825524231677659,0.5452570144896711,0.5763028972018547,0.5869404717193891,0.5499191283245,0.5519829559492,0.6016879749083412,0.5424661246795202,0.5411567841987601,0.5465339442921611,0.5693200623008496,0.49311876948825306,0.5708784234685855,0.6184458254744238,0.5411884021402806,0.6048412773283465,0.5924888030132713,0.5388062353223395,0.5777743916328886
0.6191518250063353,0.5848174719781536,0.5891466109039869,0.5863242913280842,0.5976330413854236,0.6070855903440799,0.5612910727352616,0.5973049151091363,0.5683500798012955,0.538963501791514,0.5912506430162132,0.5578381425121011,0.5971195669575753,0.5711257120725151,0.5590994890099417,0.6145799843424351,0.6098198081704123,0.5696880140147615,0.5642156690394389,0.6074514819569212,0.5708364925602636,0.5418418473184397,0.5472069625944922,0.6022681010348641,0.49826576502209585,0.5747181452117327,0.624530669584193,0.5515635741984268,0.589178917981235,0.5861977974727761,0.5567158789180096,0.5812365110000539
0.6277234019325446,0.5728916962003807,0.5891226040362363,0.5955810942035806,0.6099901490549984,0.607568707740628,0.5663309370274301,0.5942425814175407,0.5788580898351263,0.5418288239682951,0.5879978502962273,0.5549572893842365,0.5915223089014758,0.5691486560621883,0.5531908726687624,0.626988971731484,0.6158719657893839,0.5822904700325089,0.5646589668045765,0.611798772491611,0.5783302082838588,0.5475308975570945,0.5343019519725485,0.5870705400840519,0.5278163376641025,0.6002716980960763,0.6086189404161364,0.5640119182030889,0.5776778052904681,0.585810457210953,0.5556284429126115,0.5856135095032151
0.6252263524788413,0.552708717320662,0.5933474852100313,0.5669154766915034,0.5924541648926889,0.5891335450439805,0.5518770144907807,0.5889093858032375,0.5871665432440536,0.5341797611690358,0.5729785412910768,0.5645439517614372,0.5803866764980659,0.5712810467968614,0.5593697631469059,0.617765907580325,0.6106153181478495,0.5951504715441125,0.5810885467572673,0.6198475581874692,0.5886000323646017,0.5409699995107755,0.5344472830145888,0.5952457573768131,0.5311461042719019,0.594897088909931,0.6055691966195762,0.5670770249988148,0.5929935344426425,0.5778899957003634,0.5536527903374773,0.5957445906420715
0.6093899302539136,0.5592396978545899,0.6049341653631166,0.5769422072017765,0.5974193774596523,0.5903808864905553,0.5561150705932083,0.60046273714193,0.5835255822540524,0.5311410908405825,0.572374726355819,0.5706903230880718,0.5878525473528522,0.5756586519354037,0.558889755176176,0.6232228074023434,0.6286280398114275,0.5902024326019681,0.5873869256218369,0.619936247276486,0.5830526269167593,0.5580506650219732,0.5545366345721701,0.5800190349889136,0.5534393965359077,0.5902241297443234,0.6062218827033954,0.5410106252958706,0.5917524779907173,0.5717884801999498,0.5653968232865054,0.584587623940843
0.5994089559514637,0.5497152420740439,0.5936166077648153,0.5725113768789689,0.5923030882938729,0.5838970351855894,0.5609403522362326,0.5889123107445391,0.5915222584712181,0.5435576478991044,0.5844097055144912,0.5889829983748398,0.5843287929866103,0.602751266580237,0.5634435759302558,0.6046092563987102,0.6374245538393835,0.5888201641829012,0.6084815090944287,0.6073775308268439,0.590163128519952,0.4963376575509706,0.5469678450128193,0.5677595146144605,0.5491265023979528,0.5806008699658469,0.6107159577858243,0.5356532555019728,0.5945996240830094,0.5820430398324312,0.5697442188912123,0.57816216101264
0.5827534465695079,0.5732510385699783,0.6005162372931547,0.575783793747723,0.5782276193395051,0.5851911687778029,0.5409316559841804,0.5845811535771395,0.5960466887642348,0.5416531349792844,0.5815334825927003,0.5655066124117121,0.5801233796379877,0.5969870240201538,0.5612520704866975,0.5977805780519247,0.6384114368928397,0.5777469169118779,0.5948605132489857,0.6060352263681383,0.594269863242411,0.5023918338426756,0.5610973038774856,0.571292155291204,0.5531571552466286,0.5834507969773064,0.611671717469747,0.5365084751110678,0.5905783859226075,0.5901513395493447,0.5685389710881754,0.5836369436732065
0.5870723570973482,0.5749001547539527,0.5919724160373208,0.5848604869091769,0.5665011102522164,0.5745318535199728,0.545787666943625,0.5903247505061251,0.5947951646566674,0.5523879171525561,0.5737622169356444,0.5458930993822904,0.5701060946072234,0.5791161579196364,0.5585194761588936,0.6152382160525942,0.6628888731154592,0.5945324196252604,0.5828524877750647,0.5947270481509297,0.5825490963786879,0.5080644337009819,0.5641889513706912,0.5763693624496926,0.5456456641743701,0.5883287040508445,0.6093075728979693,0.5384484132656557,0.5784464585852254,0.5762458144326144,0.5714181239059251,0.5786112853215126
0.5844137053375267,0.5727035468853452,0.5736411772479011,0.5953244669543296,0.5586081273322638,0.578181584051102,0.5593720857640738,0.5717328582579362,0.584549971063971,0.5586047274346164,0.5645200765225855,0.5532464275538476,0.5419710019538764,0.5632828865497386,0.5477109721133986,0.6052277074912782,0.643128552264359,0.5894435526008808,0.561037079595013,0.5785593094702599,0.5521941614910708,0.46714379602355427,0.5730712150136883,0.5969693137866026,0.5508955467739844,0.5721858230247827,0.6051692459716893,0.5422379918068052,0.5887204856255481,0.5940634750988552,0.5771511594356022,0.5750932435442335
0.6012245332956825,0.5709015664006669,0.5470115829219422,0.5974188788664043,0.5380846845501464,0.5705489716715113,0.5601469150372318,0.5698310403128333,0.6077639404260036,0.5487833762406207,0.5799217515104256,0.5596177539059952,0.5513770899303183,0.5886733847436205,0.567621235153386,0.6045713932377619,0.6280473776376043,0.5675691056624568,0.5610703063110671,0.5738305960770131,0.5547902118280379,0.43856491546756393,0.568525851620513,0.5980368952020654,0.556636480207978,0.556881951238239,0.5979373132194579,0.5382803772136056,0.5889017630479931,0.6007651437555799,0.5760479065615263,0.5779651164848327
0.599828668338847,0.5669348037945476,0.5541012821116578,0.5905294573215496,0.5300156394621842,0.5679199615336743,0.565925211057217,0.5719950453603913,0.5927243129934654,0.5450782351016508,0.5596997472007712,0.5557824960275397,0.5525436311213885,0.6026542301565261,0.5817165015145198,0.5934227559290446,0.6163372042322144,0.5796774026660185,0.5774131403329563,0.5709444785249507,0.560507137191868,0.459648446970061,0.5643806792369772,0.5925452682645229,0.5492931120776765,0.5651982054352822,0.5857944763512157,0.5273802523585247,0.5728733233640058,0.6091037673155957,0.5638074087493732,0.5651179401404662
0.6022519868069542,0.5861436892050791,0.5475038024782464,0.5947653688515997,0.5273681141142039,0.5716190958969238,0.5612212385434749,0.5603522749912035,0.5930308317514914,0.5396922964781266,0.5429159341648706,0.5604930314624519,0.5618472107396819,0.6021851880373545,0.5813925270974432,0.6044195259390022,0.6074005279002761,0.565859951059902,0.5744491587252227,0.5702340378476198,0.5563682529588969,0.4813001946587714,0.5378267558948,0.5927171554883417,0.5728071088325462,0.5600695947384509,0.6052455031223687,0.5580442893231292,0.5838999699981415,0.6105840686930213,0.5448679974112456,0.5492664466644555
0.6171750361868122,0.5842834010283782,0.5390370903676511,0.5781519215339648,0.5195123779141837,0.561510367267744,0.5451067043856046,0.5578290349819484,0.5853172866415988,0.530005989160081,0.5235256485974586,0.5660336171795604,0.5732484437131311,0.5959388284530842,0.57405185990407,0.5929134170701591,0.6102632655660711,0.5479447099112642,0.5761131358885057,0.5631614360743993,0.5545594041114028,0.47427065099410326,0.5294662020950467,0.5905475021041808,0.5557812052492008,0.5588442285346193,0.5994738818216616,0.5575369239341255,0.5680133284384641,0.6166060971205156,0.5337933720353418,0.5648692042339696
0.6181998756407401,0.5867404831045153,0.5594848297481803,0.5802610927409235,0.5293709800859872,0.57560140489917,0.5585581585510959,0.5661219557316173,0.5740372343943743,0.5432941197169145,0.5232269251399995,0.5652456801371417,0.5880322601031276,0.6103416251806566,0.5865255253851922,0.5882201513875591,0.6042685904243648,0.5769930248934521,0.5754053359424534,0.5703313695278234,0.5893272085419876,0.4932482858792162,0.535783995875871,0.578450745620414,0.5503115440798876,0.5761883571368451,0.6191754555775324,0.5332749315012064,0.5659269901760093,0.6079017172042085,0.5356097316445698,0.5359984710584946
0.621859744145072,0.6066162879125785,0.5494151737430588,0.5704224550847901,0.5356694672033671,0.5927168420878548,0.5556990302356462,0.5711595607027369,0.5751189395528709,0.5446213092039431,0.5315093366320367,0.5738400322329449,0.5936629559331839,0.605684309780854,0.5703449676896999,0.5936138303127594,0.5980055320006858,0.5819696883004961,0.562243566969606,0.5605344649354582,0.5859644658036745,0.5018309573020021,0.548575059559357,0.5873918210958986,0.5733954139555029,0.5664854265948431,0.6268061936658347,0.5492554508769358,0.5938857307028362,0.5996385040537047,0.5430880714751942,0.5528697854935491
0.6247397658888487,0.6100809170109933,0.5693401453778972,0.5774516443631437,0.5387383361730209,0.6031577849929124,0.5707184461647268,0.5781658598486903,0.5824058304253139,0.5525857896002275,0.5593972955340774,0.5834902287738011,0.5815540901348775,0.6154955803364919,0.588641448209112,0.5935775747183736,0.6012180184082161,0.5965166073390065,0.5575000446026972,0.5599379565458298,0.5838242231989255,0.5427738373339586,0.5484997764385731,0.598073590054558,0.5952215423115739,0.5623403548376364,0.6180381236140162,0.5669209879832366,0.6070088481436504,0.5943824914343825,0.5360755221681908,0.562763160818482
0.6162120966411821,0.6165509828094118,0.588656521526695,0.5918900947151222,0.5624921355047836,0.610022761050772,0.5776892777829863,0.5685227149610346,0.5806987778617443,0.5765101006824902,0.5796215464661469,0.5884784817199842,0.58537475573337,0.611430455543839,0.6093301605908072,0.589174395678568,0.6132626476556724,0.5859096175163594,0.5577987055802907,0.5639367729263096,0.5812432654315676,0.528157913945809,0.544784983827419,0.5921939933077485,0.5917551083700054,0.5699584022100495,0.6050311032955906,0.5672776582224262,0.6155069557990833,0.5927411727899279,0.5785749970468048,0.5451970453273325
0.5921413837036336,0.6243796514862496,0.589245488388586,0.5988209335879437,0.5540086972807678,0.6195171167546203,0.5763293660434452,0.5530203950877715,0.5771832802234083,0.5812733127804366,0.5925977122926449,0.6065007728980896,0.5729725218666002,0.618718411266002,0.6168245967543844,0.5999802580557314,0.6123040301228966,0.5828643668857119,0.5646878292103468,0.5515824512081213,0.5824978869487181,0.5143483910722106,0.5456315499279261,0.5926658977314503,0.6022520886477958,0.5690427466455037,0.6053151585662646,0.5829588672422878,0.6203816780691023,0.5999092622460043,0.5677902187296717,0.5381688328211838
0.6009177401151522,0.6103869664045054,0.5781583324286892,0.5999355023060735,0.5269459021232668,0.6060692130202558,0.5755457314611343,0.5500571183765111,0.5627659405491987,0.5957649748049874,0.5916274260095542,0.6108803645002374,0.5814237498930419,0.6025409242843964,0.6191006354028681,0.6053364291901357,0.6020397539200144,0.5661706259584895,0.5574935554773166,0.5475249571345961,0.5734775265447172,0.5109750483012356,0.5457291159452762,0.5897899517329295,0.6007744393114782,0.5486366324536931,0.6077521549388569,0.5840597304057669,0.6249451681507279,0.6235488119421393,0.573748076823668,0.5505707815922873
0.6078611693396749,0.6244936809407822,0.5936014430884482,0.6012646507448891,0.5433737274437145,0.6191200507866115,0.5637023747149419,0.5457594836974917,0.5776412498445063,0.5949972547300533,0.5877071714126427,0.5984952493248228,0.5740325038024277,0.5970165886046885,0.6231044301212969,0.588618446977434,0.6011968609922564,0.5720520454521005,0.5632333072905391,0.5395590458965303,0.5728446631298687,0.536110505488705,0.5441778596110303,0.5773594392997063,0.6176798885211912,0.5401582895082422,0.5950011975297427,0.5764672757674578,0.6130394663267373,0.5997989301891069,0.567968666824592,0.5585557774209846
0.6101198584814349,0.6264015023457956,0.5893493863919859,0.5950605598663814,0.5476060711752146,0.6101043017261167,0.555830725400273,0.5457615683483259,0.5788675039732376,0.5964291951864547,0.5825946479768058,0.600759938667832,0.5783826397502794,0.5741770302317981,0.6225850435991771,0.5833262694044321,0.5929674799903806,0.5579395627654615,0.5406522586983651,0.5535475539906112,0.5436117883796436,0.5404313348516001,0.536489973942714,0.5748038799528019,0.6162518709691192,0.5634857788912289,0.5990013480981884,0.5869588413016218,0.6157029003086043,0.5845029776116784,0.587553470747106,0.5526472774899966
0.6050420218903114,0.6239612492950672,0.5912055356083687,0.5895257267854497,0.5518737744179218,0.6034197051191605,0.5522391160288853,0.5454489491158885,0.5797577580099196,0.5878924694631142,0.5889362853745639,0.6045165040022247,0.5815691656737929,0.5615280949315995,0.6030405602102462,0.5671441338977692,0.5748736380961352,0.576067283332705,0.5720858648765912,0.5569549624449199,0.5541056534040045,0.5474011177972637,0.5289239687296785,0.574278076783302,0.607550026897774,0.5718815057332098,0.5833720005665466,0.5780055798644104,0.6048286195847168,0.578757715905601,0.5880436568414376,0.5475504479571254
0.578965456904065,0.6244591985094199,0.5994856750307029,0.5843038129674358,0.5568130909043676,0.6084432393087025,0.5692958267711647,0.5551093183108566,0.5844024737999418,0.5793997373845299,0.5774196810683874,0.5921005367501713,0.5817169579038439,0.5619668020298128,0.6079697877788122,0.5724230680882587,0.5855603566459942,0.5818391567549344,0.5830521702256117,0.599980045348969,0.5860615716526336,0.5629187269013696,0.5333976636474649,0.5753087109918238,0.6024071296299636,0.5650043909217377,0.5777367929016379,0.5899399601652151,0.6184622792988073,0.5759981603522464,0.5719039211314922,0.5539911202384356
0.540636801687969,0.6007246101119552,0.5645004690342326,0.5715910277610186,0.5579405680880862,0.5785815886342873,0.5720787052800533,0.5802415534142962,0.5609866427857475,0.5772142940555227,0.5823903220128268,0.58992786756213,0.5724824548839798,0.5745528720844466,0.6025305935285243,0.5896527918708094,0.5829373523644277,0.5736969754479677,0.571526647354363,0.6156219245709913,0.5722454678724569,0.5577572620869624,0.5403396561471934,0.5802298821053897,0.6079891305325393,0.5720104596742863,0.5852337063728243,0.595120980112207,0.614561014659869,0.5884728253228841,0.5777962454021774,0.5620834653851969
0.5556762425118031,0.599367886770795,0.5659372017144806,0.5795904059533679,0.5671287453329938,0.581888239674345,0.574257946009872,0.5896963230492602,0.5588464830391362,0.5636956006712026,0.5782706175417567,0.5628688287017232,0.5644238058255677,0.5661990299135784,0.5856145735997771,0.5981583391617349,0.5850531765530795,0.5810022903873007,0.5772049817333409,0.6247015772964719,0.5918213827414598,0.5473457639538006,0.550242953532035,0.5696807162980511,0.6027838846389906,0.5673833992680084,0.5880549013741558,0.5875985351961024,0.6171321882103005,0.6193719121911698,0.5970215247906276,0.5942256831420365
0.545580984889805,0.5851699648301816,0.5675161137403935,0.5701521788223785,0.5704950488181253,0.5837223584551605,0.5911566749472636,0.5952872792537258,0.5730033486939448,0.5821582862009071,0.5749728339687561,0.5959493774684632,0.5440031784895742,0.5811567783386455,0.5802485420684933,0.5930682988540901,0.5944223244775282,0.5818994539994242,0.5533868522499574,0.6243924511517491,0.5914636497899761,0.5363499565716339,0.5550236890390292,0.5637757428674575,0.5910325194736075,0.5661355163332775,0.5794759441325015,0.5844487794052129,0.6250520317834072,0.6125339880323382,0.5853735035616037,0.5890441964869875
0.5640126744956717,0.5766871610075444,0.5555071841151209,0.588115614469193,0.5774725751932182,0.585869160633508,0.5864707197070809,0.5994429283437062,0.5690319339770631,0.5795209794424667,0.5832481865970718,0.5843705490492797,0.5604078690137162,0.5846797430678414,0.5704487609291831,0.5867356297830364,0.5916583667520299,0.5924771116597678,0.5507708522351167,0.6073989682050058,0.5851857728374608,0.5510185124697693,0.5484696524815318,0.5689078308607622,0.5678467344783407,0.5679506693567427,0.576846773264784,0.5804258487738823,0.6260540410826669,0.5992990378388252,0.5867725925262115,0.5923756558483833
0.568648578353018,0.5748831708430666,0.5485819272598538,0.5817535127634761,0.5636869672136364,0.5818802070514542,0.5839103847880436,0.600368835257794,0.5834293796751071,0.5841944399035683,0.5911634619566226,0.579958272147572,0.5596065553562277,0.5937572573729426,0.5708174325079032,0.5815712516818663,0.5749273662375654,0.5828734555024888,0.547810551147867,0.6251375464039639,0.5993978956195298,0.5572937352083835,0.5364433903293544,0.5747268052697145,0.5694939625248057,0.5739503575250948,0.5794438637212589,0.5864600359983481,0.6174881618656909,0.5971358428282323,0.5871869343944613,0.575545281900379
0.576802207420414,0.5842431390942195,0.5489975732484025,0.5770776041864263,0.5833464803522754,0.5764522282424731,0.5814110944431605,0.5937250744884666,0.5884923835785698,0.5929959655051582,0.5829544191369291,0.5720895684894294,0.5649525348394349,0.5778985719409224,0.5664555883066202,0.5767013555344169,0.583125127379656,0.6022307875171804,0.5397935607823277,0.6225777569821078,0.6040554537807785,0.5602817094852566,0.5344453463903713,0.5977378232658395,0.5637938107116804,0.5744597819762114,0.5635548531904915,0.5937760508077568,0.6191066066008912,0.6032167738992054,0.5919276456323805,0.573985090367259
0.5778868600981677,0.5862623509533229,0.5495303133411147,0.5801214235233103,0.5676464852323324,0.5823860539344468,0.5883094976635683,0.5903812152767194,0.5824286807463035,0.5947635605792718,0.5977862778721148,0.5581409361516685,0.5599504509613591,0.5754328817660017,0.5764369232512627,0.5714859596585327,0.5873095358742666,0.595518567525759,0.5406794955914735,0.6249160956581683,0.6160933092375851,0.5639279202054928,0.5579411905995122,0.5934528962131287,0.5862254635206328,0.5728134869826951,0.5752261997237453,0.5853728885127554,0.6179891945994358,0.5976002522112163,0.5760647385279651,0.5863006630995806
0.5798376175698525,0.5977750823460068,0.5485193084658699,0.5869971907415628,0.569021496349507,0.5771940590109996,0.582383504113523,0.5926651476220188,0.5737209894001576,0.5899959033575648,0.5800422021230487,0.5456156045891425,0.5582178843129215,0.5388577382499835,0.5582479604572743,0.5611741968743664,0.5868681062597418,0.592560209336773,0.5543437632678967,0.6446954974529242,0.6139173086410366,0.5661243122764987,0.5780473455929696,0.5936392312155085,0.588037336676809,0.5655573388243118,0.5892392570347122,0.5887207245345314,0.6098086945090895,0.58959043777954,0.5785958139793332,0.577269327856889
0.5532046600627636,0.584904177338756,0.5478547128212692,0.5819267985534138,0.5667669326268179,0.573169593336178,0.5943113951969115,0.594237746787392,0.5771506248686666,0.5869263049265516,0.5863382274517068,0.5609750115198704,0.5603036298372888,0.5464500517060928,0.5642727703738881,0.5612962547101059,0.5899003194695358,0.601402413019132,0.5707576376845602,0.6267050597657509,0.6312620886724756,0.5582969593797431,0.5847227273112683,0.5721262202580286,0.5781388318117497,0.5586933279484527,0.5863380277022601,0.5793603226095185,0.604994456154123,0.5704780082616763,0.5899851278089296,0.5796337480507527
0.5878998904810309,0.5941371616007047,0.5561416709775338,0.5711478649314352,0.5405291835030535,0.5648939489245053,0.5760559873428823,0.5788924202109231,0.5873742145416072,0.5786783920684258,0.5808432528489167,0.5486008686427861,0.5454344471877195,0.5485454053403522,0.5509465564004632,0.5553336073643944,0.6052634292428691,0.596555535523474,0.5590546072822677,0.6065783884520211,0.6284643939541366,0.5580476951748907,0.5695349174947921,0.5803782676875602,0.5856480229887384,0.5741713056979525,0.595483809770049,0.5769433341438557,0.6101179196397455,0.5695147836784602,0.5944834578251577,0.5528754282682713
0.6030484255908228,0.5946495934642524,0.5751159298382538,0.5947388547883445,0.5421476435360573,0.5604409462206474,0.5844150419408796,0.5775796025015234,0.5733199197236094,0.5702287229685741,0.5870918519227328,0.5609266551274343,0.560348784195003,0.548257575921637,0.5533809535260166,0.5617291765249295,0.6028754607520783,0.5842597086455865,0.5641332924654958,0.6071528532902724,0.6089217639177948,0.5788779697698554,0.563310400974959,0.5958702442749231,0.5787638603112923,0.5644285598418057,0.5946336405738242,0.5999625465846186,0.6119320842889615,0.5636977364663789,0.5951579789484778,0.5335992863496561
0.6125988539423224,0.6129754110566505,0.5650591467510231,0.5864706998389382,0.5293194540124744,0.5411590408481279,0.5576123915097888,0.5635401353210252,0.5560897743578233,0.5682505644158451,0.5794582559496768,0.5651824153710026,0.573210441514298,0.5566358684860879,0.5592715113222955,0.58046949544498,0.5923292718726274,0.5963107393489246,0.5742478328082616,0.6121595375434463,0.6026241374040362,0.5738393393352665,0.5503964939015704,0.61357599840747,0.5951007405397069,0.5585024148601212,0.615676816597837,0.5917332485642879,0.6024103900279476,0.5790694533428273,0.5859923185713156,0.5317875702649317
0.6007561154421572,0.6139091851708125,0.565800278411162,0.5602130185006735,0.5264137632090056,0.5548418144286522,0.561915273099864,0.58166343368877,0.5731373272319353,0.5684566022580566,0.5691001314833115,0.5676527790183359,0.5771401729106111,0.5574761967097337,0.5612243210029773,0.5706722397117083,0.5966285833266727,0.579004898527169,0.582129424184807,0.6107814001235408,0.5862993083138734,0.5827233337022069,0.5386488832304757,0.6137144078296863,0.5921211507551782,0.5404586385580017,0.613284896078556,0.5978620662110066,0.5981176882117598,0.5935182682478017,0.5830341327687081,0.5405186858547029
0.5829569823595597,0.6184947013913362,0.5728247694473976,0.5663305601807447,0.5299700266843419,0.5562779368092228,0.5678524263405937,0.601055098684717,0.5672144384168569,0.5602271058981474,0.5549141016547998,0.5623703478568434,0.5743459502772619,0.5421892290208778,0.5276526874439385,0.5608537470576938,0.5954044336003865,0.5751348061322332,0.5843558423729935,0.620373971419875,0.5811210144095038,0.57759827795224,0.5577579416313649,0.6214538350419261,0.5759659937904451,0.539837940038105,0.5983462747259316,0.5907444479350143,0.6005529172973718,0.5897324948566558,0.5532663942638423,0.5059245362453528
0.5891606414583115,0.6200087350436072,0.5767326223359119,0.571290140750139,0.5422054896203274,0.5517006548112904,0.5424844846977646,0.6112381566534841,0.5753835989384095,0.5566232721415423,0.5576121574304902,0.556840696228242,0.564209260881412,0.5292693820521004,0.5181635444140942,0.5565094879963324,0.5911211339225129,0.5719124817210934,0.5702914507516579,0.5998626378895979,0.5716729971409666,0.5813247072889269,0.5536854337856756,0.608746891561188,0.5595787884843473,0.5526040760638979,0.5809982658727657,0.5840436430819769,0.6073549122294395,0.5913772692097616,0.559924038539839,0.5277091536772627
0.6083959732713176,0.622957796084902,0.5806793489777133,0.5750233514342034,0.5734493963782219,0.5514344213145512,0.5114543565131267,0.5830722569305218,0.5733111027386579,0.5565587810642754,0.566048792067793,0.5588392985898336,0.5724311223351104,0.5329392792056113,0.5235505449809956,0.552230231668629,0.5896240683016329,0.5815321441243073,0.576357327188008,0.6000213299591244,0.567153328364733,0.5963265932835395,0.5556020118053273,0.6066419207921423,0.5343851986636845,0.5925727522901845,0.5686877277264561,0.595688157896312,0.6174769399845399,0.6035447812687948,0.5687205083123912,0.5389455111202373
0.6101699028159921,0.6117367638797253,0.577269072421986,0.5739302429187143,0.5921180856693598,0.5426498818274101,0.49882838471423474,0.5921413067727626,0.5582828905644268,0.5366412520909005,0.5679990559026864,0.5523601010407218,0.5598912922478152,0.5291392495437353,0.537345740484505,0.5654355670384432,0.5915904526024431,0.5594448642640311,0.566862846056166,0.5718195397696495,0.5554659537487354,0.5981761164630823,0.5447510104651139,0.5975985484408897,0.5383410173138259,0.5816516112177466,0.5649592538004287,0.5868956007965207,0.6333698994384367,0.614318190965665,0.584127930806249,0.5539580339985171
0.6165136621911627,0.6159372580809346,0.5659755282317973,0.5574002518408001,0.5759787114865382,0.5503883938142184,0.509070473430536,0.6012353781734392,0.5595374725811748,0.5446901281472316,0.5739609237098766,0.5700084651058677,0.5695996955311009,0.5469423061894054,0.5314380475256351,0.571122206683607,0.5808577011634197,0.529711259239142,0.5540942236361515,0.5769989991691347,0.5261453186068565,0.5760866898932675,0.49693524753223883,0.578939262832499,0.5496454050741493,0.5872064769527796,0.5655927732187624,0.5733780781941182,0.6221841018834517,0.5999749692253427,0.5730838530464335,0.5735321938250637
0.620179474263427,0.6425628581478295,0.5409542924519224,0.5616762958687089,0.5905896091116039,0.5566113633226579,0.4962355140867727,0.5847619829137245,0.5792733583890555,0.5368835426841749,0.5614157901682297,0.5573481206616182,0.5940602293444432,0.5555634908247962,0.5418611950116916,0.5901904951288772,0.5753358928771433,0.5404543766704131,0.5384722166724729,0.5770190445511143,0.5216240779195389,0.570221642890433,0.4978218940589487,0.5822013003666529,0.5694661817704012,0.5883875655703115,0.5662274927285602,0.5739056200860317,0.6155218339054005,0.6040718306582002,0.5780386709630307,0.582093581310339
0.6168474253838823,0.6161567321901278,0.5181569745531158,0.556316937100855,0.5925533045278484,0.5407435673899732,0.46665072803257734,0.5876386742319504,0.5809241675049064,0.5594275559112045,0.569951138944758,0.5750245247756305,0.5823947044491478,0.5731123045648951,0.5531634310345468,0.6028663502103964,0.5749485198607092,0.5658651761032321,0.5365300002764051,0.5697729367489739,0.5207688032884596,0.5669355311665267,0.5058455251314462,0.5680273799732207,0.5664272726087276,0.5656884748955866,0.5503923679947902,0.5429172684578023,0.6076881217734167,0.6027784992585761,0.557420321283383,0.5858594795951637
0.6132692321021667,0.6017507118148342,0.5294814497862759,0.5605073047844855,0.6042345663905895,0.5640991491595129,0.4715927223693157,0.584721265144879,0.5804409805305819,0.5602969336364052,0.5796817008203403,0.563299696762817,0.5844765076942311,0.5699237805941224,0.5374565437835503,0.6058765419769543,0.5778962929708578,0.5699363354328848,0.5567770196523738,0.5564194267165181,0.5196814485688703,0.5645616540062979,0.5179279115949766,0.561683907722172,0.5514801885179503,0.5689600814244762,0.5592627367288734,0.5392167219571582,0.6171204104846142,0.6052064274778499,0.5438799528532008,0.5896259355564215
0.6228855530673982,0.6008857912134538,0.5208616833548048,0.5674606491511511,0.6050899385495345,0.5371382083019842,0.49169419129862746,0.56619552212317,0.5559281574671329,0.5669793227867919,0.5710881867579656,0.5529252314408613,0.5744754386385593,0.5791893753346451,0.5316810048840095,0.5972643456962383,0.582888086578162,0.5811203364234063,0.5635759159183418,0.5702963297623977,0.5348324837928895,0.5658299362660482,0.5353165216922795,0.5836861463133509,0.5511611480134015,0.5635201834982544,0.569282248178641,0.5628173075689489,0.6228808368806211,0.6117943262112346,0.572635669743792,0.5810634868763422
0.6192075203462855,0.5938631055008803,0.4827667919579439,0.5646677376086178,0.5875207937740448,0.5263880040753834,0.4683067347176548,0.5555985826914087,0.5682886265134046,0.5361965918042833,0.5739721373170847,0.5367042387208234,0.5794867918877831,0.5399314799400297,0.4944271477208062,0.5692200120633939,0.5789848734144893,0.570094633614743,0.5450564445669737,0.5679895702609277,0.5370465535418552,0.5468833774209307,0.5202195711997328,0.5664152210376261,0.5600226144146934,0.524726579366714,0.5500264190068633,0.5549553233680848,0.6081755955134218,0.596661353446049,0.5515019001379415,0.5502419980178979
0.609041199880715,0.588612209313589,0.5040101116767297,0.5644107507709561,0.6071017332440243,0.5324524567851712,0.4846201650723536,0.5525978094420685,0.5674855933475809,0.5440919060229508,0.5909194541934828,0.546355700371516,0.6054657338348282,0.5715156227434255,0.523844420037439,0.5867924844026757,0.5859867047500313,0.5817551612190894,0.5582021330934639,0.5798168366940257,0.5469278318880515,0.530535387240803,0.5259960408667985,0.5641231512534355,0.5690668488394297,0.5036002323788207,0.5508054431274583,0.5548389679004826,0.6060956080835873,0.6026600968259164,0.5566419595437084,0.5790223348391215
0.6072956502333944,0.601232012299528,0.49863607959726064,0.5708473949870019,0.5722211350539252,0.5235476762346614,0.5123414749841904,0.5578408255810312,0.5771505121381368,0.5447266562668411,0.5799430450510914,0.5568497005718438,0.5982232286076976,0.5631171137259581,0.5309455688058335,0.5852055261728211,0.5813999883701033,0.5819633184176749,0.5647694250526754,0.5871393768651494,0.5718041245190788,0.5466124011010791,0.5234271492077194,0.5841896823508383,0.5838857153532877,0.5048555837958264,0.558289374771574,0.5714852368867005,0.6051172568314094,0.5957383527019213,0.5493951089803097,0.5832320071089305
0.5925404399732388,0.612589803905975,0.5192729326828833,0.5786782921354039,0.5659013850862911,0.5516715905357499,0.5520042620171561,0.5662209453815787,0.583769845812983,0.5437056212366023,0.5743071936758439,0.557273487352282,0.6008504178785032,0.557294227341036,0.5342605566293295,0.5849389872003923,0.5885420790205242,0.5882502180257627,0.5744676098066295,0.6053807384669625,0.5761588083667344,0.5769152822958987,0.5397375884563793,0.5831433988806141,0.5873373951353331,0.5260504803035224,0.5739079547183179,0.5732850834078596,0.5948887279489687,0.5885216813368355,0.5646851440111447,0.5906319716620834
0.5955009901674577,0.5930189377813919,0.5310136099222325,0.5868913978470589,0.5869321482814511,0.560771611876409,0.5775033436079764,0.5657310763429768,0.5855181657761879,0.5378634139912877,0.5708217156267508,0.5473720012796996,0.5976678146627581,0.5534617751843403,0.5358616378099756,0.5684032760983344,0.5834571835391937,0.5921051322129256,0.5783426212220903,0.6121135132797613,0.5757705337496906,0.5778693666150434,0.5454955959207641,0.5727703727387508,0.5905996057638676,0.5405587629774025,0.5664519079876649,0.5675769079521644,0.5856023187565147,0.5820165335839653,0.5753093498767714,0.5899583103586106
0.5971856223208394,0.5881841072845058,0.5363393053804288,0.5806200800189623,0.5759448137263243,0.5820590501241663,0.5969982828139764,0.5701581578371608,0.5820120458555107,0.5529464082484896,0.5725581402764575,0.548453411203198,0.593430101515656,0.5640337999309648,0.5577773200152638,0.5646310966126138,0.5931729232351524,0.6059881481393705,0.5676842819989458,0.6172087372496429,0.5986079722217039,0.5822613788341306,0.5621542685483312,0.6130171292075679,0.59004497999778,0.5405897687444288,0.566776962334639,0.5845145808649885,0.5748891485317169,0.5677560642786172,0.5877590125654693,0.5901092851899388
0.5966631702577332,0.6015059748257179,0.5666151881335182,0.5836236744305463,0.584352867473299,0.5833323050473229,0.611067690059552,0.5780962150174394,0.5837320927822502,0.5685719960750055,0.5785499774516203,0.5613276072932436,0.5877886774760244,0.5610946215708257,0.5567397773285072,0.572555374960054,0.5857229266016484,0.6067537707878561,0.569416678789179,0.6162851970245238,0.5808492728981647,0.5883302276222806,0.5673862916434977,0.6104226585078738,0.5824757307211166,0.5375495640479873,0.5980257849387396,0.5936301262274144,0.6007649591520225,0.5592068538017827,0.5774620735924239,0.5960265512222955
0.582710127501811,0.5921565855210309,0.559392234552401,0.5827354478005398,0.5869331950662877,0.5841782186199738,0.5865785892361681,0.5893015078129555,0.5786920226878709,0.5692068132942629,0.586035880547664,0.5544649521019309,0.5779960587380519,0.561100927315763,0.5677559621045769,0.5802893247122647,0.5852841417717753,0.5929342123040824,0.5680972137887053,0.6070844148854455,0.5942967578206058,0.5897422795449523,0.5745012178926374,0.6127402759466469,0.5757928932417182,0.5550566752673181,0.6109846712825764,0.5949094847995298,0.6114388095776482,0.5767595300961954,0.5785838058490316,0.5939030219290387
0.5951565770666813,0.5887233033265411,0.5686765877512805,0.5751032794958597,0.5844689721583989,0.5880521947425281,0.5673216940450043,0.595198220464848,0.5950285293595061,0.5646716084452592,0.5834093966425269,0.554427585842526,0.5758768854246465,0.5539468893429698,0.5741352468597687,0.5723464345771796,0.5916355977641303,0.5811913265560729,0.563360397464653,0.5844982637915788,0.5860921759242452,0.5870737381875757,0.5754560624619258,0.6197612522538214,0.5805908938194508,0.5619805847792554,0.6098164299240674,0.6083769925860598,0.608826892585054,0.5890705587866107,0.577188924986209,0.6024399254874075
0.5907340502936207,0.5826036743648029,0.5798822138368092,0.5930836137960993,0.5887347849417299,0.5893931013557947,0.5721059601167373,0.5966293077523193,0.5886135657921456,0.5791245365598559,0.581970222230987,0.5487384559997799,0.5704526919075055,0.545511074273993,0.5668172077227505,0.5694671291064588,0.5881932693386966,0.5722450660498719,0.5356950478180873,0.5998709897804502,0.576082116825178,0.5899815025139157,0.5741661511106111,0.6093613211219857,0.5754844367761027,0.5647722099169017,0.5999279418631804,0.6080421097140043,0.5986821602650125,0.588332462147863,0.5775297230797625,0.5960898129942822
0.586778257783684,0.5818121945107069,0.5943926227740808,0.5689289874903993,0.592733008374092,0.6020990305054461,0.5859624994039403,0.6043494170257735,0.5665346629510792,0.5939216803263796,0.5964961817488534,0.5676450498145305,0.5710855084471831,0.5638649571205252,0.5995524688570937,0.5922786554283404,0.6036978674561975,0.5823236345030725,0.5255741432428627,0.6074339801536803,0.5722721367866823,0.5872693833674565,0.5956949161579597,0.6066828243285078,0.5875204311075128,0.5559997870970435,0.5854020202557533,0.5990618303202453,0.5912497434536275,0.5881804295236006,0.5758957575554482,0.5845411015248674
0.6101501213596188,0.5729730649392191,0.5853023691211949,0.5793986356074559,0.5840102563635119,0.59822620165377,0.5939046906854455,0.5943456483685767,0.5560621403150701,0.5993247127775838,0.5848954441330965,0.563755322994326,0.5516392835299091,0.5591138580347828,0.5864377336347912,0.6051427148896598,0.5923348295135895,0.580065140754336,0.5140406520395566,0.5866231279784184,0.5671330116486022,0.5782983004861122,0.5913293672658191,0.6068968255763791,0.5782511710138385,0.5568383182251839,0.6128359045648506,0.6126611793960488,0.5886341090369398,0.5900545804468833,0.5774441780706852,0.5724811417561595
0.6045178375950906,0.5811139061453723,0.5844784887886774,0.5940969167917003,0.5766369228188197,0.5852476256372983,0.5882458527627152,0.5976765361102565,0.5706581749433464,0.6046315742232831,0.5714132696912868,0.5615755625175933,0.5466661456843962,0.5427827680286361,0.5855273303845121,0.5891092412196239,0.6034533065146426,0.5902803371864414,0.5339649768775714,0.5793304835229285,0.5718037273382852,0.571206622276816,0.5879185058413334,0.5994594823605213,0.5782430224958017,0.5558996302339243,0.596271512126314,0.6216841253564418,0.5892220472469112,0.5925612151999813,0.5713442637810306,0.5762525411547301
0.5978229852397243,0.5716707731259709,0.5744710070395249,0.6008083932451447,0.5977478340797195,0.5683455702457993,0.5816466871113417,0.6036085674174148,0.5768641732417805,0.5958083565174661,0.5709891975560892,0.572943311331223,0.5556359691703645,0.5649530272071712,0.5925498344743323,0.5996101678199954,0.599146663674559,0.5815646256509805,0.5288065002224451,0.5625327267011446,0.5795645272616352,0.5704542357932278,0.5789132749165637,0.6080954737152608,0.578902296119856,0.5525695238062589,0.6016675932157809,0.6317538949556307,0.5874413464850954,0.6012484699931253,0.5727732843306104,0.5845132933095432
0.6137084256308736,0.5861319466836017,0.5822469345829888,0.5904871733072925,0.5873802023526635,0.5587613292222651,0.5747306340149669,0.6020836337861528,0.5618804230751735,0.5781375339097048,0.577222431988027,0.5585319897048064,0.5560365437640278,0.5733507745749034,0.594640297503362,0.5913803329371348,0.5929709501545442,0.5535387358691715,0.5276551843481685,0.5628120690569731,0.5903138620259578,0.5789416333961723,0.5978157852872141,0.6104403095360769,0.5793326444106164,0.5554963635250867,0.6020730399598802,0.624945204746314,0.5989598809241117,0.6125086519516376,0.568502789916375,0.5791349366506386
0.602341190263346,0.5809789828893228,0.5617429879876452,0.5984674758366793,0.5935341783605343,0.5467592702323563,0.5688295759491528,0.5928833684596522,0.5557784494536104,0.5596884243419709,0.5673776354103994,0.557970258518345,0.5618551803171408,0.5719536705091386,0.5807284625524258,0.5863599332912486,0.5890426927981878,0.5444710467904952,0.5179573010507359,0.5634439078532507,0.5902983676171902,0.5653480068739012,0.599374830097541,0.5778893839763386,0.5618776051205758,0.5671649355433304,0.6047650702409761,0.6175439790752475,0.6095656217498999,0.6165695977441947,0.5812040958741367,0.5962447386968166
0.6116494249623914,0.5855808408581571,0.5720342235051268,0.5941126257925795,0.5940643062619522,0.5506552037720147,0.5474265088094281,0.5807422895582057,0.5630101811579995,0.5627706190348998,0.567235217599205,0.5586913249416798,0.562460952389086,0.5670864581902033,0.570314934094533,0.5859120583340469,0.5764379034992047,0.5351040315770668,0.5337687394914075,0.5513975010415693,0.5879473310002181,0.5663827218175546,0.6021850533603645,0.6019899379171827,0.5897753045583114,0.5582685403743874,0.5935658671853208,0.6006494270926774,0.6129160635869013,0.6259487169812563,0.5817509350464323,0.5842994537406869
0.6067792634416476,0.5864444839710186,0.5637026170610779,0.5912177482250036,0.596437688900926,0.5429014648502721,0.5319268896868294,0.5820443657257974,0.5468723849421018,0.5454406102544271,0.5699552573356792,0.5654676056954706,0.5716015934488623,0.5697412203595573,0.5694854855750067,0.5650570257057437,0.5659634773923989,0.5177825817352764,0.5121220570913998,0.5396222555752752,0.5808437094276755,0.5414841547083791,0.6044214768487164,0.6066337126408334,0.5923135872232859,0.5653190641677934,0.613942908158783,0.6006940540811807,0.6063035536951742,0.6189101399026002,0.57072197341917,0.5687074981683518
0.5987892870258733,0.5739289074605862,0.5667169881123457,0.588111214570465,0.5999719203375435,0.5548472157371993,0.5361510569722361,0.5606536939258211,0.536459873399521,0.543686524873717,0.553247005464121,0.5377609761953277,0.5670377865905416,0.5276337592452709,0.5269605653239564,0.5319735336208433,0.5545666181803388,0.5198256498810943,0.5143323971575815,0.5472901948697952,0.5669710052254073,0.5089202993329791,0.5834782475974287,0.6141239960383991,0.5939579161716733,0.6009131086439079,0.6055411066027614,0.5907184443136102,0.6163495618470143,0.6150448753201387,0.5790291755076771,0.5659348063508256
0.6157212863472354,0.5922017631721586,0.5753770683793786,0.594324992095653,0.6079381852921228,0.5781528550042703,0.5673032933437199,0.5899983576125614,0.5443503559950886,0.5553713249322398,0.5467115287886148,0.521834957024407,0.5523554938019073,0.5272681015178078,0.5195885577331731,0.5231341097001647,0.548026644531546,0.5351339038870688,0.5137184697281101,0.5389473721376539,0.5561778317431894,0.5090761124507188,0.5737368554542916,0.6127399782211826,0.5786252998096697,0.6031390359118665,0.6134427595595366,0.5949229692893652,0.6211329212028072,0.6094256174391646,0.5809624093865762,0.5711700641316879
0.602497987249131,0.5903400820972249,0.5540480546097286,0.5739637663511776,0.579265218629379,0.5742623878880435,0.5744173624023574,0.5839488039395024,0.5517300538148651,0.5724395031410863,0.567198260077777,0.5264205928551218,0.5511778108796017,0.5453402884026981,0.542993669149451,0.5370555755832291,0.5489971846664154,0.5401945416701124,0.5286200103605738,0.5385485925707814,0.5327428950787318,0.5215108655746303,0.5704003049744935,0.629177333660031,0.5835182842812481,0.5963389967011934,0.6228660239408854,0.602544101655679,0.5969522897078607,0.6039215484736355,0.5725820313555543,0.5520460866983536
0.5866375866333109,0.593501171715717,0.5428854164205279,0.5620380210716354,0.5779384018904294,0.5730656478626073,0.5687484262437685,0.5691842842387445,0.5400981078236522,0.5467083977249394,0.5652091793700684,0.5369808176456616,0.565585012334199,0.5607327396505077,0.5461128406839992,0.5500728903386638,0.5706579186826994,0.5583428500325058,0.5280994739470755,0.5462327750557234,0.510945140503789,0.5240971199852349,0.4937878183276845,0.620038408653977,0.5585959748931328,0.6040209616092467,0.6183978884444388,0.5648258657705538,0.6010745215239734,0.5617412848028618,0.5671887010306915,0.5331767183201892
0.5820288422268751,0.5976780846525447,0.5274021150193486,0.5422413304302274,0.5785663619196004,0.5821654977533042,0.5639019450520357,0.5626422399710607,0.5299275501412049,0.5494268466586649,0.572495886022284,0.5387261223590216,0.5701538111386366,0.5687175392484769,0.5481078061220668,0.5516592419116795,0.5757435999331575,0.5598261390692651,0.5278224226686397,0.5393102337783597,0.5171179432262498,0.522180057287148,0.4937442336296298,0.6091260520163058,0.5582735265353285,0.5917652419382224,0.6174689014679555,0.5578959153464473,0.5946831835044346,0.5578375977631751,0.5746921351173473,0.5291088506875692
0.5880083498752873,0.5976150545488665,0.5501400860122851,0.5604104048255958,0.580376559773712,0.6010876368311493,0.5637150673628608,0.5599611721678719,0.529340965261611,0.5377746291995389,0.5704041255743109,0.5412293104824819,0.5638031468601792,0.5730027645737215,0.5441331708003898,0.5436360407410157,0.5800663838733882,0.5598636279131686,0.5196699357254073,0.5408845540054474,0.5181383463598501,0.502290367883826,0.4760004334355288,0.608613645779946,0.579872460570686,0.5747573593476818,0.6253584383835737,0.574219789113934,0.6075417251628501,0.5760275218638218,0.5594564956166845,0.5041706249090745
0.5904671893527835,0.5925949580609768,0.55179807984306,0.5722480287357326,0.5795381909720096,0.6101758603183298,0.5609124567183699,0.5620390075111295,0.5509810979342369,0.5370206147887298,0.5856192794382546,0.5524597121801023,0.5682335611947646,0.5802646862570997,0.5456199446390779,0.5473432144797501,0.5848464901941814,0.5721501967399063,0.5367134051137699,0.5715694346301348,0.5369427586199276,0.5192021085710015,0.4655024705170221,0.6166625213291343,0.5660346149478115,0.56126871415873,0.6238178206549398,0.5563541265194827,0.6087603532032824,0.5645583485425463,0.5219646107573959,0.5004979473141256
0.5791250622223667,0.5996144345398067,0.5633032726096485,0.5612355202220822,0.5633445558490169,0.6093898897491479,0.5570608754775579,0.5696831497334283,0.5619348401342812,0.5376996101162641,0.578963553838423,0.5490313436454533,0.5769095142859904,0.5762607012076977,0.5485507289517315,0.5574205480018706,0.5862097154034731,0.5657084875215626,0.5327990847769071,0.5584466234345378,0.5344675182408625,0.5195536868037038,0.46796302561578207,0.6128708883644083,0.5454531350823961,0.5671304249053764,0.6152801205947718,0.5362158058615263,0.5940206556902594,0.5616569180104798,0.5090224384291497,0.49069166066175773
0.594359487634895,0.5990533096736095,0.5644568141836874,0.5437317044607051,0.5451112591258207,0.591509674630891,0.5603325453850676,0.5689084691916073,0.5621121727511316,0.5300767112998201,0.5798207361314898,0.5528111787887915,0.5700032366524477,0.5764783131417444,0.5465144805786974,0.5607368925653242,0.5982416532741746,0.5656751209405844,0.5207728149795909,0.5637660587851663,0.5130312513252844,0.5307014707141553,0.4699452235285837,0.6028606370730909,0.5338781745894772,0.5589598213558622,0.621824221780523,0.5393935324309922,0.5972671018917253,0.561754407967817,0.5123633160797967,0.4990785791672452
0.5880359633516599,0.6084557172699205,0.574640687896637,0.5433373900703886,0.5488764779312496,0.5928959698362872,0.5722173735382206,0.5782310678765339,0.5569705774338392,0.5277053343762725,0.5886578529074602,0.5271312578515794,0.5744989680925574,0.568902937564415,0.5519690936591584,0.5776373353739905,0.6058678494204099,0.5779356553861614,0.5367905317964472,0.5525257137476616,0.5288576968330503,0.5533185474609286,0.4617928770402293,0.5922642811729939,0.5221633997940689,0.5625184629265556,0.6185458219454372,0.5350743804871216,0.5948354935784033,0.5440500100850252,0.5208388238959696,0.4992022429874523
0.5819247153738618,0.6026188872918694,0.5824370989608099,0.5318125038405292,0.5484707602547365,0.5798689906611618,0.575258267476956,0.5877850288123088,0.5583038242868836,0.5512172200160603,0.5786044187050288,0.5358236621738075,0.5676878127385976,0.5643629092891236,0.5512651124772514,0.5877222278308709,0.6035044374906224,0.5963451605638475,0.549119414279839,0.5637463932176194,0.5564591320382481,0.5434411522874716,0.4699727628269921,0.5969992325513913,0.5296966806588994,0.5551485075524178,0.6103472649558879,0.5253858999376262,0.5903961357271035,0.551082410019681,0.5189134414580101,0.5151611930666169
0.5902651952863067,0.6135596855509324,0.5770553791717958,0.5178996145844694,0.5587230567452068,0.5817563002485122,0.5659130023267558,0.5906601222787589,0.5760949836738551,0.5489643603433985,0.5816733955071269,0.5425813859452795,0.5692953893710184,0.5632400473442112,0.5619409922033878,0.5927952189119647,0.580576786536736,0.5995963417416399,0.5609175272403109,0.5519281222171721,0.5549644437541206,0.5391037637497553,0.48133938494315753,0.6012946528301275,0.5217534234304759,0.5452429227440603,0.5953923595088049,0.5338820507026525,0.5743215307854985,0.5386997003619358,0.5187320050072586,0.5081530203953375
0.5958216533861207,0.5981471876995537,0.5618947500845843,0.525003876849496,0.5659719369236114,0.577042904141543,0.5723438497421558,0.5849562107881727,0.5931266929740979,0.5587538518949371,0.5810644213901108,0.5663609992162724,0.5622575488067016,0.5683865636306944,0.5673043716517352,0.6048672789383898,0.5652108699120619,0.580173786126466,0.5635131521884511,0.5637633336783425,0.5437854732684189,0.5394307367302913,0.46865336193997376,0.5947054214451177,0.516111734808097,0.5575896310315063,0.598272122397526,0.5245763448492751,0.5870664938271997,0.5253488958122619,0.5140792547159663,0.5265246938137564
0.6041046403704322,0.5909267934408979,0.5622141731932189,0.5154511582179393,0.5689421200026339,0.6104750938234837,0.6098992529019038,0.6062580296296929,0.6145929634127913,0.566216693200523,0.5985659541340271,0.5780800309959777,0.5699981028462893,0.5564459591260857,0.5751613661016353,0.5854034409534403,0.5785612653809014,0.5683370576591984,0.5355966021029364,0.5850202622582565,0.5424658588401048,0.5441388914336125,0.4846459732610766,0.6040752177224271,0.5457934443928449,0.5546902487831593,0.5922094963651254,0.5688638994922295,0.588587757094603,0.5588627541432198,0.505332863549325,0.5446829675727369
0.6201766587906836,0.5874645021856129,0.5816532082057857,0.5473613767801124,0.5598204316073727,0.6077708386982676,0.6049267009238797,0.6128476606893827,0.6204189338151278,0.5798636401747617,0.5988584399382852,0.5852123728603598,0.5808624195589114,0.5537945998414573,0.5702127952120013,0.5714415995322817,0.5896252422057922,0.5744156840415275,0.5420815035139182,0.5829419900460242,0.5460944186597985,0.5403173246754003,0.4929902915204023,0.5915738504882415,0.5551486435496318,0.5441795711387489,0.6006690293779462,0.5948217575438681,0.5876579014343983,0.5905053569142358,0.5125899271093339,0.5703525926062372
0.6392325260226479,0.5837034694818319,0.5903387336165205,0.5668175102331272,0.5605404527555424,0.6201835125339867,0.5957946259580038,0.5990811601736383,0.6020729223844041,0.5710414680685734,0.5890787534597579,0.5761218672414326,0.5810033044970049,0.567241005075692,0.5736139926721404,0.569632371342955,0.5897181191694076,0.5629878451290029,0.5525305883300842,0.5600014374709463,0.5308131764800739,0.5346653250449864,0.49936237272126816,0.6027222791584723,0.557928104385347,0.5607774943238479,0.5895334906167671,0.6047819323144856,0.6061797172210293,0.5893863217993767,0.5415933670863149,0.553705861082729
0.6223176911432495,0.5987466629153593,0.6028071601206917,0.5545733506172494,0.572245299053725,0.6057897018074971,0.6052758392199129,0.6003617880145296,0.6042089721749204,0.5738069835541055,0.5959925946643421,0.5655860366895391,0.5501696139615473,0.5577454311562047,0.5753628755731817,0.5533581985490112,0.5812296777403132,0.5614807288907815,0.5399016193381687,0.5598234954334327,0.5278326346615221,0.5275481425726429,0.5117644934643129,0.60121737891745,0.5571431049596147,0.5695375984001707,0.6083553154715884,0.6032790091477622,0.6197377421083479,0.5919873362727026,0.5901108985224259,0.5427522222697587
0.6133576120521109,0.5703879705464252,0.5988417990101293,0.5444399663054256,0.5647455634563552,0.6079495603981484,0.6047215242368997,0.5949020430872585,0.5963702034676386,0.5835636219155633,0.5865568208746295,0.5770581191983943,0.5457227552958717,0.5619727881053511,0.5744208115581926,0.5616891781416147,0.591302663504822,0.5629793318893639,0.5472190049577232,0.5842042908650282,0.5097107550340647,0.5273041999347976,0.5223317872511135,0.6036058966601807,0.5511352119435435,0.5773054357930962,0.5952526374272797,0.6110140876662791,0.5966084442891018,0.5730421230185727,0.5827966137795682,0.5392376114873914
0.6072404768579269,0.5600982058959225,0.6104353347775522,0.5632216670900299,0.5808180408129093,0.5898675364862824,0.5802664970545228,0.5830499469914567,0.5934458329258874,0.583411649241552,0.5807963633598425,0.5958315254753015,0.5609272706986355,0.5600431882481574,0.5784482648173763,0.5620298515287234,0.5874670385089225,0.5688683909198167,0.5632981195133868,0.5767979981170197,0.5103667374384466,0.5437446602835072,0.5194179509677435,0.6146481026419468,0.5512839633795363,0.574136419128505,0.5917346234950753,0.5962421054526259,0.5907617517819013,0.5725169457089296,0.5804121789670234,0.5521749834310645
0.6142319082768339,0.5525943119286736,0.6009990472943891,0.57514325849061,0.5730155696885944,0.5901328471559522,0.5641206315575902,0.5735328996765463,0.5919699202573638,0.5861032313752319,0.5671712622989569,0.5856040012584978,0.5567135577226283,0.5623414179728679,0.5771786184213843,0.5610601890229825,0.5794949461309962,0.579897222680716,0.5717290248938536,0.5813002599132062,0.5253447615004694,0.5492660225812771,0.5492444976609949,0.6067470422109786,0.5610164322006663,0.5704242886703095,0.5852463794264602,0.6050471047040489,0.6114708889267648,0.6018360075572544,0.5882046866171033,0.5497492663605534
0.5997531003397492,0.5619785906164823,0.5759776742304168,0.5786906800102107,0.5624705817741771,0.5707771260556824,0.5604802684765193,0.5562032486066828,0.588053400198929,0.5695396275852769,0.5622070289508372,0.5718683532136777,0.5598030437454176,0.563943521296661,0.5563416153377507,0.549123675883,0.5847180596510331,0.5532312113298237,0.5820607043207571,0.5736922060149978,0.5002043664252747,0.5591859485863266,0.533353066910629,0.5769596884890218,0.5509495679451031,0.5498844177596522,0.5691198516956142,0.5860715137220835,0.6016391836415966,0.5873036391140412,0.5734173495620976,0.5588003246061986
0.5903110839094317,0.5550451480012955,0.5429214816936723,0.574136294396483,0.5666950073109809,0.558245216723944,0.5488276381473329,0.5683531414909511,0.5685327787053449,0.5630534390594639,0.5585029608615919,0.5414444024937972,0.5455994749600883,0.5636242096198827,0.5529829029684987,0.557131110927124,0.5964655504692806,0.5753688091858407,0.5986368589599058,0.571001074191861,0.49918216959856254,0.5377331921736843,0.5438246266843478,0.5591252503256432,0.5371489992957201,0.5590486838013762,0.5530050443354764,0.5731201829484753,0.5878711459101775,0.59771797987535,0.5489539062365623,0.5563355163913704
0.5995278421984143,0.5776506902448246,0.5344842758893895,0.5545019091094137,0.5605460756067724,0.5456809585127678,0.5516994158541793,0.589487725510021,0.5739879725179806,0.57186078826336,0.539499500776762,0.5252481056875768,0.5636697092694067,0.5652359970067025,0.5564582421821731,0.5457713007296783,0.5878328960438095,0.5708864876000646,0.5956658339109002,0.5741798102322875,0.5190941629815282,0.5466204151294414,0.5496607734087826,0.5522785233727232,0.5441274296160654,0.5577313410399891,0.5567239780155298,0.5724908211850077,0.585416201344362,0.6071180852427132,0.5627830562307139,0.5505955595040919
0.6174671984786597,0.568649108084212,0.5335981378946189,0.5520618058797919,0.5586881967022626,0.5251380887060644,0.5517998401338104,0.5878300402300178,0.5755246025388967,0.5544874816141538,0.5388986146602397,0.540777341220795,0.5740623230259652,0.567944254675719,0.5682854348969459,0.5580566463376364,0.5842313618142057,0.590893012010584,0.5906305451920026,0.5697779600585795,0.5492823895701759,0.5557528345832083,0.5769642626192382,0.5439040618672348,0.5422047753537282,0.5653687835645402,0.5576466477368935,0.5662116703398081,0.5825420371063577,0.5959412051067212,0.5598702161280764,0.5503011490119407
0.6112277509326463,0.5647723981477708,0.5119760522487331,0.5181836697689768,0.5440559587524603,0.5335372985331892,0.5480359058987205,0.5800552086103745,0.5823148047499251,0.5340978217414509,0.5390494554711429,0.5538602648668358,0.5743336432225945,0.5870650178189392,0.5712527404969294,0.562217908566784,0.5943247885186516,0.6051034606579218,0.5759732921633707,0.5818419411139484,0.5520456086739531,0.5552393277151575,0.5725689830921628,0.5495537784716138,0.529511798347905,0.5688517366942394,0.5478385291195549,0.5686276138011186,0.5883072028246423,0.5825454007331086,0.5624339397647788,0.5532965999465502
0.6129071922799798,0.5704719456270899,0.5160759912243025,0.5343029529051466,0.5619025318439372,0.5278257216613835,0.5081765230924762,0.5560573794842467,0.561720164542685,0.5288758644267335,0.5346611390367229,0.5300257726002089,0.5855268957686319,0.5554227717822489,0.5527675062114472,0.5678626240531139,0.5965499680687985,0.5903353938094327,0.5755178716806508,0.5797095485752504,0.5572867986115875,0.5392953904411661,0.5642520844923071,0.544828302266398,0.5318935189680669,0.5743855673621807,0.5544381925589277,0.58232219181544,0.599959234303586,0.5892865482973422,0.5721916379920713,0.5265073227854646
0.6093923781164565,0.5578577393157831,0.5051104151438488,0.5285342135409561,0.5542380467974852,0.5284449659548223,0.5201036601447968,0.5562433653846366,0.5567086565863368,0.5301799191958314,0.5282865773503342,0.5420610623189521,0.5696046787339957,0.5613756115921564,0.5550656349291572,0.5769739487721548,0.6085665139827441,0.5883086818651981,0.5697981114619588,0.5780183875594496,0.5668621959420594,0.5393375743542697,0.5744512247190796,0.5576446434558302,0.5396884360568897,0.5669979696320717,0.5564469711496205,0.5825807310658275,0.5971126782432328,0.6011266774897202,0.5547875805272895,0.5434927693437772
0.6047602658093862,0.5683638068286196,0.4995242938111417,0.534299103946331,0.5543726964994948,0.5145324640513436,0.5166730279603864,0.5578737791319006,0.5573880475215498,0.52294684985484,0.5308259161485496,0.5352231536287047,0.5548566371601509,0.5509125185200108,0.5390254963805803,0.5836481006224692,0.6044082748978079,0.5818710814128898,0.5617563841936546,0.5764823082588229,0.5446577238197032,0.5244959681892372,0.5579113134144409,0.5510014312939866,0.5344139053346488,0.5796037589280374,0.5686818007487835,0.5595286674958304,0.5925484907664647,0.6029341775554711,0.5563613871447792,0.5480967924674296
0.6133692240543658,0.5644434752401941,0.4805574936239503,0.5422104701677548,0.5456943275738149,0.505739594197876,0.49913136323983975,0.5383834732782287,0.5725844122645216,0.507885172038292,0.5177194565848064,0.5231167056270265,0.5586608884378119,0.5445711050332429,0.5190867844376221,0.5908855771631005,0.5982146343611712,0.5728985660351764,0.5527195381374286,0.5587055355110886,0.5353604978510735,0.5180197639980864,0.5481194392763373,0.5468274796723271,0.5326667908081033,0.5768673163494458,0.5852716293725919,0.5366848286574086,0.5815279329142178,0.5938361109034092,0.5446537506636484,0.5563525253786796
0.6147673171772228,0.5703974339438966,0.46244696716672395,0.5324600599601532,0.5347440978456603,0.5154687906483115,0.508337661835558,0.5331906535689943,0.5519885113023824,0.5065423295803924,0.5092135081538234,0.529596136442553,0.5470946750354737,0.5387390665072394,0.5132840044281326,0.5872604249756468,0.5960565852590882,0.5701318094839762,0.5427417878996184,0.5419834806785242,0.5282381839627708,0.49383524584564853,0.5575155498863338,0.5363021760394435,0.5204093125332392,0.5859462139509763,0.5774556032277198,0.5263909126455597,0.587643044950307,0.6149862433545921,0.532364080128739,0.5576203268647086
0.6117178253715814,0.5839901230559694,0.47764915614883474,0.525055707368915,0.5247694418446787,0.5045867137730391,0.504541271506389,0.5151748791472874,0.5570371031245323,0.5112617527648253,0.501963972447983,0.5258631944598111,0.5375671980421988,0.5316892315622255,0.5047327513042541,0.5980239729416077,0.5897316935941017,0.5563628050247442,0.536054819293025,0.53658670570811,0.5245651345091789,0.5110063523060027,0.543125143848846,0.5365368733735569,0.5412596373566969,0.5892612001121313,0.5962228793896478,0.542008647870678,0.5932608314444257,0.6160724521641798,0.5458781707747118,0.5627909750936833
0.6147013294221928,0.5910598383164039,0.4931138857405637,0.5171664732314811,0.557368288846932,0.5032150632672847,0.49522452725304156,0.5249838494001566,0.564963998871967,0.5070166191999697,0.48190018245396926,0.5391425129161238,0.5701168759826132,0.5249361610901042,0.521278013579261,0.5890000731517255,0.5910959974071219,0.55835056492529,0.5486257841461395,0.5483299398597907,0.5256867361176147,0.5323671722288328,0.562053883629837,0.557754338970486,0.5329370385617809,0.5909251337038004,0.5977593499251062,0.5597367935887254,0.5789047862906256,0.6051166641478454,0.5577747406286595,0.5745107824843614
0.6131439750930228,0.5927153607685227,0.4932986284329708,0.5252881739202264,0.5551967613477644,0.5034852048189715,0.4869041059243462,0.5368285341033037,0.5647157894939285,0.5340228392133088,0.49253231364819827,0.5472269487891275,0.5834138494502317,0.5459898059378268,0.5490266223977449,0.5903032362901932,0.5760679681604137,0.5620981507039011,0.5474575419102519,0.5681474046377026,0.5220116027223627,0.5381518870933433,0.5591928876267418,0.5689355509917218,0.5442525419400588,0.595362946015443,0.5946511598433677,0.551113804002243,0.5885747354729562,0.610969749577698,0.5493273193595791,0.5542437367187794
0.6153445957439883,0.6073035493309673,0.5029281873748319,0.526671169656018,0.560398292571445,0.5293292638919049,0.49752060545147714,0.5621705634370335,0.5668214061983448,0.5572494980955871,0.49966657670851955,0.5612658917781137,0.5828652071467508,0.5522787893725591,0.5478800102860015,0.5824835720501329,0.570140944832831,0.5603588134354869,0.5436995876203223,0.5556668234321034,0.515846166491241,0.5124434426441855,0.539729705360767,0.5719854002689058,0.5202690466843598,0.605230094511541,0.6044739941279618,0.5537512434606984,0.5875207022467768,0.6120993294837977,0.5566757769093074,0.5842753202112503
0.6135966510208033,0.6197279604656027,0.5117006221204821,0.5514357442831632,0.5410949515902805,0.541024191074122,0.49165044802905866,0.5511482766024338,0.5676517083497936,0.5411617363086267,0.5060952734565767,0.5422863338746717,0.5728391054054405,0.5348659860051326,0.5179513869295187,0.5678597290185929,0.5592553874239936,0.5561276011022578,0.549982670573506,0.5560647359677509,0.4991630718142397,0.4969579446916126,0.5482921858941805,0.5745800513611576,0.5373271953576193,0.5822812463757767,0.6036214837933915,0.5552837257614858,0.5970639347332347,0.6129609102039053,0.5732720817354493,0.5864255199701898
0.6212186493790557,0.6207522474786575,0.5251161181459612,0.5477580309475658,0.5581199070712421,0.5655646003115891,0.5246021138012011,0.5734468370056902,0.5828103884538467,0.5485545886830239,0.551180217780717,0.5692968340882869,0.5810269783753306,0.5597828567762582,0.5471108216174287,0.5590454397176563,0.5666567059945158,0.5521810783882781,0.5459751265607324,0.5675338978517632,0.4978534674065749,0.508446203420946,0.5614807488977038,0.5893523539397507,0.5519520853387352,0.5810131535812024,0.5968736760837108,0.5513502036933371,0.5988518263419307,0.6121447693835247,0.5646595742585054,0.5868635011662886
0.5971968637858902,0.6105926500948917,0.5274685788164852,0.5604984660915999,0.5730648631168669,0.5666273484128745,0.5393770452484943,0.5732410004854587,0.5792977884983865,0.552776215099446,0.5535845430290358,0.5547317691030837,0.5872474541184296,0.563191960563429,0.5518713537142457,0.5594296196704902,0.5804061364710722,0.5592997514900322,0.5635900173396009,0.5626109962171091,0.47664130347441835,0.49653524645589275,0.5432172396191959,0.5781553550400598,0.560968902530977,0.5751717085570807,0.5896040803799649,0.5525366161958769,0.59234065362299,0.5984309521893754,0.5636808662215955,0.5569813857217945
0.5993772552030667,0.6124597253901913,0.5269627360452898,0.5826984360459035,0.5860440999511405,0.5551634643430052,0.5231866223310799,0.587605670756778,0.5818429946056152,0.5550440808057608,0.5587133597777338,0.5592120166721704,0.5746469262271634,0.5747679242935466,0.5341099933263735,0.54758063441369,0.575576577584687,0.5680278159488412,0.5644559992405069,0.5697835022553761,0.44474865826990007,0.5223455154154473,0.5690601716192658,0.5828710965467145,0.5615792963099198,0.5669896604846909,0.5907943239931348,0.5738147253744268,0.580982338711237,0.6140353483319778,0.5648815274257348,0.5417227918837124
0.5778623757012142,0.6026226110330297,0.542278229892891,0.5834461274061842,0.5809255856847662,0.5693426649170292,0.5293516388875039,0.5903268295569348,0.5660151415297836,0.5528390746562315,0.5743000942860741,0.5733801337259523,0.5694057083161397,0.5735273471672717,0.5475157596281903,0.5603355415160656,0.5921226076286938,0.5781014530867288,0.5739278291847572,0.5822820322782412,0.4115205565289526,0.5418283514320748,0.5728802211685853,0.5694740255334243,0.5606587169904649,0.5488228926475056,0.578759131361831,0.5676334055686252,0.5813983039346264,0.5967666680267576,0.5530814902827834,0.5324051616274592
0.568002472925381,0.5858128198898425,0.5537892111457268,0.5727593383471192,0.5766587275566186,0.5702175912220468,0.518454428051581,0.5779009675732065,0.5507584266955763,0.556805254843387,0.5615558382555301,0.5562638518979828,0.5609348870625936,0.5683711261702893,0.5511975600761025,0.5625863586569091,0.5941457173951714,0.5773812472961395,0.5755203620653662,0.5827057109366143,0.3659013508122557,0.5592622455874707,0.5678337197386161,0.5766458473296185,0.5696908790579247,0.5587019529808974,0.58150592593518,0.5818547827921576,0.5899079975364776,0.5952822981830224,0.5554103247264837,0.5390095374508519
0.5618426077957897,0.5686115310580062,0.5557567380764747,0.5703586688677196,0.5735682211863522,0.5841350584806686,0.4910618148599286,0.57111804672429,0.5386014788534408,0.5461880573757685,0.5802398786670651,0.5466462030388257,0.5456349039922248,0.5656196886958567,0.5430026000828425,0.5622479750394502,0.5914923019732292,0.5729062934818239,0.5762502377930887,0.572710993032366,0.2967664921552462,0.5549770201958313,0.5750421943853206,0.5901362989971299,0.5666373912875278,0.55465865742732,0.5701849354969508,0.5697449054329282,0.5844729660003951,0.5754887107111588,0.5501210276094244,0.5249237851162531
0.546435430139852,0.5665059239658219,0.5497053642907046,0.551330900003181,0.5612251616156065,0.568546900256262,0.48403751355350444,0.5584686174589972,0.5273717851060904,0.5246413144949833,0.5754232909815364,0.5345892214389116,0.5535225446732843,0.5533890048587766,0.5240761060017047,0.5537098436038064,0.5637192164994511,0.5575010268217162,0.5724238863758155,0.5720327119626569,0.22683267612218216,0.5536866040629715,0.5777336467025287,0.5836731827663773,0.5521341766225758,0.5456826845312683,0.5821684236867961,0.5374096291638764,0.5606150305799233,0.5410730727111601,0.5418658804135035,0.5083740669839352
0.5004414779578226,0.5531698350241498,0.5489747127856788,0.5327239262652346,0.540557995503534,0.5690214742536646,0.46798431333312074,0.5659785034019786,0.5584661683323784,0.5216930946926981,0.5631549249040875,0.5375876413024328,0.545886981168902,0.5403294440165034,0.5310588280868145,0.5441268262922332,0.5605721761750142,0.5463631153726056,0.572462726178864,0.5463317124583904,0.16525698214086182,0.5612143954638329,0.5613789021303095,0.577982933547001,0.547896253010447,0.5202551317453854,0.5653392048036205,0.5259888793647471,0.5297129980045909,0.5070575760282541,0.5293693919888769,0.5142046294178808
0.5074287357487544,0.5483068830263402,0.5713268325467524,0.5641099364191069,0.5552653483784358,0.6048129570818599,0.5030374086264118,0.5771005088399797,0.5808339291177989,0.5441090336271053,0.587545710453119,0.5727172474559281,0.5597451997384035,0.5598240382586517,0.5639957275002203,0.5834319538407464,0.5700955023244525,0.552180873768918,0.5868195736608217,0.5778399627859412,0.13631836971863054,0.5612005909864823,0.5564206895711479,0.5809273546924199,0.5730158457241248,0.5206439180176767,0.5500442054509653,0.5538945494314422,0.5194273439952517,0.5003657928428611,0.5516838825374033,0.478149946937068
0.5105126110142315,0.5661347355631499,0.5823012370124241,0.5618918431039517,0.5744177904020913,0.5890667151611755,0.5448286621502461,0.5828980187088968,0.5735260831027214,0.5632640527878587,0.5999988293133196,0.5909994090866229,0.5682697476459833,0.5785661854843576,0.5762019824750513,0.5911127404816736,0.5985720985269292,0.5557075813227685,0.576526244701546,0.5872538211304796,0.13651053454535678,0.5689898146972072,0.5375709573949017,0.593085992638978,0.5761493401080533,0.5142810763251595,0.5367416716420443,0.5624547792697654,0.5141841368126907,0.49557504435240407,0.5437926005344469,0.4727615813003583
0.49233250697418107,0.5714822105907027,0.5868045130158226,0.5634322589646734,0.5859442372298598,0.5890352329730151,0.5551010715816638,0.5684842122559184,0.5681664644561231,0.5853579959741682,0.5977461885491628,0.5802325919736133,0.5982619560044409,0.5867890860102731,0.5820758366231962,0.6021123740604781,0.5959292735370814,0.5599216378882144,0.5950604617945605,0.6095617807405049,0.13288369232123554,0.5723529751874685,0.5327839484368311,0.5924718423956898,0.5761005861008224,0.4953490296776253,0.5172515006241767,0.5731654735898828,0.49388960488715616,0.47317909688268944,0.5539663199467757,0.48057797170896466
0.4809321054141651,0.5627451912990185,0.5782902050389715,0.5690022748820454,0.5631911200852553,0.5775813490313411,0.5514620304183793,0.6036805020820593,0.5889258742017223,0.5955631322128352,0.5979564600966931,0.5841076036822046,0.5975273112952522,0.5952332285731656,0.5705301075714968,0.5884016544262676,0.5951686145347095,0.5664286335625657,0.5832155764442422,0.6113156185334763,0.1402767601744359,0.5707994745494371,0.5629628356688858,0.5859252396477266,0.5772117786418138,0.5035078533507038,0.5395052793245187,0.5662679587359456,0.5089746666017225,0.4683215413067745,0.5342106490327896,0.49426263654200486
0.4722886165428659,0.5617753806527239,0.581246321726101,0.5732310780998122,0.577380833299928,0.5778849729590987,0.5613449510187798,0.6064293587220138,0.5906331994946417,0.5959100077595036,0.6195717973885904,0.5967588822618604,0.5991505877467387,0.5805020069518587,0.561059225817687,0.5877428082738505,0.586195672835482,0.5805455024850197,0.5774212560587033,0.6202520664499422,0.1432393910149452,0.5752367540404926,0.5647225493952477,0.6147561259583374,0.5803431580945482,0.5209062902337815,0.5444798799895372,0.5624073969911536,0.5080963459205874,0.4503801146532007,0.528394715976396,0.5418302667481765
0.5186488314676891,0.5889439900920235,0.5821105918691116,0.5834023309126666,0.5954431711418859,0.5763423522571198,0.5608572750442136,0.6042036083420039,0.5954527054250396,0.588058650300515,0.615146287156652,0.6120444880489373,0.6014276999399129,0.5917885459416485,0.5634449002588577,0.5896566434858781,0.5902827457484321,0.5801524975454622,0.5899083860098489,0.6145811691664287,0.142760462154635,0.5925527613556367,0.5793749015898468,0.6251332817600619,0.5825991119174119,0.5670391569809441,0.569121075303936,0.5795162286824787,0.5369269918046351,0.48988435196526847,0.5514882107492247,0.5498832705554269
0.5346691263383749,0.5985050328646349,0.6027255728120102,0.5891299682016169,0.6051000975414742,0.5857085903315533,0.565527110886793,0.5952316894721519,0.5794791378975517,0.5783351677654887,0.6205697819151017,0.6092171855304156,0.5974506717441881,0.5776114765025508,0.5799232201157558,0.5804518574276041,0.5832876139547851,0.5801289486554055,0.5579840309911992,0.6086023660998561,0.15228551885702357,0.587793625727353,0.5805440435486902,0.6067834563825016,0.578771771834262,0.5491871378244566,0.5724680092161578,0.5605820064917801,0.5248079779456907,0.4675211258441059,0.5498804576345422,0.5470599473645246
0.5434481384108336,0.6057520590700736,0.6060758377429649,0.5933181743491245,0.6138892180897391,0.5857143054016123,0.5720985494298914,0.5910537333483914,0.590860429861872,0.5920239321987961,0.614787979890365,0.6063575861646893,0.6076887638235822,0.5850566421338961,0.5902230824452754,0.5826441390983184,0.5813363238483373,0.5764931681102619,0.5480707815357904,0.606148060920837,0.20516577535747027,0.5885874972986676,0.5696554710253596,0.6143334606451094,0.5745668575213081,0.5579212794869797,0.5903762584508083,0.5693645682767263,0.5313970408443227,0.49776258714806154,0.5487926268929586,0.5563788331362844
0.5591808708374848,0.6033944271085097,0.5992815782680707,0.5968717930655822,0.5983641593214579,0.5839901903719165,0.5839211617650535,0.582488147488343,0.584269132722333,0.5781239094577928,0.6093821260066434,0.5891138935643139,0.6109789415677405,0.579195190828258,0.5978768183900671,0.5960869933142283,0.622996967362798,0.5795941052027489,0.5395174451683422,0.6062445453778595,0.2807424959320235,0.5918295397175366,0.5702140356874366,0.6168241232105687,0.5703933673144461,0.5584958876599955,0.6056230606929058,0.5956185573401025,0.5405653383762252,0.5079203287809357,0.5708390659276805,0.5687678727733192
0.6051899253271245,0.620471627916436,0.58455915868227,0.6062124207626463,0.6049697825754339,0.5771197246737829,0.5794408918843277,0.5627468561692943,0.583037506212329,0.5795389770430255,0.5982238620446774,0.5837909686953382,0.6064434989964997,0.5770146089138679,0.5772293332636158,0.5952200733257085,0.6303673188791277,0.587430816855103,0.5550640014060306,0.6025662707115726,0.38672239274696496,0.5876077280333583,0.5675443092098353,0.6162400769192793,0.5780636162330963,0.576446810509883,0.6057851639915195,0.6042488931678922,0.5568181452831387,0.535933276989832,0.5899284716849422,0.5741182254783501
0.6255793920587998,0.6165303193253244,0.5931376053361102,0.6045508315463564,0.6043891592213395,0.580384997193578,0.5870510734958208,0.5795633472116068,0.5766705214682113,0.5846293907470281,0.6106135005133431,0.580363855415241,0.6050046833966238,0.5777325888030678,0.5787332713398943,0.6091995997041404,0.621104181289653,0.5989058608593463,0.5562503810330299,0.6053266099923071,0.4935548205190643,0.5864875411407677,0.5706152959321966,0.6131802305428207,0.5827947876404913,0.5872126817194361,0.5864369825748832,0.606723837410684,0.5727407492669938,0.5374807720410937,0.5834845985221921,0.59975337158737
0.6281114928009957,0.6265550935864801,0.6057163470172395,0.6081929147248211,0.6075111112128018,0.5968364879766357,0.5965104117112259,0.5922866458611611,0.5771454497808741,0.6133654876704036,0.6174386858643959,0.583578766831141,0.6035865771281341,0.5662594066081557,0.5905633561846777,0.6081262816986182,0.6201692940751014,0.5907354056339749,0.58429676894893,0.5942097741271115,0.5395285325669024,0.5690455863301587,0.5749091547982741,0.603449217463337,0.5726011238781652,0.5617596685250072,0.5815337211608225,0.6053610035034178,0.5714430029524844,0.5591654779730661,0.5766429695041397,0.5986311003659934
0.6180794684181339,0.6213723905094488,0.5991449246830163,0.6016748848817355,0.607394048788855,0.5925573001631848,0.5803737941090712,0.5890747611780593,0.5704067128318693,0.6085957514698461,0.6154690016536697,0.5862992425849476,0.5860289932904146,0.5627063755726622,0.6078082730750194,0.6200790685349116,0.6016042300720916,0.583504722312091,0.5866917804725582,0.5920836321140572,0.5680303752632132,0.5774671710558845,0.54235561540865,0.5947088364582478,0.5644897923228425,0.5754772523929788,0.5752021942864656,0.5984495745496483,0.5717002980715122,0.5638243204561157,0.5677751203864672,0.5907190740218979
0.6313673081216655,0.6091799314951296,0.6142495151940697,0.6008501460865086,0.6035025876990443,0.5974948849763289,0.6081424632597354,0.6189946758465101,0.5804142956512552,0.5949982412465342,0.6019434241356993,0.560172344014092,0.5549015811794984,0.5811969452362113,0.608549788268204,0.6222778297996987,0.6011820232566181,0.5867798334296954,0.5962390471739782,0.6032514936339513,0.5733028726030875,0.5600684144269685,0.5518772384584567,0.6050339941876457,0.5669232461810165,0.56738990900064,0.571802052182552,0.5890063287680771,0.5760249025786579,0.5599125546672452,0.5721319223429555,0.5985929978779971
0.6122109199073855,0.6076725343869875,0.6227877480593893,0.6058490455234735,0.5998072113643196,0.5842612128432321,0.6015866300462638,0.6155910341479922,0.5492572289817415,0.5918633558826718,0.6060097377143978,0.551380924029258,0.543660987429432,0.5717728437473126,0.5860695858253187,0.6122635005313226,0.6070589450447197,0.6000658637095055,0.5786312064266754,0.602655490015807,0.5671979567599048,0.5558133034176107,0.5474312217124737,0.5826829402250651,0.5748671583505343,0.5643857971233666,0.5775712409101903,0.586692875749192,0.5719470045987469,0.5610975281401851,0.5793414834275836,0.5959904493817287
0.5883125954284529,0.6007236752445659,0.6069067733785944,0.5934305432905167,0.5798609499697611,0.5817793111492238,0.5902475666386242,0.6007604035274721,0.5637319720117349,0.5892160613336452,0.6057327063515752,0.5569300667265891,0.5489348453483025,0.578274290722951,0.5896176696644413,0.6065665622301828,0.6164132244474052,0.5897924132279804,0.6071672449791157,0.6081795130363634,0.5856711572158351,0.5310254816443725,0.555944230838838,0.5656150281403081,0.535337058167912,0.5600902279657531,0.5628431500140123,0.5638759834314846,0.5601900059629168,0.5593392946050497,0.5583669048342332,0.5899257882697198
0.5833428674477963,0.5966906274066073,0.621590352350291,0.5979380256472822,0.5703099389861799,0.5703425120555314,0.5974537755053473,0.6011513865808777,0.5624787227967891,0.5686256535071599,0.5957826795810153,0.5351092135181559,0.532371994369722,0.5784126365661573,0.5838032363044596,0.6041537415670892,0.6055511749666969,0.5683745585332702,0.5901969468685926,0.5902160027018395,0.5828444124364625,0.5172093286597592,0.5465285964452749,0.5748446588665939,0.543989650647168,0.5576373471882246,0.573835060194436,0.5668914897225097,0.5580269207738859,0.5841275219791568,0.556001244916505,0.5926177166876863
0.594078227699574,0.567477750980729,0.611336223341377,0.5936566827713534,0.5598253893354839,0.5702299548154128,0.5834268373467881,0.5970495781871086,0.5439068689848354,0.5798465771765722,0.5867050390177786,0.5454374391040542,0.5315859561713139,0.5685614545173556,0.5791037575488098,0.5993587834658358,0.6074939059743278,0.5674623530894074,0.5889242768060363,0.5662562433454887,0.5736586760665494,0.525414290692968,0.5544581957102865,0.5717753458628332,0.5262142169159918,0.5538321391047272,0.5691743095319506,0.5589029875438687,0.5577575301098538,0.5622522766397156,0.573369274835013,0.5977339450836068
0.6006588309193521,0.554837912783205,0.5786870034425231,0.5892912884124746,0.5407984003952842,0.5657506029584471,0.5722701312324601,0.5945542363895364,0.5216796385450726,0.5750390106426444,0.5922069857488057,0.5376059478176312,0.5160368100214812,0.5390052693781735,0.564412950380258,0.5910814713780592,0.5866964781628532,0.5669448417869285,0.582985354207382,0.5802084222176829,0.5675380509876176,0.5383024519520934,0.5588895074786295,0.5757594790711735,0.5304067969268398,0.54120675177571,0.5667492237360285,0.5586504924441016,0.5659477338769228,0.5828204275650202,0.564383549547864,0.6068278132802201
0.570835942298547,0.5464414843546472,0.5882080788098989,0.5565744977215066,0.5378329185063775,0.5693718912158148,0.5726437926014252,0.5976297405570454,0.5532461594358109,0.5478277976151715,0.5857284398316893,0.5513471321707075,0.5373844620496779,0.540598915390428,0.5872060067475071,0.5877117954796547,0.5793472438827285,0.5583598837322072,0.5802002206993824,0.575817614870985,0.5618196704057734,0.5509365671295079,0.5306338210418113,0.5847929307022715,0.5311799759288731,0.5448957226583873,0.5512536416371296,0.5335579712948944,0.5512655561026305,0.5816539490563297,0.5648022598434008,0.6053928940012505
0.5452401018981834,0.5604606536719006,0.5647963339620499,0.5444437800491411,0.5396649361682386,0.56169304844396,0.5769421166528379,0.5848129820606971,0.5647246799640171,0.5495424351547862,0.5800879539211157,0.5427346330735494,0.5268226625385806,0.5397568995636552,0.5793789248917691,0.5852595261811082,0.5797844264842045,0.5557337783989005,0.5747581255581427,0.5561705730813857,0.5487444111129207,0.5575710712927573,0.5023918593105883,0.5720978824121907,0.5177823477578585,0.5528198148122394,0.5430694703108649,0.5117131064170102,0.5499604536654892,0.5635013245106779,0.5739506724717947,0.593123415113991
0.5151984277321549,0.5436253533790123,0.5289130745344792,0.5236073669992996,0.5338608412990005,0.545030679363407,0.5740651607787721,0.5950356598008497,0.5744501399958222,0.5665531263532615,0.57454465875229,0.5377769438956972,0.5300541784774748,0.5423472746496558,0.5611162218537742,0.5728646188826207,0.5657497493702328,0.5534664225297847,0.5486689439116521,0.5330805925903208,0.5048612919988265,0.5571957565468852,0.4726836502352252,0.5718132505996758,0.47877931358041703,0.5492749699484931,0.540003694035712,0.49179007563801935,0.5072937626193981,0.5300798028795306,0.5574418870703921,0.6018533494917087
0.4977894629563626,0.5189789961533977,0.5063585601785969,0.5113219682116124,0.5409877832500509,0.537478415985225,0.5762750030113803,0.5917431700101408,0.5899482414756338,0.5619308072250511,0.5698273330634622,0.5559615050861715,0.5370552250915286,0.5464948596682122,0.5587188944560153,0.5720715486445798,0.5675620807199131,0.5261052209945278,0.5462467946961755,0.5525158922654834,0.43923232547704316,0.5521488010576308,0.4953063785775824,0.5699257529414385,0.49682085299523493,0.5497118542726982,0.5396370834623716,0.49095627912098383,0.5057653138591074,0.5485800397156786,0.5479889649808247,0.5963259553075977
0.47897134275153475,0.5106073512494862,0.49391622390332124,0.4979559505389908,0.526785713588763,0.5635458479421827,0.573224598716509,0.5803416004856383,0.5926608182726749,0.5642251042971185,0.5737051206242758,0.5599040422085113,0.5460363094133083,0.5475708369526835,0.553571984368491,0.56022910748431,0.5554110119594378,0.5400797988472057,0.5444178881532653,0.546831819000587,0.32824196941296835,0.5513974218024806,0.5354581744593201,0.5755163801726613,0.49872091350739955,0.5446600059023252,0.5440306308572276,0.5067148158470349,0.4755426496888453,0.5403155723258579,0.5449205387465419,0.5938470750848452
0.46777623593881046,0.5396098471832862,0.5042538317709688,0.5340281116949361,0.5335696799393763,0.5689489956088489,0.560097638483088,0.580193454263163,0.6019818764325278,0.5620327996099173,0.5670905049238208,0.5415353290673584,0.5459110434742631,0.5417730944356478,0.5551321517108674,0.5522917581784976,0.5482531349377715,0.5440097687839005,0.5437529457169434,0.5418706565390434,0.23759256720193456,0.5565840366378687,0.5436400694223793,0.575660432208144,0.49697683967813466,0.5570569702193477,0.5725809382306899,0.538340021252079,0.511158740383328,0.5615578674208228,0.551713613591986,0.5688724126370523
0.47711873988914544,0.5343294218304391,0.52178574800265,0.5454639602796707,0.5317292064792691,0.562438280617966,0.5849471976355387,0.5708116839737576,0.6013277298649711,0.5536015410234292,0.5689627455003703,0.5432962850393821,0.5367079393776311,0.5382596981449055,0.5604745838265806,0.5728094535275772,0.5580962340852471,0.5453375782317096,0.5382223074885784,0.5559649917560692,0.17967410619572366,0.5714406160073833,0.544964134323449,0.5732911124819804,0.4973935107066936,0.5569752016796912,0.5864741757945295,0.5509205916908497,0.5404523066602569,0.5541116053474573,0.5642563414656361,0.5604120991053243
0.47996005860804614,0.5344620751857727,0.5135731391786482,0.5287971446538129,0.5266333105205145,0.5788137427308322,0.567348172312744,0.5680593491402481,0.5780096166585627,0.570790164435448,0.5804451499903087,0.541962928861758,0.5323636189421186,0.5540902523461182,0.5740741863583896,0.593707949783663,0.5699815170732809,0.562294731337019,0.5441706638954349,0.5561066269644539,0.182168951894226,0.5803171740183024,0.5045454488035248,0.566148711710055,0.4781512951307465,0.5564533010569512,0.561677081758325,0.5514099494778555,0.5449526781031446,0.5538085813416687,0.5614790953969848,0.5606409123855189
0.4672926014912946,0.5247962143736706,0.495298803652807,0.510932385049252,0.5543693810957349,0.570958113566522,0.5602563819116355,0.5613619079949572,0.5669770143723398,0.5651201095397109,0.5692393884237861,0.5473633933733675,0.519527269442611,0.5454108930997887,0.5696171028131913,0.6006304345650091,0.5876583386886574,0.5634733717812863,0.5622014397968438,0.557352028527621,0.1896511515009247,0.5745752265630526,0.4685342245483941,0.5663908584396631,0.4943855501486887,0.5347048757575705,0.5760789897943117,0.5462513429540454,0.5350415488885161,0.5356976510316289,0.5416526390390373,0.5432915404358032
0.4813046892087769,0.5367477848261237,0.513284201893712,0.5232391529585123,0.5494804912740276,0.5648611404912214,0.5654293878181909,0.5641044117617184,0.543008479665021,0.5758100067195717,0.5833299385467763,0.5520226776487767,0.5163732441220219,0.5532127023568592,0.5844628140712995,0.6117402495378581,0.5916862325737307,0.5658922371688533,0.5684572433853381,0.5608456969339568,0.18823837251169673,0.5725639444342505,0.4551955963713774,0.5881185758637617,0.49994551880886373,0.5400377570994932,0.5750070570179395,0.5430420935642446,0.5371876397754773,0.52772961672644,0.5469285331266391,0.53306126478854
0.4653778694456663,0.5233986138738498,0.48849201447248847,0.513764121865488,0.5416697978445213,0.5509706261366496,0.5405843332187321,0.5690158911048742,0.5355883734476468,0.5687701887575858,0.5536539478881704,0.557222318064353,0.49347637445791825,0.5584613851833726,0.5539246435352152,0.6016178481839356,0.6036314398174127,0.5590550160504666,0.5782311738078207,0.5805703432923952,0.20516373785286612,0.5666585929823653,0.4450766304837579,0.598413498743144,0.4879275134454648,0.5273207626056928,0.5803773972326751,0.5313350473609844,0.5184952754398879,0.5180721888766673,0.5322614325744741,0.5471512898056123
0.4674521447897022,0.5140874422957578,0.4747174468325661,0.5203590789447015,0.5403111859431928,0.5440482007221972,0.5302953969138726,0.5661032853529546,0.518689844429109,0.5619403007360506,0.5372227561521532,0.5312168349855293,0.4849162003166314,0.5418137134817416,0.5310642879079994,0.5833716373589759,0.5796393477306903,0.550591900565879,0.5580165004839408,0.5687037386045435,0.20785820833766477,0.5382630721369193,0.4697965769833954,0.5777005184055142,0.49008386245887614,0.5080665656061045,0.5641172386095432,0.511114887308779,0.49883600773644154,0.5077691969538511,0.5147316673657714,0.5354305767292438
0.5175586493352835,0.5459040791233303,0.48930038035357093,0.5336892729139455,0.548356324406369,0.5498519426520052,0.5222341052070245,0.5693063527319815,0.5135400311714173,0.5522901175397741,0.5253935931980664,0.5297940034360407,0.48919187638648287,0.5395159362936068,0.5301409760618383,0.5804155209428377,0.5879584787529883,0.5463158855021728,0.5512816376150154,0.5809669941282709,0.20948985682866095,0.5239960035109297,0.4884738212799884,0.5859932782615793,0.5382008785679782,0.5199285851135422,0.5652352426374252,0.548092985479403,0.5206968876096725,0.5290189635959139,0.5098241276884843,0.5426898072570792
