Fp1,AF3,F7,F3,FC1,FC5,T7,C3,CP1,CP5,P7,P3,Pz,PO3,O1,Oz,O2,PO4,P4,P8,CP6,CP2,C4,T8,FC6,FC2,F4,F8,AF4,Fp2,Fz,Cz
0.6424338375140808,0.6393923584151731,0.6087130814346845,0.6035183634881937,0.5813320037825193,0.5999356484036987,0.6055392134976152,0.5983333774655729,0.6153244677575345,0.5865901135211167,0.5964491088716035,0.595860022003648,0.6068427362866765,0.5945460166872587,0.6131236440003517,0.6185919310861996,0.6250389949998082,0.6128538150073044,0.5928589262931633,0.6032814551824065,0.5715334633479517,0.5916179086481705,0.6031904826509964,0.6516928058669521,0.6277250844017248,0.5900338028837567,0.6274216539400651,0.607516565385486,0.6571426728268563,0.6132505304869394,0.5894086798977647,0.6069365358428929
0.640781738093872,0.6389855209071892,0.6302555352961907,0.6188321464193557,0.6122990170324557,0.6115356820339573,0.6304529908216697,0.6051281443812453,0.5982265360317447,0.6065889397414166,0.6208340638341081,0.606907925200502,0.5672637536689908,0.6152727628277616,0.6260384050472458,0.6146671553941795,0.6214296332826407,0.5968384450695425,0.5624448145255522,0.6042353391762221,0.5601876969137606,0.5778940072404454,0.6190195419063019,0.647635474114966,0.6249414351106627,0.5991083238484833,0.6409939278919332,0.6183421883416844,0.6478901738099967,0.6266670298808055,0.6098046719907787,0.6025046722817246
0.6272704108063226,0.6332533771148376,0.6324645867960461,0.6334520534703802,0.6281196266437333,0.6266514122885758,0.6402277814638544,0.6217951762642895,0.6061360665786335,0.6137725410202273,0.6386931346586674,0.6191360609466249,0.5866213976256748,0.6263908583418257,0.6392017705932967,0.6390984000691883,0.6212969158220222,0.6096800939559565,0.57600739698183,0.6458966632144182,0.5897318576322333,0.5890216671201692,0.6278893033502222,0.6479398887326834,0.630278258787998,0.6198359735730816,0.6318799747274363,0.6209089223149471,0.645366351470681,0.6220146669882156,0.6324973996638616,0.5930873030096355
0.6424766325845213,0.6582816685345356,0.6244938208075873,0.6480154112836048,0.6312618343323078,0.6270644328037743,0.6239517466848135,0.6096639936765216,0.6084962397755566,0.6096561992009517,0.6208933574111594,0.6197839521584435,0.6155753784337168,0.6117910385135293,0.6304304042901938,0.6210784064952468,0.626146067206108,0.6184261836403249,0.6191351697576319,0.6595052936357196,0.6238747747077412,0.625129411815681,0.6197839521584435,0.6486347316760387,0.6391175875790133,0.6293617276356818,0.6221657098786479,0.640193335512778,0.6566251853440803,0.6398215423270862,0.6232240998422814,0.5955585747471391
0.657313707041298,0.6626404401856308,0.6400643995004864,0.6558430891356631,0.6246584525000144,0.6457592118980782,0.6443587457974265,0.6196577206541923,0.6186345466952704,0.6241747985444439,0.6240055856974374,0.6129419904842934,0.6192974979172844,0.6113312512936451,0.6250451490195443,0.6160447077857776,0.6252268997059176,0.6343238506759742,0.6281658803893887,0.6518848133928602,0.6394110646292926,0.6144210763324615,0.6033242825024019,0.6403252616333611,0.6542075826187523,0.6307569372599746,0.6356905187949268,0.657740428359932,0.6572664768924202,0.6600729208308327,0.6410567818473389,0.6209468450399086
0.6583580877218314,0.6570881923432599,0.6541643542213054,0.6529805425545119,0.6279006727218366,0.669677393874823,0.6480839504803272,0.6392696143458937,0.6163167955761186,0.6427957463571453,0.6382709192396606,0.6106270311918404,0.6183661144164041,0.624942228806444,0.6426390350009235,0.6430743845822621,0.6346247188763853,0.642268628715924,0.6163134392365198,0.6499009730137855,0.6367905472901052,0.6052776386481677,0.6096471032922454,0.6514613495199889,0.6711932483880011,0.6430210811270065,0.6610942042078514,0.6776547585187501,0.6680399210230098,0.6685905100298197,0.6537826025004714,0.621935272548602
0.6449191054372829,0.6315807329588216,0.6427270742189276,0.6335452650276701,0.6408706070684004,0.6476930060724518,0.6426117502146939,0.6341479463262457,0.6181000613608337,0.645862580984988,0.6395958469239594,0.6281863652348937,0.6195421768085806,0.6370246278851496,0.6421249431261776,0.6449130665987851,0.6593221518939156,0.6421739090103211,0.6180727646482568,0.6430154299993134,0.6359803319041163,0.623585574414503,0.6373415898159213,0.6569421659588099,0.6596429059282303,0.6309578878940029,0.6455383271414203,0.6571233627849736,0.6585436787258391,0.6663943751434989,0.6255919615455798,0.6117635019149447
0.6640280177356245,0.6355547881820127,0.6430798397958498,0.6114366955947116,0.618072234445158,0.6075807482199996,0.6327773882952828,0.6060766747008008,0.6127024821727922,0.6243396719593222,0.6368635570650786,0.6107895273467462,0.6058083696935463,0.6235427114230913,0.636708270266726,0.6424996798539286,0.6564056499489654,0.6344454534146797,0.6282396399125322,0.6398997179112577,0.6400423610665631,0.6190331286969492,0.6367905472901054,0.6455176598692117,0.6271370696583364,0.6099099957462115,0.6317597894485022,0.6449285392669416,0.6500824891175209,0.6682410149630044,0.6268026554223183,0.604435609830821
0.6683659498549288,0.6518848133928602,0.6511749751560006,0.6268597219571586,0.6214722687392699,0.607869533112305,0.6307804803369379,0.6099338905012163,0.6069403347573351,0.6090385850430512,0.6371708221209951,0.6157473374136073,0.6083355604259859,0.6227553649186436,0.6421862064925904,0.6483394267946527,0.653735172130617,0.6363903315519759,0.6415524821386028,0.6353985376855192,0.6307673224215147,0.616107744418149,0.6313451306155308,0.6449915928258558,0.636023401069837,0.6122464331755462,0.6330004611387059,0.6412959268164091,0.6458273097185135,0.6503836858370063,0.645282068547115,0.6115666352862458
0.6397677917906746,0.637229387410081,0.6229545897138697,0.6250934719401864,0.6278824187965888,0.6166629318957761,0.6368001257680684,0.6254458673039905,0.6203301909710471,0.6131044866391994,0.6260153089178706,0.6146411727369558,0.631281246572684,0.6198820795811397,0.6166624518550821,0.6404827601103597,0.6572615251354236,0.6309578878940029,0.636507432350927,0.6301634663277823,0.6242752621627858,0.6222621432422227,0.6310615629305159,0.6537826025004714,0.6416415494693753,0.6181401296867584,0.6473804280580567,0.6275790354936701,0.6148351652823956,0.6593221518939157,0.6332639194604301,0.6037325081898254
0.6311453501980023,0.6358405051409971,0.5895619607820475,0.5972759955526267,0.6120985815722978,0.6216215332599537,0.6310871012552262,0.6184953081894926,0.6177851959420675,0.6159157201835136,0.622561422774771,0.607299613490184,0.6304953868972215,0.6120184163231405,0.6151235726675429,0.6390694184428782,0.6567314784954336,0.6338114736166648,0.6282019828271233,0.6295289882163814,0.6149939617144126,0.6244527877479789,0.6265557755188538,0.6372733402538839,0.6458574073508027,0.6228647055185427,0.6534754019449891,0.6342063146796528,0.6179957685877473,0.6557958610115637,0.615988498356972,0.6268161202583529
0.66296468733531,0.6367405344464451,0.5894178345830131,0.6123955243677658,0.6154888309898796,0.632244903153878,0.6151815153045761,0.6063518068628309,0.61242039916562,0.6021105779950886,0.6219302039487687,0.6130543738033349,0.6071953825275463,0.6217951762642894,0.6214682013869505,0.6252946241702482,0.6416979105768356,0.6283413354918865,0.6199682552735377,0.6372657401094127,0.6096114171929711,0.6081492947657141,0.6137700671257798,0.6367405344464451,0.6450600333342816,0.6147199625663892,0.6532278126945112,0.6388145359829316,0.6516762524630596,0.642451480355653,0.6311938874817885,0.6303895306138675
0.656429149537447,0.6403496897989985,0.5972049310931954,0.6155699522977068,0.6093933067469857,0.6142682963875342,0.6216131904788789,0.6025109496242438,0.6161912623969444,0.6013122418345818,0.6025046722817246,0.6082810534939239,0.6119545035694949,0.6219302039487686,0.6310871012552262,0.6311657117426784,0.6399880880515795,0.618315519256461,0.6180104708236555,0.6445448625381129,0.6281658803893887,0.6032814551824065,0.6083623921257079,0.6313348441072811,0.6275971014345113,0.6083355604259859,0.6458917615385741,0.6273193785823539,0.6316688641160063,0.6482454612614671,0.6253236149077367,0.5963103446288402
0.6486494890157743,0.6217229871921544,0.5962317571841315,0.5895219128729581,0.5931884018184652,0.6014747844481367,0.6248939058858018,0.5968714924511764,0.6260427794820685,0.6210140010748472,0.6239590375038779,0.6213179363962866,0.6321893484182733,0.6201109270357825,0.6268319470578333,0.6366929917440942,0.6354452935909669,0.6126258233526888,0.6189187374064327,0.6451940136073657,0.6127073513001859,0.6059964845479642,0.6021983755443956,0.6477055170330502,0.6096227452678947,0.610519436590451,0.6210006377251467,0.6188956775422164,0.6051575601703291,0.6258248433083748,0.6004609910604156,0.5795993581559057
0.65155995556199,0.5969572654426228,0.61345155983274,0.5969095095289738,0.5957005063066974,0.6089668779799443,0.604257859426377,0.5898425561276334,0.6193083818629098,0.6046640548804233,0.6268994983041783,0.6277311756628463,0.6047195996944837,0.6125395728083379,0.6151815153045761,0.6216805768872358,0.6415238362175834,0.6079689540223775,0.5987563692542335,0.6426607160988373,0.578933858479786,0.586179402615657,0.5810681903572569,0.6658317812228695,0.6060766747008008,0.6034570183688973,0.6245336306491913,0.6200784893093012,0.6339297197216244,0.6278763275354671,0.6096114171929711,0.6052011541562186
0.6483540309721554,0.6187127800540394,0.6298493637147263,0.6193263600922905,0.6180619828275309,0.6117635019149447,0.6153348342862418,0.5957885844486842,0.6121889493456748,0.6049178514256831,0.6203979651841349,0.6113632437608315,0.5815202770036026,0.6053786000593607,0.6120915779294609,0.6118294217966064,0.627714261536254,0.6055239122170472,0.5910977947916283,0.6205136754862882,0.5828324750081946,0.5783498501896794,0.5771784494194009,0.6457592436429085,0.618744434408474,0.5766206631043923,0.6289124757641992,0.6275679260903069,0.6458966632144182,0.6488178797376346,0.6370976376601228,0.6258818199852338
0.652366870668152,0.6505087493370241,0.6194910514436921,0.627968383509991,0.6281863652348937,0.6211823509697878,0.6270983308875836,0.6054244978013931,0.6150899719832345,0.6092733578515743,0.634607744064791,0.6218675155679287,0.5939594532128393,0.6137821915812885,0.6333896058328997,0.6212886042398182,0.6147203048049988,0.609205020261501,0.6007204617159547,0.6213961697550556,0.6056786831010058,0.6188956775422164,0.5969142469228264,0.6366929917440942,0.6282593479731706,0.6076366528286552,0.6338784604616664,0.6353499627035837,0.6456419986687192,0.6473804280580568,0.6400564982273134,0.620164736181902
0.63865977647922,0.6592625937193399,0.6232627559174374,0.6245985069701151,0.6146411727369558,0.6248209486549203,0.618095051688655,0.5956501711486325,0.6086943286983231,0.6010547958369179,0.629200751958728,0.624414131672823,0.601134639694007,0.6284683666568734,0.6311158987466001,0.6138649704334089,0.6150467688866222,0.6341333049046795,0.6034046705668552,0.6312383443889685,0.6155699522977068,0.615012545184468,0.6034998456888926,0.6312909525019877,0.6224126934341369,0.6304955082792179,0.6313542563476573,0.6272047804464909,0.6372733402538839,0.6306503045119591,0.6303239655271499,0.6123857320052202
0.654582528077332,0.6617641449096607,0.6268152212342754,0.6118485113309264,0.6155889138632805,0.609010753423763,0.6207932120127937,0.5954808230343501,0.6078685909468059,0.613916884896328,0.6095271543968342,0.601327406579831,0.6009161730769534,0.6131094705022002,0.6003292495509096,0.6032714052311199,0.6029179862390518,0.6275955501213335,0.5891680038847308,0.6498759244967742,0.6217085281895232,0.6139408623078789,0.6091000485344239,0.6388843492090226,0.6283548967963656,0.615339351504701,0.6301400025042697,0.6321751846449345,0.6033572596890113,0.6289308317542269,0.6212886042398182,0.608654937482353
0.6572070826233928,0.6512199759616666,0.624734918787981,0.6228327012011172,0.6158812897713141,0.6186068715377676,0.6187840359764227,0.6051780162013595,0.6245600118442365,0.6292190486450969,0.6152327234224502,0.617759932387676,0.6280275706692096,0.6241102806376204,0.626444308732131,0.6332639194604301,0.6249704247178602,0.6304982312688077,0.6185755806167635,0.6675037928898214,0.6221297215446725,0.6488462528024279,0.6240235554107015,0.6450845710527877,0.6255713799378065,0.6224126368592844,0.6500677920735725,0.6279258112881436,0.6258248433083748,0.6287556179920121,0.6263734590011356,0.6202102400539613
0.6514930392483431,0.6407718033636967,0.6251483222653308,0.6279521147205546,0.6179663259288861,0.6149939617144126,0.6151768553497952,0.6100594752337329,0.6142485516718442,0.6188370576171516,0.6317859200894063,0.6302979598670158,0.6398997179112577,0.634031157258833,0.6509279740059745,0.6625118607228364,0.6498072563572991,0.6372154155498267,0.6311637838186789,0.649047543615816,0.6119636947100238,0.6423233826658236,0.6126258233526888,0.619855916097229,0.6276682097461456,0.6450357601270164,0.6362927926028586,0.6369999546043577,0.6453980545967081,0.6279792790010168,0.6367256103292083,0.6339874095632717
0.6567435362197793,0.6427760459866063,0.6180401166735993,0.6184935486788266,0.6059964845479642,0.6001343764659596,0.6240239332464335,0.609815628884519,0.6097636168134047,0.6149403897072004,0.6324414946752109,0.6268995156267463,0.6191820380612079,0.6122617651719923,0.6351005429505321,0.6580641038561609,0.650383421137489,0.6439940813424012,0.6319724403269006,0.6337795900914044,0.6158156373101127,0.623735055993643,0.6078954982204543,0.6263951411266175,0.6390984000691883,0.6293254375766156,0.6229400920818794,0.6481090087440659,0.6536767015919366,0.6414358323305084,0.6320047392837085,0.6191820380612079
0.6193949728499869,0.625149653522887,0.6142626527821347,0.5925042819785316,0.603027962824776,0.6126881939390336,0.6118200044085047,0.6063943026726145,0.625233234010652,0.6155995691479946,0.6184953081894926,0.6183915595254473,0.6118389328338141,0.5934097622461298,0.6061558383842858,0.6366147583853251,0.6415448189920337,0.6409090799941377,0.6276951580327643,0.6153300345578626,0.6031000294948181,0.6098888643102691,0.5932941929675444,0.6569372142018134,0.6037475936955802,0.5973944707654024,0.599489130837003,0.6283413354918865,0.6354452935909669,0.6476937099769323,0.604755595532634,0.5999247784113889
0.6276682097461457,0.6191843718306914,0.6145327203173023,0.5833768389284115,0.6001285774747873,0.605346807107151,0.6065088735938197,0.6060599575628579,0.6163086395081406,0.6141518702618168,0.6188994958324993,0.6056144549135053,0.6184753857133845,0.5756865533191317,0.6091449620728171,0.6499848145365975,0.6552422130191623,0.6279051672551609,0.6173969843328316,0.6211444282448262,0.6097404619970884,0.5906482267016233,0.590106792607437,0.6627133861766729,0.6095797308803849,0.5987345982193382,0.6130262532804303,0.6280373890535816,0.6290077375558337,0.6536165839281349,0.6062474360702089,0.6144210763324615
0.6497381447401784,0.6365891198344367,0.6018279687006154,0.6085843246567216,0.6061625109743752,0.6029244663083274,0.6153156351880568,0.6144930759518558,0.6144786765820499,0.6214776772950663,0.6195522712343413,0.6152860688224489,0.6251901083600284,0.5864619165333014,0.6181966842575407,0.647271720118344,0.6468314460584194,0.6057300231510663,0.5956352062513676,0.6157949723366948,0.6151620246696466,0.5871466924727845,0.6119136845927431,0.6593929710814749,0.6219129258405175,0.6150125451844679,0.6330247807254029,0.645421129582956,0.6313481284570642,0.6517519630878982,0.6282046191601415,0.6271225428563391
0.6602390913200981,0.6329664123719959,0.5968384450695425,0.6004135123470463,0.6066480992178744,0.6021105779950885,0.6062550770485599,0.6053212709198263,0.598664460654792,0.5888887732805679,0.6110290356582474,0.6017655874610872,0.6158731022048083,0.5798776917592936,0.6123901234770651,0.6430798397958498,0.643015483190422,0.6065151572152452,0.5942461414419038,0.6206774837373872,0.6035331541470987,0.5904396984629258,0.6114641006673779,0.6535888624289646,0.6222439432374169,0.6181775785319784,0.6341340834304666,0.6388495357279835,0.6278994965596384,0.6458917615385741,0.6183491875798153,0.6115808524149026
0.66110912720882,0.626588446371875,0.6086682945918706,0.6152727628277616,0.5907385431762481,0.6091533021133434,0.6030958420446292,0.594645185531316,0.6009161730769534,0.5936208099982109,0.6037896259429774,0.6054318298399357,0.6094546484140896,0.5986490358596313,0.6301253306991819,0.616695259551404,0.6424332353637082,0.5881100141711828,0.5882266273165364,0.6199477604095427,0.5829320974550029,0.5939854872953603,0.5949453400675483,0.651633901337887,0.6216023435284665,0.6060807933061985,0.6325007652957912,0.6401298070841037,0.6295577490213874,0.6339282126301942,0.6010547958369179,0.6050674743745665
0.6403643463088745,0.6335250632453535,0.6092645499690227,0.6313639622769611,0.5996972182039377,0.6135735814455544,0.6092112172648326,0.595730005302417,0.6050674743745665,0.6070453064844125,0.6141662696316227,0.6075807482199999,0.5936680784560944,0.6068015650291363,0.6201322875168822,0.6023569508791742,0.6366281128896123,0.5845707612981796,0.5870553920824305,0.62417760211468,0.5939854872953603,0.5937301748901536,0.5763597280402851,0.6458966632144182,0.6276233250206589,0.6053633880513369,0.6326564244905617,0.6458478587486546,0.6324504611702573,0.6331860960141641,0.6058502530983851,0.6099942585423482
0.6459948269223124,0.6339874095632717,0.6031672371152121,0.6058286482815184,0.60016681429926,0.6030000423329673,0.6059869477878845,0.59263134116143,0.5937301748901536,0.5881416966976346,0.6118856757044857,0.6061692027114397,0.5968950337553333,0.5930969876853913,0.5918812780318315,0.6168217251994255,0.630757616492211,0.615862188507429,0.6183077403750372,0.6302106007761201,0.6057961872287175,0.6058083696935463,0.5823439503615875,0.6510827310385116,0.6256460840592255,0.6129112988371759,0.6363416846780611,0.6450600333342816,0.6362488812685769,0.6307219666311191,0.6118377813842011,0.60274661050275
0.655573722549381,0.6088995055680837,0.590038561814707,0.5839925683652862,0.5818544461266999,0.5895735255829826,0.602667480665456,0.5772158637056747,0.5903286086684402,0.5825163442007891,0.6061312873043446,0.5996363493204805,0.5964085737418795,0.5902200087469944,0.5839027624771039,0.589330990035796,0.5965964236794179,0.5993149000741974,0.6177018149820737,0.6092536651889151,0.5956703525377431,0.6092536651889151,0.5970188677285061,0.6360842287469087,0.5971101681188601,0.5952391041649164,0.6217951762642895,0.6375597334948727,0.645788966842377,0.6406083615739379,0.6033428003017028,0.5885428609312837
0.6544056185182426,0.5918088314853327,0.5796990833266121,0.5995995952962285,0.5718585284437473,0.5936606789911973,0.6157620653029006,0.5676930061143208,0.5968384450695425,0.5826159666475974,0.6029280361903385,0.5893309900357958,0.5952391041649164,0.5896351290125155,0.5956703525377431,0.5950124630282909,0.6095797308803849,0.6096471032922454,0.6092733578515743,0.6031904826509964,0.5998819472629242,0.5911028976172873,0.5989028324048911,0.6244406674055799,0.5793901191303281,0.5894086798977647,0.6170007465741538,0.6210584917530914,0.6441921456723307,0.6600739681947281,0.5894064693322375,0.5924062366988622
0.64934368051485,0.6309742038396203,0.600152479967822,0.6051575601703291,0.6033660458374871,0.5986642178199496,0.6117178972126378,0.5800794210785989,0.6013883776127833,0.5970875206543406,0.6065088735938197,0.5960747302217674,0.6071183801444363,0.5906048109590627,0.6210729545582916,0.6202231628577255,0.6509792027500435,0.6210721114116812,0.6279258112881436,0.6282832254393217,0.627426489294644,0.5959773253690528,0.6011433509634757,0.6428741638615352,0.6130737949920818,0.6170982121956731,0.6361111140672492,0.6308540596163094,0.6287016534899366,0.6565443401564112,0.5987411182276908,0.5866221448783605
0.6413583071504956,0.6400814457420763,0.5874714973185122,0.5970008099193278,0.6152327234224502,0.599888038767039,0.5828168836167206,0.5886099098894204,0.5740721794686481,0.6024533359638242,0.6059949341571456,0.5943426490860398,0.6055168461704953,0.5802801290968916,0.6256035118373781,0.6153440114594821,0.6387846470444143,0.6163086395081406,0.6282396399125322,0.6269599893938239,0.6212081987983951,0.6023615351933825,0.5928212792645291,0.6487823393207365,0.6086635158231375,0.6092536651889151,0.6214730222596441,0.6197453840541337,0.6110231094313379,0.633044235818262,0.6152096072801377,0.5686261659734209
0.626656042955519,0.6478760170043266,0.6021512532896564,0.6083493423049422,0.6082424432302966,0.6266575348999196,0.5829077674251506,0.6159245614578065,0.5881652608438377,0.6010991598296939,0.6163086395081406,0.5894050086767864,0.6051248035141008,0.604190617515925,0.6302366064362543,0.6256903791476318,0.6263066630801881,0.6214682013869505,0.6224126934341369,0.6334730607570057,0.6143250660636397,0.6055423623823973,0.6224126934341369,0.6575691672367626,0.6183990407653912,0.6043566089785524,0.6305906532841572,0.6121169209070128,0.637229387410081,0.6164685520908091,0.6312327150172314,0.5937197560298385
0.6232502455082306,0.6530960994742606,0.6300287149882292,0.6291153515656412,0.6302106007761201,0.6372048997454582,0.6081588976757408,0.6269664643680177,0.6026658543844476,0.6177851959420675,0.6206230445795187,0.6026865128107345,0.6180778202367991,0.6205087425195419,0.6353206738813609,0.6372926480214991,0.6356320102671685,0.628051915855579,0.6249808848815999,0.6461161362244549,0.631281246572684,0.6117291314411517,0.6422880974566711,0.6482074423744767,0.6362038165983139,0.6366853003768745,0.6372001395325222,0.6190581736971223,0.6455533518181428,0.6375597334948727,0.6310712688598196,0.6220269225135937
0.611958969942845,0.6216651392125199,0.622340376600992,0.6158436983881416,0.628355862293884,0.6210287179426729,0.622322176596186,0.6084466549218447,0.5994058534084961,0.6108477116797063,0.6158193370330015,0.5982657046559153,0.6122232358503144,0.6184130844618576,0.644761198595412,0.6478969379332516,0.6463800410156777,0.6310191383596908,0.6093488127651595,0.638062127052095,0.6331423167217245,0.6261963863303237,0.6254416174359151,0.6325632129332719,0.6321577677531159,0.6162366398887463,0.6088995055680837,0.6384326820030436,0.63991043494598,0.6513524250259287,0.6147631656630013,0.6183491875798153
0.5998207885695153,0.6056335287958166,0.6247658719241719,0.6004704864456146,0.6051249237630081,0.6111590160607082,0.6303239655271499,0.6057586348799957,0.5868063535589275,0.6123901234770651,0.612783635476574,0.5832130035703588,0.5868883888254767,0.5967958031968043,0.6276644370716861,0.6454793204626533,0.6457447948030776,0.6150899719832345,0.6024533359638241,0.6280131770848262,0.6208406503636272,0.6126881939390336,0.6153244677575345,0.6304178287534897,0.6099360256249944,0.5797842765888779,0.6116860151760205,0.6420857680657127,0.6238349039066148,0.6271191676725802,0.5930374341656615,0.6188864288009145
0.6124427458909345,0.6187262993525795,0.6190676523492349,0.6062362714450298,0.5870156383928972,0.5997538217834875,0.6231632721652097,0.5912916215038817,0.5751553632572327,0.5910625846778486,0.6056473465230826,0.5614645209170539,0.5532898751031624,0.5887204002513734,0.5958190914943126,0.6138242636694466,0.6078153373678863,0.5836444988166791,0.5785169874707077,0.6097313660883822,0.5837018455079807,0.5873538361052255,0.5932716420775691,0.605869197003691,0.5798240595560529,0.5736101595483312,0.6177899085078118,0.6192132351211476,0.603579821332029,0.6092529320509584,0.5716913734338207,0.598841838446967
0.6173860655713479,0.6389668146930695,0.6096561992009517,0.6155416381620893,0.5820252892165533,0.6030000423329673,0.6209447479977185,0.5875580583005565,0.5964068941760249,0.6000563379316991,0.6126424609369993,0.5888422621713755,0.5834684598517514,0.5895919501320859,0.5955824643669452,0.6107431553568943,0.6118864493889754,0.5773014596571578,0.57754450641222,0.5944040161900935,0.5746055677686146,0.5982098070999953,0.608846251989164,0.6238099572317513,0.6021996672183766,0.6096227452678947,0.6184886803386117,0.624579338374613,0.6218248801112994,0.6303495836078975,0.5886948939056617,0.5788927905018157
0.618677158604287,0.6295577490213874,0.6085495451216092,0.6159836471983288,0.5870713535694013,0.5900290859098323,0.6024533359638241,0.5962190442384865,0.6028138181231442,0.6153292674859138,0.6117590925325939,0.6257325783957637,0.6104280266387266,0.5948179615994958,0.6065984765014962,0.6147203048049988,0.6269599893938239,0.5935289934230371,0.5885199947974876,0.6035802337533459,0.5984738325581908,0.6063503312930139,0.6294239043924865,0.6306375123956579,0.6275955501213335,0.5998203095077497,0.5960673865087694,0.6193083818629098,0.6278824187965888,0.6279006727218365,0.5849564239071827,0.589448923149278
0.6181685018692596,0.6031904826509964,0.6004135123470463,0.6190569363988628,0.6004609910604157,0.5861555730251193,0.570061827663996,0.5970188677285061,0.6046951802487234,0.5970709888301033,0.6089612788062251,0.6025061916328972,0.618426183640325,0.605520155890103,0.5960656215895374,0.6014745497085474,0.630644675140222,0.6024190404393196,0.606541254130176,0.624579338374613,0.6039044404343089,0.6096227452678947,0.6159415427132341,0.6279234624329594,0.6082075924537017,0.5837441212634874,0.596898147353897,0.6098652137382308,0.6162702405730549,0.624767473725813,0.586825181313643,0.6055476925222422
0.6361892146632216,0.6111352521062158,0.5971894325561253,0.6304191512690303,0.6238722582825168,0.6025046722817246,0.589875364816072,0.6154067377138682,0.6247948615313695,0.6093689487226349,0.63246957349593,0.602650752976472,0.6183658656327534,0.6069631340620991,0.6032291073803645,0.6065151572152453,0.6432581039542843,0.6330393720930857,0.6326112524870917,0.6489889399053446,0.6214682013869505,0.617265063112209,0.6189283580075055,0.6495603723426244,0.6127348642830586,0.6191523562532952,0.6224454253296897,0.6305273494384876,0.625281167312035,0.6245072093662721,0.6126707100010648,0.6244387688578462
0.647232850248377,0.6311360130895641,0.6157620653029006,0.6199374236372395,0.6317392397555687,0.6152148318418562,0.6097643567520933,0.6438214866459624,0.6294239043924865,0.6139017818067014,0.6250375833060143,0.6200443943629043,0.5925037257012133,0.6019756901031657,0.621857039189833,0.6200529674828512,0.6500027880652806,0.633457404271946,0.6258796833763577,0.6583221572670412,0.6429329342988631,0.615501847659607,0.6241786257429438,0.65406553609189,0.6425115642297172,0.6406397121104416,0.6391545955563507,0.6304223771222482,0.6394741741891542,0.6397582676278586,0.6255581802892007,0.6307217751917947
0.6390107894819137,0.6411464416025212,0.6187693676926735,0.6311938874817884,0.6385017464776163,0.6300358516540225,0.6068411628092388,0.6533089535957627,0.6319738200692598,0.6254458673039905,0.6292984449918523,0.6308541557587207,0.6086021181814761,0.6122610777272037,0.6353402135400286,0.6189283580075055,0.6426978126278371,0.6286361230172933,0.6430156141449342,0.6603195542394137,0.650505743106614,0.6185286381789985,0.6456269896628914,0.6600876923479003,0.6467403214879028,0.6301264578518888,0.656149079783253,0.638530442544227,0.6393681683914588,0.661047158312234,0.6110290356582474,0.6190862588443753
0.6365074323509271,0.6580417870627936,0.6001867955314025,0.6358795056647039,0.6443622854030734,0.6188887955074854,0.5994303546270932,0.6307217751917947,0.6153000689513405,0.6183421883416845,0.6429860512531039,0.630124190837955,0.6122110894477657,0.6078426117424199,0.6219529802340891,0.5992787393593718,0.623735055993643,0.6236454923368895,0.6396364075655115,0.6361217438025658,0.629376093790675,0.6343676299684138,0.6539446705791372,0.6536443396801399,0.6304955082792179,0.616107744418149,0.6414039492696048,0.6427760459866063,0.6454849430545474,0.6538085460711327,0.6087947530984734,0.5989028324048912
0.6325752330126543,0.6501169980799992,0.6090142051321141,0.6192686346268284,0.627421653940065,0.6151475722328228,0.6026738004404386,0.6139688937159039,0.6124799647820933,0.6126439200223249,0.629319202812403,0.6306065171890958,0.6089187592197928,0.5966820798093239,0.6214874812622752,0.6083168781409564,0.6312130768328853,0.6180186628165202,0.6284683666568734,0.6328698538947469,0.621226286431295,0.6311938874817884,0.6349273525472982,0.6510565908783637,0.6128649783276982,0.6243730047596023,0.6300962278247136,0.6331423167217245,0.6508638729213053,0.6430504610496405,0.6137783661529731,0.6092727804461069
0.6458233210301484,0.6426683037815998,0.626976994685436,0.6200985724092769,0.6072466492262556,0.6201729295671187,0.6167754091848361,0.6129847219652977,0.6149939617144126,0.6216215332599538,0.6140510669156164,0.6327773882952828,0.6203922285979495,0.6027424230525611,0.6159157201835136,0.6430056372146137,0.646597885830738,0.6380034980911304,0.651588979245295,0.645282068547115,0.6399734060147876,0.6340506554848825,0.6274706217160962,0.6451604913907456,0.6161934367921342,0.6388345974401493,0.6449285392669416,0.6447952614585989,0.64916211411419,0.6488560896003825,0.6228966728360557,0.6221627246990574
0.6449546313108102,0.6654961273658112,0.6199372840314468,0.6309030030331433,0.6143258966371227,0.628317123523131,0.6273193785823539,0.6126518229764535,0.5966109940271548,0.6216651392125199,0.6330255862297121,0.6278280358672744,0.6142037007528045,0.5871911557709958,0.5964403609398904,0.6220989541454885,0.6366120996555128,0.626656042955519,0.6312909525019877,0.6282046191601415,0.6310053027500516,0.628921091817641,0.6190581736971223,0.6385599771850856,0.6239688947023588,0.6512394371125586,0.6586282581294758,0.6506831929765422,0.6543459336413232,0.6517667516428491,0.6396309545052098,0.6207932120127938
0.6591396824973802,0.6710103877377898,0.6150467688866222,0.6247252557111599,0.614617173171676,0.6338379584448114,0.6242086555368686,0.6308414037596974,0.6158049376631958,0.6331185404394217,0.6458932339271615,0.6251046533778607,0.6042853171585536,0.596898147353897,0.612913253525161,0.6130454106415826,0.6327773882952828,0.606599420011382,0.6186378818682903,0.6335460435534571,0.6277844503404849,0.6194068819321317,0.6342063146796526,0.6559506626365185,0.6385563369952761,0.6317756109688447,0.6622820844361755,0.6639759855202642,0.6490328894798791,0.6559619414442305,0.6249124443731742,0.6269334137105557
0.6572818888189935,0.6553375491210591,0.6090950162198997,0.602742423052561,0.5964322615990129,0.6017084881466453,0.6216215332599538,0.6156568408780957,0.6157473374136073,0.6148351652823956,0.6155369198062781,0.6121394722497456,0.5999588132794688,0.6062474360702089,0.612913253525161,0.6280627510997012,0.6284692811912359,0.6069120795312495,0.6144251489370407,0.6341479463262456,0.6157809380979159,0.6058776752635813,0.6474099400417006,0.6582091401849237,0.6347691883095568,0.6021171243568377,0.635115342511758,0.6535149308083835,0.6356527047169104,0.6507754370940312,0.6073288594806416,0.6160741437338405
0.6413114707538845,0.6262700499848473,0.5936621909574884,0.578009815186401,0.5802838321183491,0.58583141150546,0.6085706746862162,0.5665368755552477,0.5973810939470372,0.5865952509669791,0.6211644235057515,0.6005522914507695,0.6125007790810852,0.5887693778103084,0.5983089840556322,0.6130374320218338,0.6272379763532274,0.5961712883248376,0.5950503632445479,0.6221812548565769,0.6093054446616515,0.5904182811768637,0.6333320655102271,0.6342063146796526,0.6117668591635624,0.5903181984238195,0.6177813124000067,0.6186459417425402,0.6228033465801273,0.6269599893938239,0.5782344857202608,0.5864847793305488
0.6340861342541236,0.6130757496800671,0.6211249759729297,0.6051041751870703,0.5894086798977648,0.6153543959130026,0.6179663259288861,0.582682290494194,0.6065180778757104,0.5964068941760249,0.6147203048049987,0.6061148253631347,0.6105010364137,0.593368689135774,0.6033428003017028,0.6099338905012163,0.6331988569217285,0.610016126948509,0.5968969081032597,0.6270644328037743,0.5957175199892529,0.5858985074800409,0.5833177597649749,0.627010965090901,0.6034432633235329,0.5759306161421927,0.6064764125410188,0.5990550023341722,0.6470287735110996,0.6084205003174918,0.5635290206272439,0.5936252070588212
0.6294520902840137,0.6176444305159055,0.6252163908114791,0.62982024439965,0.605303707567736,0.6184572296561897,0.6310191383596909,0.6126881939390336,0.6176152239949968,0.6065031034678422,0.6038289074806221,0.6175508141984604,0.5845809788044669,0.5931797780300565,0.600204570603277,0.6191542433363119,0.6360575539892721,0.5940812161971892,0.5705025274319845,0.6077260422572253,0.5521829116631223,0.5703534936681872,0.5591203474119507,0.6311938874817884,0.6221386193999477,0.574991391475949,0.6112398289660127,0.610656239482265,0.6426585109312565,0.6118377813842011,0.5697031664305556,0.5956852593539849
0.644486898007051,0.6425807244573043,0.6239649688213414,0.6414944397444583,0.6275777324283864,0.625071420164118,0.6259846694295038,0.6340749365512725,0.6305273494384876,0.6157809380979159,0.6094650138100924,0.6175289706598289,0.5852771377386267,0.5778377548795943,0.5869188578129813,0.6088911655275572,0.6210824304664074,0.5767560472517557,0.5832500101034481,0.5938531137946506,0.5621837697816061,0.5847379026963316,0.6024919174789651,0.6158684444823225,0.6240723111707387,0.5984714021755264,0.6325382427121183,0.6287851875703898,0.6188081954421454,0.631078312525025,0.5926526319535932,0.6180727646482568
0.6472911026836147,0.6533075323173974,0.6337795400375209,0.6480481810669939,0.6276644370716861,0.6280351221011512,0.6092297704339102,0.6458233210301484,0.6201279045657451,0.6144317204610215,0.6031672371152121,0.6070258487784234,0.5949622851025609,0.5898119441179228,0.5947705022137464,0.6213999294356307,0.6235697004315429,0.6026466233408994,0.6037087173335896,0.5996373060270421,0.6054244978013928,0.622340376600992,0.6248333969753195,0.6205184963589817,0.6275118582339361,0.6255851137503401,0.6482851678219056,0.653383064438502,0.6348002305237579,0.64567574671293,0.6248658149484868,0.6337416795501537
0.647595833501693,0.6325261239879573,0.6309773001343791,0.6305032941932616,0.6129112988371759,0.6285071054276262,0.600152479967822,0.613381180123568,0.6031035993768292,0.6019554248015101,0.6117910385135296,0.6152580349384683,0.590757996953109,0.6092375649094803,0.6153100683877287,0.6240690583212974,0.6213816271485866,0.6082258909801888,0.5836444988166791,0.6212367628093908,0.6272047804464909,0.6096561992009517,0.6208933574111596,0.6460632674307382,0.6220009392007296,0.6201832663394218,0.639547862292684,0.6515000638858419,0.649476386434805,0.6448932645308889,0.6159415427132341,0.6251483222653308
0.6429396964807181,0.6185231605307676,0.6017084881466453,0.6174445148647287,0.6093745540106241,0.6095271543968342,0.6024681266227292,0.586062943700122,0.6143879316844376,0.6096435040030481,0.6092680016773738,0.6008609861025036,0.5963883923527689,0.5890594039632852,0.6095492766062293,0.6017084881466453,0.6032714052311199,0.5969572654426228,0.5948540396771943,0.6195837476076614,0.5886491663717205,0.6130952093006278,0.5966159928561353,0.6334233165650541,0.6103223999761896,0.5980767087098859,0.6176537101176842,0.6432212900792489,0.6492657097192237,0.6593433389290333,0.6108132918214112,0.6094262974106966
0.6309081803937171,0.6230506695594741,0.5993769724081894,0.612989532195945,0.5861207069258573,0.5872193972289127,0.6056746899118944,0.5868883888254767,0.6060263017695011,0.6063137541081176,0.6095492766062293,0.5964464739581364,0.6033242825024019,0.6032291073803645,0.6220603860411786,0.6142682963875342,0.6326482427876277,0.578687311581082,0.6052982233590891,0.6118204318315056,0.5804026908673735,0.6143258966371227,0.5991548503407716,0.6237363894051253,0.6224126934341369,0.5941726705733656,0.6220266373123435,0.6460733484112443,0.6359803319041163,0.6629298646012071,0.5994668905156816,0.5951886615635065
0.6573809227065482,0.6455029376328782,0.6450762084671796,0.6223982306289364,0.5965235619893667,0.6159157201835136,0.6152431459774738,0.603066080558432,0.5898639734136953,0.6093120304677723,0.6260335628431183,0.6030469949700544,0.6125755207255558,0.622322176596186,0.6344405896895037,0.6335209454409729,0.645547760971079,0.5958380210861709,0.594115818473058,0.6259012740611104,0.6097188103553522,0.5999627635272567,0.6185993957456027,0.6549720137953176,0.6331860960141641,0.5933090145324238,0.6485018813710768,0.6511055996605135,0.6454450312508312,0.6571526021397963,0.6202511629258877,0.6204084354969979
0.6544674459582147,0.6540891270929462,0.6383062417301524,0.6290150769611494,0.6064229992566996,0.6192974979172844,0.6179663259288862,0.6117625205786335,0.6120072811819439,0.6067514358963225,0.6242172818180995,0.6002664367460683,0.6076423282897723,0.5989253203673037,0.6124486856275324,0.6064133765549259,0.6187408460290018,0.6091969089605851,0.5965982432077842,0.630085363302512,0.6151667713310078,0.5926715410419935,0.5904985055186258,0.650379495425963,0.6336947161461303,0.593800770245312,0.6460291811100838,0.644913066598785,0.6630103275205227,0.6486355139436594,0.6341479463262458,0.6127186043213495
0.6314860872410235,0.6600281219177571,0.6268994983041783,0.6056918724887326,0.6127192647179199,0.6216997666187228,0.6301665764958608,0.6182760996693709,0.6238402993020271,0.6096800939559565,0.6208575552514134,0.6129591986630647,0.6059432749375366,0.5961651753065914,0.6029708635103338,0.603027962824776,0.6214537385817502,0.6127576636530057,0.6266270765942898,0.6332772970151075,0.6338114736166648,0.590378361844312,0.6195491601179645,0.647453287253614,0.6461221593370157,0.6001771364017096,0.6219586357632424,0.6400518852293792,0.6415800202551136,0.6372001395325222,0.6147199625663892,0.600152479967822
0.634980839043046,0.6657773426703051,0.6310921481346642,0.6199747341240821,0.6199682552735376,0.6335209454409729,0.6309287685789265,0.5960054608910708,0.6160309406372283,0.6246146287904295,0.6334251785551485,0.609010753423763,0.6046585637709991,0.6018563887583898,0.6139017818067014,0.6213320306968257,0.6332444643675711,0.6155889138632805,0.6301727223934075,0.6299703943548878,0.6284683666568734,0.6128698474550919,0.6397677917906746,0.6518308850328474,0.6449285392669416,0.626816120258353,0.6326751759924013,0.649594546584968,0.6466123283696906,0.6328305006868872,0.6382639507467542,0.6059687911494387
0.6296415210988082,0.6543898470255002,0.6213524910847973,0.6455225672155326,0.6064938977256825,0.6162366398887463,0.6093120304677723,0.5665508864809881,0.5949251041366257,0.6016703808465512,0.6274706217160962,0.5872691023249427,0.5878613326546444,0.6092375649094803,0.6274110276565065,0.6081326850439405,0.6389363966343666,0.6133003027703308,0.6082053763884299,0.6262844999335702,0.6217914165837145,0.6016133130246077,0.608190267244237,0.6441229031065177,0.6399241460768949,0.623626165806513,0.6371660781685486,0.6438173120138212,0.6431919113330393,0.6485303790684469,0.6311122889241794,0.6037325081898255
0.6364365880081401,0.6391186783807709,0.6242651468037986,0.6335250632453534,0.6207092420678393,0.6064096349295457,0.5917303856127585,0.5647356917548366,0.5695209209863764,0.5832678961707306,0.6051281443812453,0.5787738526002645,0.5987345982193382,0.6063068504908353,0.6123572067095326,0.5787271097295928,0.6112676513031663,0.6054762266058066,0.6059798914152609,0.6284344685730642,0.6179663259288861,0.611751563900079,0.6053824619336482,0.634720199746446,0.6339144267668203,0.6175169351471043,0.6249124443731742,0.629171633789048,0.6391281640624946,0.6486355139436594,0.6120321394116043,0.6073071194800793
0.6441774234359974,0.6284683666568734,0.6320871361153919,0.6160782163384195,0.612448272417984,0.6171340179535522,0.6067569000131021,0.6006273918790269,0.5827950372695311,0.6063981791822497,0.6155995691479946,0.6019756901031657,0.6065336457814398,0.6047747253891772,0.5936252070588212,0.5797209333817883,0.5979403730190406,0.6029854645235567,0.6122610777272037,0.6178295100757605,0.6027344208902062,0.6305712410437808,0.6059869477878846,0.6421543230488115,0.5949269339011191,0.597694264696204,0.6066767098602653,0.6163349181109092,0.6337192368304071,0.6302660197392999,0.5920393877043192,0.6030861805572812
0.6404904511982603,0.6370049030541387,0.6395096186748577,0.6336628010239915,0.6131044866391994,0.6218488206794649,0.612989532195945,0.6028017418354806,0.5929431890893,0.6004135123470463,0.6191820380612079,0.6054055337159633,0.6121169209070126,0.6186538139755327,0.6096639936765216,0.6096114171929711,0.6183203032910444,0.6140942700122285,0.61564244150829,0.6329065989469598,0.6140283734338619,0.6232550043857379,0.5946178766223873,0.6518601651343926,0.6026802354682153,0.6072365794868204,0.6179623603807225,0.6188090474781409,0.632716947753306,0.6305584342318972,0.6176769876164991,0.6283558622938838
0.6352200459644394,0.6309506978512652,0.6323478563040336,0.6186956073337525,0.6128400919188406,0.6207874754266084,0.6082075924537017,0.582120780207727,0.5858909744257326,0.596076451753978,0.6028244791464767,0.6019173597913421,0.6024710601544085,0.6093054446616515,0.6093962932639091,0.627319378582354,0.6359087547030344,0.5999627635272566,0.5999247784113889,0.6364088983053897,0.6055869482031402,0.6008552657986519,0.590067108107246,0.6216651392125199,0.6242086555368684,0.6119062218926268,0.617527515854747,0.6305501131780045,0.6249036987361453,0.6252743711561651,0.6242632056713556,0.6263413745891493
0.6197856462175647,0.6151235726675428,0.6014747844481367,0.5882754221979198,0.5976629450036152,0.5892706189548921,0.5966794998274287,0.5655841266792191,0.5792526998983887,0.5788536725827521,0.5931797780300565,0.5844238231181923,0.5874534585520338,0.5919698445823363,0.5966109940271548,0.6206670073592915,0.6380429349274751,0.6028184002401352,0.5755304120837118,0.6028370636589283,0.5818544461266999,0.5701134489178303,0.5828701925527017,0.6129548300695118,0.6085591138109818,0.5934620012575725,0.6160741437338405,0.632615424630169,0.6086330790552439,0.6216215332599538,0.6032035260112666,0.5970188677285061
0.6331185404394217,0.6399388025867708,0.600295870993631,0.6305335074141225,0.5986791289033673,0.602085871139914,0.6131044866391994,0.5667823472233988,0.5620582443375827,0.580724984375457,0.6049655424708547,0.5726099259065891,0.5773876884449786,0.5797401519893719,0.6002379491605556,0.6234285339653252,0.6349187079924574,0.6028370636589283,0.561746185456208,0.5901166598443016,0.5620993647941942,0.570061827663996,0.5647244380598924,0.6249721917886627,0.6204002421117812,0.5906095279329874,0.6280351221011512,0.6460976216185095,0.6207630402754203,0.6397390768430393,0.6018529587146824,0.5761211109634444
0.6542075826187523,0.6423842103428953,0.5893309900357958,0.6161461433532347,0.5779109758931767,0.617916106641381,0.6160782163384195,0.5838510889353111,0.5910604329358989,0.6097188103553522,0.6272379763532274,0.5999320088818568,0.5868952880169446,0.5732797026994487,0.5873096059725196,0.6242590613405807,0.6308875432904324,0.5862144992816528,0.5669794955214903,0.6034368559631996,0.5869094441097799,0.5937103016620613,0.5867776400718491,0.6109531392916125,0.6182751717845434,0.5937963752339435,0.6204866688557669,0.6402470860491898,0.6389231302148939,0.6453117997892763,0.6055675618802184,0.6004193435446666
0.6505385917528123,0.6087947530984733,0.5790108485244232,0.5800938293949877,0.5609699763970686,0.6025370983798732,0.596351637387277,0.5823915151884164,0.6284344685730642,0.6161406296199246,0.6343968604509476,0.6156708177797151,0.5955439058610136,0.5829254928042271,0.576167573768597,0.6091007256297929,0.6135695088409754,0.5959851513636242,0.5820222517854549,0.5937279763978652,0.6031797351550308,0.5958419846227812,0.6022894180615764,0.5932283570028237,0.6030279628247758,0.5867647556640311,0.5965852578145419,0.6149403897072004,0.6275723810971623,0.6184368995906969,0.5966159928561353,0.6090205177930059
0.6294239043924865,0.6058024193922178,0.5732869972663538,0.5984077918991052,0.5801805066500835,0.5791500735813223,0.5864775716400635,0.5833435631151995,0.5948221755398536,0.5920392970757952,0.6037087173335896,0.5901166598443015,0.577323865603024,0.5894935191417475,0.6082424432302966,0.6223752164907527,0.6152860688224487,0.6024919174789651,0.6026615004724376,0.5906825176566675,0.5867887663786685,0.5761478273771422,0.6090511407760811,0.5929425285087709,0.6190812335613386,0.5995256043122358,0.6090950162198997,0.6238006195986073,0.6150806498225679,0.6121889493456748,0.5929819617480927,0.5967436820952071
0.6216447538333852,0.6189662304378142,0.598883035654523,0.6094212375733178,0.599656823248558,0.5791957685551562,0.5950361508854242,0.5857906577498649,0.599124815534706,0.5716070874656992,0.5884313453483766,0.6030000423329674,0.5950124630282909,0.6143778732358494,0.6330888051728008,0.6332931545558473,0.6341973293520773,0.6096800939559565,0.6155168920679084,0.614594399747774,0.6026817548193879,0.5864399133436667,0.6134320639142831,0.624942228806444,0.6129306240898024,0.617826216781322,0.6213958845538056,0.6323555493704862,0.6218570391898329,0.6284683666568734,0.5962444098362164,0.5974093298239449
0.621226286431295,0.636886797055487,0.6341478962723621,0.6283908830462747,0.6181530231015551,0.6218675155679287,0.6192740756713326,0.6025046722817246,0.6266628862311439,0.6009800929112383,0.6124227407806283,0.6216320096380495,0.615945248263243,0.628051915855579,0.6282019828271233,0.6282396399125322,0.6512488967374608,0.6222594882153462,0.6157809380979159,0.6320871361153919,0.608625284579674,0.6035331541470987,0.6151235726675429,0.6321116206015975,0.630829947034948,0.612891877648429,0.6402470860491898,0.6269334137105557,0.6220603860411786,0.6398022377417508,0.6025256430375121,0.5942201017174756
0.642215586415224,0.6572070826233928,0.624531021106748,0.6400814457420763,0.6307624180356419,0.6314130774660502,0.6153204877145126,0.6128725823037315,0.6238809982667687,0.6053824619336482,0.6096944304444152,0.6068236624043651,0.6065851981160364,0.6060408836805466,0.6193167394912178,0.6244069362568608,0.6435379953897091,0.6181530231015551,0.6088911655275572,0.6275196223758216,0.6144875622185457,0.6155699522977068,0.6103015893089152,0.635388170489603,0.6590976480732499,0.6181662900916383,0.659814764584313,0.6382115934672423,0.6325007652957912,0.6425725751542289,0.6400564982273134,0.6107059487398553
0.6553674850077041,0.6487535690341247,0.6221771875042577,0.6254159512130865,0.6201242990086693,0.6170069118053191,0.6182878810576351,0.6138687705386308,0.616954622896992,0.5961310376134071,0.6061558383842858,0.6092997142388047,0.6091616520552299,0.6131236440003517,0.6101674863674053,0.6282019828271233,0.6375982145935353,0.6285525479837863,0.6361315750378587,0.6288138554767684,0.6365306229185471,0.6286460973092522,0.6207827854782982,0.6543175708427977,0.6425016758721339,0.622989294947027,0.6546724619283193,0.6323616421674074,0.6411820686640175,0.6575196129139939,0.6374145995908945,0.6221771875042577
0.6352687937167737,0.6195491601179645,0.6326710158582444,0.6252163908114791,0.6211249759729297,0.612294333001435,0.6271225428563391,0.6177687009301809,0.6161317439834288,0.6165708827048281,0.6186927355860687,0.6151475722328228,0.6103384254710617,0.6221037750181819,0.6078602509062795,0.6237363894051253,0.6421607555564054,0.6332323698282122,0.6403643463088745,0.6260516181707753,0.6299511342947056,0.6340611006340152,0.6311938874817885,0.6475661855395964,0.6147625379035792,0.6215202228015886,0.6370926571354224,0.6096496352727314,0.6228783833265764,0.6418365755773073,0.6068793134715725,0.6097599428225896
0.6340311572588329,0.622741826375227,0.6180862781416245,0.6393923584151731,0.6220603860411787,0.6115802671611605,0.6483791359347045,0.6142285881269346,0.6244817784854674,0.6190619919874052,0.6061558383842858,0.6132174852936008,0.6057761352848695,0.6112789809646947,0.6130549891386948,0.6124242613268982,0.6303817471345021,0.6192420972961536,0.6252559680950922,0.6212367628093907,0.6165573570945402,0.6250037575181404,0.6271070812182016,0.6245107680926649,0.6149315484329074,0.6094024026556918,0.6449521564371665,0.6141518702618168,0.6160836278178949,0.6219457489266977,0.6033956559707759,0.5993301879674712
0.6313839581509739,0.6406111462595324,0.6128506900939396,0.625149653522887,0.621409247903506,0.6179091385236717,0.6338893016758144,0.6186927355860689,0.6392750794500871,0.6248394082954064,0.6037329187125945,0.6183310525239206,0.6054438460694501,0.592334064176565,0.6035569450033347,0.6147567127708333,0.6394016810177179,0.6254159512130865,0.6309081803937171,0.628051915855579,0.6122809225331446,0.6278780448403918,0.6142626527821347,0.6223973365074404,0.6157041343169952,0.6250451490195443,0.6382714282491134,0.6330212495980584,0.6386920438569098,0.6222969831319836,0.618770968944838,0.6279356934742273
0.6302333071795017,0.6623741310479906,0.6338567099466511,0.6299454675371131,0.6310144686089362,0.6075923048435508,0.6114177710062546,0.6223759256607619,0.642874032907023,0.6331423167217245,0.6280131770848262,0.5948056846568772,0.5983430189237121,0.5771036153792933,0.584236715174,0.5999480631788924,0.6175508141984604,0.5926324796630822,0.6129419904842934,0.6251550006518829,0.6108068667629234,0.6259609259885562,0.6155699522977068,0.6428685245023267,0.6323555493704862,0.6506979815314933,0.6335460435534571,0.6564043698124012,0.659432375679972,0.6273426048052555,0.6450316696266292,0.6394895042218107
0.6122232358503144,0.6364088983053897,0.6221812548565769,0.6008792326504271,0.6087477786192743,0.5936545102889262,0.6131236440003517,0.6120452204871959,0.6126151841640604,0.6244406674055799,0.6124437272272458,0.5668855330378241,0.5734009205227536,0.5654683752933815,0.5800992451893517,0.5897383942494121,0.5955868246947112,0.5896623152864123,0.5867014710051991,0.6049178514256831,0.6021546902827078,0.598264233647563,0.6086318051554711,0.6328640135933707,0.6026615004724376,0.6179354955741667,0.625474858041479,0.6093140332300472,0.6353916745164672,0.6018653012539441,0.6153348342862418,0.6160309406372283
0.5916137340135011,0.6088995055680837,0.6066671731001858,0.5772761824972321,0.5996568232485578,0.599496759311599,0.6121169209070126,0.6053919986937277,0.606619487488945,0.6043022370366025,0.6028905173719413,0.5863299459514348,0.5754928020414544,0.5919209950731125,0.6061404787336143,0.6192132351211476,0.6193167394912178,0.6134069125312345,0.5900385618147073,0.6274211379634199,0.594914743461656,0.5766544579125886,0.5904985055186258,0.6428152210470711,0.5870216850732942,0.5896844419789097,0.6273193785823539,0.5845707612981796,0.6158049376631957,0.5993959635360462,0.5771036153792933,0.5972380953363697
0.6268152212342754,0.6216892445116293,0.6278763275354672,0.6016793963092865,0.6031904826509964,0.6205184963589817,0.6266474245930062,0.6117625205786335,0.6110772244335466,0.6017417966048513,0.632033792542448,0.6176816990289069,0.5985169070404116,0.6213999294356307,0.6235368443444188,0.64440427171344,0.6297360215710879,0.6110251844194349,0.6002912644350418,0.6499924807062355,0.5963230575744853,0.5798308635941997,0.5902058576499406,0.657479997641303,0.6344016787351238,0.5904985055186258,0.6275777324283864,0.6335250632453535,0.6272047804464909,0.6323645365777293,0.5879190913340206,0.5861950891042393
0.6351792235979619,0.6275419227915324,0.6159884469267081,0.6031035993768292,0.5875568169631556,0.6075716523112935,0.624633955320806,0.6113682550862858,0.5935779281613516,0.6128219531348073,0.6325813758634591,0.6188887955074852,0.5931440309806079,0.6128506900939394,0.6084294567446538,0.6341089853179824,0.6191458857080041,0.6154594649623768,0.596057581992668,0.6334431173818235,0.5946976744169756,0.5937458106792801,0.6032178001651985,0.64308405465336,0.6411351570859402,0.5830430236992681,0.604171985089257,0.6279792790010168,0.6317392397555687,0.6393093040432234,0.5970188677285061,0.5873526141247152
0.6368135442214182,0.6425900704228307,0.6060891333467248,0.6079188075613963,0.6000430760756056,0.6064938977256825,0.6061404787336144,0.584173343902738,0.5704068812924786,0.5855421377491004,0.6224001009318838,0.5870156383928972,0.5819602604655343,0.5972049310931954,0.5954900689468652,0.6121218793072993,0.6131044866391994,0.606266068496877,0.5869920162891695,0.616395764098075,0.6012243905372071,0.5972380953363697,0.6134171598661655,0.628355862293884,0.6330781889553817,0.5900548962508574,0.6156568408780957,0.6343724436397065,0.6333369292354033,0.6440053114002728,0.6078071287948096,0.5854849361623538
0.6570727989103863,0.6448258095466938,0.6273777783318583,0.6335209454409729,0.6399150479439144,0.6454347919791068,0.6182800652175345,0.6029280361903385,0.5804679599977153,0.602125455126627,0.6275723810971622,0.5963408072228363,0.5726258574657633,0.5961479584563175,0.5936252070588212,0.6049178514256831,0.6120114766059461,0.592727070840588,0.5765889177581858,0.5979763889323073,0.608210940215256,0.5767934801261015,0.6238338370282439,0.6362110030971938,0.6294755802273528,0.62332828474534,0.6368477965317804,0.6341479463262458,0.6465478723381304,0.6389168546861116,0.6383205728746238,0.6172144019065219
0.6369804558903541,0.6077228659986728,0.6202819945621859,0.6307570907385215,0.6254072112288346,0.6450992932891212,0.6215984561603578,0.615339351504701,0.6152431459774738,0.6219302039487687,0.6278861459198393,0.6148351652823956,0.5932419469053497,0.6029470136399765,0.6100181532973531,0.6115430105380132,0.6161509430816139,0.6014842351390614,0.5954097372521812,0.5979275505358024,0.5854585104400581,0.5765689670658627,0.6016656608266497,0.6493975112072742,0.6212658459914246,0.6308540596163094,0.6253526045149342,0.6153543959130026,0.6358208584283802,0.6396364075655115,0.6242632056713555,0.6336628010239915
0.6342070932054399,0.5980684521286656,0.6151326586421436,0.6219302039487685,0.5968384450695425,0.6033428003017028,0.6145943997477741,0.6033813818168439,0.6063068504908353,0.6108665395033415,0.6252647080793441,0.6068236624043652,0.6061148253631347,0.6189465321313287,0.630757616492211,0.6400423610665632,0.6478625212587003,0.6307673224215147,0.6285655473228268,0.6244527877479787,0.5893954371298445,0.5861950891042393,0.5906019336176268,0.654326534986777,0.6053003667005915,0.6032035260112665,0.6124242613268981,0.6286043748582697,0.6162576292968331,0.6370246278851496,0.602381940893241,0.606907925200502
0.6507868968909464,0.6085488162591072,0.617934269606823,0.6362623135142034,0.6053824619336482,0.6055672107579076,0.6243598986706108,0.5986490358596313,0.5925421029785763,0.6058083696935463,0.6115808524149026,0.6031464266968245,0.6032035260112666,0.6159781334650187,0.6158436983881416,0.6397390768430393,0.6511946617629817,0.6398655171159303,0.618136328261749,0.6250934719401864,0.6110830190319423,0.6003280431543127,0.6131994994241301,0.645478399914372,0.6158193370330015,0.6106080103258248,0.6233449529209579,0.6357233106575225,0.6249906514291488,0.6267396895056174,0.6163530922347324,0.6005333003229129
0.6431038247034313,0.6271419118624639,0.6267783197280322,0.6451249655172183,0.6218675155679287,0.6244103044743231,0.6245242478933448,0.6022777727773335,0.592923969753352,0.5981986469248918,0.6030555383807404,0.5916695624714791,0.5859209344085171,0.5862973041255748,0.6104331860461002,0.622340376600992,0.6337392386073644,0.6131466922519205,0.6057300231510663,0.6301778557704626,0.6179175171716759,0.5927910389109304,0.6282746424519353,0.630605847604779,0.6274706217160962,0.6126869054752537,0.6269675725993461,0.6395431313011168,0.6532622829665604,0.645478399914372,0.6280373890535818,0.6062550770485599
0.6492466570434235,0.6487830798254092,0.6339143997882984,0.6296668012266936,0.6130737949920818,0.6110042146585735,0.6169382012491178,0.6215596703344104,0.6056786831010058,0.5984797007852919,0.6065088735938197,0.6054380759434728,0.5984132130610296,0.5796994993133178,0.612970726342558,0.6192301485041408,0.628492578625629,0.5928248825116509,0.5982014000347684,0.6387303895229899,0.6206018922558503,0.6002710583275394,0.6312327150172314,0.6233256263905813,0.6313057247922047,0.6123613876188005,0.6370536566117158,0.6410926652938036,0.6656289776707733,0.6459012902512525,0.6189618052824587,0.5994617428405514
0.6481569241178874,0.6240690583212974,0.654154473012675,0.6253429414381131,0.5968349824855611,0.6216215332599538,0.6278143445014208,0.619832949525946,0.6185042490038404,0.6195837476076614,0.6215349571201099,0.6119636947100238,0.6123805449799529,0.5924824289805767,0.5996378321207012,0.6161934367921342,0.6037087173335896,0.5836444988166791,0.5725588305481335,0.64567574671293,0.6148500490295621,0.5987785076723314,0.6250688847879179,0.6485594684102667,0.6242462725555882,0.602595887266995,0.6352785428803288,0.6248359142342387,0.6444849789313045,0.6303698480169934,0.612375675852559,0.603357590960608
0.6283280050611936,0.6088469290845331,0.630844449829417,0.6218734096230586,0.6028756883882965,0.6216946980188894,0.6188370576171516,0.6109385246837767,0.6132444163763284,0.6354991624606176,0.627426489294644,0.6035331541470987,0.5762316240309748,0.5834191105301372,0.5808896306082165,0.5616959816594648,0.5451329586387714,0.5486142360876797,0.5544565941642998,0.6096639936765216,0.6065813368266114,0.5752935477908216,0.6221812548565769,0.6575110145388607,0.6147967663473098,0.626748255170436,0.638022148291448,0.6302366064362543,0.6278171403762486,0.6279721561844505,0.6399883568007048,0.6146047421126745
0.621053098309939,0.6280567580597065,0.6059687911494387,0.6147625379035792,0.605170027786084,0.6063789430219432,0.5943043955931088,0.6008139064962564,0.6112548616418004,0.6254920450506554,0.6143450957353076,0.6154594649623768,0.5834387438307126,0.5824214955618185,0.5808318766821088,0.5584344506901777,0.5679197439540808,0.5743582907007816,0.5898119441179228,0.606143437092064,0.6051070202100853,0.6014800476888724,0.6210729545582916,0.6645442509430117,0.6283131186750011,0.6253289778700656,0.6681631010809947,0.6305823416164239,0.6264862261350492,0.6380376988864578,0.6394110646292928,0.621473022259644
0.6344016787351238,0.6360916668923637,0.6194045934510597,0.6175169351471043,0.602242468274927,0.6201279045657451,0.5940862420534913,0.5871132352808177,0.6002854278739249,0.6036754088753833,0.6013550691545773,0.6188081954421455,0.6161509430816139,0.6148207659125897,0.6099338905012163,0.6275622707902487,0.6377523859972148,0.6206751471214422,0.6238776824610709,0.6201832663394219,0.5886513393342134,0.61198114578686,0.6129112988371759,0.6416196772180666,0.6201729295671187,0.5868136865067591,0.661599540133835,0.619033128696949,0.6462694534200263,0.6396653940746908,0.6177687009301809,0.6152327234224503
0.659850618812011,0.6546230538709287,0.6139269331897502,0.6216215332599538,0.6065498335987219,0.6214682013869505,0.595293419924772,0.5888779570309979,0.5970709888301032,0.5886114295286047,0.5894086798977647,0.6161461433532347,0.6215984561603578,0.6341819950929556,0.6316662800344788,0.6574453325030846,0.6678320744366502,0.643696056293107,0.6416377933340142,0.6395628130786012,0.6087619891930273,0.6155083216248093,0.6201832663394218,0.6494398808601906,0.6454450312508312,0.6113592088557873,0.647232850248377,0.6278824187965888,0.6699583073528312,0.6244469116108712,0.6191350017623785,0.601155656097729
0.6601721871778903,0.6602874986293644,0.6121319354599604,0.6145176759090009,0.610037268554545,0.6088911655275572,0.6014264426229512,0.60300417196854,0.6153440114594821,0.6092680016773738,0.6030512515747872,0.6156812022332356,0.6063980169042544,0.6173862417801858,0.6242945844740234,0.6537783548337913,0.6622189889069525,0.638646208711424,0.6222969831319834,0.638057591437351,0.6239917220388238,0.6098291200708051,0.6421862064925903,0.6572466696616558,0.6592923734191792,0.6223199972701674,0.6459012902512524,0.6420510888624176,0.6545835250075341,0.631418140390504,0.6120452204871959,0.5968384450695425
0.640683621204624,0.6284683666568734,0.6131600124762038,0.6203979651841349,0.5964684964619081,0.6118200044085049,0.6113730349589266,0.6047636207571491,0.6184913178206267,0.6044071613221951,0.6058024193922178,0.6099942585423482,0.6065813368266114,0.6092342343981552,0.6063902003028155,0.6295372908221725,0.6391212190812204,0.6038678239565847,0.6068236624043651,0.6277311756628464,0.6188214304689837,0.609929909464387,0.6280567580597065,0.6293732274473993,0.6237713980769265,0.6155168920679084,0.6311703814934333,0.6422607733854963,0.6328850208799963,0.6483394267946527,0.6085918306466169,0.605644181443561
0.6296462356014716,0.6057300231510663,0.5894442061753533,0.5972380953363697,0.583714953216792,0.6031016430863172,0.6063232908681973,0.598883035654523,0.5989794165175899,0.5845325823753946,0.5851641614554114,0.5994142587636856,0.59967529114291,0.600152479967822,0.5991017867748906,0.6128698474550919,0.6299013349444357,0.5977356113540544,0.5995472066697886,0.6253676339452214,0.6044369492297685,0.593154449840923,0.595002192167856,0.6388143066304838,0.6145787318197952,0.5961333881085805,0.6076765676396875,0.6191061384719224,0.6156616406064749,0.6272715190376511,0.5961479584563175,0.6145403693907553
0.6473596061929787,0.6269614813382246,0.592879264207624,0.5902294846518693,0.601772036134559,0.5835503735812195,0.5932206501847129,0.5961002238654062,0.5895474714122498,0.5969629097030709,0.5839360739508,0.6021147076306612,0.5972759955526268,0.6028756883882965,0.6114015602546142,0.6096944304444152,0.6219302039487687,0.6019173597913421,0.5967958031968043,0.6234463066254339,0.6127357356506852,0.5903006719823432,0.5884050598168878,0.646063267430738,0.6096561992009517,0.577429779388914,0.6110042146585735,0.6048468959229879,0.6147625379035792,0.6019601827928565,0.5961651753065914,0.6098291200708051
0.6501864697478578,0.6342209060473355,0.6046713327364972,0.6136617675145408,0.6154504241137493,0.581942834455515,0.6061923056288931,0.5779109758931767,0.5856775935389076,0.5933246676428897,0.5787180963394144,0.5889555936990166,0.5852488952356942,0.5905180178828084,0.599532837123403,0.587382078608158,0.603381381816844,0.6023819408932412,0.6066350404465296,0.6144162356648892,0.6045933955890601,0.6026865128107345,0.6145203508742366,0.6503035173061648,0.6019799740626572,0.5816968163998577,0.6148500490295621,0.6037818683986185,0.627112724471967,0.603357590960608,0.5873593900137782,0.6024186976491298
0.6124552186879126,0.6274458583007688,0.5957922008754705,0.6120452204871959,0.5981326062658062,0.5999530142882966,0.6079427023164011,0.5748789408388318,0.5898639734136952,0.5972617831935031,0.6006235526508605,0.5971622892204571,0.5897318576322333,0.5875156002757804,0.5830430236992681,0.5945788540438953,0.609458816806761,0.6121394722497456,0.6127024821727922,0.6089673853202549,0.592541470794635,0.6063314015707765,0.6251558977281783,0.641788454966362,0.6095271543968342,0.5760374351298299,0.5999958726942404,0.6013169618544832,0.6203449252895683,0.6153244677575345,0.5828324750081947,0.5882738400645271
0.6121169997244008,0.6283944829288892,0.5999625071685456,0.6060358797678052,0.5887557551733904,0.5828981615641262,0.5936640387121563,0.5818958576563676,0.5903075826814638,0.5896537596026389,0.620419525789675,0.5807926572947094,0.5935186327480674,0.590781582699171,0.5960673865087694,0.630723178656103,0.641598360729292,0.6274272292245414,0.6185331111788466,0.6216215332599538,0.6216946980188895,0.6097809509420941,0.6065031034678423,0.6235097792492941,0.6101856267462518,0.5929195792203249,0.6085843246567216,0.6114936255112725,0.6252226632978602,0.6180117045371518,0.6129413323463951,0.5696598705082516
0.6295103392267899,0.6353600407314686,0.611751563900079,0.6210736690021968,0.6064527305365425,0.5864619165333014,0.6066179085775766,0.5666056697585405,0.5934097622461298,0.5784734226722132,0.5928990515915555,0.549808253409607,0.5795309129637943,0.5649084640860161,0.5894198961786009,0.6298943940358502,0.6430156141449342,0.6244527877479787,0.6306217201175294,0.6370246278851496,0.6353499627035838,0.6095271543968342,0.6086635158231375,0.6379782295164059,0.6187840359764227,0.6048625517849914,0.6221386193999477,0.6296674954191812,0.6240843393256236,0.6171521565111429,0.6040325918518044,0.5698522407068513
0.6275777324283864,0.629232884254736,0.620758657324283,0.6227517615867022,0.6073702263158154,0.6096800939559565,0.6337166872714974,0.6000430760756056,0.6189799403383532,0.6190942459164611,0.6270983308875836,0.5961132067194699,0.5965206175635054,0.5915191320534438,0.6091847597955503,0.6367271159930952,0.6337405813491901,0.6335557382740948,0.6483245189885116,0.626444326054699,0.6274272292245414,0.6130842789704154,0.610742456966387,0.6362867702092326,0.6246136952158706,0.6097188103553522,0.6290234812855793,0.6512634109832747,0.6178978854204604,0.6322417826108043,0.5913988651043997,0.5928010308488549
0.6509252324750817,0.644462966648171,0.6371219061737531,0.651515584494468,0.6076365180293684,0.6315054994813997,0.6380505284477168,0.6245011050158439,0.6240906231188821,0.6302494283115632,0.6593433389290333,0.624585638052941,0.63628667725374,0.6363572540943669,0.6437493614867553,0.6597897911349393,0.6563472860907591,0.6476262395573297,0.6488560896003824,0.6289864887471931,0.6191061384719224,0.6416101053152059,0.6161413156753134,0.6353600407314686,0.651200464683056,0.6511055996605135,0.6631147971624366,0.6683818034721295,0.6510118830040272,0.6585770407809521,0.6489091138219207,0.6217914165837145
0.6616648607620366,0.6625118607228364,0.6432868033254272,0.6455225672155326,0.6212886042398182,0.6342257697725115,0.6335640165295097,0.6168903379571219,0.6121080941952937,0.6193263600922905,0.6469474091847337,0.6140894293446562,0.6279258112881436,0.6449572386380844,0.6432868033254272,0.662691034885064,0.6622298917756416,0.6506714420577745,0.6320871361153919,0.6358405051409971,0.6126211393216682,0.6391281640624947,0.6280275706692096,0.6585436787258389,0.668054912167898,0.6397826957934959,0.6621560207511467,0.6625881487030648,0.6504820271794902,0.6676775740477675,0.644486898007051,0.6419780258607063
0.6534090080091634,0.643532588587733,0.6303817471345021,0.606852273046756,0.610799484885976,0.6119636947100238,0.6151667713310078,0.6042077514319709,0.6095026462890789,0.6179311970850867,0.6274395147421068,0.6146768185392735,0.6083305281114618,0.6271200666966579,0.6393923584151732,0.6461317079391639,0.6408403326264892,0.6381012586323138,0.6217433725712889,0.6307090849367585,0.6200362546007534,0.6157473374136073,0.6121218793072993,0.6619354457696492,0.6489594291140601,0.6121889493456748,0.6476166412341203,0.6524371301787978,0.6431625314104056,0.6526641711047644,0.6190195419063019,0.621208198798395
0.6480392916692461,0.6353798240635938,0.6312327150172314,0.6122990170324557,0.5997677464745547,0.6023819408932412,0.6170978492270935,0.609650089809169,0.6010270426978879,0.613543676278474,0.6090616849635659,0.6027165658746741,0.6152727628277616,0.6152170671046358,0.6409846332262179,0.6280567580597065,0.6256589222380206,0.6330255592511901,0.6344016787351238,0.6341973293520773,0.6335460435534571,0.6074096175317855,0.6127695522111677,0.6460291811100838,0.6191820380612079,0.6134069125312345,0.6324414946752109,0.645478399914372,0.6417198975703705,0.6455176598692117,0.6161317439834288,0.6188321464193557
0.650570205063172,0.6322424608098778,0.6514852753308908,0.6279356934742273,0.6099177902217814,0.6091963165008534,0.6329525764547387,0.6281729909071425,0.593663028058866,0.6189187374064327,0.6225210328163319,0.6113411121861513,0.612913253525161,0.6185286381789984,0.6343433489020238,0.6336092894750679,0.630844720598044,0.6219832438433353,0.6085918306466169,0.6299056470570139,0.6171439754487973,0.60795703880486,0.6217477379134562,0.6479407546174694,0.5984836072361124,0.6187065527446158,0.6321921239690685,0.6388495357279835,0.6422415801970265,0.6426683037815998,0.6202822369087284,0.6310130313750634
0.6313113541639419,0.6238747747077412,0.6365208508042769,0.6329664123719959,0.595202119534418,0.6153244677575345,0.6302026934800802,0.6043449557549915,0.6001999640446878,0.6155354817807343,0.6188956775422164,0.6186859867326797,0.6035569450033347,0.6056746899118944,0.6246363384559753,0.6381599570452369,0.6329759766525002,0.5968952971698502,0.5839450382326107,0.6252677024760004,0.6084205003174918,0.5892790936792164,0.6098652137382308,0.6506415012765088,0.6124227407806283,0.606885827825273,0.6206331057512604,0.6428741638615352,0.625197322925056,0.6251611187528308,0.6056453298445532,0.5958088203796068
0.6195313077752838,0.6259182694290883,0.6099482269896751,0.6157473374136073,0.5764689967055908,0.6185993957456027,0.6303336714564536,0.6018563887583898,0.6151326586421436,0.627421653940065,0.6155848412587014,0.6207756822574944,0.6098335274256447,0.6047506554262311,0.6208933574111594,0.6326397442168661,0.638696971971217,0.6123781660670395,0.6136359947270595,0.6181685018692596,0.6183421883416845,0.5963408072228363,0.6123289734654342,0.6500286584250966,0.6159116475789346,0.6047960821396607,0.6191843624526326,0.6214296332826407,0.6159157201835136,0.6218634482156093,0.5942568539522037,0.5826118153159869
0.6274458583007688,0.6204751073819783,0.6089668779799443,0.5986328967031977,0.5865883763540093,0.6154352589826675,0.6159452482632432,0.6238080160993082,0.6249264212356668,0.6204206214426058,0.6220084373075377,0.6212226616035953,0.6161461433532347,0.6213958845538056,0.621473022259644,0.624531021106748,0.6313639622769611,0.6191638639373847,0.6237803928873188,0.6055239122170472,0.5999958726942405,0.5994804195675342,0.6244387688578462,0.6503193200528199,0.5939003926921201,0.6033242825024019,0.6096471032922454,0.5970188677285061,0.6224126934341369,0.6280373890535818,0.6024348181645233,0.6014674865412954
0.6280131770848261,0.5968349824855611,0.6059392621766438,0.5994668905156817,0.5952021324941957,0.6063981791822497,0.590224725720919,0.6157620653029006,0.6099482269896751,0.5967155465731891,0.6083305281114617,0.5882717137523594,0.6028138181231442,0.6035759771486132,0.6029179862390518,0.6153244677575345,0.6150467688866221,0.5969095095289738,0.6024710601544087,0.6017846196063659,0.5839892605953831,0.5894700165163786,0.6240235554107015,0.6600838543570119,0.5805621086461585,0.590781582699171,0.5998438822527562,0.6216997666187228,0.6109531559807728,0.6284344685730642,0.5965632594362436,0.609010753423763
0.6344448773759465,0.6193757312760535,0.6053347763224075,0.6073588415491268,0.59563369777267,0.6050784095676944,0.5956501711486324,0.5923405640355596,0.5593155292282772,0.5702929404748398,0.5602367183124585,0.53533074439954,0.5588516307290947,0.5418240824790687,0.5444214618652037,0.5773820102573141,0.5830623197979113,0.5609148789797805,0.5835186235544365,0.5948056846568772,0.6088995055680837,0.571501028821516,0.6020385718524597,0.6486207187291626,0.5874009063628736,0.5984678095990335,0.6210824304664074,0.6347327483709629,0.6133944393189955,0.6301688973829652,0.6121889493456748,0.6154594649623768
0.6291425144739717,0.6335460435534571,0.5949792987851166,0.6052105125387266,0.6024348181645233,0.6135561976401492,0.5879192300707197,0.5824862768124226,0.5499835871858265,0.563330021389448,0.558545736243244,0.5346578198735791,0.5509177495877648,0.5154864852613482,0.5447022206297732,0.5672615129420392,0.5757159313703947,0.55969346985504,0.5869800531790473,0.5959690720423528,0.6172152466039924,0.5650824193558462,0.6084097192778776,0.6281196266437333,0.6129320483660737,0.5924939055052169,0.6201279045657451,0.6240341641823922,0.6243300088825011,0.63991043494598,0.6128506900939396,0.596332767625967
0.6210584917530914,0.6151321289109266,0.5857514637108155,0.6001987385882095,0.5939003926921201,0.612422545722316,0.5792081518310296,0.5786578978383394,0.5729400314280313,0.5719337743627948,0.5749536985118693,0.5621837697816061,0.5905695738036786,0.535523044643922,0.5614146028733332,0.5702958607534567,0.5894628367654766,0.585396969537373,0.5903783618443119,0.6125481295466949,0.6177813124000067,0.5654683752933815,0.611705506692919,0.6485806091623723,0.6058926324896833,0.5847079115923604,0.6161406296199246,0.6134171598661654,0.6231365637987705,0.6489037847599138,0.599523875342455,0.5833768389284115
0.6252163908114791,0.6208686116811395,0.5899299825940177,0.614849142184015,0.590781582699171,0.6129972127667419,0.6156708177797151,0.5905670741159469,0.5895451803819495,0.5828373130250379,0.5837018455079807,0.5750615447576499,0.594914743461656,0.5816455853468678,0.5906825176566675,0.5927253662476277,0.5949134759302076,0.6119062218926268,0.5948872039203686,0.6243078171006178,0.6260961188936585,0.5869557696356222,0.5864122114372714,0.6381307932731723,0.5896442836977639,0.5989780485512362,0.609943637525119,0.6189828977365771,0.6307519886071635,0.6451707306624701,0.6026466233408994,0.602610381351014
0.6263908583418257,0.6365074323509271,0.6102763240097899,0.6126782518208137,0.612989532195945,0.6221297215446725,0.6357012428674575,0.6245107680926649,0.6151486265962101,0.6091395102017259,0.6000563379316992,0.6039585116069761,0.6016556108753631,0.6125951674980997,0.6211582871040792,0.6300514503463377,0.6287736877586723,0.6128054334948637,0.6077580764446927,0.6267046869662144,0.6116756116403771,0.6021138548750857,0.6000328046574098,0.6303138237719544,0.6052197279535872,0.6034004139621225,0.613196074782636,0.6432911749022252,0.6268995156267463,0.6307831548169213,0.6132079067964885,0.6218675155679287
0.6346247188763853,0.6308541557587207,0.6295372908221725,0.5929239697533522,0.6188214304689837,0.6045138784902874,0.6207932120127937,0.5938605803146292,0.6087525573880074,0.5962806465243697,0.6062644895855085,0.599074375732026,0.5953996924832158,0.5987324667611987,0.6024603991310761,0.6160741437338404,0.6319170350719137,0.5834894762858351,0.593434284221659,0.6291198647453116,0.6045138784902874,0.5665156483275807,0.592945464551414,0.6481769411788318,0.6029157226486422,0.6065851981160364,0.6122518230537725,0.6370926571354224,0.6175671135520637,0.6126343415252127,0.5996093445351885,0.6118679042343937
0.6347709814854272,0.6174418946099477,0.6191243014373646,0.6032347622095261,0.6236770643420798,0.6128725823037315,0.6192974979172844,0.5786672863557079,0.5746055677686147,0.58626416777776,0.6061625109743752,0.5465814751659056,0.5587624612961325,0.5657378030572477,0.5956529646657923,0.6022083784878453,0.6073995274298225,0.5821716470356281,0.5864882269627368,0.6312965933317447,0.5930494820095907,0.5740302752979008,0.579755847595652,0.6393535118815828,0.6052105125387267,0.6093745540106241,0.6183994930323462,0.6176152239949968,0.621053098309939,0.6367366784204547,0.6002198778651412,0.5942473517917832
0.6365942427932031,0.6065454406276765,0.6037087173335896,0.6024710601544085,0.6081492947657141,0.6283413354918865,0.6303134042646495,0.6161461433532347,0.5839450382326107,0.6095492766062293,0.5837737930128256,0.5597685904064117,0.5705025274319845,0.5524678399459605,0.5937756553697978,0.593663028058866,0.5839457759442017,0.5791238589924842,0.5917789217451741,0.6110573091210117,0.5994054589212452,0.599074375732026,0.5936054523967813,0.6217557287314678,0.6093522644735107,0.6032178001651985,0.6059392621766438,0.6130903535459323,0.6232096566572951,0.6250368554786081,0.5965206175635054,0.6032035260112667
0.6334465451902231,0.6155699522977068,0.6063275718353838,0.5920965425976823,0.5886948939056618,0.5988988125455353,0.5992928388957005,0.5859125019135065,0.5721452726454953,0.5756501486657234,0.556996539323022,0.568014045008375,0.5746376297834107,0.5487746191143444,0.5721602444171037,0.5794897415771363,0.5773263764836579,0.5738433530830788,0.5775446616546891,0.5991076042513437,0.5984714021755262,0.5853218026984389,0.6059782798742775,0.6310921481346641,0.6162702405730549,0.5881511480200948,0.6023615351933825,0.6247551454992697,0.6247658719241719,0.5938413600222714,0.5856079621960706,0.6024533359638241
0.6239456998876644,0.6269599893938239,0.592668003456001,0.5885199947974876,0.596315460546264,0.5687553597676657,0.5828155084966125,0.5579711590980267,0.5736810231706035,0.5657195824364765,0.571009241598057,0.5565787044849128,0.585799437702549,0.5510654206632816,0.5508510117827825,0.5937197560298385,0.5858079581253018,0.5690668657414094,0.5762100161908038,0.6034998456888926,0.5921323407372423,0.5957442650561463,0.6065851981160364,0.646754800504299,0.6185726895122663,0.5725606895935527,0.6067065270818023,0.6306884967515489,0.6352763074883,0.6123894806682091,0.5923561298523069,0.5999530142882966
0.6129419904842934,0.5873191936898239,0.5815331039776105,0.5800000387292493,0.5926526319535932,0.5787327381819056,0.5706511880227989,0.5667811578373629,0.5765689670658627,0.5771036153792933,0.5966109940271548,0.5759130490584518,0.5973530835838571,0.569516264229506,0.5739227190689139,0.609458816806761,0.5930960101613241,0.5885359502321631,0.5827617803819799,0.5903075826814638,0.5948930622556863,0.6017798616150193,0.5864212463417888,0.6396263415072756,0.6067569000131021,0.5771784494194009,0.6213860273300745,0.6307090849367585,0.6208894700430506,0.6439508744385906,0.5864775716400635,0.603042236978708
0.6120671907825483,0.5883290719603255,0.5938214752805073,0.5923934678151483,0.5929162890847899,0.5935392520529913,0.560966538002913,0.5642539511394682,0.5802058325470096,0.5807964863175934,0.5964632080734795,0.5931797780300564,0.6069269990828133,0.5933908531577294,0.6063232908681973,0.621935272548602,0.615123572667543,0.6142589742268677,0.590378361844312,0.5885199947974876,0.5907249756814436,0.6094775695431224,0.6004609910604156,0.6363015722709916,0.6127020689632439,0.6160309406372283,0.6336628010239915,0.6365415746857184,0.6190331286969492,0.6422222975225017,0.5938077954831223,0.612874935866928
0.6305273494384876,0.6204751073819783,0.611751563900079,0.6035778406184539,0.585307422780139,0.6017084881466453,0.5865901135211168,0.5677630718092506,0.5957933218425367,0.5836022230611724,0.5847314826421987,0.6033956559707759,0.6085706746862162,0.5969095095289738,0.6217911313824644,0.6380429349274751,0.64567574671293,0.6211823509697878,0.5882840835964966,0.6211041176110186,0.606908589884859,0.6116860151760204,0.611506945074825,0.6501124999479088,0.6161461433532347,0.6156812022332356,0.6303304295358363,0.642736987688302,0.628492578625629,0.6286656151261928,0.605798589656825,0.5901376858312779
0.6485322955043501,0.6424431237212915,0.6292791821643345,0.6055964565531253,0.598389275021493,0.5996755884247184,0.5972733653925685,0.5586822542740321,0.5930494820095907,0.55845431019172,0.6000430760756056,0.5857988850332327,0.5985710011756459,0.6059687911494387,0.6216662303734456,0.6500511109571943,0.6567558182956567,0.6401496105546349,0.5943591399690162,0.6150220227924413,0.5948221755398536,0.5781368279967338,0.6004097569237672,0.6562119719669315,0.6282396399125322,0.6092680016773738,0.6339144267668204,0.6413532857677351,0.6263908583418257,0.6335598563953527,0.6023819408932412,0.574625131034268
0.6399781996939962,0.6412780213306377,0.630757616492211,0.6098922733064184,0.6122990170324557,0.5984738325581908,0.6021071086832568,0.5692018561985147,0.600152479967822,0.5669290648449035,0.6187693676926734,0.5835232165017212,0.6049067228908389,0.6244008325260962,0.6026865128107345,0.6459651037228439,0.6272079117956312,0.6279006727218366,0.5865937205712322,0.6084405321530633,0.5820222517854549,0.5683705442868088,0.5922832012439326,0.6453998736873012,0.6337358107989648,0.60300417196854,0.6221871489117069,0.6313493055509475,0.6293841273884785,0.6343529885468475,0.5993484848226768,0.5947838945886504
0.6411583697254993,0.6458328497428268,0.6394110646292926,0.6280581774461161,0.6159781334650186,0.6439308612904202,0.6235143585630087,0.6093120304677723,0.602125455126627,0.5930787852396959,0.6217131832249455,0.6085877763650728,0.6075472942869427,0.6118377813842011,0.5938876756242973,0.6247145718147445,0.6131332224974639,0.6116580576138781,0.6021147076306613,0.6275777324283864,0.6065579005758824,0.6029893813096349,0.6067950506754358,0.6501169980799991,0.6356284073274435,0.6161461433532347,0.6156568408780957,0.638091108678405,0.6430479019631662,0.636365982067528,0.6209756780481063,0.6114936255112725
0.6527219070994656,0.6598506188120111,0.6339783780740235,0.6397582676278586,0.6352896726118239,0.6524877682150927,0.6306932066956746,0.6251804452832073,0.610854761083208,0.6063981791822497,0.6126323923428316,0.6060289836556293,0.6191458857080041,0.5991747965498638,0.6056144549135053,0.6398805271264382,0.6339776457099091,0.6338317042068286,0.6422372636413561,0.6509646692885004,0.6277250844017248,0.6311938874817884,0.6282396399125322,0.6600232825513639,0.6442647890792575,0.6367243009005811,0.6471394324688134,0.6510975195934625,0.65535340845057,0.6447900641222759,0.6400518852293792,0.6232147971575397
0.6470380884059754,0.6455831067624416,0.6216447538333851,0.6250993544892995,0.6336662288323911,0.6449915928258557,0.6294703498037337,0.6127385110846088,0.6057777087623071,0.6065151572152452,0.6013086719525708,0.6050087477657545,0.6113592088557873,0.6094961290829263,0.6307959182739644,0.6397677917906746,0.6330255592511901,0.6401298070841037,0.6398215423270861,0.652703817935805,0.6307577603228381,0.62539662468271,0.6249607616410392,0.6537547792976363,0.6246909153057876,0.6306343759741412,0.6348294784013168,0.642031516176161,0.6428686674433952,0.6546040214198935,0.619260271419977,0.608885601700731
0.6417648284191539,0.6425800934925101,0.6263734590011356,0.6186378818682903,0.6122237350458825,0.6223403766009918,0.627553520459631,0.5987785076723315,0.5968602198247108,0.6124427458909345,0.6120532602712279,0.6117576800606864,0.6097313660883822,0.615805600868795,0.6306884967515489,0.6216447538333851,0.6265157867470631,0.6285071054276262,0.6204147049169816,0.627476036849032,0.6279055149259641,0.6149939617144126,0.6092297704339102,0.6399883568007048,0.6344990080967942,0.6215505020980391,0.6330781889553817,0.6393523141268069,0.6392509081317741,0.6514852753308908,0.6120985815722978,0.5878562995305805
0.6498693597034256,0.644751378558149,0.617443925372131,0.6150132837168734,0.6221820083769511,0.6058940170781408,0.6143551797540949,0.5925843906523106,0.597694264696204,0.615191588487094,0.6135565398787589,0.6111491964843052,0.6101736169279487,0.6176174577964384,0.6360630525691447,0.6319974460667229,0.6333320655102271,0.6249264212356668,0.611158034724397,0.6065072620528364,0.6111688857334282,0.6168267864993444,0.6005096607708702,0.6533666864869137,0.6358695732665643,0.6124434186880505,0.6459948269223124,0.6272715190376511,0.6399388025867709,0.6386920438569098,0.6267783197280322,0.5998772943345231
0.6479603977339394,0.6279721561844505,0.6096379001966251,0.6184503772125409,0.6274706217160962,0.6238006195986074,0.6221261766743378,0.6081231223547857,0.601327406579831,0.6229119586645533,0.6076366528286552,0.6283413354918865,0.6026669822061912,0.6151564578693184,0.6395181443030462,0.636023401069837,0.629967187550201,0.6292808319990405,0.6190619919874052,0.6224787572141055,0.6115356820339573,0.6180168183298859,0.6030041719685401,0.6655160702676959,0.618770968944838,0.6152860688224487,0.6204195257896751,0.6285119476317539,0.6250388652262859,0.6223004784850755,0.6134110852906486,0.6082258909801888
0.6244008325260962,0.6115777799298492,0.598416403576844,0.5966895435981381,0.605983932880037,0.6186458672824929,0.6026428370536445,0.5949298415304781,0.6122518230537725,0.6124529971851629,0.5896498345856023,0.6049659314083273,0.5992005060006027,0.6054438460694501,0.6153721034350437,0.618136328261749,0.6182063048586135,0.6156219611172827,0.6137320049958813,0.6352763074883,0.6152916356227769,0.5883290719603255,0.5868345950168444,0.6333263599112889,0.5966217224699607,0.59617602571869,0.5941916203263419,0.6334520534703802,0.6230506695594741,0.6307815970633934,0.5986506423903115,0.6129112988371759
0.6260069698452146,0.6213961697550556,0.5854983456173012,0.6037594536005588,0.6000102422406259,0.6119694393050544,0.5966201115365513,0.5657994584826005,0.5994058534084961,0.5837900157017667,0.5791272715923325,0.576420540141671,0.6013102028804977,0.5974093298239449,0.5934747766407861,0.6089998686436553,0.6217037073168297,0.6092211818655147,0.6026103813510137,0.6096471032922454,0.5900028669550849,0.5691415916670731,0.571115537133566,0.624767473725813,0.5939444141850045,0.6021575306321757,0.5995282155419319,0.6156708177797151,0.6193167394912178,0.6485187801594875,0.6035183634881937,0.5864399133436667
0.6469504962047194,0.6461245293757087,0.609010753423763,0.6280217477734001,0.5928862762083421,0.618744434408474,0.6084647367605158,0.5711310857616986,0.5682155025775651,0.5760093473321661,0.5805843715342807,0.5805621086461585,0.5608975528149036,0.5575351868861673,0.5556575025879751,0.5682765755445587,0.5964998741322334,0.5716270677013364,0.5588721653396358,0.5800938293949877,0.5447600894410943,0.566351890425764,0.559362885959554,0.6348860145189633,0.6054208933666346,0.5981025194703626,0.6293841273884785,0.6180727646482568,0.6283489599754173,0.6331956602946684,0.6003755272311785,0.5676559687038114
0.6278194528798879,0.6463420311557421,0.6149459565075285,0.6426488408601585,0.606073775290124,0.6303239655271499,0.5770113013377588,0.5912853116185726,0.5566243300019798,0.5812139719692774,0.5724492139693642,0.5670073772014655,0.5440343398922121,0.5363016706719868,0.5381773452335833,0.5483552416298574,0.576124424646605,0.5363922875554543,0.5390379923627969,0.5872691023249427,0.5633759694937736,0.5882690811335768,0.5831426461460762,0.6506399985439969,0.5991076042513437,0.5730708540175256,0.6246363384559753,0.5986321906795683,0.6078584395202644,0.5735596578758703,0.6054208933666346,0.5867782577248077
0.6113592088557874,0.6310927019677052,0.6209907805014158,0.6366281128896123,0.6280131770848261,0.6365063608959081,0.5957414715389864,0.6101065468895732,0.5959756919399963,0.5869685629090112,0.5872126079104565,0.5798055553365683,0.5972260440912104,0.5859807284124487,0.590033802883757,0.610656239482265,0.6174549616415327,0.5843316113235945,0.5789112260776149,0.6067092089679306,0.6067323620140113,0.6156219611172827,0.5956025860186999,0.6259609259885562,0.5906306213000879,0.5813450459309364,0.6218339620902369,0.5800352189325313,0.5921323407372423,0.5770421367025679,0.6307569372599746,0.5983253287462814
0.6254941845718555,0.6188361933860445,0.6385599771850856,0.6402910608380339,0.6265846736974156,0.6453505090555408,0.6247413410007956,0.6083623921257079,0.6209089223149471,0.5961002238654062,0.6145403693907553,0.5820605530864782,0.6135900785760949,0.6203423880838366,0.6223982306289365,0.6397778578489106,0.6402277814638544,0.615123572667543,0.6025046722817246,0.6218339620902369,0.6245011050158439,0.6091449620728171,0.6060795138620692,0.6231406453183885,0.6180168183298859,0.6115808524149027,0.6280131770848262,0.6108138704057602,0.605391741845232,0.6018365233600522,0.6110432407607925,0.6032825207513782
0.6240905697778367,0.6330781889553817,0.6301533101530313,0.6355721722355908,0.634706241003199,0.6286209369932,0.6064554124226708,0.5926715410419935,0.6032225581565452,0.5882738400645271,0.6275922592303838,0.584044660679419,0.6107548329589597,0.608975428323694,0.6035331541470987,0.6286086933416254,0.6396135249017142,0.6310421506901397,0.617759932387676,0.6298784818844064,0.6128270360410392,0.6055048383347359,0.5981539213213992,0.6467541355079195,0.6277745681544012,0.6280507396933809,0.6370049030541387,0.6111332643580017,0.6121490507468579,0.6181074660867428,0.6026442522885735,0.6202989946148283
0.6456269896628914,0.6484817429628377,0.6245919105393223,0.6177659375665516,0.6310871012552262,0.6115808524149026,0.6213045197900641,0.6083953827894188,0.6211644235057515,0.6132278135597478,0.6323830261595934,0.6210287179426729,0.6141484868915377,0.5961479584563175,0.5991438953670347,0.6402082395155995,0.6455029376328782,0.6399388025867708,0.6270867332194852,0.6281900923581442,0.612126811446127,0.6126424609369993,0.583249834165288,0.6331262825891278,0.6010912821600145,0.6316868066520509,0.6325083660884856,0.6280131770848261,0.6398215423270862,0.6510827310385116,0.6303076657963195,0.6250744748295975
0.6539150265504183,0.625077664369409,0.6009677877769851,0.6114131290964406,0.5920677522191143,0.6060795138620692,0.6034801795280166,0.5991551689937942,0.612294333001435,0.6119116007720241,0.6054558412663323,0.6230171227135207,0.6062347027953737,0.6055790606541975,0.6006854229160129,0.6219302039487686,0.6339136212625114,0.615339351504701,0.6052713916593673,0.6071050450038671,0.6084011409370932,0.6170601851799671,0.5908004507701494,0.6340749365512725,0.6005046280635734,0.6236551554137105,0.6049037636250693,0.6249607616410391,0.6347424975345182,0.6365793706708813,0.6079793934963067,0.608108595580448
0.6414033687086347,0.6125157556659079,0.5992787393593718,0.6105588905442607,0.5996778286549976,0.606266068496877,0.6150702272675443,0.5960669923303502,0.6029244663083274,0.6083653786426314,0.6024533359638241,0.6121331544738117,0.6132807646506406,0.6281233993181929,0.6199477604095426,0.6147567127708333,0.6327622669130715,0.6079429941525273,0.5888253022456933,0.5859843061037456,0.5945812146554642,0.6151620246696465,0.5922049678851636,0.6211582871040792,0.606152008648893,0.6067514358963225,0.5980408714807901,0.63737083769348,0.6306884967515489,0.6192974979172844,0.5995282155419319,0.5887147600323624
0.6367660015190675,0.6336662288323911,0.6212226616035953,0.6215349571201099,0.6092555699978546,0.6121203148885933,0.6237039265993521,0.5937945644581981,0.6093120304677723,0.6131236440003517,0.59929078621265,0.6044312301524511,0.6086318051554711,0.6043711534321279,0.6231516650057318,0.6397778578489106,0.6316657993654254,0.605051378744429,0.5865246418977116,0.5975394699501068,0.5910535195387939,0.6110863227762074,0.5828701925527017,0.6335460435534571,0.599310499706809,0.600441999932559,0.5989912669750251,0.654326534986777,0.6291405878607959,0.6225620233270812,0.6037515403351039,0.5973530835838571
0.6242259193825449,0.6342070932054399,0.6283171235231312,0.6079832905108363,0.5961479584563175,0.627426489294644,0.6154264177083746,0.6033428003017028,0.6096800939559565,0.6157041343169951,0.6093379279850518,0.6026817548193879,0.6007411565234175,0.60274661050275,0.6220084373075377,0.650969598740134,0.6324840850220957,0.6137320049958813,0.6089668779799442,0.6221820083769511,0.6026888179866399,0.605138288090162,0.5894791712016271,0.6454849430545474,0.6210140010748472,0.5994728194234745,0.6184108010993807,0.63991043494598,0.632014643029543,0.6284736188231989,0.6033242825024019,0.5994663493991408
0.6339874095632717,0.6358282973351006,0.6209447479977184,0.6128873019893764,0.5999348355870548,0.6237795517157851,0.6151619716026286,0.6065889397414166,0.6088995055680837,0.6119062218926268,0.6152096072801377,0.607936470698977,0.6076299284640245,0.6159692478285229,0.6150467688866221,0.6343676299684139,0.6326564244905617,0.6146047421126745,0.6068427362866765,0.6138242636694466,0.6125157556659079,0.5998203095077497,0.6092727804461069,0.628355862293884,0.6344405896895037,0.5799926601078761,0.633370882372523,0.6275131939379437,0.6347481627927972,0.6341478962723622,0.6028370636589283,0.6018529587146823
0.6425900704228308,0.6364576131435739,0.5921964940832197,0.6184556284040251,0.6126258233526888,0.6052776386481677,0.5794803221155035,0.5769364713983962,0.5957885844486842,0.587029352815332,0.5827441122243273,0.5901166598443015,0.595442334355954,0.5896351290125155,0.5968384450695425,0.6204147049169816,0.6430156141449342,0.5999378454429737,0.5935010626364837,0.6033428003017028,0.5919663779293459,0.6099530057584082,0.6094360609541873,0.6275922592303838,0.6114705765989727,0.5715523848594362,0.6099099957462115,0.6048694883701525,0.6239393799851397,0.6249264212356668,0.598664460654792,0.6024348181645233
0.6392750794500871,0.6176049307818055,0.5901209054311799,0.600498060519329,0.5963487833574419,0.5954690794228473,0.5910777913091156,0.582531935592263,0.5794020919631856,0.5760223850053972,0.5832507586000372,0.576154360113873,0.583650171966188,0.5741699961367469,0.5870046560601283,0.6030512515747872,0.6336717371125483,0.5970485658329768,0.6126881939390336,0.6226005184529597,0.606222615995759,0.6157041343169952,0.6100324897858119,0.6484477191289633,0.5872123592973885,0.5745923797163199,0.6022424682749269,0.5965021942740536,0.6271070812182016,0.6160061945430475,0.5944953165804474,0.6019243537852654
0.6480839504803272,0.6305816474239362,0.6037467823437574,0.6053667991959066,0.5957414715389864,0.6186378818682903,0.6242816916146361,0.5906048109590627,0.5902273583397016,0.5831435255904781,0.5966109940271548,0.5858936885228075,0.6046337579869785,0.5970008099193278,0.606549833598722,0.6019862240504178,0.6156708177797151,0.6173006060326728,0.6197776827384599,0.6293254375766156,0.6251496535228871,0.6211041176110187,0.6157532240286077,0.6289947204805734,0.603702257781355,0.6091449620728171,0.6251901083600284,0.6148814306784828,0.6311933938238821,0.6430154299993134,0.5996908956865824,0.5879507738604723
0.6600889495948289,0.6279571615999926,0.614686646029109,0.618290484895575,0.6064229133150054,0.6243598986706108,0.5877827496620699,0.5658836569423642,0.6064867558876101,0.570369626225565,0.5968952971698502,0.6035331541470987,0.6191820380612079,0.5954253206733984,0.6134320639142832,0.6336662288323911,0.6419550264309822,0.6340749365512725,0.6149701624872378,0.6333503067900809,0.6274227621713934,0.6241590102862624,0.624676938443295,0.615732481384843,0.6127789835002537,0.6252226632978604,0.6337844037626971,0.632850398070256,0.6295024166757998,0.6426488408601585,0.6117668591635624,0.5735452519148504
0.6673838349601114,0.6182356835403435,0.6053331516578803,0.6258621267275057,0.5967022944175089,0.6149315484329074,0.5824487019399737,0.5661167601384929,0.599890361366108,0.5653960865759641,0.5966109940271549,0.5928010308488549,0.6150702272675443,0.5843699043109231,0.6054760046413689,0.6273591549293736,0.6389761372956143,0.6159781334650186,0.6092297704339102,0.6365856657096961,0.6215596703344104,0.6162366398887463,0.6152580349384683,0.6312128060642583,0.6066216610452264,0.6033428003017028,0.6327098327205404,0.6422604259777631,0.6263474658502709,0.625320977153639,0.5927688559409037,0.6001653314990392
0.6425997323186619,0.61922467308644,0.5960686257594068,0.6093379279850518,0.5966109940271549,0.6221708146194506,0.6183400746868843,0.5988893171603363,0.5701714442427654,0.5937301748901535,0.599843535196701,0.5928059734232507,0.6147434209473112,0.5968861796604538,0.6094042417196328,0.6288258064427243,0.6177364861150542,0.5958475862894315,0.6059798914152609,0.6242259193825449,0.5977769920211546,0.6096561992009517,0.5994728194234745,0.6332533771148376,0.6256621571082376,0.5931345766128309,0.6363683221856132,0.6289124757641992,0.6127814339295837,0.6389855209071891,0.5880379150449014,0.5988925061792664
0.6248421584395298,0.6166629318957761,0.5843993054639813,0.5863839699793545,0.5856147198308099,0.6103672949099826,0.6058940170781408,0.6126111817824382,0.5768310271134126,0.5936967527871352,0.5991083238484833,0.5989297508060738,0.5823227912013863,0.5870216850732942,0.6122518230537725,0.6371318899704849,0.6301634663277823,0.5968952971698502,0.5771036153792933,0.6243945162161416,0.5832917557593104,0.5751070828243744,0.5949251041366257,0.6100298880694699,0.6046012588793134,0.5888329548485343,0.6126258233526888,0.6241786257429438,0.6059678739055733,0.6212367628093908,0.5943564018304882,0.5868906163550643
0.6353985376855192,0.6066480992178744,0.561642546253867,0.5930657976218389,0.5847506294384254,0.5935660770311398,0.5894935191417476,0.60274661050275,0.577850712046698,0.5840236612554527,0.5891469778977544,0.5804595033088903,0.5430971430727345,0.5624448145255522,0.6080898428440866,0.6338574135376702,0.6264926177228917,0.6020081162013146,0.5791020295273932,0.6121490507468579,0.5927397879084108,0.5442006476611054,0.5820086602831307,0.5932640664196924,0.5734849620249368,0.5799996227425436,0.6067569000131021,0.6243396719593222,0.6118856757044857,0.6122990170324557,0.5854265538153214,0.5939854872953603
0.6288480820426678,0.6272047804464909,0.5964796927431227,0.6137656056801898,0.5906358173309199,0.5904182811768637,0.5892706189548922,0.5770034842072158,0.5585431247725248,0.5571208279368987,0.5575244389603387,0.5418847325257846,0.5588668886936946,0.5514186065872478,0.6005838728626198,0.6339776457099091,0.6081492947657141,0.5939854872953603,0.60300417196854,0.6126782518208137,0.5994617428405514,0.5662798012956798,0.5901166598443016,0.6283607044980114,0.5973238284247633,0.5798055553365683,0.6223982306289364,0.6185726895122662,0.6112548616418003,0.6145403693907553,0.6014674865412954,0.5885784082569392
0.6361648160746074,0.6578428501533411,0.6222621432422228,0.6360575539892721,0.6055133642162083,0.6030279628247759,0.5949843626460402,0.5735452519148504,0.5768427493336306,0.578892156235803,0.5779443392469037,0.5570246249215456,0.5732910964637633,0.5721106585814741,0.6140283734338619,0.6283171235231312,0.6283607044980114,0.5892362190686922,0.5986506423903115,0.6344259983218209,0.6001343764659596,0.596634323895675,0.6068427362866765,0.6524368765105963,0.622690966436227,0.5829254928042271,0.6314324897064265,0.6346713590386189,0.6249607616410391,0.6193167394912177,0.6179610747374019,0.613916884896328
0.6431482803042755,0.656748487976776,0.6304172628730423,0.6508790326990651,0.6212226616035953,0.6178128710995702,0.6192974979172844,0.5996452253830246,0.6063275718353838,0.6177729994192608,0.6183491875798153,0.5930374341656615,0.5957885844486842,0.6058534204691386,0.6292221377922036,0.6278171403762486,0.6397240668325314,0.6149939617144127,0.6057305843318547,0.6350481879225384,0.6064133765549259,0.6018890492828588,0.624700708156131,0.6309216786955255,0.6264007405279095,0.595870076756815,0.6237224125426326,0.6501771203956949,0.6541643542213053,0.638696971971217,0.6335801854378794,0.6305634711747531
0.6250241878365231,0.645744187221356,0.6330888051728008,0.6398997179112577,0.6186927355860689,0.6234361252042395,0.637229387410081,0.6065336457814398,0.6101858654324351,0.5985247944258069,0.6060122719516172,0.5864027977340701,0.5867776400718491,0.5867956655701363,0.6034004139621225,0.6095797308803849,0.6155995691479946,0.5961712883248375,0.6008169585912375,0.6179448278582255,0.6031797351550306,0.5925171652276564,0.6215879970146764,0.6307959182739644,0.65106149638255,0.6132095910978366,0.6246353262285457,0.6514561289403329,0.6509646692885004,0.6420923150479797,0.6390694184428781,0.6137821915812885
0.6345262771027246,0.6479711606731059,0.6275939431305412,0.6241590102862624,0.6301824283227113,0.6399828888876171,0.6304172628730423,0.6186068715377676,0.6188887955074854,0.6043578896591808,0.5987324667611987,0.6002854278739249,0.583590024654716,0.5800183407319206,0.5994973143591027,0.6062798492361801,0.6142626527821347,0.5963327676259669,0.5972049310931954,0.6272715190376511,0.6157809380979159,0.5857495623237733,0.6082424432302966,0.6385555216878179,0.6510610890104539,0.6163530922347326,0.6290473036559525,0.6478529776795825,0.639448734987059,0.6221627246990573,0.6247252557111599,0.5990608397716176
0.6426683037815998,0.631564052685126,0.6254985076386745,0.6224408813220998,0.6150806498225679,0.6251804452832073,0.6065889397414166,0.6159415427132341,0.5998465450526197,0.5925456325994874,0.5805165313893068,0.5937301748901535,0.5931032701303822,0.5863622741703703,0.6140312666935367,0.6007913612340203,0.6195525135808838,0.6060289836556293,0.5936621909574884,0.6458674883313089,0.6189465321313288,0.5790895797143965,0.6071543194529584,0.6350565347020136,0.6456508913307666,0.5996778286549976,0.6100746076466587,0.6366281128896123,0.6354510933581934,0.6120957394020831,0.5984397968340537,0.6129611478454458
0.6253289778700656,0.6114131290964406,0.5999758305588414,0.5953198670413834,0.5856079621960706,0.6065813368266114,0.6065088735938197,0.5925852058955708,0.5808624378469417,0.5801934518417959,0.5860179955220017,0.5900290859098323,0.5726359060295583,0.5837195405235598,0.6120896232414758,0.5996663186337569,0.6019605384613307,0.5785547072176634,0.5853981915178834,0.647597143391811,0.6123756758525591,0.5727274633926002,0.5988893171603363,0.6370976376601228,0.6296668012266936,0.5875005288096817,0.6049311587191247,0.6184935486788266,0.6308730183255371,0.6170326465792798,0.5781406111641019,0.6058286482815184
0.6312909525019877,0.6126707100010648,0.5937197560298385,0.5990693489415901,0.5865104858048762,0.6121218793072993,0.5998533918414883,0.5917641114424962,0.5776971059069672,0.5871252549716665,0.5719783033014385,0.6000102422406259,0.5838728044868066,0.6061312873043446,0.6125850418772221,0.6221261766743378,0.6153423344191429,0.5938782592448653,0.5865175991552711,0.6182760996693709,0.6022777727773335,0.5908784126821143,0.6015786622848506,0.6232019282403656,0.6030958420446292,0.5994967593115991,0.6249194947220037,0.6191820380612079,0.6384668827983708,0.6211582871040792,0.5867708141534698,0.5930086681703248
0.6224764639877056,0.6112162042177801,0.5906870335151411,0.606852273046756,0.5639667260315253,0.593663028058866,0.5799996227425435,0.5859991677672862,0.5825858992592309,0.5726247771558549,0.5504537633236914,0.5837770007911512,0.5665392807711004,0.5842006471654769,0.5894064693322375,0.6187060112936343,0.6241898071806181,0.5880020644164722,0.583325654666967,0.5961570759657138,0.5904915948195053,0.6030279628247758,0.5974489285790592,0.612786744968929,0.6158049376631957,0.5841198118088085,0.6213320306968259,0.6306231229529777,0.6247059291807835,0.621848985410409,0.5752333694969539,0.6127695522111677
0.6240968860877912,0.6241540385906754,0.5887693310941013,0.6192132351211476,0.5738273194811505,0.5870156383928972,0.571501028821516,0.5790236778025584,0.5660609957729609,0.5661167601384929,0.5643471020000623,0.552347124017911,0.5415975425139881,0.5381316508422787,0.5727455226083277,0.5992787393593718,0.5973463267879368,0.5423994379360575,0.5797928223543749,0.5981352356413908,0.582330666649328,0.5718092595923745,0.5784099770491409,0.6156568408780957,0.6341089853179824,0.585881104245774,0.6157886105663982,0.6220375992198454,0.6245919105393223,0.6177851959420675,0.5857869619885278,0.6049623821134815
0.6449276187186602,0.6394705339993446,0.6025710473162593,0.6186345466952704,0.6059717504152082,0.5970709888301032,0.5723016951357305,0.588335598039305,0.5538704267647435,0.5760223850053972,0.5797279718445595,0.5414695657782689,0.5480962471720353,0.5544565941642998,0.589958327795051,0.5931776051312674,0.5949843626460402,0.55918713303474,0.572878102360789,0.5906048109590627,0.5901376858312779,0.5723677320523437,0.5719693215799416,0.6059798914152609,0.6373853505525637,0.6125007790810852,0.6170798898938926,0.6202378589226015,0.6391186783807709,0.6247851984545484,0.5962392588466714,0.6028905173719413
0.6459651037228439,0.6383450227360239,0.6117625205786335,0.6018462482263085,0.5970485658329767,0.6046089631214134,0.5768416387959544,0.5798964965682791,0.5694982757967505,0.569143632556802,0.5948872039203686,0.5548375548354562,0.5657143248747739,0.5728549692922252,0.5714700975932163,0.5827441122243273,0.614435731583346,0.5818099055636036,0.5759404444306336,0.5837770007911512,0.5905906598620089,0.5965632594362436,0.5841010247186686,0.6274760368490321,0.6337795900914044,0.596076451753978,0.6281233993181929,0.6283171235231311,0.6335598563953527,0.6300514503463378,0.5969142469228264,0.6065813368266114
0.6492348040806041,0.6390694184428781,0.5962030795819916,0.615501847659607,0.588894291467148,0.627746793255076,0.5829828299101254,0.585119240475017,0.6015815958165298,0.5806671812519982,0.6068840582230564,0.5968423488731002,0.5995202925858886,0.5896844419789098,0.567884419388346,0.5885199947974876,0.6130081548740747,0.5966109940271549,0.5962317571841314,0.5889717463630194,0.5971704828031492,0.5766323997703768,0.606852273046756,0.6398469065173057,0.5966217224699607,0.5968969081032597,0.6334868966742631,0.6332978725975498,0.6227890804021096,0.6480942196118689,0.6062362714450298,0.6029779012058432
0.6542729238663499,0.6479407546174694,0.6039899613170883,0.6235687436743862,0.6079425412785775,0.6384913109640081,0.6020385718524597,0.6221871489117069,0.6040376523622596,0.6093689487226349,0.6043778451691924,0.5938876756242973,0.6059964845479642,0.6002664367460683,0.5982794777111298,0.6189946425742616,0.6170559449229932,0.6113843646204549,0.6190569363988628,0.5983942904728582,0.6055392134976152,0.578561292040494,0.5916137340135013,0.6166088830206123,0.5926324796630822,0.5933302667634823,0.6049655424708547,0.6244527877479787,0.6229583554986579,0.6514824239180401,0.5994190810003337,0.5990353140735101
0.6565774557871126,0.6498693597034256,0.6336628010239915,0.6241898071806181,0.6129305050859886,0.643808885149996,0.6217037073168297,0.6068236624043652,0.6122617651719924,0.5815539067107682,0.5805885799968744,0.5872099835257113,0.5936913925736611,0.5932640664196923,0.603175605519458,0.6145403693907553,0.6126233992202677,0.5915091904892039,0.6141906309867626,0.5971622892204571,0.621053098309939,0.6015746882952396,0.5721058589191116,0.6214781627943997,0.6360219753171347,0.6001285774747873,0.6065336457814398,0.612095739402083,0.6358329049965259,0.6528207252288811,0.6209756780481063,0.6014800476888724
0.6559556143935149,0.6488462528024279,0.6357392723525039,0.6533674329614914,0.6380911086784051,0.6441185315297198,0.6263564636331577,0.5969095095289738,0.6174445148647287,0.5818143472948987,0.5936657949859571,0.609778693240552,0.6240326314673189,0.6061923056288931,0.6048512098811265,0.6176155672254495,0.6189618052824587,0.6077946257025438,0.6192301485041408,0.616107744418149,0.6224126934341369,0.6274274742537768,0.6078423392408295,0.6300358516540225,0.6510580827800438,0.6176825734081404,0.6341478962723621,0.6306375123956579,0.6434219673810311,0.6552434053848819,0.6449285392669416,0.6242032629279672
0.6358969533421819,0.6537195668084991,0.6389760477235484,0.6599877901614611,0.6564700597455019,0.6435397912526003,0.6375043756882941,0.6210922344336163,0.5890667535559923,0.6078727760087231,0.6283607044980114,0.609650089809169,0.6227538189924942,0.6158156373101128,0.6395096186748577,0.6425214989598927,0.6346277380261578,0.6278988545969759,0.6244387688578463,0.6229400920818794,0.5874141550274004,0.6357818191852808,0.6166624518550822,0.6509498807335493,0.658754440721305,0.6104280266387266,0.6383851227185705,0.6356527047169104,0.6702998175892355,0.6536756957661707,0.6456419986687192,0.5959690720423528
0.6355110653188876,0.6420367962980341,0.6309742038396203,0.6356550448349956,0.6243598986706108,0.6436116332344578,0.6293841273884784,0.6203832483163092,0.5935211896006446,0.6056568748157489,0.6371660781685486,0.6070258487784234,0.5920567546138519,0.6140995304723069,0.6425410423810576,0.648650229520447,0.6301271520443765,0.6280373890535818,0.602650752976472,0.6143531271416686,0.5895619607820475,0.6004668276215325,0.5888448061828073,0.6341478962723621,0.6269599893938239,0.5923795446562092,0.6249124443731742,0.6365780382915391,0.6649116984994752,0.6450600333342816,0.614497927110499,0.5804220063221166
0.6410723245292269,0.6248457070845822,0.6043449557549915,0.6372390879435219,0.5973720333368331,0.6205329553616128,0.6030422369787078,0.5899913490667165,0.5953749855153334,0.5948930622556863,0.6221820083769511,0.606200381202404,0.5936606789911972,0.6161406296199246,0.6160309406372283,0.62748050390218,0.6272704108063226,0.6219302039487687,0.5968716093127169,0.6026745438327078,0.5973672959429805,0.5966201115365513,0.5528825077054917,0.6204206214426058,0.5965425117423429,0.6048071189592488,0.6228033465801273,0.6431428250906878,0.6544787839462853,0.637273340253884,0.6177813124000067,0.5824607149492179
0.6555192420657845,0.6281863652348937,0.593463587451764,0.6366315983695163,0.6003755272311785,0.6122857762630781,0.5957099657303253,0.5825456052681597,0.598932041064853,0.6017798616150193,0.602667480665456,0.6158156373101127,0.594639557828357,0.6092536651889151,0.6099482269896751,0.6186927355860689,0.6271358934961382,0.6159157201835136,0.6057872455223866,0.6020319519448805,0.6137783661529731,0.6061923056288931,0.576330349989022,0.6370702855601552,0.6255064469213473,0.6190985362497913,0.6368634527707396,0.6601424087031538,0.6560229751571489,0.6460190953914388,0.6365306229185471,0.6084873541071107
0.6631147971624367,0.6402082395155994,0.6283413354918866,0.6375000894865664,0.6092297704339102,0.6313348441072811,0.6093570432422438,0.5930078574481732,0.5867887663786685,0.6131236440003517,0.6126439200223249,0.6035569450033347,0.5935660770311398,0.5772018335618657,0.613627109090564,0.6029179862390518,0.6095492766062293,0.6033956559707759,0.6031797351550306,0.6136100448653213,0.6126881939390336,0.614089429344656,0.6069631340620991,0.6186927355860687,0.6423296106855504,0.6138088043436548,0.6460684410649234,0.6670798365246836,0.6515049933374757,0.6615379674950913,0.6335598563953527,0.6249264212356666
0.665203267958042,0.636579463626374,0.6542965255839324,0.6281823626399302,0.6173969843328316,0.6247368811866834,0.6112548616418004,0.6044222872133808,0.5969095095289738,0.6122464331755462,0.6335598563953527,0.596076451753978,0.596466709889059,0.5803030684205652,0.6260335628431184,0.6088856017007309,0.6159116475789346,0.614849142184015,0.6157324484526129,0.6451934060256441,0.6222621432422228,0.624136720967275,0.6249264212356668,0.6269576256793112,0.6425115642297174,0.6306932066956745,0.6482462856297425,0.6569397578282189,0.6532482430513764,0.6656566854595944,0.642307803776389,0.611384364620455
0.6556925748579481,0.633706580316431,0.6238906613435897,0.598499092289459,0.6041136152614878,0.6002710583275394,0.6199140857804772,0.5992787393593718,0.6129320483660736,0.5999480631788924,0.622719547848018,0.6065031034678422,0.6172222088075664,0.608885601700731,0.6221771875042577,0.6153244677575345,0.6282046191601415,0.6340611006340152,0.6317392898094522,0.621208198798395,0.6145327203173024,0.6217951762642896,0.6280507396933809,0.6191360609466249,0.6312909525019877,0.6300967106708555,0.6322974327008499,0.6387362585628389,0.6403252616333611,0.6571872447245144,0.6273597962546927,0.5824280643672262
0.642366562445232,0.6179610747374019,0.6014121684690192,0.5925864464387534,0.5860179955220018,0.5969095095289738,0.6079116053343158,0.5794460613821314,0.5996679720102103,0.585301311749592,0.5879190913340206,0.5899913490667164,0.6096227452678947,0.5892576763931545,0.5901376858312779,0.6009800929112383,0.627784450340485,0.6096561992009517,0.5985002516358503,0.5962806465243696,0.5904396984629258,0.5855305090946324,0.599521655017447,0.6008903972771406,0.6217096238424539,0.5849246032670106,0.6064758029600302,0.6300904565528092,0.6131216948179706,0.6310186607468005,0.5870815391922265,0.5737276970343422
0.6455389347231422,0.6201460880858984,0.6242999559272224,0.6177729994192608,0.6063314015707765,0.6179663259288861,0.6036917097805161,0.593484542256544,0.6084962397755566,0.6186667451587463,0.5937177343434057,0.6037594536005588,0.5968969081032597,0.5881101529078818,0.608885601700731,0.628051915855579,0.6394363332040172,0.614849142184015,0.5998178507290308,0.6099530057584082,0.6035331541470987,0.5812629998013481,0.5959851513636243,0.630149048136321,0.6283171235231312,0.5800933617703065,0.6081803026435548,0.6280275706692096,0.6220603860411786,0.6203875386496395,0.5796622971671062,0.6007013768448498
0.6450376792027628,0.6485931620573975,0.6189618052824587,0.6303201405167076,0.6219121954490061,0.624734918787981,0.6117178972126378,0.5991976337901755,0.6130262532804303,0.6183994930323464,0.6121319354599604,0.6105010364136999,0.5986686516116168,0.5984886546334589,0.6106117183635437,0.6190195419063019,0.6119455980403877,0.6118200044085049,0.6059798914152609,0.6065851981160364,0.5992098419747561,0.6191350017623785,0.6009800929112383,0.6486347316760389,0.6340749365512725,0.5994779652208697,0.6099608046092913,0.6370197865153068,0.6304990613782167,0.6387021947574035,0.6092292248689538,0.6084647367605158
0.6398215423270862,0.6373052294112203,0.6090385850430512,0.6267046869662144,0.609314033230047,0.6065829345256267,0.5966820798093239,0.5798240595560529,0.5707497511277811,0.5968384450695425,0.6024681266227293,0.5874637039192009,0.5968969081032597,0.5972617831935031,0.5828936770642876,0.5839450382326107,0.5868993702723471,0.5821716470356281,0.5873538361052255,0.5988749476139508,0.5930086681703248,0.6184906378632143,0.5987609339085221,0.6145986118406941,0.6371660781685485,0.5921323407372423,0.606852273046756,0.6340513878489967,0.6063275402813516,0.625077664369409,0.6186578043443987,0.5863839699793545
0.6214682013869505,0.6221752410114674,0.5969095095289738,0.6360708277484082,0.5990635499504178,0.5945362121711573,0.5956025860187,0.5748368498948965,0.5487923041756727,0.584177162653891,0.5633532073457282,0.5472477452009649,0.5671169937802348,0.55584964451785,0.5535115626465978,0.5628104739630773,0.5963327676259669,0.5901822719038786,0.5901822719038786,0.6025370983798732,0.6030000423329673,0.593709469854958,0.605869197003691,0.5992361771506677,0.6038961548604435,0.5823824770203201,0.5979512763366204,0.6279006727218365,0.5974694826273126,0.6127024821727922,0.603915640837671,0.5927599538388012
0.6156616406064749,0.6094650138100924,0.5806312453476942,0.6361267865895611,0.585024938221799,0.6190676523492349,0.5852112369392974,0.599532837123403,0.5599922520992499,0.5592077349549478,0.537343973161167,0.5211241624084292,0.5287445716070891,0.5059380319685924,0.521651985990982,0.5445127987280156,0.5934721052217038,0.5934821535480834,0.5692327784020587,0.6019895976917014,0.5921013452979165,0.5797932899790563,0.6048399452793657,0.6180042462036875,0.6051900495241903,0.6094775695431224,0.5958656724799145,0.6332201447808741,0.6195794872954232,0.6251550006518829,0.5894935191417476,0.6051183643445238
0.6398997179112577,0.6152916356227769,0.6156812022332356,0.6304650669056968,0.6036754088753833,0.6269334137105557,0.6100324897858119,0.6088911655275572,0.5703929108532151,0.5821555115594618,0.5701134489178304,0.5411730438540584,0.5372023599096739,0.5232540847346411,0.5252775087305974,0.5726976583274319,0.6096471032922454,0.6034469684176106,0.6007879796759243,0.6409119440222729,0.6152727628277616,0.5898119441179228,0.629821384260877,0.6397390768430393,0.6312909525019877,0.6250486580766292,0.6303076657963195,0.6403643463088743,0.6362964264172952,0.6397973523033719,0.6127695522111677,0.6117717752520647
0.6569421659588099,0.6336289389954565,0.6303234981917261,0.6353747238768902,0.638388992260828,0.6168025610026463,0.6301727223934075,0.6087722606987543,0.5925893765817717,0.5857869619885278,0.5939003926921201,0.5519240408684568,0.5698522407068513,0.5401207843921454,0.5657195824364765,0.6199682552735377,0.6314860872410235,0.6156184419430101,0.6305372536178065,0.648443628935839,0.6369999546043577,0.5999912511127693,0.6503952705635734,0.6644728270689261,0.6397042633620003,0.6142674102956943,0.63991043494598,0.6416014467166956,0.6368720527491765,0.6414627252179846,0.6336822992500412,0.6250801261955026
0.654154473012675,0.6251482389046502,0.6091533021133434,0.6185042490038404,0.6188090474781409,0.6242401544546403,0.6241590102862624,0.6145809247924052,0.6156708177797151,0.5899935596322436,0.6122990170324557,0.5885039710684995,0.6114152837749433,0.5926402345595448,0.6190908541624113,0.6397778578489106,0.6337950497640674,0.6246584525000144,0.6210824304664074,0.62697363640399,0.6216662303734456,0.6207092420678393,0.6342257697725115,0.6510580827800438,0.6249414351106626,0.6199477604095426,0.6334633479719872,0.6284790316153388,0.6372555685542134,0.6343912462947359,0.6230262953424994,0.6254458673039905
0.6333503067900809,0.605993639524949,0.6000443146786505,0.596634323895675,0.5865531970075325,0.6096963242711129,0.6311601110301995,0.6216215332599537,0.6095701727585939,0.6248421584395298,0.6245011050158439,0.6152460669950414,0.6220266373123436,0.6136570009863498,0.6189946425742616,0.6267783197280322,0.6297891040372314,0.6322424608098778,0.622452358688596,0.6218634482156093,0.6149939617144125,0.622340376600992,0.6097834720092851,0.6407032199142023,0.6022894180615764,0.6007879796759243,0.6141937628484426,0.6019173597913421,0.6293981718932996,0.6215596703344104,0.5887693778103084,0.6005838728626198
0.632850398070256,0.5961651753065914,0.5935693786008434,0.5938040188259752,0.5896301326007102,0.5753475987436891,0.6091000485344239,0.6034469684176106,0.5705509843498472,0.6034998456888926,0.5960016922750204,0.585301311749592,0.5660506656256955,0.5723984190510081,0.5863197776105776,0.6005963584226869,0.6271191676725804,0.6186378818682903,0.6114935171337125,0.6190619919874052,0.6014720708555038,0.5892576763931545,0.5763375692006004,0.6379645024959795,0.5954808230343501,0.5814096997985441,0.5873625584232799,0.5936208099982109,0.6197137374216719,0.6097404619970884,0.5768943763537157,0.5740233829970629
0.6180727646482568,0.5971622892204571,0.5890667535559923,0.5972380953363698,0.593434284221659,0.5759151856210274,0.5885294774142111,0.5795309129637943,0.5482285676480758,0.5822883908938212,0.5699127939001988,0.5626303271636374,0.5327823952430001,0.5628849738623285,0.5803874702008026,0.5725906006180885,0.5864108633580679,0.5894271419058544,0.5869024013673395,0.6243658087521808,0.5869685629090112,0.5759451210882954,0.5799084251968774,0.6190812335613385,0.5723016951357305,0.5700757981032596,0.5779063449325449,0.5879507738604723,0.602125455126627,0.6091207574653643,0.5874103200660747,0.5698441985992128
0.6271370696583364,0.6160309406372283,0.5991248155347059,0.615012545184468,0.5937346106787216,0.608190267244237,0.6216447538333852,0.5891626692001816,0.5899467629941157,0.586092885324435,0.5891771585699792,0.5794808547893017,0.5832498341652881,0.581443050145967,0.5920086656030801,0.5869865884072983,0.5966987252970395,0.5904519103193143,0.6027860843317665,0.6213179363962866,0.5971622892204571,0.5929256372697819,0.5966971293425158,0.6243598986706108,0.570332682075369,0.5886948939056618,0.6141802465332421,0.6159781334650186,0.6217085281895232,0.6341089853179824,0.6019601827928565,0.5920677522191141
0.650969598740134,0.6071183801444363,0.5956079843426413,0.6159692478285229,0.5990174016334577,0.6189618052824587,0.6011413986679924,0.5857514637108155,0.6244469116108712,0.5864027977340701,0.577050877821532,0.6109572836586867,0.5858528627878571,0.5939816683189048,0.6024533359638242,0.6095492766062293,0.6136075709708737,0.5644948989107291,0.5761244246466051,0.6240746762488026,0.6067092089679306,0.5892362190686922,0.5799961190150873,0.626610609518493,0.5995995952962285,0.5968952971698502,0.6325813258095755,0.6274227621713934,0.6224126934341369,0.6448840107833951,0.5968952971698502,0.5989878299966443
0.6220989541454884,0.58343916788607,0.5878207242848333,0.5965235619893667,0.6033242825024019,0.6188370576171516,0.5688871682801562,0.5801836108301762,0.6032035260112665,0.579229933937676,0.5727640881970479,0.5915160643441506,0.5574774309808419,0.5831378524409694,0.5885428609312837,0.5893565485750877,0.5820457472096077,0.5474064271724507,0.5391791316656555,0.6151475722328228,0.6100450674054281,0.5685701913976231,0.5755882776631253,0.6267482551704359,0.6025370983798732,0.5656598636134526,0.598764987488219,0.607469069453413,0.6094650138100924,0.6341041670338061,0.5937103016620613,0.5997068940848082
0.6009739875877629,0.6002807946821249,0.5804303968430649,0.5926324796630822,0.5899849436470243,0.602733641420663,0.5891771585699792,0.581387290243228,0.5821555115594618,0.5773128544048709,0.5905670741159469,0.5839779177602745,0.5900290859098323,0.5837196499460686,0.6027466105027499,0.5962392588466715,0.590757996953109,0.5804169089424985,0.5835890987326433,0.5695022937902424,0.5904915948195053,0.5818143472948987,0.596057581992668,0.6213958845538056,0.6031035993768292,0.5694095921695731,0.5882480751140553,0.6136762000845348,0.6278824187965888,0.6273591549293734,0.5925189261772553,0.6199747341240821
0.6228753515280053,0.6188174441834474,0.6069365358428929,0.6063656909436852,0.5990038549448442,0.6123074986464512,0.5937301748901536,0.5695615504267224,0.5727928020475088,0.5653287804242335,0.5751080285041388,0.5880829172273649,0.6188956775422164,0.5927365554366497,0.609863898344828,0.6232550043857379,0.6189187374064327,0.60477150477094,0.603661844292411,0.5663742090161298,0.5760549505212647,0.606073775290124,0.5711310857616986,0.6216892445116293,0.608210940215256,0.5938385912453567,0.6047482114234133,0.6330255592511901,0.6292228073765204,0.6319543749781862,0.6041886775496595,0.625077664369409
0.6416979105768357,0.6174418946099477,0.6096800939559565,0.6122610777272037,0.5964403609398902,0.633841416991847,0.586771228481983,0.5672659657854526,0.570185414682029,0.5759859824973581,0.5703929108532151,0.568662210291,0.5968861796604538,0.5898026367950815,0.587522510974901,0.6024710601544085,0.5890667535559923,0.5839779177602745,0.5943726108997054,0.57590303014436,0.5814695861138616,0.6130549891386948,0.5514067340994502,0.6185331111788466,0.6114243821176042,0.593663028058866,0.6232917466549259,0.627968383509991,0.6262046039462286,0.6455533518181428,0.6336662288323911,0.5968384450695425
0.6345096971484108,0.618095051688655,0.6157473374136073,0.6182636874854189,0.6038696920905743,0.6159157201835136,0.5954690794228473,0.5839450382326107,0.6066671731001858,0.5890594039632852,0.5830430236992681,0.5747425970366292,0.6023291090952339,0.5754945710072967,0.5814096997985441,0.5923934678151483,0.5846922580041477,0.5825515299227431,0.5964796927431227,0.5862214738244487,0.5996679720102103,0.6229768369862838,0.5940731766003197,0.6417483652882175,0.6366853003768745,0.5966217224699608,0.6359183210188987,0.6248939584298936,0.6299454675371131,0.6428348081193614,0.630715191921386,0.6058286482815185
