Fp1,AF3,F7,F3,FC1,FC5,T7,C3,CP1,CP5,P7,P3,Pz,PO3,O1,Oz,O2,PO4,P4,P8,CP6,CP2,C4,T8,FC6,FC2,F4,F8,AF4,Fp2,Fz,Cz
1.2829206512356246,1.2668842612414917,1.3337862319554576,1.2861664316613393,1.3074803470083733,1.2894389661930532,1.3169550994260257,1.2676260353383528,1.2041126640117936,1.2801503990361116,1.2428531837400165,1.2180390432304347,1.2341088647558773,1.2086780838336058,1.2003983692977327,1.2285268522520616,1.228662867810206,1.2102671545332648,1.2396216700775866,1.2302744192087103,1.2844197624857598,1.2913217164676218,1.314639168559886,1.3047197610720294,1.2932472335748229,1.2771359726511373,1.2556081791497222,1.2637202390268865,1.2891558861763983,1.261118804539276,1.2633045791046533,1.2978105302394138
1.266653074289504,1.2741385699690413,1.3314029720403984,1.2772244461392368,1.303708057972324,1.299313973474245,1.3065494416353864,1.2619331679190575,1.1893292888383853,1.2545297680952905,1.2471899679398553,1.2124327989736587,1.2211344615338184,1.1935936187617826,1.1853291212180739,1.2027015794968314,1.205414994823171,1.1846910771343169,1.2170273894992276,1.1934065767715618,1.2697232282840403,1.2751906846205838,1.3243637745777612,1.3025588560421195,1.3278116332310121,1.2748252699411255,1.2695014436799197,1.2542059193334867,1.2860295318520298,1.2690865541457887,1.252438437690161,1.2771203250915584
1.2776632027391273,1.2574418313671318,1.3346042945564456,1.2762269625837233,1.31353407372666,1.3046005645406407,1.3002725141923903,1.256862233839722,1.2031210702819888,1.2549291705274859,1.2422586198459074,1.2130933217438182,1.256889973679331,1.2110148482299858,1.2018075880255532,1.2319742260784579,1.2375555579070265,1.2170776586166585,1.246913811865065,1.2112195991485177,1.265527362261954,1.30010790695691,1.3240570837676193,1.2794946968387544,1.3438026608762683,1.2823750067247357,1.2742616923822887,1.2408512533946527,1.2987564849418674,1.272701717198326,1.267087239441005,1.2783248671203564
1.280335207311478,1.269688442683967,1.3280467614021572,1.2699096495226392,1.3076415981849911,1.3190030023111095,1.3177533490215207,1.2359825564350562,1.1893952371460352,1.2435419943227128,1.228089056946823,1.198871144941556,1.2305013194139665,1.197117180170768,1.1958352772772687,1.213748057377837,1.2133739417533456,1.186294547567031,1.2140715239575324,1.1918752639170982,1.2454336674796997,1.2685446049513185,1.31945775428083,1.2905954864602918,1.344783506060291,1.281721901188001,1.2723645746649401,1.2501361028898694,1.314401901192238,1.2720774181247405,1.2741697635351006,1.2761106040435903
1.274567409564122,1.259930671148733,1.3581755481219366,1.2682394226827465,1.2854973992602645,1.304450322929573,1.3049492376487521,1.2341930420140232,1.179841902943393,1.232292876177556,1.2111266845154036,1.1783403370709458,1.2235097848011458,1.1817515751364431,1.1936528009278313,1.2003776675406388,1.2025419269823476,1.1870067340294734,1.2153694181825674,1.1952604984848707,1.2345859012706042,1.259456346533881,1.3053250863844472,1.268882472424264,1.3567842469444167,1.2656307899328856,1.2889372941778343,1.2481457020466586,1.3243097833755322,1.255110063503518,1.26770434250848,1.2545213851910313
1.2963609237308131,1.270258069083065,1.3381184910505934,1.2733037234083349,1.2733366062806064,1.2970402081981678,1.3016406300027947,1.2326702762098036,1.178124626839624,1.2493843894919272,1.2163397938934475,1.1821991086754844,1.2282593199970486,1.167182863991914,1.1785626841590455,1.198610138503681,1.2073723623788006,1.1971082370274373,1.221411423442843,1.1975956221498876,1.2273664873882713,1.2460378580912779,1.2961782339832244,1.2685934887651547,1.3509766482352095,1.2553189869450458,1.2883347349841314,1.2489443294823461,1.3186851310978165,1.2566568125909525,1.2621814678501864,1.239736222785945
1.27215068565568,1.268189307323758,1.3412303807878025,1.2842742462158045,1.255709289614746,1.3057873803727227,1.3274379309413724,1.2458361772888025,1.1526617401094716,1.298112133013237,1.2277314688649723,1.178103965107707,1.202563970210201,1.1576747334795252,1.1733378382806157,1.1968322831258098,1.2039823572340576,1.1947143525906694,1.2122185466058948,1.1925919625207093,1.2126553040435524,1.2353874175016746,1.2849501014300369,1.2720133829732223,1.370313093904869,1.2497569302254639,1.2999604657714734,1.2454622427249347,1.3303283287408127,1.261674779721837,1.2653200484057843,1.239781649915696
1.2945149464440897,1.302806853562204,1.3240290387743618,1.2689657531609306,1.2556729593653988,1.3107655260482185,1.3200763469118497,1.2330354264054362,1.1659479308288119,1.3029884880838525,1.2207292751283823,1.1760701115046353,1.1936082574856204,1.1563756308343343,1.1771977445146775,1.1989923317460522,1.212058852501983,1.2011470646185811,1.2143333751382375,1.1968330873693926,1.21967644897022,1.2258864501175928,1.2890393175864,1.2778683184035287,1.381826795301155,1.2617213918371835,1.319143287548652,1.2761624266097058,1.3271726409246871,1.2804850727242398,1.2914758222002989,1.2371529620475743
1.3037562026100808,1.3014077124847565,1.3301004588333298,1.2664270410352847,1.2378635038533987,1.3312924263905996,1.315255352304532,1.2619800183142085,1.1792817300383014,1.3153174981186797,1.2302036396189502,1.1843521955319913,1.1869462927400458,1.1573619512722066,1.1732636447052194,1.193278840706763,1.2074642978674937,1.210070340472723,1.2332155905379532,1.2217532543133482,1.2434389673730282,1.2393562518102512,1.3177387131846923,1.282469760786771,1.3923473125462438,1.2870394182100942,1.34459463272622,1.2978733338491086,1.3424608974965004,1.2856818768949014,1.2995690877427855,1.2402333512081818
1.3205773630805557,1.322381826061888,1.315887669843975,1.2903231815041,1.2461714589525206,1.3509749503890396,1.3172084000106843,1.2836997133170847,1.199759686875832,1.3256150000468594,1.248440082174261,1.1963023068513354,1.1971143827007922,1.1645605015409128,1.1884227427093623,1.2111612458619807,1.2286174035629704,1.219307396245051,1.218061618600984,1.2043431427390825,1.240637972036424,1.2296078165476787,1.2967640695439033,1.2846788672582923,1.3912979069972387,1.2650198499516934,1.3433442137938756,1.3023784236101161,1.329313915369376,1.2961140572261418,1.2950262603085474,1.2272103909966126
1.3320159782370353,1.3055508056026632,1.314607153366312,1.2462209375501885,1.2247044568306493,1.3380832551248594,1.332021128807901,1.278546440668489,1.1925161879543091,1.3165724898619844,1.235754744511046,1.1949931657425052,1.2131786389318968,1.1714232252381611,1.1894277731328045,1.2033593936881133,1.2215288845858288,1.2261932884150826,1.2346247079403352,1.214707090440338,1.2543942161799517,1.2532165380001343,1.3016301665941934,1.282874551557712,1.385188308792231,1.2744217246189522,1.3282561678129827,1.2874622599486631,1.328329192497213,1.275526936955883,1.3026407380011156,1.2203544449849315
1.3462755401664845,1.3181392776575693,1.3105504116152764,1.267223536202011,1.2289192404833091,1.3309226646434993,1.3284332598890036,1.2828730967655293,1.201083181496956,1.3159488995895068,1.2463247338615318,1.214318313816237,1.2037102444617644,1.1932747392638714,1.211297508504644,1.2136589591973732,1.233734441080991,1.230307150896293,1.225424619444494,1.2319626216696882,1.2591666725687511,1.2453396182238705,1.2747963672672935,1.3002880748788803,1.3552650559507928,1.2788952930099184,1.3272495530314345,1.2934903445996502,1.3102315510769218,1.2743533364966433,1.313554703328571,1.2385730180447652
1.3381754012588218,1.3318158754801817,1.3211784806272677,1.2989856034303575,1.2130454396246833,1.3288145937348654,1.3470909794597008,1.28256920176766,1.1990872212685928,1.3520833967752848,1.2506490632470193,1.210821898422698,1.1803047342962876,1.1796068631269214,1.1986464833825687,1.1997669096686305,1.225157130916066,1.2214504574449918,1.2271121986649678,1.23817422681191,1.27416597160367,1.244325171393176,1.2833382766584922,1.2831879087244862,1.3236932978278277,1.2805474612023815,1.2895418466648085,1.3175947231692826,1.3026666723132487,1.2544039823902962,1.2995949989012605,1.2520539857527615
1.3272673166713924,1.3340857550407055,1.3233318671010552,1.2859116146614225,1.2001394486459995,1.3150367071298585,1.35284099943115,1.2886318864896422,1.201289178796457,1.3112744249667592,1.2297670277950226,1.196485850383513,1.1892428911022705,1.1893346766867552,1.2108851130571796,1.2178184587306553,1.226034134725593,1.221001309482447,1.2234085505231866,1.2387765864481155,1.286874078283278,1.2440763331808748,1.2806936897081351,1.32569524826445,1.3167320025267426,1.267340452450384,1.2995621997871172,1.3091831182166374,1.3051435552988573,1.2652586811189035,1.2804969040533127,1.2502831628741986
1.3450454218639096,1.3280101822309331,1.324991879277672,1.2834539238024174,1.21094998990983,1.3564713497588317,1.3628947393491175,1.2834553851249881,1.2127437638970249,1.3254156372134833,1.2393698235012693,1.2082501557665843,1.2036965072554557,1.2088548381028486,1.221825492208567,1.2229676206811964,1.2353784442841869,1.227406921264821,1.2195142494105347,1.2404252353628313,1.279011259238354,1.2475430560832588,1.274162714756471,1.3150793461502714,1.3233800036939225,1.2654765201818772,1.2954513797483895,1.3220454901216585,1.294164227484335,1.285245598007371,1.2708809001777546,1.2489957732126926
1.3447431501347924,1.333012936108431,1.322814846724046,1.2817932801467034,1.2115505740187433,1.3569517208773245,1.3567015435854342,1.2930907132759581,1.227346850985131,1.3119432452308053,1.2434148414675426,1.2238642782675972,1.224352037840287,1.2327225117855678,1.2491168135970772,1.250174277080808,1.2632049094299722,1.2400235671117343,1.2368317632402066,1.2612007191374188,1.298897644745999,1.2641667946037198,1.2946640218461352,1.3437154688139312,1.3179972629776289,1.2831990186601547,1.2926056797941639,1.329627273914427,1.2937646517022745,1.2898442254262326,1.2761184994727743,1.2727071791014648
1.3462798205078292,1.3349180673204455,1.3189990866028434,1.2789327927291116,1.2128705992307551,1.3608042312652866,1.3577977776984789,1.2846267997683378,1.2124113203265485,1.3011765455209172,1.263208975912246,1.2190181535871873,1.2230251671502368,1.2400299414524245,1.2605959052119653,1.260349211862605,1.2645088972925167,1.246634796216034,1.2418594495527642,1.2724774443092417,1.3091933210926354,1.262050184020223,1.2955262110557069,1.3387498614148585,1.31512605491255,1.2795045198211414,1.280124504446827,1.3167436133862807,1.2973720142544012,1.2812573896718968,1.265174494989217,1.2682290012826793
1.3310438733521672,1.3334308634336725,1.3202505694660942,1.2775606305346128,1.2298559114752161,1.3432937126144546,1.369291672989529,1.2902148791755643,1.1984025479354847,1.309755749881416,1.2818634784801477,1.2184904331540205,1.2303861256723247,1.2451358445518241,1.259366533741598,1.257728203665006,1.257663203624793,1.2508860094192074,1.2442382651022321,1.2749158302120955,1.3042273283109116,1.261302314770307,1.281952385798498,1.3301963230449503,1.3049419854057733,1.2661593247673173,1.2747315735323148,1.3034139271142287,1.3100887975444686,1.2692962803866754,1.2538834750462773,1.2625075629904388
1.3180788852140428,1.3182600654500298,1.3168470472520442,1.280883297552883,1.2147701578662586,1.3488882126584738,1.359997840671554,1.2716550426116127,1.201720417746421,1.2938256188671586,1.2740288362801095,1.215927628219753,1.231749997225006,1.2343498322026498,1.251588424928996,1.2608698828128218,1.2632233051416528,1.2518679341659253,1.2542463091652263,1.260470874460086,1.3063199025949348,1.2601148773540087,1.2860650981140538,1.3326505465029315,1.300147311078295,1.27212120560675,1.2658636149779228,1.301096510726929,1.307546859194825,1.273040477682686,1.2511610797766048,1.2719739551237215
1.318619573536508,1.3366018045825778,1.3268295505897933,1.3051891873024544,1.205946077288438,1.343826761887801,1.368788521044938,1.2655828554117687,1.192221759920671,1.276411516965443,1.2798766333720917,1.2089526249639693,1.226081284337913,1.229417347171399,1.2469015589896484,1.2436842937231536,1.2454987066573344,1.2374678551348648,1.2429888998105507,1.250138076592442,1.2838379532263096,1.2488475230686011,1.2829024354123502,1.323605808314424,1.3086857292012055,1.2682413440450244,1.275917679623969,1.3180244308493643,1.3193782688334292,1.2822502413745807,1.2484271362663144,1.2542635533371598
1.377354684608033,1.3670879981391435,1.3201327985358604,1.321340631788976,1.2435511216051798,1.3570768709116259,1.3683426933089813,1.2738856590420387,1.1985001670924949,1.2712286078648134,1.2894069815722542,1.2124891234610427,1.232119754965789,1.234475402571752,1.252716541082936,1.243695091074016,1.2373264230231282,1.229502131009936,1.244232287066458,1.246244338293636,1.2877503095268847,1.256561802604129,1.2892196077472564,1.3286818887157854,1.320119569268162,1.273012575078054,1.3017870633060566,1.3350606937539236,1.3138673599671953,1.2921068567248561,1.2640016159734082,1.2474991649824658
1.3793152505551147,1.3420740414597223,1.3506933574919113,1.3094295133101104,1.2377219640654666,1.350350709405939,1.3823661563991272,1.2595176933418328,1.1831135695347612,1.2781837331958474,1.2697573591903903,1.1993328237112817,1.2297004159559095,1.225346937726443,1.242753021388475,1.2434334057610512,1.235153684153621,1.2216835501562107,1.2208135528271404,1.231637221807748,1.2647815925974304,1.2280509952058818,1.2670497128469373,1.3225210410037087,1.294398839203204,1.2588393876610238,1.2765613339936557,1.32457254534949,1.3119179047785732,1.296312371568841,1.2582119123099982,1.2374873740358658
1.3814736701357269,1.343877277109629,1.349604029894295,1.319650248423761,1.2639031952354658,1.3642909417049975,1.3713132387059614,1.250297243778651,1.178692151098759,1.292129967271834,1.2870442993484075,1.2136205129590871,1.2331287459116391,1.2298473898106643,1.2344892835228367,1.234798191367709,1.2341387415676384,1.2172514391244396,1.2238504722350436,1.2394134154840863,1.2676896166672542,1.2334972507421043,1.2672357082661527,1.327250686336215,1.2867865449086682,1.2487059247469672,1.2784174099525898,1.3151672197057525,1.3111157899991088,1.3006514732487713,1.263956796149301,1.2346635114592215
1.40833912934364,1.3525084658006918,1.3701014357524075,1.3177031382398519,1.270877254552874,1.387723662249306,1.3661856823828284,1.2608388674357607,1.1678472573060896,1.2973469931935406,1.2818854695417565,1.1987920998027033,1.222213847709225,1.2171980647163096,1.2310746240752863,1.2236172628249316,1.231342879613472,1.2056226393190688,1.199300180886149,1.2257114193284842,1.2473834343116081,1.2117984821171206,1.251415293391858,1.3116113187664236,1.2951663902915391,1.2616616376451752,1.2978243456056358,1.3409258183883253,1.3319439446803942,1.3297829955322094,1.286330728388423,1.2411921053144546
1.3858005159512548,1.3425831895757292,1.3299934557363973,1.328427295332021,1.2728465327197926,1.3708042703747618,1.3629734528298436,1.266345122334833,1.1789195204537133,1.2886146620828243,1.2854978591403747,1.20656659097195,1.2141399493677039,1.219703501892737,1.240532921445847,1.23023340363346,1.2245265219773223,1.2016243327569567,1.1779598295722409,1.2102985315856334,1.2199574803677837,1.1837947924449017,1.2207034730914037,1.2886794185203019,1.2657861289436885,1.2269451355463628,1.2672670410219173,1.3123814785854426,1.2924227935232526,1.2933290357725815,1.2439734368525013,1.204170511954858
1.3844986666957335,1.3285685240860305,1.3435005831979394,1.321063005420246,1.2593205963414262,1.3433807621961997,1.3554145974068765,1.2476443730508548,1.1715804733560813,1.286695103286595,1.2939273117160577,1.2028591855352677,1.205849916795801,1.212629948091604,1.2284040702200325,1.2129615613460791,1.2012044302627263,1.1825068343254503,1.168337554860575,1.1924683873300579,1.2146012634794972,1.1821428706000632,1.2256528797728619,1.2966006414957572,1.2770031050534172,1.231473220935268,1.2636289784935815,1.3176796927916914,1.3175106994965353,1.2971065006527926,1.2442359241456495,1.1913345800440267
1.401924704642934,1.335064080903381,1.3228745457043554,1.3260768169084738,1.2696450573235891,1.3511591585666283,1.3464701091031233,1.2387635680462656,1.166295073202258,1.2833827943323106,1.282979825696849,1.1864337628331283,1.1880444409650923,1.1830089986833843,1.2057462854033851,1.1985872131818587,1.1944942732605994,1.166924156804566,1.1570224483684248,1.1941986380681868,1.2065282120024705,1.176880286732688,1.2287297667190686,1.2625175191758744,1.2750184986739583,1.2423482017813205,1.2699773531519851,1.3129852316784754,1.306836963361419,1.2994809773316711,1.257561756365682,1.1966245694749946
1.3837777407069527,1.3307095022754918,1.3251394100914726,1.3208582420036457,1.2652552297725836,1.3552700094415426,1.307535171584391,1.2272215480537325,1.1760033526769382,1.2514615108989227,1.267851733093945,1.1981836747998984,1.1858685954965058,1.1935361656030674,1.207167505311321,1.1966370667450563,1.1893836941813305,1.149993037072003,1.1356228705318596,1.1744324967426127,1.1760488303946057,1.1657266156416712,1.2020941671607892,1.2479415262789393,1.2576219450878983,1.2248687139348868,1.2796975325296627,1.3033648236901347,1.2913292768031894,1.2876847781663157,1.251554160610862,1.188811319908866
1.3780960740145554,1.3294816836555652,1.3174371427756533,1.320131255759631,1.2660020909626917,1.3369272040870988,1.3307794574932852,1.2338504108123773,1.1687466460329279,1.246694770241954,1.2448316858393764,1.1774487502224662,1.1923023637048686,1.1852750877471097,1.1973193381057254,1.1872409448928272,1.1798325776687046,1.1482577957554208,1.131885619855294,1.1601011150038747,1.1752909095313029,1.15764894165964,1.1850521622203902,1.2378490685658827,1.2492406049179143,1.2184154066734516,1.2594952115040026,1.2921597390612105,1.2714382362235186,1.2691347498164423,1.2448302164348992,1.1754967867220314
1.3864027083987767,1.3285263755067673,1.321860365843844,1.3367062504759075,1.2340157258760234,1.3217732476381476,1.3368364028722495,1.2280766100894804,1.1735373165299223,1.2461197990490376,1.2401923902776062,1.1791467762528518,1.1856762324793717,1.1906648601161387,1.1994992463997087,1.1886461963794515,1.1805264725229883,1.1468911774915518,1.129361777199878,1.1607602341808336,1.1726570299090269,1.1531484946372277,1.1765519419179755,1.2473968667191582,1.2505530740302024,1.209956942640728,1.2638823128274606,1.2929700505447628,1.2758189035121734,1.2701463452688304,1.2315889564686497,1.1813973036281022
1.3774856114929757,1.3246151514170963,1.2926120085984447,1.3347557808015957,1.235168978252196,1.326087190001237,1.3323091453151228,1.2243824901726452,1.1815971464844117,1.2537929663076401,1.2272224073590183,1.1757590160463014,1.1833290680041006,1.1888573068548207,1.203120242262492,1.1904002340063622,1.184184500351011,1.1527104509179504,1.1255750676000535,1.166332486487771,1.1691837302931525,1.153291166726728,1.1771303881633564,1.2640399831546036,1.271614449167498,1.2267697333053904,1.296485428894589,1.2970924153940584,1.2741360141451636,1.2719332879418783,1.236942966124086,1.1907467101798082
1.3341947326312646,1.2956179802455967,1.263968485615035,1.2984861098102758,1.2232684114470456,1.3367359674769796,1.3196747431910694,1.2304349598372208,1.1687628976153273,1.259924508980377,1.2288512816274115,1.1648674065366589,1.174868537249787,1.1745821342578322,1.1982336324660823,1.179394191780262,1.173167462873864,1.141402305680414,1.1356197522278395,1.1523132541833834,1.1767282242046564,1.1631613066074233,1.2024532956510952,1.2598101175239176,1.3022776622996786,1.2276877495487595,1.313986143962507,1.257800187742817,1.2735149928387461,1.2508178134100731,1.2251636903547525,1.1884893340873472
1.3238156048749743,1.2863896567608601,1.2514935074686655,1.2909323098612513,1.215494525767393,1.2939140703373926,1.3068608350329625,1.1995855871145258,1.1785422120487123,1.2215862224993534,1.233486253231913,1.153551012531373,1.1849481008751566,1.1734573820184353,1.1952134046984044,1.1937251307114425,1.184882245248086,1.1482461592369988,1.136154922749004,1.1586694441344667,1.1655873118186117,1.144854883832169,1.1750287291311292,1.262112652241632,1.2868013190475829,1.2187722206469944,1.2986603840259967,1.2571864699794109,1.2607585203879048,1.236609057716926,1.2185115982777663,1.177068646568474
1.321581010300938,1.27492135070272,1.2432940412341686,1.2868296098717589,1.1954875003336356,1.2599280768498662,1.2974924493310227,1.1845873875480335,1.1486168205953753,1.2072274978103759,1.2224751622409114,1.1307235964544078,1.137438256586741,1.146285057928384,1.1625274900940155,1.1534445401243363,1.1389598566461065,1.1137923833665893,1.115573540535622,1.1231199653931687,1.1560300945260353,1.1247672824998047,1.173541256146401,1.2814317071730965,1.2875860269535928,1.2174808031240434,1.2880307628704195,1.2439441959427229,1.2610876924274583,1.2196179044104234,1.2132341928226222,1.152741986141665
1.3153441112955822,1.2506031693683788,1.2574649843954635,1.2968222922027253,1.1917657644033957,1.2594302831471689,1.3074201261578298,1.1865059795196327,1.1649205540622267,1.2087930369222009,1.218152961053009,1.1416421270972232,1.130685761629204,1.1487982572011355,1.155092801286107,1.1334767784406097,1.1236176377768108,1.1062856906369478,1.1162411465469138,1.1274177774457788,1.1599530721081786,1.1259881070924924,1.1731710268798612,1.2780262119850512,1.3042141939389804,1.2044251244918964,1.3025904073303598,1.2238250588953137,1.262795901496432,1.212271094950065,1.2026061140135842,1.1488391555085595
1.2735869240388644,1.2456842358207916,1.2602302913825028,1.26472929884717,1.1807296150680766,1.2550675056970533,1.2988684753103756,1.1764222820930004,1.1749038639330105,1.1916783584335406,1.2103236779964244,1.1407854233500936,1.1474969152634031,1.1510894516714063,1.153476626612989,1.1401586947507012,1.1245691320589273,1.1015944358992136,1.1094872340701663,1.1080913385575017,1.146392124091648,1.13393338145822,1.1737333488066193,1.2879337440952259,1.2869332350668836,1.1962498368163599,1.2758661285848047,1.2046568381186842,1.2292092036343147,1.2033742057634527,1.1737837603554666,1.1543886637775007
1.2667614902216116,1.2398002454188437,1.2766989142374958,1.2763472805925364,1.1747407697653207,1.2849165966859888,1.2976209580785618,1.1958608725425646,1.1733173796687184,1.1892362785845427,1.221439938716664,1.1411130602027433,1.134407282834072,1.149914701093497,1.154255547984647,1.1352774499694194,1.1281285979608568,1.1006988503574378,1.105024918176176,1.1048598219495207,1.1385307073701316,1.118070080189308,1.1654214522158493,1.289375476294512,1.2866407641942692,1.1850794328038015,1.277649581030226,1.2202166870165247,1.224580571005364,1.2075176450427654,1.171011915609723,1.146063514952608
1.267486857109998,1.2202872971314027,1.2701105604315257,1.2742620948755106,1.1817486803306974,1.276605631080019,1.3051617326778593,1.2037164650234418,1.181746138677524,1.1717935896327953,1.20859444872177,1.1404408591764919,1.1420203719097266,1.1478021838657708,1.1580177163502172,1.1418259059302054,1.128346161290539,1.1021298522105512,1.1070567815102026,1.1081106088235422,1.1366351925750036,1.1228394623220146,1.1728307072323363,1.2873290548292664,1.2920470091808367,1.1984142072530184,1.2672069937300212,1.207460173453349,1.212048269809657,1.200798593618565,1.178089387532804,1.1632559435147427
1.2573392990553547,1.2265401621609335,1.269595922248924,1.2808573927513338,1.1817759343624559,1.2684524794915306,1.3023272631206557,1.1967613993942883,1.1895899905894745,1.1809053149616382,1.2296675123295098,1.158819158039702,1.1697629248579862,1.1658676871754419,1.1772736126313248,1.1661434631440448,1.146398550570038,1.1223595957458647,1.1219357851458491,1.1215683407817203,1.1396434837113607,1.1457853429951195,1.158528022086052,1.2740979330878157,1.2525639784789662,1.1765230881397657,1.2445795356640372,1.1951184397565329,1.1951340488321187,1.1901804668185303,1.1643036082077594,1.1730585920623742
1.249408318609493,1.2161287141543196,1.2853990497793306,1.2711646005535373,1.1789468200494615,1.2692127680222411,1.3005701863372214,1.2006136204404028,1.1936325993692036,1.1899312008392784,1.2420064457893016,1.1617246317482548,1.1654729404862012,1.166223226600836,1.1848309773689751,1.1743303042509778,1.1534982706534824,1.1243068533887934,1.1199051874468482,1.1353687220690896,1.1523978523332454,1.1388671487642223,1.168680992562014,1.2764277654276064,1.2523179912094087,1.1871408691358274,1.2391801880378879,1.1899845814851722,1.1983639171759355,1.1855414231236192,1.15350029089467,1.1790014241317914
1.228435431000579,1.2220232265766342,1.3070603975954742,1.2512286934740169,1.1707860880391359,1.2446579996716038,1.2944415112379317,1.2104987958988445,1.1872313264286911,1.1793133664935271,1.2467502851914531,1.162916477191475,1.1624681917679291,1.163157091189534,1.1810489700119917,1.1698627239519896,1.1413819527718068,1.116185702999308,1.1069651551265918,1.103674695325901,1.1378393842130352,1.1244722111861232,1.1727800978498442,1.2660121544722074,1.2464743519680204,1.1671498612888387,1.204482478732536,1.1753495341490847,1.1643275331554142,1.17369670936887,1.1365063104483024,1.1795850315252634
1.2095689541511772,1.2272653966780804,1.3282743806855575,1.2259500695037966,1.1656570990832982,1.2407669199471454,1.2880725882701132,1.2165523958077382,1.1729692203420465,1.1760776370379455,1.2413105557277921,1.1709547822416115,1.1548575140045927,1.1592474890413615,1.1759460907286812,1.1697684070343937,1.144954979084158,1.1184169089528113,1.1108156589370972,1.1120657356012567,1.1392668121029388,1.1340098886411742,1.158813285635737,1.27058489974077,1.2236375907102357,1.17028719553406,1.206988523117652,1.1740253262563527,1.1635151240786665,1.1725868911128257,1.1291503876952995,1.1962086308587319
1.1906640245263351,1.233034778934098,1.3265703829667974,1.2173158582707586,1.1814544185528224,1.232970374270154,1.2966356229094396,1.2159039196513886,1.1820352732807466,1.1818723590722153,1.2514748430491263,1.185047240920163,1.1641509316667773,1.1720811195016176,1.1876004115453553,1.1741445228679959,1.1499736980273185,1.1299571315592756,1.1107806927569683,1.1125798895828989,1.142578447229978,1.1373946183232055,1.1621030540587842,1.271390953049151,1.2139732960688268,1.1841953320143144,1.1877945483770254,1.172022737094363,1.1631222290104755,1.180555394284425,1.1421625317879531,1.208355919867986
1.1842222491979715,1.2225803400587654,1.323027042831857,1.2258002933215537,1.1780242972642059,1.2173978380046935,1.317790287172085,1.210696530216904,1.187256624772622,1.171524024662012,1.2439256393870923,1.1722777988379423,1.1711395046280686,1.1658246958416287,1.183514630598525,1.1735079266602062,1.1463705540551865,1.1261650613235097,1.109421015797296,1.1172240432676317,1.144184295112999,1.1459261420871107,1.1703284236673024,1.2747772085132987,1.205032039697707,1.1830816784552665,1.1988769118095624,1.1635571180730568,1.1469538949914666,1.1647267342852379,1.1415594503034048,1.2083539253996578
1.2006614158614488,1.230556874745747,1.3366913852262219,1.205019398677688,1.1791490699988612,1.2245062448213355,1.30446311237767,1.2175024257114433,1.1669520242554174,1.1646839472157566,1.2449322545049961,1.164285506800504,1.1748544531446463,1.163797393502684,1.1888265024575178,1.18058195874197,1.1621590800237938,1.1452872961163079,1.1231446522939679,1.1337171124158623,1.1622169379361447,1.157576332228838,1.183581346800773,1.2979041388188004,1.201663200601802,1.1862397149774848,1.1968459451437528,1.1778255941299594,1.149974932458159,1.173245086728549,1.1461458196225667,1.225193380532256
1.2182366089285488,1.2372760514124987,1.341861682629054,1.2202552667811348,1.1980039526537043,1.2247988396753782,1.3253892980583855,1.2153463663706354,1.1736754856920695,1.1654610880279161,1.2367068448426954,1.1602641354033496,1.1623690470444306,1.1459941940727387,1.1647644432054154,1.1660880072361752,1.1404016080898436,1.1311325218449453,1.1190020140831085,1.1393524999786506,1.1558986940549587,1.161143563764483,1.1704799013685971,1.2910025558092122,1.2013542247244708,1.1733650622648857,1.208938740322366,1.1871848837718506,1.1655772824834085,1.1707628533204113,1.1493435523402824,1.208846950699714
1.2203804344961344,1.2632805804429714,1.3557774121961081,1.226722102464608,1.2004822879849764,1.2257279725033685,1.3307277955163308,1.209727257292885,1.1772665534266127,1.1833956230604135,1.2528596495138418,1.1724513519805906,1.1763043253896148,1.172109866091615,1.187085503720291,1.1875167236052895,1.1608180668922814,1.1525622807974647,1.1330588013617433,1.1518730600682112,1.1777645843196298,1.1742025439830903,1.196891323319608,1.2979630012732823,1.207247070729583,1.1780599307490158,1.2316256099487828,1.1910668203498562,1.1733939013058703,1.1795704008722923,1.1615585553392669,1.2113809432470948
1.2301955368091004,1.282085671908697,1.3428998548814595,1.2364161376926566,1.2089659577036573,1.2388890570812,1.3228882811913112,1.2022242016979348,1.1651329059895015,1.172545262772809,1.2363902744770134,1.1615314215911636,1.1787550734939365,1.1567624553065412,1.1790890373555665,1.1742138535097613,1.159635797616557,1.1527596973260834,1.1468951192809629,1.1567443471248056,1.1870765017362843,1.1836767540740962,1.200046972648736,1.2957017657950756,1.2193487060036323,1.1905775365069469,1.2372250265568274,1.2013639110552718,1.1796643934053865,1.192393697712302,1.172620826882692,1.2047739919962352
1.2263842564175187,1.2667422135676984,1.36392765827408,1.224382756501361,1.19401642111076,1.2255255817168713,1.3356910820304542,1.2054251565587037,1.1815437197849703,1.1902740593736572,1.26315212410899,1.1769994158149193,1.1901374737865222,1.1633589992277071,1.1788084935811507,1.1731560016428884,1.161767495577095,1.153965022555158,1.152269250615018,1.162877359074724,1.1854271647112278,1.1958735353948045,1.1883338889255468,1.3082675821860628,1.2315456994086997,1.178150437167691,1.2331570817890565,1.18838418753025,1.183589814389964,1.1835277346257456,1.1578671458370267,1.1943313262362432
1.2117058483214886,1.2593228949479285,1.3346483737428245,1.2299833618046043,1.2146312879579315,1.246666987861114,1.334481898846467,1.2219725806517923,1.1662553337279065,1.1859661317090808,1.257244130614943,1.1746492315252501,1.1867926926531516,1.1560303382830501,1.1801825848436502,1.1732108191923118,1.1657422971165887,1.1608465062485762,1.1650156781013639,1.1937447479622347,1.2148516466479569,1.2142741800194923,1.2084398912903271,1.3177601713990028,1.2435331869311477,1.1706007729417496,1.218894647998766,1.190471864720252,1.1848709562065598,1.1897548175946684,1.1641376060106219,1.1876697310866589
1.2079813178563246,1.2511694140127512,1.3207866611775507,1.2425810051447816,1.2164903351537772,1.240101579049189,1.3617207827282005,1.2242785301739656,1.1786581601434907,1.1780954051012356,1.2558296272019813,1.1758838742765367,1.1832091514429954,1.1633259666932367,1.1847777551329104,1.1686625752903874,1.1560625929481676,1.150629857327055,1.168927889859169,1.2030319074428453,1.2241831993984842,1.2102169481536853,1.202482416321058,1.3037605113873774,1.261570606808583,1.191743584650716,1.229890616325829,1.1850317070249266,1.1824006318606095,1.1811703610274642,1.1865678352065538,1.1944227657936417
1.205600422342339,1.2542923902105998,1.308382294028666,1.2768230050148692,1.190209319554635,1.2473737724820209,1.3638005471524095,1.2264152274609306,1.1834752075572477,1.1826880315847061,1.2479831237632708,1.1760914506404156,1.1993644865776227,1.1636564051740943,1.1953583686901759,1.1777737084897455,1.1649883383827029,1.167185798800541,1.180984477359003,1.2067635615672596,1.2182428059004364,1.202721623317156,1.2036945457225374,1.2896588475039605,1.2518394311280208,1.1726905038883688,1.2281154834130217,1.179136983333596,1.178294548033239,1.1795455325669209,1.1843989994585928,1.1832601006750156
1.2068798824365425,1.254574077924515,1.3081933316065162,1.2801512989401105,1.2102511510829248,1.297957569350862,1.369855850298161,1.2310755273660319,1.1963783920871673,1.1825707965213703,1.252167448587954,1.1849337646310043,1.2003362924336323,1.173895211519097,1.197535433893438,1.1758480651465795,1.1674171598964103,1.1662211122637889,1.1827105721251447,1.2129022517953851,1.2373546539636675,1.2044788120233405,1.223897567540215,1.302334396400171,1.2779325554127916,1.188265207450813,1.2321071047157428,1.1820219235158576,1.1976302689745522,1.1896859508788022,1.1928214374221442,1.1764716325389903
1.2115449976602175,1.2748622755842163,1.3418141438570614,1.3004729183579318,1.2025767245429686,1.3055794081944025,1.3707061289076339,1.2262586638732673,1.177154427714189,1.1858139166748525,1.2571932242271637,1.1748285668417904,1.19117691861222,1.1690268135924167,1.2006242604898314,1.1906935506498486,1.1867050202011478,1.1821524308863929,1.1969569198718684,1.2239496502193337,1.2344682491234507,1.2013455187452375,1.205534444920916,1.2761499089681554,1.2788581458337083,1.1797371609424763,1.2126414220320867,1.189819059350397,1.1872453384994184,1.193088742351646,1.1850629924658136,1.1750104981699587
1.2024846144475705,1.2564525355019602,1.2946950688993404,1.3108575548901358,1.206513005104016,1.2848261560052756,1.3600765594030482,1.1977915079184933,1.16459679188676,1.1759463633426723,1.252947729743853,1.1612896443655456,1.187283995344542,1.1626767691185729,1.1927967887975197,1.1755003165085933,1.1750105044713517,1.1672759583000585,1.184167081730822,1.2092301983140519,1.2290610425941284,1.197631964603019,1.227381575376994,1.2752587108644782,1.2976137683710702,1.1997219704950586,1.209139781330117,1.193080639401364,1.1937489553702205,1.2073485340908008,1.2066560628202363,1.191953825836091
1.1974686918206843,1.2405158436998902,1.283748471734452,1.2992626019738631,1.2171717798502824,1.2707528083404065,1.3542198530773613,1.2016559582263637,1.1794838236414271,1.1834402563918003,1.2433156518394493,1.171647192829873,1.1812261971933178,1.1491367643246067,1.1783030496487683,1.1599232690028514,1.163867897627459,1.1550285349560472,1.1594622110379529,1.1857340032447463,1.2014039978773141,1.1760152156436712,1.1853877577486707,1.2640940929688813,1.2782775150360666,1.157909776972462,1.1926721674015104,1.184130350808586,1.1555676539685784,1.1845738578374003,1.1745944792490326,1.173403745374542
1.1948470443438963,1.2136003429723274,1.2692331589255705,1.2846848969575602,1.2077014583648014,1.2615884407004707,1.3594570449414585,1.1979999002715094,1.1862619601523179,1.1978686689302003,1.2516944295877395,1.1872456384723313,1.1807265026381102,1.157751757280291,1.1867571111090611,1.1706966044905733,1.1712519776814785,1.155244212811865,1.1588569660811752,1.1941454821968773,1.2116520165686453,1.181140909281007,1.1925984969868342,1.297113892707596,1.2920809648788525,1.1779489392988787,1.1844059207505488,1.175738284838402,1.1541843378796997,1.1686584832169447,1.1781984725907626,1.1954251453702187
1.224148414565881,1.215592732959586,1.271951033012804,1.2823703509355815,1.1920706731800526,1.2657380425735465,1.3685196866587588,1.2170606777494075,1.1968041923359425,1.2019733390664007,1.240939831985523,1.1872532876844357,1.177271665520505,1.1642353902445812,1.1806732433237974,1.176983825456053,1.162382094624924,1.1570180877102954,1.1485640196208258,1.178381756347021,1.1962773483114997,1.1649284632590182,1.1899973717351704,1.2954422941066375,1.3052719352877387,1.174642404647628,1.1860131222534414,1.195996400514108,1.149502477029194,1.1739185203754923,1.1746825904690679,1.182469633572427
1.225924773622512,1.2064989132652102,1.264366531909772,1.2785446940090532,1.1984800336366785,1.264247699426449,1.3604314976356318,1.1931821589501237,1.1832628293888312,1.175652373203679,1.2104819144709122,1.1567411615627459,1.1625961911296434,1.1402372957753977,1.1546556208352852,1.1686431058589772,1.1589873082450768,1.161322718241054,1.1576515755556347,1.1861967105990274,1.200479619502498,1.1679726342628192,1.1947958752768217,1.2884738760212215,1.2993194992983652,1.168811197177152,1.185696333718773,1.203227068689056,1.1578877342701772,1.167927324612037,1.1727596488261784,1.1787351155894061
1.2223944933114288,1.2224294161097302,1.2375598720872782,1.2691972081009926,1.1787135161462043,1.2563190593690505,1.3399594269911608,1.1933957885530144,1.1649289884570577,1.1735110417748225,1.1988441324481502,1.1603560845848073,1.1467716390177405,1.1407266556614173,1.144118945459857,1.1484210737705347,1.1319772796608634,1.1253573653731397,1.1286103163013852,1.1493900283923284,1.1639924062225966,1.1455763302953696,1.1740084745867405,1.2787522731638186,1.2916308831105299,1.1666571350190515,1.194004232346018,1.1896888576014069,1.1526668405823828,1.1680659387492298,1.171069040341307,1.1919293255736165
1.219099721273813,1.2099097340621714,1.2302611304736464,1.2560714520174694,1.1605927654554002,1.2535132178783301,1.3502369926889577,1.1924247798861591,1.163592473494039,1.161386695614205,1.1864640605914702,1.1422872526636785,1.1582519935867517,1.1228634737730676,1.1253567707914982,1.1436079122911702,1.1410315944802496,1.136170444475329,1.135580387231741,1.1469203563215433,1.1680780914666105,1.1511037702323355,1.1623459599911943,1.2710939917389106,1.2817023438273856,1.14034223643544,1.1735078444338023,1.1757391888793665,1.132779557426155,1.141375002944682,1.1366889242161373,1.1715047132870129
1.2083810571557243,1.2101369472528671,1.2257515152332754,1.2359114291836961,1.1627506752809715,1.2478776817745505,1.3264515227294345,1.1851860471008362,1.1397791405894184,1.1511562951120415,1.1746601843168487,1.1188414451917326,1.1273899049040663,1.103435727615697,1.1074099940954976,1.1276997684797878,1.117318214919866,1.1107191084483519,1.121922547173946,1.1419385132339366,1.1519775388688813,1.1296329943951695,1.1538413178839628,1.2569057027983208,1.2684058837901975,1.1336977849206638,1.1658964565537413,1.1810538326199405,1.1480241885279132,1.142216270151345,1.1301756022328033,1.1703821568811503
1.2096900023479766,1.2153668086945224,1.2341986351567327,1.2223524053237669,1.1526835221127292,1.2165285583252519,1.3193169653533192,1.1738263739704633,1.1423521302048374,1.1655423873325768,1.1937135364590568,1.1392331472711548,1.1272900303277564,1.1184682646158193,1.1206829370546663,1.126590043876687,1.1185207112706665,1.1160215945473997,1.1174071665331513,1.1373418554797199,1.1363743066419734,1.1320372004716726,1.153956754391608,1.2479068412555991,1.2674785333423206,1.1387245803095998,1.1701451873811128,1.179460445514042,1.1569628437324306,1.1344415257797433,1.1314416721724831,1.1818893550256098
1.2002597895991434,1.2323355937316915,1.2591594708148057,1.222199408451515,1.1493936670021578,1.2176587143720838,1.2952697065429228,1.175281717744534,1.136773475718364,1.1476603758491,1.172632475997421,1.1225213114851145,1.1270411074849276,1.1100495745181724,1.1155665984980714,1.1362470351560792,1.123302925863179,1.1124541377994828,1.1110855836269506,1.1314829782770883,1.1314899508223837,1.1271763306124578,1.1584100373219584,1.2571721389834174,1.2754327457079475,1.1411742155520588,1.1947188372155246,1.192269590142893,1.1688901615795873,1.139736985611708,1.1328219974976017,1.1635890864877176
1.197242125285922,1.2416626413043115,1.2434930215958588,1.235883945446508,1.1457232344084873,1.23496568618268,1.2878503682475684,1.1821184563983147,1.1276407420081451,1.165165962434455,1.1849575879122811,1.1289339200890507,1.1380415196125138,1.123480577935171,1.1296980489885984,1.148783539070475,1.1281486881022407,1.1201387801123985,1.1352148909190587,1.145867549185269,1.1477340526372803,1.144890510913388,1.1761563497817253,1.2838832882313433,1.3006085057440775,1.1723120599331158,1.219614066831838,1.1861480263543727,1.1982761529533188,1.1637074438075898,1.1452199092015214,1.1816256347278515
1.1788457259212386,1.225734153497727,1.2689208126533489,1.2210399514851478,1.1274779466606164,1.2286208230159996,1.2839891579458316,1.1948420983216788,1.1243150996488438,1.13829551917819,1.1657037208868923,1.1166106271137637,1.1252927771905947,1.1217313601772687,1.1262884378282825,1.1501036864284473,1.1224333781840454,1.1079523598396737,1.1148002712329448,1.123955647762654,1.1363534113602474,1.1369716930495182,1.1857702854141956,1.2356560179719367,1.2822815025584873,1.170088938250752,1.191643356200676,1.1582670344887833,1.171129541547016,1.136409080431984,1.1320786427090797,1.1952073285137408
1.1999245166764119,1.2206570580804388,1.2526272875157878,1.2479290866537898,1.1386135255906027,1.2112476872757019,1.2686647828821633,1.1853841341302678,1.115432075472767,1.1272838694107297,1.158328389138113,1.1036754925461902,1.1346706659117016,1.1156461053716245,1.1258677029093629,1.1523166007599217,1.1286550891502896,1.1144697404868997,1.1284610005957099,1.1373301713553527,1.1302822570689377,1.1398807358854952,1.1609258132057785,1.2286324640924826,1.2664811722377292,1.14397133332653,1.182376359907068,1.1653163028193152,1.1551946632310715,1.142699457097045,1.1215785644709009,1.1814957950866376
1.1850556195993454,1.2338436744350534,1.2663982069341733,1.2500475783070355,1.1397528856393802,1.204992314004824,1.2692223014353514,1.1801309099119586,1.1207062357922961,1.117944810747569,1.162223856544659,1.0988103050881042,1.1197431255406256,1.1090620366272808,1.1313556221724823,1.1428493217118505,1.1192902654862424,1.1023197883434503,1.1147747497831542,1.1271884011091517,1.1311220803325042,1.1320418526182567,1.174847690240562,1.2148870815904849,1.2575698496614753,1.1568776241302043,1.2098034783356908,1.1642536570675672,1.1711307142740701,1.1603084246308912,1.1360925534041775,1.1841596228769093
1.1880260144949075,1.2307259258958432,1.259271067748392,1.2506392702805247,1.1410604940476972,1.230552142358984,1.2543167095293746,1.1963834178723995,1.098889761472398,1.1301131339543244,1.1581182771047505,1.0994536156150299,1.1125043920932227,1.1191625559128136,1.1426256078737098,1.163715422464674,1.133237020234617,1.1036751101795466,1.116516127257126,1.146478034073976,1.1404093719347421,1.1265623038802315,1.184113172527309,1.2357130270547727,1.26971545117539,1.1638544601502527,1.1919639428184967,1.170952392949867,1.156772030547431,1.1574648650902926,1.1128527950047442,1.1917494847748353
1.2054659222991015,1.2561570522177683,1.2818820572227616,1.2754317458760691,1.1461324089028506,1.2450411778155406,1.257123285109982,1.191264583740788,1.1009027716667246,1.1364127127479247,1.1581918172859036,1.0984535866354945,1.1110718321901545,1.1147520795428387,1.1356856770910175,1.1534980754791402,1.12261094828257,1.1030125784239704,1.1199667995493614,1.1541421748344562,1.147540615653602,1.1343005808105537,1.190120540700339,1.244459872322641,1.2647863117208038,1.1713333072668917,1.2197481025885553,1.1943983945982564,1.172898685535566,1.1910959036428814,1.1313516319418044,1.1912766921774283
1.2083885667136638,1.2477069220882118,1.2838931003614935,1.2669921025154711,1.1479371528623326,1.2479487257085407,1.267398349811442,1.1711585605461527,1.0933887457850564,1.1324868712359852,1.1639960005723644,1.0996976094103545,1.1213682011078423,1.1220635874608302,1.1446799806399481,1.1625057109701316,1.1437948630986263,1.1213226106996492,1.1227167494369572,1.1536655514057443,1.143567465030847,1.1328585740215407,1.1926145018126537,1.2630032584522435,1.2720333759713787,1.1723479440810278,1.219859604292652,1.1899644732482857,1.1817059557057288,1.2033057099332303,1.1315580587169924,1.1846443296699911
1.209520472714528,1.2423614302869794,1.2995593457297983,1.27510511350502,1.1509885355031253,1.2616605328466333,1.2813692945615183,1.1940047330164762,1.0976352659851436,1.1548205946665322,1.162910716927397,1.0993721665389296,1.1098285538444081,1.1099839143324248,1.1310298100532097,1.1451113095823813,1.1252650319588307,1.0991343049123743,1.1091019457027662,1.1383424951195844,1.1444587647247806,1.129796822752076,1.1978718082753117,1.264021705914243,1.2783690964016619,1.173593852920102,1.2096124960984511,1.1972378847226857,1.1753464412761523,1.201277632020779,1.1372993756691472,1.1792588965428739
1.2402499417320565,1.2325188237272504,1.2922936077371165,1.2880680027948583,1.1583957176525397,1.261990695702735,1.269926232003768,1.211121207974007,1.1043929042418674,1.148150299011775,1.1622789833919234,1.0947363718477612,1.1075466544706567,1.1148618218828168,1.13436949395972,1.13616144298175,1.1182403222103565,1.095189458709139,1.1066733814849963,1.1313538965377006,1.1383713828848256,1.1245469433469766,1.210492411737251,1.2619790289886719,1.2805484004716639,1.1819587015604038,1.213429239313694,1.216134291666124,1.1703898165356381,1.2224016633730654,1.1367784719661937,1.1721498594139492
1.2562244458578877,1.2603750426054217,1.2946094291077956,1.3042197401613895,1.1661139050983154,1.277033159619286,1.280282200602616,1.2208961315651037,1.1214378118769062,1.1691747601323188,1.1604886249566564,1.1198690818600185,1.1186416034389193,1.1143161137554425,1.1296180411098118,1.1290508851524295,1.115821224121177,1.0974271824266248,1.1012294510678133,1.1334621539308312,1.1258080517348334,1.1182546477187443,1.2024288113099115,1.2662306678156252,1.268901577834785,1.1865530923580783,1.2171036028421223,1.2376680829251396,1.1704261849756348,1.2530384741473293,1.1465156801072842,1.1797113252165818
1.256109287246367,1.2608353298641337,1.3168245112848065,1.3015500327863594,1.164368526558515,1.298861289930798,1.2861538567491986,1.2310999730535026,1.1182806863956063,1.166305702620983,1.166806760664881,1.1119335225548763,1.112879928100021,1.1063672749034226,1.1258380429239885,1.1197880926824264,1.10953031239662,1.0919834801342163,1.10103881297563,1.1379798867686848,1.14035956352033,1.116804376017686,1.195481447238846,1.250186466873371,1.2523235107858914,1.1596623389165084,1.232665391493311,1.2401090963276757,1.162781813029838,1.2476994604707674,1.136715679684301,1.1518648361911188
1.2761786713861416,1.2697239511092278,1.3125119340009839,1.3105065672269185,1.1782260442682662,1.3225613988314404,1.2810001501026966,1.2369402119353385,1.1342073121121077,1.1864013917794156,1.1830307178008586,1.1334650879745365,1.1274425248129287,1.1176917063276386,1.129826853407311,1.1209706364195335,1.1077235446579292,1.089754764885758,1.10676219136655,1.1367623537112848,1.1564348685396588,1.12569472146639,1.2335574494006052,1.2671386775078148,1.2771448046173437,1.180457707197008,1.237938622951802,1.264891876661213,1.1926239060759047,1.2627491845022651,1.1525662571188144,1.1571904389304277
1.270609472260348,1.2788904794329794,1.307541793821088,1.3001719445376028,1.1734018285612509,1.3318503624862303,1.303603249757621,1.2616126526733542,1.125963331930797,1.1938155468240546,1.1909677435078334,1.1246459825908577,1.1205313952821356,1.1049664783725306,1.117325295669121,1.1256579679551784,1.1109762311655316,1.0915008438847988,1.1108829446884116,1.1259836691397263,1.1620953782719052,1.1305286028185215,1.2291015550850126,1.2734479247220147,1.2703490483245603,1.1850021696071344,1.2466434449796784,1.2617960310305645,1.1931594218330257,1.26568930961291,1.1626365178259264,1.1587478550033263
1.2862144331488872,1.2961578946863797,1.325517892502367,1.2932699722184449,1.1835430721522535,1.355865724380072,1.3295714470585118,1.246142532356949,1.1228870375913187,1.194087783824111,1.2077815130450276,1.1214089798256819,1.1336679659650186,1.1100021343862725,1.1071866149533636,1.1370338490328387,1.1317589879831105,1.1116838730443521,1.1266468630771693,1.1432235906629926,1.175300050365472,1.1411277694826638,1.2426211410042987,1.2881758050533754,1.2839280077957198,1.1997863880163377,1.270964901422957,1.2823938393069307,1.215128234526074,1.281641211774253,1.1763998934921338,1.169715455671499
1.2553829954279327,1.289025792274903,1.3261255840869,1.2912585060668402,1.168420892635931,1.3298743887669546,1.3415250065801205,1.2191279023275967,1.130035417128716,1.2071973777648275,1.225047119237999,1.131877025716577,1.1478866553711826,1.1232785628045039,1.1240027623428706,1.160563694099033,1.135564398556212,1.1103816549970973,1.1129273364574157,1.1305886052879348,1.1583259190152058,1.1310330269477469,1.2289361281902023,1.2691559513598782,1.284079323517211,1.183150480957936,1.2608003135359531,1.2386523707960384,1.2168022488810337,1.2543095417226322,1.1627165545182545,1.1580131717089472
1.2431389786511415,1.2845376342941481,1.3184848463168526,1.287655499811584,1.1633993082612009,1.3151982394118937,1.3328620787382177,1.2352888884753992,1.1493733233193133,1.2085059205521056,1.2354101187518558,1.1400808676938377,1.1528126688300988,1.129086607875328,1.133376392221009,1.166786346470226,1.1484578516993484,1.1292007249315843,1.126386148846081,1.144076533435361,1.1647767913763294,1.1346166424576014,1.2397177074946761,1.266820637378906,1.274484411558505,1.184369750243508,1.2670827192442973,1.2313008943557944,1.205097992552007,1.2365993963097273,1.1526700839168387,1.1553954633854429
1.2505843630964744,1.2821834143206836,1.3194487670345891,1.3057489856951117,1.1709369728809584,1.3103680828266806,1.3091312775165869,1.2275195130185037,1.1506219903039194,1.212125884538779,1.230896309025432,1.1271304369746045,1.1452850841234978,1.1125140153925421,1.1121912721487686,1.1611661102391673,1.1449158012921574,1.128128600330554,1.1387881794050396,1.1515454076520564,1.174941402274001,1.1418569850093572,1.2400228849461243,1.2822899107172077,1.282603437012409,1.1926032946195562,1.2655315507514016,1.229850281574844,1.2102359092004236,1.231505634213533,1.151480440838199,1.1674856145884571
1.2431641164557363,1.284753951991068,1.3298197523621094,1.3047938422141763,1.1692870253295826,1.3214462902507023,1.3304372063258945,1.2518646768750956,1.1701250457638501,1.2276260041744904,1.2379872999861643,1.143571254756616,1.1625603689129373,1.1157801746785503,1.1148090159562025,1.1719656611454645,1.1598740501203557,1.1406794530660707,1.1467647566043313,1.1680380103804415,1.1896506246147038,1.1564492137077484,1.2364469894176118,1.2999107652325883,1.2755355510911932,1.1849648752601842,1.2826296386279539,1.2281431712162727,1.2047644089336538,1.2261209501894892,1.1614871278717056,1.1623686056063904
1.2286636539997886,1.27005368802102,1.3184401907919092,1.2873886111910242,1.1615830064783939,1.311340974309781,1.319934400925837,1.2310235879743714,1.1610884878340662,1.2127226947595513,1.2400033498628322,1.1416384406975337,1.1626017324874314,1.1216080283349212,1.1309181614032773,1.1927585327596288,1.1784537651256548,1.1530561658824248,1.1482094081860357,1.1706268586648534,1.1979242805857564,1.1548981611939098,1.2362889988348316,1.3221355918752746,1.280508847134513,1.1759146953473436,1.2611930001494154,1.220402301688556,1.2010168325335455,1.211725275446573,1.1450949228657137,1.1698881468185367
1.226123677900422,1.2673237562203608,1.3225231715579435,1.2643198122360473,1.1649445432516932,1.307527120700657,1.3252889193209336,1.234555908123491,1.16147215859398,1.2060473975369672,1.2455200917289913,1.1429547210491444,1.1658789401089773,1.13128478135933,1.1372216238871902,1.207956415502451,1.2051316525618239,1.1738071805916184,1.1628199644484742,1.178839930459282,1.211873436540322,1.1656313546007413,1.2483295282233358,1.3336417812427135,1.2884425535973865,1.1980764784868312,1.2690608909677503,1.2302748916041253,1.2311182478944558,1.2180558283473764,1.1648047082571733,1.1850091946885295
1.2405666174248209,1.2661084493551467,1.314140887658286,1.271829368238309,1.162120592513623,1.3106371284239169,1.341360882946265,1.2418788163514602,1.1602443897700505,1.2056157382376365,1.2526722870630245,1.1415104223834287,1.180976832586936,1.1281108504197852,1.1402872996834303,1.2144608475223106,1.222114196981067,1.1948862357558638,1.1843956898017638,1.196192449117478,1.2192278738018334,1.1903646069785505,1.2586784772489927,1.3439956093741603,1.3193586632439216,1.2211416040630754,1.2729864069774313,1.2271980059638259,1.2290226106477486,1.2178635566418685,1.174983772774217,1.2095607238055957
1.2148597325358705,1.2625957508603616,1.3316466653902022,1.2744877884056354,1.152409225139924,1.2808997769090698,1.332463957379406,1.237268993746996,1.154332580677486,1.2205925826424804,1.2411629278711045,1.133594313864275,1.1660295302533816,1.1269377902583637,1.1394649422689158,1.2023953445587285,1.2109237936164827,1.183021080250082,1.1798366592595027,1.2060616900312562,1.2375895642480448,1.193737067016446,1.2675493608487471,1.3377839624678867,1.309081345768425,1.217983705136032,1.2694084207841536,1.2001548845561798,1.2378812511222708,1.1937025810952182,1.1645597063358306,1.2127729180059665
1.2255242671846156,1.2332895925243048,1.3156247428404995,1.2603388197657266,1.1698353632037377,1.2632249636650994,1.3326066734533881,1.229422901545395,1.170510821865186,1.2324746892043734,1.244673223332797,1.1579944009727672,1.178999592954732,1.1511974660186273,1.1708388817473905,1.2264272163293748,1.2313157018157064,1.2014197704411491,1.1949103762819095,1.2222297259383834,1.23900419480296,1.2088161227058554,1.2765802914318647,1.3607895066621027,1.3170669415291325,1.2265123854149589,1.2895493250839647,1.2171878115029902,1.23559888834627,1.214467444820863,1.1706922707647367,1.2212916973453432
1.2252659786847984,1.2422569457294237,1.295926274244761,1.272730315333934,1.162990001219173,1.2638469093696159,1.3283773412204651,1.208839993702751,1.1808712482050343,1.2010487367823472,1.2200422166268559,1.1517523698989445,1.1825745352288604,1.1510117119054026,1.1670091214800304,1.209290466434482,1.2135612021511113,1.1996816896457367,1.205226627969555,1.2239619318908197,1.2518588998689384,1.2206004068728546,1.2691074212347904,1.3566667006919295,1.3052834198523986,1.2162377454936264,1.2648925837584273,1.2201619500250491,1.2286736128648295,1.210757310386331,1.1703070281090937,1.2067062928666956
1.2344271553220063,1.2544767443184697,1.3028447232919285,1.2781636270533034,1.1634849142716845,1.271519808821501,1.2985097317328116,1.227950258409254,1.2025336469169892,1.2086992021433631,1.203749568006813,1.1667351464456965,1.1929261125162203,1.1552025351905584,1.1690433173409804,1.1970416434307949,1.2069025702496226,1.200053457297574,1.209708744149117,1.22416544732208,1.2640693720753708,1.2248945982619974,1.2670517185277568,1.3644932572488186,1.3092073922471341,1.2137937598518738,1.255557186601008,1.2329898661356917,1.2340408572279926,1.2141078394227964,1.1736116299484132,1.2062520908689829
1.233763440743085,1.2309204325053302,1.3115630521234256,1.2790610928510127,1.1799744293433805,1.2734167071556637,1.30511235859903,1.2351143172314936,1.1934184356644315,1.2231312998330477,1.2135643410293606,1.1786290459801343,1.188365965890843,1.1724750360375713,1.1889442176963216,1.18523401513585,1.1940590912885658,1.1851609359693678,1.207623059862666,1.2264536368791004,1.285778125575172,1.2436511479475523,1.2798959949656503,1.3640103238601513,1.317665480789187,1.2255976260380612,1.2546963370048174,1.22665150137161,1.2479307791904664,1.2145270022978245,1.1809670331289888,1.2210776060576096
1.232424274635908,1.2463736433044752,1.3096004605905074,1.2785254898009961,1.1881430234387649,1.2589504100722173,1.3163236758787256,1.2283359630340558,1.1874995011192906,1.2190439906135964,1.1899071678130742,1.1632954909770545,1.1924300058044797,1.1564723032985678,1.17674894431475,1.180154503202239,1.1839035018119832,1.1814475722410662,1.1879881775895607,1.209016590750575,1.267480941558457,1.2339843164268656,1.292179590203137,1.3514937851941742,1.2978807646258148,1.237575225101809,1.2534588556363804,1.240491793172755,1.24886788601405,1.2290507040794703,1.1901537025425633,1.2384502225831722
1.2431013005630558,1.2458442944136303,1.311401314819688,1.2822632901496764,1.1892966455150766,1.2586077991941351,1.3148336526575348,1.2075064273255065,1.1822394682468584,1.2135453138745043,1.2037300869159377,1.1604878183143053,1.1918379352919783,1.1544075701610343,1.1748305878620147,1.175846601847295,1.169814798447007,1.1663488726158568,1.1881345374492225,1.2003279352572647,1.2668454049731392,1.2302017757070298,1.3217471973093107,1.3581709001870481,1.3525512019292287,1.2746820610100644,1.265538181935667,1.2413389203496397,1.2588803182432073,1.228121713962299,1.2052530450473755,1.2331509738416326
1.234122746906873,1.2646890527788348,1.3104034748777522,1.2681180771035825,1.1720504383473536,1.2577964507711878,1.3034368000476808,1.2130801955909725,1.1897005267279719,1.2297915567895474,1.2025266179033154,1.1679784797894226,1.1994288034566964,1.1617683970814543,1.172995554905978,1.1775929362309938,1.1813812041067782,1.1778935770839551,1.1945549819629053,1.2222176689793898,1.2709321177226192,1.2390262668783911,1.313625874451655,1.3440018031669645,1.3322723930895446,1.2657013736341185,1.2627365572659526,1.2466117662438174,1.2521184602047537,1.239466120166382,1.2044372337337572,1.232390320680138
1.2285652357089534,1.27902532046915,1.2969411354081497,1.2806116887563224,1.179401637618987,1.2530517063167208,1.2854479123784435,1.1852027296952308,1.184985187589379,1.2288712391141519,1.2050421602976595,1.163610954932244,1.1977485513893777,1.1568411698614667,1.1691770824318664,1.1732639449533833,1.1611636661134925,1.1550176113596142,1.1791362514573402,1.2091977122126936,1.2561814261678648,1.2403229595664838,1.308995000295905,1.3378668555753024,1.331920902610912,1.2600958359611047,1.2656546430549327,1.2445157533541398,1.2525450623314345,1.2412297382402229,1.2011396039434563,1.229239277156665
1.2303737140262747,1.2936691134216198,1.2746300093704088,1.2873405491249932,1.1752129009080512,1.2371704274677169,1.28582208405894,1.1851264375515433,1.1917515013958149,1.2260539992395338,1.1872043693451027,1.1608937373426103,1.2068138989136834,1.1481448898279167,1.1636033669123826,1.167418208211984,1.155724962504144,1.1490212624986982,1.1607943792446525,1.1998535902543548,1.2499969379622315,1.230194907645503,1.305365259150687,1.3457861783960374,1.3394591623789216,1.2467961210874767,1.2610264689101556,1.2375449965521588,1.235532072690509,1.2302160877743011,1.1789961004967309,1.2177203303886142
1.2301645087791089,1.287850615827447,1.280324054094628,1.3011676903212026,1.1625558801923697,1.2463875203913957,1.29242721766973,1.2007084859625574,1.2025703453824463,1.2070284243257963,1.203932873840795,1.1748646973894978,1.2190610337924548,1.1740273993226347,1.1825615530246498,1.1873671103177679,1.1751768936951092,1.1689995688695014,1.1754884829809256,1.2047068998929649,1.2382123899118087,1.2421222852407818,1.2873552860511324,1.3526928748329823,1.3184450414682685,1.2365258886054766,1.2436779682176209,1.2319298545150645,1.2190558071320257,1.2238388046885227,1.1773511967228438,1.2030701103931984
1.2227582903805703,1.286852699299709,1.2799573651676852,1.2942882215719196,1.1637009428468237,1.2671276796305753,1.2939730198266715,1.2034790637940693,1.202883106135863,1.2151778389158128,1.2037746629042803,1.1729410687783093,1.20952639752418,1.1759741857352564,1.190644635103814,1.1874734160013516,1.158445492961662,1.149148057712887,1.159276120093737,1.1906062172045806,1.229023538810024,1.2392109846443757,1.285116006361028,1.3467387547684084,1.3310873994030885,1.2414942219392662,1.2369591490260001,1.2288603306105579,1.2187807707089764,1.2189516301632077,1.1867430234862624,1.204260478927605
1.2022633752276675,1.27046915711338,1.2705362261786417,1.2992816538396184,1.1671333026945618,1.254519957584938,1.2794241435197242,1.190664152379333,1.1990560478322383,1.214318692537391,1.2141957549035434,1.1770296215201141,1.1909027834322057,1.1736456691041186,1.1876938758616054,1.1755450140727597,1.149176162634415,1.1375654801293096,1.1401825598331408,1.1912617851040113,1.2174275941708335,1.2317136814549827,1.289353623570088,1.3469764193386107,1.3210112534508365,1.230826181420249,1.2275389326981416,1.219876906342494,1.2007777227957603,1.2154638238368787,1.1669739665773102,1.2061254077105197
1.2271596987034255,1.2866863082534274,1.273870026230786,1.3173223054727312,1.1742816903668216,1.2743771893126195,1.3008911349850276,1.2123415761823086,1.186493393954695,1.2156621159909629,1.2377430137300023,1.1843766809507832,1.1868017965300066,1.1898565934936232,1.202758987244797,1.1797114887314242,1.1511458907267424,1.1451791023150164,1.1413328168938253,1.1912073345399152,1.2140555169286464,1.219300894965199,1.2874568199676524,1.3407708481190175,1.3140830105708072,1.2405420105025562,1.2320105747819259,1.2443967696852725,1.1942142702003815,1.2368876863958094,1.1837860158130729,1.1878590734443077
1.2493914904926442,1.269921606453629,1.2951750777013216,1.3101741092766876,1.1946708983057468,1.2709817239276597,1.3170597450993784,1.2031827727953064,1.1861243483326647,1.208106957602592,1.2403030068286212,1.1903387798984555,1.185247217003406,1.20113439013236,1.2111557728917295,1.1897628199777102,1.154554070857004,1.1404195699948245,1.1372018718740255,1.1949543902598918,1.208604170435671,1.212113223027249,1.31490670443199,1.3668848901173989,1.3482020237759291,1.2520778317636578,1.247807085968534,1.256169071211064,1.2080645666753924,1.2360895998242876,1.1789172150591802,1.2009699712634954
1.2306628225598433,1.2787717269624996,1.2811124127353422,1.3011950516570583,1.179965337186286,1.2694061365861806,1.3074467913451693,1.2040710375629373,1.2058335495183878,1.231671785240181,1.2518100090519562,1.2110248120224727,1.1890575712704363,1.2112770743804149,1.2159748503067038,1.206398551335648,1.1647242561558921,1.1488517957814248,1.1407191003836197,1.1918105205121625,1.2082882494624894,1.2003147671089978,1.3047453551548205,1.3549344266161019,1.3605189690514592,1.2469025506321472,1.2668750956742927,1.228708033011793,1.18944633753711,1.2372411158280143,1.1692895564686518,1.1813556030115921
1.2417984702503297,1.2836654133807057,1.263128088680082,1.310784904894332,1.185237001815215,1.2543075921949565,1.2966901229845869,1.2200532919163423,1.19726570999036,1.1928553020678272,1.2195189973237621,1.1831753007262562,1.184584493106092,1.186378148630576,1.1972603486042184,1.1907783567596812,1.1558541530487163,1.1522591872794352,1.1462367479203064,1.1858093109610512,1.2157022210318258,1.216863854241847,1.2823702840060829,1.3393802795576524,1.3326024892393218,1.2343344331049877,1.269569159557938,1.2253968513834093,1.1908604461073076,1.236288990231668,1.1783283816942156,1.1830856377108436
1.2082627171060012,1.251821883120886,1.2587352205113695,1.304277558683265,1.1728261361687182,1.239351169239031,1.3085556971451608,1.229670058509501,1.1691159358191885,1.170193484469985,1.2121100616143299,1.1649868703839517,1.1620514098859214,1.1707285499747173,1.186064863940356,1.1823949033563719,1.1587141584095486,1.1527777571310138,1.1471058471382005,1.1849788532340044,1.2119104467473276,1.1918841782915262,1.2689259223676654,1.3309774806091783,1.311126572931084,1.2244254235869723,1.2406582597370577,1.2041751741532825,1.1781698493463544,1.1980482390744251,1.155308338541674,1.170116330480034
1.2087568537099176,1.2395050786796842,1.2707949226140134,1.2822914832551189,1.1671201470349828,1.2416350297527363,1.312760561481108,1.241102756998747,1.1593995965957122,1.155113343204861,1.2066195775415862,1.154048555869935,1.1415047217665824,1.1542355750858928,1.1733596221614266,1.16333429680704,1.1443506075255934,1.136348763499943,1.1307395188376594,1.1791473409016342,1.2007848337847826,1.1737983342323186,1.2562183223658694,1.317336177647458,1.304901655138002,1.2203398607684486,1.2413094068190242,1.203244666177743,1.173849490817546,1.1947249574586947,1.154552671486915,1.1675302123978302
1.2108039565899944,1.243160676840461,1.3213267897542167,1.2764942849562162,1.1934452256899044,1.2449334507436496,1.306988907707666,1.2212041798541564,1.1545350239999983,1.16303776332043,1.2055429072469355,1.1504519188418356,1.139717874888901,1.1462681141179039,1.1608165624913775,1.156725588659175,1.1462273121674444,1.1447974877129614,1.1466556928053255,1.1940539624038418,1.2045838550111778,1.170891315576193,1.2486790202067428,1.293150130278324,1.2929160580993384,1.231874524445348,1.2433820853804265,1.2242773212694473,1.1946936576657419,1.2083888639935152,1.1711214584270346,1.1955727855680764
1.2264033777677381,1.2507238898485835,1.3048223879820595,1.2849042016402408,1.178625501021833,1.2433908365489748,1.299117853115286,1.200239670776126,1.1521550390939779,1.1628013336873126,1.2010500149305525,1.140081986423759,1.1314818123989532,1.1424896720189852,1.1569450964693135,1.1398736297130656,1.1286749026534464,1.1191261313252212,1.1164981152676754,1.1671828741363603,1.2007347676263875,1.1556541670243643,1.2668724829428628,1.3121156895956008,1.3085410850443848,1.245470133203145,1.2736193895632149,1.2308891603334324,1.2155005771362803,1.2291261846684909,1.1788727992147785,1.1955108395363732
1.2143976035989197,1.2576533071847196,1.3275402536300636,1.3175053958968104,1.1851931270056861,1.2608004485232065,1.30979019482478,1.2025819036435486,1.1617192336393658,1.1712127966451809,1.206990350222179,1.142135300224866,1.14181320054564,1.1386627188602871,1.14878730468539,1.1316079616777452,1.1226844554169328,1.1189015229362216,1.1323958952546083,1.1683596826117508,1.2061613127677326,1.1697423379876666,1.2592099227215978,1.3107803281646857,1.30187272812949,1.2436043113014086,1.2659438815864987,1.2358723882954186,1.2122628628063146,1.2247547846799902,1.1829406535269702,1.2042872140999739
1.2212017355125104,1.2504014046779595,1.3424594423796887,1.2854179290013699,1.170690678502874,1.2623231489573354,1.3160452600697639,1.2100643199534273,1.1754608119337648,1.1814284400266155,1.2222771649169342,1.152580114553114,1.1614006786050635,1.1397320212627031,1.1424852318684326,1.1383875971922783,1.134658230841858,1.1321120952403356,1.1398422431950217,1.176987597861232,1.2041942669119687,1.1747756817975827,1.2380171833229345,1.3044082187928143,1.2816442833636612,1.2300052973013078,1.2500504395844967,1.2356395008887375,1.2064260530044493,1.2054719778563212,1.169559199778561,1.188369966346029
1.1953579728355954,1.2396385055926153,1.3262617486287214,1.283333046773965,1.1567634680445733,1.2360535591182868,1.3294855002531665,1.1922949301837862,1.1541245546977912,1.1611758208296568,1.1863538412459202,1.125036890239239,1.1459917990284625,1.1187464042281534,1.1203186503560703,1.1108607742321623,1.1055612086459514,1.097405042951565,1.1246227644810958,1.163201329367793,1.2014389082312509,1.1761579361960053,1.2516848304715593,1.2951583230545716,1.3026614545939559,1.219955058118804,1.2329662189765382,1.2046976402943912,1.2139483508580264,1.1828501361604569,1.1564453835833832,1.1935759088387554
1.187434379237806,1.230183839852529,1.3196473035077423,1.2792669625683566,1.135975132861635,1.242201584625143,1.305340822020848,1.1951090261502004,1.1394820240194459,1.1672414950984167,1.1855517237133812,1.116330148993501,1.1373426845364603,1.1024907258621395,1.1088720720149101,1.1067368514043834,1.1022966714703903,1.1046710948511342,1.1297842137780378,1.1722558919439527,1.2035680399882587,1.1773680640609188,1.2222579790408317,1.2694135766263999,1.2729386582362368,1.208092602254097,1.2245847333769833,1.2023522876713286,1.2053799991421488,1.1757601264377218,1.1559150170195749,1.1795423923066286
1.1932623810999503,1.2225706102704619,1.3279497928574089,1.2851628533313622,1.1546341814210987,1.250116890648823,1.3136179500607295,1.1675932501082311,1.1639057511139528,1.1800954381793585,1.2227222219326086,1.128753120567618,1.1601350556099073,1.1185018089182852,1.1247362793326072,1.118046322682587,1.118355915200519,1.121681161944814,1.1601126122820473,1.1822177283539284,1.215280324288205,1.198795521437373,1.2328797482228888,1.2825436438475883,1.2708516136291341,1.1985363880270887,1.202385026978314,1.224139730693485,1.2110123491732796,1.1602499351403062,1.156169848299437,1.173621692436751
1.213741031800993,1.2380016101921034,1.318817416970666,1.2749466988835205,1.1587742790075322,1.2455961065273897,1.3063684149597423,1.1683512881677758,1.1621346736725167,1.157569469693951,1.1932096602024984,1.110978644642968,1.1549807379453514,1.0975505248075492,1.100383361419639,1.095818619502382,1.093446166032524,1.0965984372519555,1.1352954354685487,1.1709026705745627,1.2131562873581234,1.1949017970939488,1.2442430251796126,1.3066818245693328,1.2729316645000284,1.2279708440792823,1.2208830729444764,1.2374022019039623,1.231736137860846,1.178927417334334,1.1716866856339785,1.1852838611300152
1.2197570215812832,1.2369848421845078,1.321584286635735,1.2849645367434406,1.1604395866025436,1.2660867155899687,1.2866668331576858,1.1682116579352797,1.1641639241940263,1.176072242803419,1.196613165332735,1.1021734504460603,1.150400211502583,1.0847259108166278,1.0928335165960812,1.0907675073756657,1.090726386161234,1.0951802271390805,1.1485689812054622,1.1687649407389609,1.2340814063290826,1.22146179223249,1.264497095717142,1.3216534838972938,1.2975437949841349,1.2278338152069084,1.2146056721060219,1.237347283432799,1.2305988573622237,1.1831699083901968,1.1718835407420927,1.1757960626008763
1.2183346491391194,1.2403660075307879,1.316577380973327,1.2971154881376388,1.181674015230306,1.259931762204225,1.2651141800082557,1.162020649179484,1.1801415028521605,1.1809151894388614,1.1864761059144417,1.1189300048902533,1.1646733651659278,1.0912890304508265,1.0974744868269106,1.0969680976147465,1.0939091492836523,1.1001570241251086,1.1547129772596574,1.164470006421627,1.2296679284537526,1.2216820516715357,1.2563741561436579,1.3146898378527114,1.2778894679347315,1.226679266338671,1.212124857611419,1.2407456999801079,1.2293514612018699,1.1825609100150993,1.1936104790423963,1.1770260938088668
1.2438346217116074,1.244967693988546,1.3028927688743417,1.2836802647959624,1.1571936093332877,1.2750113083874295,1.2748262205894922,1.1624046262975645,1.1758616092154142,1.1783119584845432,1.1917086850045024,1.0998360937767537,1.1705674051496133,1.080001453712202,1.0849081241427503,1.0908762888291716,1.0859428116082444,1.101750002759728,1.1656472408656584,1.16827792254158,1.237961030461916,1.2410574652540283,1.261858614003069,1.3304486678865441,1.2811470831112466,1.2255830918399926,1.202665762638522,1.260179186644514,1.2207993907171324,1.1869326609564255,1.1839707738914185,1.1722455749025589
1.2301510757158405,1.2382171040451222,1.2976010042186827,1.2662743937580012,1.159286412616229,1.2531239445141598,1.2740078262684742,1.1698513819923775,1.1561707672162773,1.1729287025141872,1.189323786776243,1.1127922573010751,1.1634095455304303,1.0899004001319845,1.0915809158250322,1.1106103349050345,1.0965631014911734,1.1029430486682115,1.1659789896957427,1.1695738659179817,1.244305403518066,1.2141092651924907,1.2729083984060916,1.3347674142642665,1.2911421793028532,1.2108397139530898,1.1982377916730478,1.2465549888197431,1.2149969279675161,1.1932815850060787,1.1763133753395063,1.152670544362708
1.2292787043343345,1.2222478501886131,1.2742181717096477,1.2503278846827304,1.153807868807629,1.2325119813558647,1.2773792848415475,1.1667587955173988,1.1509687612114903,1.1565858641400073,1.176554468520339,1.104693603695705,1.1478019670624655,1.0834069321545197,1.0849211861289239,1.1105518271120172,1.1024321354261413,1.1049328496639854,1.1556340434318004,1.1622547690897733,1.2218928587121582,1.2011093396273236,1.2565398139649289,1.3300367750429483,1.2847774551632811,1.2140451622814046,1.2190297846180222,1.2420882480908424,1.2036983909638335,1.1853693290966434,1.1815532612087365,1.1564380258044926
1.2293181131947613,1.2292698939852476,1.2746564167487118,1.2440571764032693,1.1626060286825026,1.2199910074617832,1.2654651477214085,1.1652912849963808,1.1663609342896215,1.1404654753321268,1.1545873723106495,1.0935830606013337,1.140681551692927,1.0702692307191513,1.0741590633687064,1.1024539939438474,1.098248131898086,1.110703802482235,1.1657703148731846,1.1619680257751466,1.2406621993108065,1.2135204568906064,1.2796000336295028,1.3247724934452267,1.2938951124407374,1.22728356845031,1.2257326833530924,1.2470439351409477,1.1960457634595671,1.1892665550496606,1.1946570139718322,1.1527058228735456
1.2371842776146573,1.244407628922251,1.271576681235566,1.2625577682754177,1.1647271425054186,1.2369891317171466,1.2553946462958532,1.170211813772117,1.171313336148712,1.1522364146016795,1.1650001965955932,1.1027374152643916,1.131084272223937,1.0703829945235666,1.076392025369699,1.1050552546473462,1.1066414965009759,1.11789786161963,1.1685406616414518,1.1572031089877457,1.2326638944941886,1.199691678420377,1.2857895453924013,1.3294951931556842,1.3058972823664587,1.2444935428615937,1.226936615637626,1.244724792406581,1.213439550916324,1.2008768756616868,1.214314567374057,1.1545830037228382
1.267914114974999,1.277763622465384,1.2576589245492542,1.2678952529909067,1.1747323164393366,1.2374323378537437,1.2530957769395157,1.1787418392464093,1.1755631818188725,1.1539136122422142,1.1814241083105412,1.1180705570205711,1.14138707031704,1.0893342565350963,1.0954171786414968,1.1166422228537383,1.1165593756579755,1.1256455121341216,1.1547552819715694,1.1436462582927742,1.214596290241903,1.179538790958877,1.2717953505630897,1.335778513911222,1.327728087679426,1.241374345242415,1.2460051607877018,1.2705191726969107,1.2172245886027784,1.226368831080511,1.2227080006511315,1.1587809752270233
1.2547071316198934,1.2696300772393185,1.264201848078832,1.2609646888306927,1.1678335033943708,1.2315961471702697,1.2824423306692527,1.1950758615072397,1.1727486151447766,1.1622528806245482,1.1749416932261627,1.128046348197955,1.1395614068118838,1.0985274929058788,1.1041624986794856,1.1250117886697333,1.1159620422931276,1.118353183843598,1.1501347544794032,1.1450477818446994,1.2202190328493703,1.1815017818444364,1.2829970257110357,1.3251739236464173,1.3366941867118438,1.2324070466084116,1.24001514977165,1.2607688443770018,1.1968796134610626,1.21320112824487,1.2040500020361606,1.1726748503669873
1.2584043823815654,1.2689180717194053,1.2623893095074887,1.2778483979460913,1.1771413614975035,1.2626146051715217,1.2835421941717244,1.1980315564817372,1.1643108511523894,1.1866836795935534,1.1901609352095552,1.1316788003024914,1.12576928796482,1.0891482447188223,1.1014525845239749,1.1150383617266417,1.1151071212703705,1.120787503979068,1.1392009183723895,1.1548853164421191,1.2242310923361255,1.1628397519122329,1.2521269964944737,1.3280812409299878,1.3146161803065746,1.206621433484306,1.238769139995941,1.2680153482493985,1.1918810016132035,1.2112147525939234,1.1929576780896625,1.1605153996305282
1.2533510863636572,1.2667644394110178,1.2660458338418754,1.2807500896137873,1.195173403074774,1.2352999462650174,1.2795338666243778,1.1881597550371295,1.1739286582694037,1.1872421076555644,1.1880944016763169,1.1462450813446403,1.1343999528220903,1.1020584749095288,1.108547566336414,1.128638214495667,1.12568195370056,1.1316188600997978,1.14281369500477,1.1514543947453846,1.2156367287854422,1.1607613052375791,1.2419744516259765,1.3178769033908366,1.3131495107232107,1.2075312357324541,1.2526177900056523,1.2592225739352436,1.199728751450223,1.2139231214865465,1.1809389393233587,1.170143266165521
1.2667477030128036,1.2780224524996606,1.2717288660107544,1.2865088095065955,1.2064822846713523,1.2379747201633629,1.280109215513702,1.1824574592675388,1.1756357467219458,1.186189799202352,1.1974685040977364,1.1515609750354148,1.1260819191679794,1.1135655286045578,1.1239893390991373,1.1295324014243577,1.1234892239481244,1.123297273063999,1.141935990715879,1.1567235748858746,1.2216306977409468,1.1679844829304848,1.2546114260482257,1.3285268907252892,1.3271177028332324,1.2219138509426748,1.2779900904002304,1.2544105707867557,1.2146454310943577,1.2208727258578747,1.1961293105146669,1.1869964619564444
1.2605509892020004,1.2867783298671716,1.271245441835602,1.290642152293495,1.191513625968406,1.229160146827868,1.2816814734712694,1.1831232595313916,1.1657087423910966,1.181159524064513,1.200789939731575,1.131953234497574,1.1159807883253066,1.1120336553736463,1.124686612574755,1.1274663742726585,1.1201543010957593,1.1232552414978576,1.1421175706163242,1.165142315275057,1.2321063662692184,1.163059187303767,1.264862624762959,1.3181696646944117,1.3232111721903066,1.217315953087569,1.2687906283741825,1.237525174560317,1.2100255004339828,1.2183141251956577,1.1864278017962628,1.1731241737547637
1.2694298146159568,1.2848494921100868,1.268954836005082,1.2998171524862105,1.1869909984360703,1.2218395682030403,1.2726426778734667,1.2027625702398872,1.1790216755582454,1.1958979523251925,1.2032866327735288,1.1453494132293802,1.119926042052376,1.1266770369030563,1.135784585201955,1.1240793714620612,1.1180247648637378,1.1228809975820881,1.1371693294092367,1.149125582717962,1.21798571099802,1.1633752574134142,1.2776404221700044,1.3032943460451538,1.350825340791148,1.2277732163612347,1.2778456848060868,1.2365298238536577,1.1999966594921465,1.2146269533123626,1.1935421977429632,1.1771457306260653
1.3127286818097217,1.2973950695828205,1.2676024775963222,1.3036731878460273,1.2067818424632752,1.248352271820922,1.2583708796867654,1.2113422593021264,1.1840218421183477,1.2077188583910905,1.227754853489048,1.1627582444695832,1.1206693799907488,1.138453180662572,1.1538186833062487,1.1265179416862445,1.1194665340051653,1.1241620602968652,1.1357440085791162,1.1475113758661222,1.2256235686820798,1.1646207603436463,1.2882235318184654,1.3154124040414947,1.3603134876499658,1.2217038220223055,1.28918533640534,1.2539274785156798,1.2320393792441189,1.2466868892241671,1.2007033489299892,1.1749298352208228
1.3216645644483767,1.3087229108796858,1.2760969799484463,1.3217629297953228,1.1870450960108911,1.2529928673547301,1.2728859467752152,1.2070361490212695,1.1849486690219717,1.215784861960655,1.2292343505455339,1.1724759318927107,1.1351754443953144,1.1529009323957697,1.1610944904862572,1.1367615525259922,1.1274728795768594,1.1349046994588328,1.1444309559448476,1.158116024765322,1.2216904559575108,1.1621278783481015,1.281224428996163,1.3176344063047043,1.379818570816523,1.2192998673532847,1.287563153663422,1.2576798431357956,1.248164875725315,1.275205692571351,1.1972115877579914,1.160049258876901
1.3330641736445568,1.3101403235191282,1.2889815571612062,1.3198629586066137,1.1776646214038382,1.2600600359713896,1.263402037768475,1.1845844529371632,1.159974328357718,1.2087671970979232,1.216865806954272,1.1512007597652942,1.1346232824485747,1.1507470109756113,1.164401751764848,1.1429138413768736,1.1281954348413652,1.1316945551018003,1.1379301847367336,1.1514769367031061,1.2186281291781689,1.1531035113245327,1.2728028346168312,1.3033642488865103,1.374407313914364,1.2100917351093565,1.305170067136921,1.268602013875747,1.2476862403502464,1.2860608748449456,1.198003774409042,1.1522069932348438
1.3249062119378696,1.2947369336704018,1.3275372185192211,1.3388753934211133,1.1853542293581487,1.2584463736915878,1.2645918780715228,1.177124966144647,1.1526258626663504,1.202014249145521,1.2063947015321392,1.139754507570643,1.1468162706480738,1.1471576156080274,1.155035912063743,1.1493433528098012,1.1355785119347885,1.1498902239855926,1.1633941603172615,1.1798092876368547,1.242056077501373,1.1774197316035426,1.2779301484212362,1.2953855510313252,1.3635754433922658,1.2123536692666992,1.2786330679057227,1.2549636279792478,1.2341743452509188,1.2640935644120002,1.1914138419363838,1.1661112452091786
1.310663072907287,1.2766864128729487,1.3067581253711429,1.3142823573116305,1.1973132473340253,1.2465321022010163,1.2465515578065784,1.1768949335945105,1.1560372125250593,1.2024721298999785,1.2130498860056838,1.1386415875397806,1.1625282038208768,1.1550176304375612,1.1660538725098388,1.159773806032692,1.149767848907863,1.1689643310071642,1.1779930922749784,1.1806230634257424,1.231919857646345,1.1846810825470326,1.2811600181386047,1.2976048657309454,1.3752880593273236,1.2251145705263218,1.2626679313672156,1.2419317182948193,1.2338187390503004,1.2593801851105146,1.201265862762193,1.1875053421463981
1.302554947812109,1.27380887637194,1.3394747143630688,1.3167411106337619,1.1793791306540387,1.2330276235558704,1.241553405501614,1.1822960185567193,1.1648653468901708,1.2014846619788446,1.2121986969213245,1.1382297012638107,1.167997606602305,1.1456638413272733,1.1581439594254415,1.1462623802960388,1.1408721844528038,1.152717324050008,1.171146563823236,1.1844545008306289,1.2270534901855061,1.191089514428356,1.2787960035894366,1.2884086416864344,1.3728710253618412,1.2423527932954264,1.27263811155158,1.2309524156836733,1.2289019651253301,1.2509314386940142,1.205925125837587,1.1907249216047917
1.2978154247699545,1.2634352480210094,1.3216022790024633,1.3088459138569466,1.171848279129772,1.2313366564980281,1.2363972622048012,1.1961175373293549,1.1811826264996717,1.2149863390918962,1.228374269048393,1.1520331793589347,1.1906584165493463,1.1547664201385406,1.163006891053782,1.1620550527153126,1.1561056001612944,1.16565650568907,1.1886380544458057,1.2022869934528624,1.2419549684682123,1.1936500891533106,1.2809468421822214,1.309851661118332,1.3668955095592816,1.214153528192004,1.260393581199912,1.217846032592028,1.2136514820904674,1.238229839982151,1.1823024466558898,1.165182224059672
1.2870931680897162,1.2624149699540288,1.3247217502174475,1.3119407831233918,1.150802676194101,1.247123969672055,1.243111051753133,1.197859214237445,1.1761354124389745,1.209050865297223,1.2220395870173952,1.1498362838133638,1.1865161121541623,1.1504086196585623,1.157522016678226,1.1491221255773634,1.1496239049955155,1.1556585312538177,1.1736188151993079,1.1725529855536367,1.2326451042266837,1.179444532042517,1.256776445031983,1.318478977008519,1.3537821316715828,1.2013645492665241,1.2572389005535443,1.233801640609937,1.2014547771206803,1.2430199117443077,1.1751172798283123,1.1643492309622776
1.2923180689876081,1.2550860454040345,1.3302107058333457,1.3121338941616136,1.1651467442955592,1.2510667254423367,1.2485347958023192,1.2091541340752088,1.1870780457085641,1.2124211843073978,1.2231221915950983,1.1707918000472817,1.1807466782640186,1.1558996985025654,1.1605542721866795,1.1535511987776688,1.1564322675137197,1.1557078728824877,1.1847674878657586,1.1717455652327666,1.229045679325012,1.1817813919278304,1.2384053806731083,1.3197345850482407,1.338444767668869,1.1971125217713978,1.2322860555135355,1.2415503219907673,1.2044344436589378,1.2392612221521595,1.1747327235557297,1.1669953724283202
1.2827488228047677,1.2474203927747105,1.3313828230108884,1.3354038493471612,1.1667223577183197,1.2794931783074688,1.2422995376979666,1.2207568660316144,1.1882425741717564,1.2263883410427878,1.2290812114299132,1.1865811147961332,1.2102105148002016,1.1771760907963884,1.182225111982844,1.1882702551102011,1.1876189137982944,1.178727214748733,1.2009476560461636,1.180085612473908,1.2272049260892397,1.193909303639922,1.2260660108983588,1.3366973799634756,1.3306702705965257,1.1856641961914542,1.2423118851537647,1.2434317618992112,1.2107162784963312,1.2433296009823689,1.189496941221282,1.1695344916174362
1.2687867159871626,1.2458899928562892,1.3141150844612866,1.326807062362915,1.1629689961427183,1.2970705280191455,1.2514240862096644,1.2446982541395255,1.17602792440447,1.2233948537286532,1.221594545554882,1.1668637451213233,1.1901921363260188,1.1652778645806499,1.1757906993597969,1.1811207139516142,1.1811503374135728,1.165227194444665,1.192281641698278,1.1828024420097494,1.2226250711021907,1.1998504773697742,1.2494639115784212,1.3181530299826099,1.335912582516277,1.2032379460278517,1.2406082766595146,1.239082639518367,1.2100536581489105,1.2397009737351568,1.1801193339392158,1.172654870820244
1.278661614645965,1.2352259108470545,1.3393577586221164,1.318926100788001,1.18393800011752,1.2639303142510692,1.2579635871708101,1.2335760598869279,1.1871232617908702,1.222657923169603,1.2185036144570565,1.170023726406269,1.177982071357243,1.1614839804838815,1.1660204701295873,1.165753905089616,1.1682452085060806,1.1560682838896443,1.184262495566562,1.182216879505296,1.2269182304805604,1.1887589623601476,1.247158471412997,1.3213131578505977,1.3246964065432472,1.2095353822286388,1.2264770425426594,1.2487470768646425,1.232625265729845,1.2318368329730416,1.1919662355295664,1.1902534033217378
1.2841342417791974,1.2369885626480415,1.3297539881904217,1.2958760480488731,1.1770368801496114,1.2524351102478077,1.2571546378163518,1.2315402973924183,1.1910135221277234,1.2239513109482447,1.2369863795888043,1.1883025705761534,1.1786409359216214,1.1701535406840067,1.1805004066213132,1.178052252200594,1.1701198255826775,1.1525522302341995,1.1880747183016411,1.1750458576847584,1.2344891828710725,1.2017234428385895,1.254413862410531,1.3333990122072608,1.329843300174701,1.2337160818060255,1.2417106481784994,1.2482550378811308,1.2364324242698836,1.2327777664739206,1.192655702969769,1.1965313832058952
1.2644756543500892,1.2455254491328929,1.315773522934536,1.2839921550558633,1.1767586594897106,1.2585244296325477,1.2712103752428552,1.2646647968532865,1.2352489543932172,1.2357391577780206,1.2464872957800965,1.2076490002909046,1.1947764987416614,1.1831142072390028,1.1931390369747348,1.1839168712024346,1.166938556343913,1.1400351907385529,1.1634882758444969,1.1543284528003885,1.2231084040998068,1.178585884794733,1.2230668119929184,1.3347567216573684,1.3087925460575456,1.1921169602235784,1.2273336411899334,1.2390412644791413,1.2179282663677293,1.2216793134531845,1.170410194615137,1.176256701204866
1.2557867303698282,1.2382175550886072,1.3057585559928981,1.286761098576162,1.1863950828693797,1.2614297763479623,1.2762817037019103,1.2702733241508026,1.2216645062247828,1.2207404660479557,1.2417875633032238,1.2002739370910127,1.1822726803809755,1.1739677193396605,1.1901473334879422,1.186758760417653,1.1739345073526946,1.1435930937475534,1.1726421002332719,1.1588403307483304,1.2336858182431305,1.1813331148594204,1.246984712617424,1.3409048959456595,1.3122356368742343,1.2073476913037382,1.2537027002442909,1.246929052219843,1.2376208226331802,1.2312412036100815,1.1762053424307386,1.1761171582773398
1.268600725485402,1.2535182026738547,1.2892251413167022,1.2714687919951517,1.1953003240659692,1.2493533258081828,1.265500673036939,1.2833309385048537,1.2244243630072387,1.2235535782132918,1.215122276005662,1.2008616831070555,1.1851008767555302,1.1736858571774007,1.1802090793654594,1.1877802328444595,1.1814286426852882,1.164365771628792,1.1819005827705984,1.167084136001763,1.2214414376729266,1.1787811566543824,1.228716164275842,1.331114739150101,1.312607365383412,1.2130653025231335,1.2819050069867106,1.2462749018506678,1.2549214944511329,1.247278625689243,1.2124382403806038,1.1897323264376938
1.2722216225974694,1.2474612681560184,1.3088543352974213,1.260092344548124,1.191977090899522,1.2441065329204395,1.270652676091068,1.273049655882607,1.2464989892128882,1.2139082204091471,1.217718332423518,1.2166037919056025,1.1992843398780082,1.1880791912605617,1.1935038741246842,1.1960803966714115,1.184520837783009,1.1707257434975122,1.1862263572607685,1.165203643180372,1.2140559275230944,1.175943658793386,1.2262751382910761,1.2993742061803364,1.2988554722440888,1.1991605064462745,1.262118180583649,1.2512747834400788,1.246518794999085,1.2429700444093037,1.1872586940331684,1.1874680638726955
1.2849489845028352,1.2676757611900102,1.2921447854980486,1.2490415260993357,1.187818168754357,1.272806018555393,1.2632488140799893,1.2768312703240354,1.2445829322415227,1.2355961009896712,1.2086729743146476,1.232887946443246,1.2049398487069902,1.1937487257166137,1.190926690641241,1.1983396416388126,1.1815262460943285,1.1799666586447295,1.1768061826131948,1.1743535023979008,1.207259077199087,1.1737535474729248,1.2329361512110923,1.2785517721649198,1.338241865006875,1.2007494137898604,1.281540683890457,1.2553946695163423,1.2690706250668393,1.2619488252185989,1.190720037362802,1.184426072685946
1.2792504494295809,1.278242980386449,1.2838850292728448,1.2338902335624222,1.1910581395379791,1.2546114832786017,1.2830767468569406,1.265804554329518,1.2057144905848967,1.2216817933261443,1.185830978240432,1.1958503445825968,1.1800198013453547,1.1656605446252446,1.1686848211238634,1.176361726790491,1.1663330721835032,1.1692933367697025,1.149187509921406,1.1625959483374555,1.194910604080969,1.150716820151389,1.2316910367049314,1.2626161996330045,1.3191412152478654,1.2000214320959708,1.2765868490807752,1.2497111741235007,1.2480947385690961,1.2398169228450662,1.1889997217867287,1.187656880342654
1.2532693475822578,1.2566771428831258,1.2661309264441603,1.2037130544037937,1.1637489715653864,1.2335212223106975,1.2826499195098962,1.2283947799498294,1.201888370849102,1.2208807370104005,1.1922740918924717,1.184616271208347,1.1617552443898258,1.1536233394003423,1.1558821965582267,1.1585791068864315,1.1544438288147563,1.1565535395026165,1.1519237640246625,1.1770996788491201,1.198254543841626,1.1637538551404725,1.2417456622095735,1.246422316851633,1.3334369066159448,1.2065884626612766,1.266850773561284,1.2215775470793824,1.2401015418889514,1.2169763628315597,1.1615676211992123,1.200093501493161
1.2431699366047817,1.2601960363749185,1.2757381553967855,1.2066557887678324,1.1628053147440318,1.2354005869541846,1.2688531919547885,1.244000394358102,1.2074352790912866,1.235177173678225,1.1902824019882365,1.196924284359508,1.1744055274026273,1.156988949484471,1.1676699326956634,1.165848504246555,1.162674105152324,1.1607840065671684,1.1609845024747174,1.1757612762087803,1.1924475443295206,1.1703490210211083,1.2396843378342302,1.2421221417859547,1.3179061718297784,1.1993139432415427,1.2719612845884922,1.226168655402758,1.2355771649254483,1.2179016462124164,1.1512396529717117,1.181270848369415
1.2459601263338895,1.2814991788079935,1.273527836656013,1.2175932156394242,1.1739205064223381,1.2462893628603626,1.2767966877404675,1.239968987721825,1.207047603950528,1.2459924882745035,1.1949396865913748,1.1932412029940795,1.1696006729046502,1.1501703930870835,1.1548988324323837,1.1490978986655862,1.1510006432543602,1.1593692938610352,1.1711843113584308,1.1814941735484945,1.2021454285895268,1.168088085059155,1.2537624707441037,1.2753884309676062,1.3230171027374507,1.2198507272985046,1.3045754271936225,1.2337076813272199,1.226867051942601,1.2386757766688778,1.1675595168563087,1.2067418994967545
1.2310663306001441,1.272240336614657,1.2533470067430468,1.2152745446341988,1.1650831039028735,1.258260568965283,1.2783940447278601,1.2350995228281403,1.2145036536189315,1.2512572719351596,1.2096012050764076,1.2012242555626584,1.192496434289765,1.1688897969649255,1.1703030679190065,1.1705051923651932,1.165641669255286,1.182740578048671,1.183307165486444,1.1805322541456778,1.1925788995538076,1.1970135485217015,1.249385624930879,1.2614273002819367,1.3109850993360619,1.2144357467652336,1.2903506282903545,1.2168618094876864,1.2255523689490129,1.2205081796363193,1.1513787785610825,1.2181856330065466
1.2563483599964413,1.2799141752493073,1.2527545247543226,1.2521660982140015,1.1683315649408779,1.2655812031299227,1.278254076569885,1.2107826605648857,1.1918165136554077,1.2337767862376754,1.1867183332739826,1.1824424675779535,1.1605235865708863,1.1469879427803802,1.1459817576070428,1.136612795011664,1.126182261419103,1.1451765753128518,1.169279688984419,1.168987826095444,1.1915695637298054,1.1916019180778497,1.2677952151874226,1.263472491468405,1.3157309426549664,1.2380756004835105,1.2991803874294994,1.2323570339092338,1.247402985811932,1.2345630902078324,1.1898391267665012,1.2218119609712499
1.2671357644178234,1.2829837106776942,1.2869889890767328,1.2585801610871943,1.1488361630787174,1.2679140697392823,1.3042646617262614,1.2116699428368847,1.173554989080507,1.2282892369411869,1.1809061596889334,1.1540042131453692,1.1523841806404407,1.1276424743444968,1.125869687607468,1.1302457971609952,1.1227399489674983,1.1384235576071895,1.156384832394086,1.152340715432985,1.1771853662794005,1.176408740509042,1.2819006635029506,1.2686142161951672,1.3265542889625592,1.252017899985992,1.3140330477628235,1.2431637695561475,1.262194441971912,1.2524193511607284,1.1964813142711375,1.214167471069941
1.2613318752941236,1.2880180823485399,1.2784200998209074,1.267213695095102,1.1569567255094282,1.2765066342758056,1.3249048070716176,1.2301807616273708,1.1816732552650655,1.253611477637565,1.1954592507091673,1.167726057195211,1.1562824539230092,1.1364177627804608,1.1334088635910615,1.1317896171725306,1.1184012202005917,1.130605129451681,1.1452139421602032,1.1520595060191663,1.1764550847536095,1.178089797557938,1.2748833608937358,1.2803387536123796,1.310401514269489,1.2416026303701595,1.2906962976846938,1.2385841407324962,1.2524725424647183,1.2416894441298614,1.1895078910595336,1.21066795131395
1.2476163506403666,1.2829755779112084,1.264976951913442,1.2741338307166166,1.1723537428999358,1.269678741914362,1.3186008697849125,1.2094773634039038,1.144449666333284,1.2370673671643622,1.1759343816431025,1.1344247730493737,1.1318211085858936,1.10589777211431,1.1048595207473062,1.1057799219368833,1.100476671031163,1.111372094362524,1.1364785110163549,1.154456593465442,1.1880774571805206,1.172664075748984,1.287052605670447,1.2716149032742665,1.3117024471083127,1.2545001164091856,1.2854363054253246,1.2289934114482335,1.2445468827616044,1.2289209132292125,1.19941848606755,1.2142711951920557
1.2474829361416708,1.268975201485655,1.270934672021346,1.2614596947739012,1.1586570830576812,1.263411685214739,1.3353510111397926,1.216161173390522,1.136501436735599,1.2173808014707204,1.1575910606173374,1.1005085210159784,1.1109321713930833,1.0807890776745694,1.0804174425109192,1.085483685172225,1.0753620419561514,1.0828059622063242,1.116905882029197,1.1418948130582136,1.1801901728767095,1.1566773169997495,1.2754061394458498,1.2945751026284917,1.3160826966131265,1.256973333566734,1.2787487878971384,1.240844467277071,1.229343411209159,1.2238142928034685,1.1983917556754833,1.2240966445626702
1.209349682332195,1.266047846398395,1.2672927413919304,1.2555103042274973,1.1554718226575798,1.2644742570182084,1.3484913978268949,1.2018319553037995,1.154777148803412,1.2304867943685152,1.1727764131279959,1.1154954613231212,1.1264319379337864,1.081941027278668,1.0847934107721797,1.0900810301678765,1.0811815179221316,1.0901323996924612,1.1245236838055874,1.139844796606007,1.1836092361103303,1.1569347604112508,1.2701517941815552,1.2733837866975455,1.3157730412013384,1.2465378290296933,1.259499329006643,1.218774724647147,1.2196301558194609,1.2174942873813523,1.1887068770105782,1.2085031549047291
1.1949834339642054,1.2497918730806115,1.271927105608319,1.2378584025136175,1.1446211779055144,1.2530246232420308,1.3296465107485975,1.2160288334766818,1.1435502010571288,1.214166854596921,1.1618560401299853,1.1123613256314082,1.1169772501716828,1.0829263120221178,1.0825184797693501,1.0860235204439304,1.0767575206002686,1.078545283515619,1.1090660036256588,1.124787764836644,1.1610648140102495,1.1448025575972434,1.228963083819632,1.2895243161827905,1.281832114949305,1.223998019383849,1.234395970317688,1.1958360884535466,1.2047902503045411,1.1816217600685965,1.1770563797588525,1.2167803234707752
1.2083926895412287,1.2390835087524805,1.270729164591273,1.241131145933112,1.1554840280825853,1.2542520518679603,1.3330863183845607,1.2148626965171225,1.13431788441474,1.2021699084700326,1.160824191437186,1.0984413640320196,1.104826664394987,1.0804296442595305,1.0880456760331056,1.0948647891408483,1.0818648703189606,1.0831109964732455,1.1133741798541519,1.1265522104961727,1.1656109333326248,1.143445647038547,1.234506641048932,1.2805825629722485,1.2703093971532662,1.226475413587586,1.2263727283308197,1.2095091638350182,1.1998205380351834,1.1934661951219345,1.190179592300849,1.2221204325899058
1.1935292870115302,1.2350998139690779,1.2615014801759985,1.2444333200047482,1.1444039144695675,1.2458065095420225,1.3185050093156903,1.1966767995041223,1.1305245235965884,1.1902453922042495,1.14955448793394,1.1037113935743008,1.1088915513349387,1.0816051465960077,1.0855066321132543,1.0926041117480718,1.0845361049449547,1.0843447151088779,1.112482672501081,1.1275340089618406,1.1552262057296006,1.1460168944809692,1.204223090201053,1.2599709278039983,1.2570498626972388,1.2102838177706765,1.1988234219280276,1.1856537667191853,1.1919077498581638,1.168969315322779,1.1741583900963235,1.2264758317229265
1.1970074130539583,1.2377039439414685,1.2784145960261672,1.2580265793008731,1.1633061207760025,1.2452264562563804,1.3108847587901624,1.1970558888683476,1.1178536246290618,1.203630126813714,1.156406602956713,1.0998372110813945,1.0973496508313392,1.0732622079053806,1.0778518983158147,1.0808304979873284,1.0776586994635104,1.0774035264550201,1.104450511513454,1.1212543070344008,1.1560185939205325,1.1327513605599449,1.220510357591112,1.2596599536423299,1.2724681105529634,1.2115996326905143,1.1937456382325924,1.1943731959208335,1.2044719926009588,1.1758059200918387,1.1847089171032386,1.2205693208012296
1.1981817209113492,1.214255052967741,1.2640434179755349,1.227864398974097,1.1529863526326176,1.2072703948622756,1.3106400509603158,1.1920746887337714,1.1267605056211367,1.2167691579335511,1.165325117045158,1.104989633413982,1.0884299653584215,1.0757146364783157,1.078489409530217,1.0780527641260882,1.0796164594445357,1.0752593416668839,1.0961902378019046,1.1160650089696338,1.143172931591271,1.1181354486645454,1.2027691280022468,1.2416480376882286,1.271095369845505,1.1911036870746046,1.180125561798845,1.1645019848134874,1.1853822193034933,1.1511056831835078,1.1637568278898733,1.2205830995428866
1.1916868866349453,1.2187864281125582,1.2647152479314194,1.2298569724960227,1.1640391009722397,1.2112321751164645,1.2867924074191677,1.1929411997803392,1.1308702677579678,1.20478125377669,1.1622872034404532,1.113780628448211,1.1093550822804854,1.0812032874503643,1.0847552814495853,1.0930040840536948,1.0983920791495607,1.0961352760438283,1.1114295392208837,1.1382596924052661,1.1632071126321528,1.1399518209910386,1.2079180184178624,1.2604801732517739,1.2839010766797005,1.1873416726824748,1.1781312158498527,1.1665049564394334,1.17767336126499,1.1546641701469538,1.1680589246347572,1.2122192757037804
1.1969753647937573,1.2186128955942177,1.2674478229841457,1.2200214247161065,1.164240368740857,1.2219319794643129,1.2900885461307356,1.1991432017538588,1.1426035441911229,1.2026660054671485,1.1772106696108098,1.1348233153100244,1.1230773290009046,1.1141240195229756,1.1222388407640573,1.1162692729636163,1.117987369536732,1.115868421680438,1.1234262529805386,1.1479773079959075,1.1641481136502327,1.149455497335246,1.20316431867627,1.2561117895552458,1.2759324853315452,1.172350319863292,1.1707896266472118,1.1758771682325453,1.1796745459178648,1.166287515872316,1.1622765922935518,1.1838267665422024
1.1979200250545037,1.206347274083468,1.2683685832273794,1.2010531225155228,1.1627639587814413,1.2180096600471162,1.3214526060442293,1.1958891576207678,1.1622018214507654,1.1906060843791735,1.1828232711567122,1.151335486338569,1.1245976866550527,1.1264698376781856,1.1261000934930072,1.12316192404244,1.1229809982153478,1.1288283658768976,1.127601441561744,1.1430685192325356,1.1682389216921054,1.1457239563514532,1.1966239663720377,1.2442504469499078,1.2734670413315612,1.1622012366962713,1.172277846700355,1.1652863902021884,1.179990768292249,1.1600779287570204,1.1576495024022149,1.1818869466873074
1.2137412587931482,1.2266671070505426,1.280609752524737,1.2201742984748063,1.1724450896201766,1.2424283544484835,1.3008159480565202,1.195135872660259,1.156951424076881,1.1876299986685557,1.170097636499931,1.1485172785288897,1.1290779460479268,1.1253983951533186,1.127037968514063,1.12113930502178,1.1235121307084985,1.1246045936705944,1.132942412576309,1.1509506235651399,1.1693279944360626,1.1562154407092209,1.2074660522809815,1.2588308064487346,1.2635820449900543,1.1799261018174407,1.1878659838529293,1.1876156351223588,1.1991673726572738,1.1844280288993327,1.171396099281705,1.178727276401364
1.2163459550085318,1.21990211179372,1.3000944242022445,1.2185492762545285,1.187525801727904,1.2207956789605539,1.2840514192546408,1.1876244793807476,1.1531358861367986,1.181131185001599,1.156479066417946,1.1395159797801504,1.130432183804821,1.1140707231957456,1.1105673362584587,1.1105954283779587,1.1144007467814925,1.1186894684354327,1.1277876999140894,1.1462501123660511,1.1684453455812336,1.149398507199046,1.2102924583470336,1.263180564333434,1.271951646658988,1.1854683732747227,1.188016177424182,1.1794399555660044,1.1944633284121344,1.180610859949522,1.1645447326156793,1.1692025341155894
1.2247549270109437,1.2649538731881749,1.3085387472064538,1.2326609087998774,1.1757532611258938,1.2113804730126887,1.2665842575444939,1.1817801622256172,1.1492511060651822,1.182975995889212,1.1609755207336436,1.1356559338302787,1.1294660049893315,1.116888736202137,1.1193578666255308,1.113785270653296,1.109999571585254,1.1171872790008706,1.1288707550851391,1.1478302626895378,1.1698148418965966,1.1537381825335726,1.1995897060719505,1.258610013585549,1.2706043554551687,1.1765948723838973,1.1906792455930302,1.1898126418075434,1.1807777564644844,1.179971328726044,1.1578473727239749,1.165374440047326
1.210848848860249,1.2616204420653285,1.3168919903304368,1.2337687830026869,1.177645173297055,1.1980714760524493,1.2961600398867665,1.2052015100554956,1.1349331930067021,1.1682219972035799,1.1375707769740804,1.115203497999919,1.1251757372352593,1.0928134939621705,1.0894261686464914,1.0936406459714332,1.0962958873548945,1.1111040405118742,1.1219702704583059,1.1588286455450807,1.1786133331742201,1.1466190912219645,1.204001245790113,1.2715497530783757,1.2701170081325097,1.183507194960188,1.1867312735284543,1.1835686506463288,1.1748024306130043,1.1766629300212748,1.1692667609200589,1.1478171005288442
1.194193861605648,1.2345268644366538,1.3056881085374838,1.2278007369385875,1.170694573843756,1.174930976499731,1.2863774013068987,1.221283164946663,1.1531424225764213,1.1881735996521405,1.1441737010910749,1.1084107678433228,1.1188449566005305,1.0871413889845198,1.0879406584738265,1.0925473271488368,1.098688984634728,1.1123779135097938,1.1374623844581684,1.176942439272366,1.2019448062988805,1.1588114361127395,1.204468626720168,1.265738339693646,1.257370487466609,1.1731488906117005,1.1917779655886875,1.176686666667189,1.1664485724650164,1.1604289444032634,1.149737264729279,1.1537745036881109
1.2078628268734155,1.2495109638579993,1.305898733737055,1.2147486974310011,1.172606764218491,1.1837651624250873,1.297783686374957,1.2145514865012603,1.13262460634388,1.1799118087708018,1.1367746862115826,1.0946471609962183,1.1048510549251582,1.0826013342859957,1.0867630977511287,1.0916092844150567,1.0965538542691506,1.1075742573456075,1.1375216465718752,1.1830326669871059,1.2050661021975722,1.165281727209517,1.2326169498709785,1.267244481442439,1.2693931318132827,1.1937080880244597,1.1885967639514132,1.1911451181097232,1.176055663502685,1.1652856320145182,1.162676685223943,1.1617109858052754
1.1948202969974113,1.2609276233540578,1.311342389420787,1.216201432541534,1.1838966691476853,1.1863351340990023,1.3002779506419857,1.2303637905418185,1.1387090530802328,1.165587831715179,1.1241669700083279,1.0760297775705625,1.0994481509288094,1.0613999271659607,1.0689038760084013,1.0739308985218852,1.0770083398025343,1.0894551143438433,1.1270756961080233,1.1962123239389746,1.209910034993056,1.1588018284297779,1.2188436383128076,1.2656081480441108,1.261550785980895,1.202441490810021,1.2160575656769803,1.200200734720051,1.1654406361549445,1.1719471120994787,1.1670117520900374,1.1724285442341562
1.2067523323292237,1.2593557247707843,1.3171138045934208,1.2105089456385476,1.1674351898601376,1.1943351277612606,1.2963511904077842,1.2446051186211977,1.1350321553012257,1.1657410664609928,1.1278619111973698,1.0760804187025321,1.094684772911358,1.060242253427798,1.0666772587884616,1.075279520711962,1.0794799809972793,1.0910734147861054,1.136493157318765,1.2048331632228482,1.2202292649784219,1.1707514917405124,1.2371698934824489,1.2573151603039876,1.257848492176424,1.200254010597315,1.2173599902585208,1.2186941779695324,1.172254483719823,1.1721096596409173,1.1669483031181107,1.1770575439655224
1.234032855688566,1.2804861576634616,1.3226781621634862,1.2289203283990904,1.172064361971977,1.2134143940086326,1.2916489141929683,1.2354932202629954,1.138798889034435,1.167586537235938,1.133914201227571,1.0753380289772863,1.0992425019772543,1.0603561261883858,1.0705730663067958,1.07941607148549,1.0794781934747217,1.084931312928711,1.1351580866778146,1.2093303214834814,1.2271562056317307,1.1779922439923736,1.2292171394722322,1.2663863857338615,1.277142261257249,1.18842638549837,1.2350972341141917,1.2463547022123669,1.181967557354963,1.189337161695539,1.1566780182842542,1.1764842085265903
1.2229035762164107,1.2842151409482778,1.3128528360994223,1.2334491018643188,1.1579070517881995,1.2109191000676387,1.2740050041258626,1.234048977143138,1.1481000855625942,1.1882453129531163,1.1390465874838809,1.0948789302525652,1.1064970751750602,1.0786366068254662,1.0868496644229546,1.0989104048288925,1.1143017274935387,1.1123841898541482,1.1466107875556875,1.2372457424844612,1.2249746276808697,1.173461992266168,1.2404276049407283,1.2450856673570285,1.2920075375609117,1.1925129084453185,1.2239197381647642,1.2320811814703554,1.1781725298179624,1.1813080014739843,1.1497823614357103,1.1639155160245869
1.2407590250739833,1.2833126262720913,1.3151656699809924,1.2419827403768078,1.1756764162614823,1.2121165345139508,1.2713085436826075,1.2341098092178753,1.165256913652786,1.1828742571836377,1.1418889455008385,1.0916223677899235,1.1259690807989535,1.0711252612259388,1.0717756870973063,1.0861440389810955,1.096185302850354,1.108946250793397,1.1651863999066507,1.2527359911570906,1.2524912687090206,1.2075155434693754,1.244327585691805,1.2419535027094222,1.2833625469981744,1.1895282075576992,1.226641972065111,1.2469020616336466,1.1896816759010589,1.195799896720014,1.1570089694426744,1.1687883296136439
1.2319623679985574,1.2850089406293728,1.3144760268510178,1.2520006385267621,1.165131286675818,1.201767571595605,1.2824492847751439,1.2498345427458444,1.1561548911108805,1.195648551049513,1.146617951412698,1.1032427753303031,1.118989418672588,1.0830188736852622,1.0849805663035,1.0921113688321875,1.0909133236139263,1.099311141861126,1.1390282399264944,1.2113627224433852,1.2263490283352783,1.1711198857676908,1.2522077953400441,1.2296994745677976,1.282263120621335,1.1919817915415982,1.2245018714065596,1.2412609209640837,1.1826059842372638,1.1909395523811452,1.1549872423247562,1.1774838753518018
1.2382976365800835,1.2626068690879084,1.3059814553316529,1.2473312262516967,1.1582727483223914,1.1976404970477341,1.3106813810206637,1.2237852310853785,1.1379798650952004,1.1800197256235399,1.1227815341598497,1.0935392954865737,1.1092324047405988,1.0814037366361218,1.0811470242447216,1.0921133743205214,1.0867583019905105,1.0894593618863646,1.1196784375302218,1.1923666461812603,1.20974630777253,1.1642868488259173,1.2460460550315735,1.2335918241725385,1.2840714440639949,1.1830808421030943,1.2116233706970505,1.247844097679551,1.1841175352137119,1.1795287638335767,1.1459483473368486,1.1718525936196869
1.2382444764502014,1.2408324389657028,1.3135670749010722,1.2439432283905174,1.1544806696958267,1.2035477890581614,1.3080527560589987,1.22042101075886,1.12682944945687,1.1621463931025786,1.1072790761670894,1.0850066297798888,1.0942910541028787,1.0712983828535776,1.0727089907332323,1.0839615773501987,1.0740953172203296,1.0784265526992711,1.1175169641247982,1.1811172257338252,1.2053281928902795,1.1520376213650598,1.2538737847701593,1.2625329894138047,1.2966948840857826,1.1678960822262983,1.214083873691484,1.244882082921289,1.1820655534052762,1.1722791677117073,1.1328097845834981,1.1730989439290505
1.2488444071121187,1.2548208591897698,1.3150850831686682,1.2293172151798208,1.1565932842684206,1.1897024799571965,1.3101852226167392,1.1996054100713165,1.1118578119870697,1.1422588381478112,1.092588329376978,1.072821631383769,1.0877548696877515,1.0608740852791632,1.0638578112191759,1.0851202578915644,1.0671699827160803,1.0664935560265696,1.1176057963679638,1.1729036925214689,1.2089090782707983,1.1598727005421028,1.2760471495387609,1.2569927585231597,1.3091048354061818,1.1876650237603055,1.2239829920232836,1.246578880672424,1.179836109202675,1.176543881000644,1.137663080482608,1.1792629888813273
1.2309675723564453,1.2427496577749015,1.3154284593146948,1.2138605784879322,1.147435201542893,1.1822545581730304,1.3173484819072943,1.2016175884171136,1.1154075090192066,1.1380047121763885,1.0926837371408415,1.0747704024375386,1.0884936723454213,1.0626990621556713,1.0684971992459449,1.0909166262453178,1.0744839322126,1.0699617482590582,1.1032300220435196,1.1562832289952738,1.188347809368139,1.1459149635573944,1.2396630655299024,1.242635985197396,1.2805977516377394,1.1779622109267993,1.2180785369971854,1.2235791708060588,1.1633623593289262,1.1685301320795671,1.1380905548737923,1.1717401257185194
1.2213898283401325,1.220028945481492,1.29405796322171,1.2094262967265934,1.1377617775558897,1.1618901934873092,1.2956329035318617,1.1848612000186745,1.1102290175574367,1.1387948687387406,1.0903188454433044,1.077933705438899,1.105386655849495,1.0665956479465775,1.0761068664274296,1.1036979748097893,1.086273690753334,1.0830020997261773,1.110396497877653,1.1301888177716277,1.164109274088936,1.1499317013510286,1.223492846372096,1.231709144353444,1.26931543948176,1.163511721159663,1.180731750241693,1.1993544927916284,1.1404541564320905,1.1438563004252364,1.121597456497719,1.169859160204425
1.2017720024517209,1.2211868376094694,1.2868021021882505,1.2091195345511614,1.1422675721429165,1.1649657026913651,1.3242485821641112,1.1739038459146192,1.0871585626259952,1.1227318080930064,1.0770696110380513,1.0523055933111165,1.083624761957502,1.0416601570212567,1.047312579902709,1.0783227483503637,1.0659096369894874,1.069899252551286,1.0968750066175466,1.1208659210626717,1.1596687248857775,1.127103632987468,1.1965985320394754,1.252606351626321,1.261902512282798,1.1495465259394235,1.166251004926347,1.1833232758102368,1.140307659938258,1.1385031677621835,1.1033173303908062,1.1633041410769844
1.1886815274963038,1.2111903272654443,1.3050061730639348,1.2031218485640207,1.1463381498730891,1.1410381298112746,1.3120058903641079,1.166782867225945,1.0796392644966673,1.124653636235768,1.0795391728917243,1.040954786600684,1.0715666615268118,1.0354080588398977,1.0433218824114046,1.0677279471686731,1.058220363137411,1.058887360665284,1.0888613818314672,1.116039765109262,1.1462230215059106,1.1214052987966607,1.2012126994297798,1.2418268138056396,1.2604889898105833,1.1696146349013081,1.1783840189047792,1.1788077092698503,1.149043630887607,1.1431604282164256,1.126727837441875,1.1774478632456096
1.185650196298064,1.1894318092604232,1.3158098397325215,1.2112457319032033,1.1315711345698207,1.1293002523686468,1.3239367657287149,1.157891021237615,1.0828653913176585,1.1280379200213662,1.0875907453742315,1.0422087616139983,1.074773586319858,1.0342502791888306,1.0419940724380985,1.0690651857254023,1.0589980553583782,1.0583419975555959,1.091027791443767,1.1059566640678893,1.137406930813167,1.1254933360859554,1.2071356019144426,1.2361836329270943,1.246006824435538,1.1596529557016175,1.1872772889787517,1.1747930279683612,1.1324118191298918,1.1320223267842595,1.1191099402206213,1.1860329006195558
1.1862909060908657,1.1973347763065756,1.3245173764033609,1.2371277817076496,1.1461311983729396,1.1493471068216488,1.303229793410144,1.1476214970831322,1.0852986566831002,1.1335128032484096,1.1058634228201532,1.0500290706548947,1.0793207871956865,1.0358511146544118,1.0438207737412495,1.068977266646917,1.0595789115668945,1.0584103138169445,1.0862373758351258,1.1126696603542208,1.1278544002279587,1.1189600321977995,1.1930818198066213,1.2360641236983672,1.2543003528718135,1.1647687806415041,1.1843990536208377,1.179880393361642,1.139137293987028,1.1389702521860678,1.1225431808489685,1.1882678255407664
1.1893105238829522,1.1903148960007897,1.3139468204012983,1.2108560133751642,1.1358621785097955,1.1707574576919744,1.2893548184703258,1.1565722496791346,1.0868957532779788,1.175362789886713,1.137026018535498,1.0547362626725099,1.0787228125327843,1.0424060944153841,1.0587141422161035,1.0926924922775103,1.0825091163149672,1.072936237430998,1.1041586773352352,1.1354572658117472,1.1427335239276595,1.1301250754588095,1.2009538606474546,1.2479026579905195,1.256068664019977,1.1767415778248138,1.1958204915216752,1.1767608526829327,1.1509690562320705,1.1457825349081316,1.1276998544001051,1.1911043940818176
1.1949996604066884,1.197318308855183,1.305539013361695,1.2294671600100362,1.1673291840644542,1.1853945433145467,1.2864547944979616,1.1631572458106574,1.095979917652872,1.1886055174860475,1.1670254613188782,1.0687335064756376,1.080310581080909,1.0510841431828493,1.069690253794308,1.0957062301391782,1.0797541794742702,1.074839627988006,1.1068709810737556,1.1313207456486414,1.1329878448537325,1.1361388948344011,1.2079691132567572,1.2537025530702361,1.2685620641508069,1.1867681571259674,1.199569157736864,1.1798286317372686,1.163036434000325,1.1543079259282927,1.138079236974951,1.186608938434329
1.1820670224459728,1.2001751578962705,1.2928353950204714,1.209441447739858,1.1574223538953299,1.176063615575469,1.2458651541185763,1.1428035811370618,1.099754196242672,1.2011617744024796,1.1666476029431483,1.0666325389952733,1.0837023089224855,1.0445279195714667,1.0586140180819834,1.0847797103564647,1.0780412127987575,1.0771542247582642,1.099412418874584,1.128634946202849,1.1312521794331516,1.1244264640585566,1.1886535335001955,1.2527114821727514,1.2546031842676746,1.1663880674673766,1.1825304473001828,1.1706511870869334,1.1629326143202317,1.1508371208082377,1.1340647221319138,1.161817743754513
1.1968169392783776,1.1974192886485537,1.2938039104544452,1.2348734935881096,1.1639648422084292,1.1855531533207784,1.2624088211692066,1.156106363143205,1.099941694633782,1.2185610935312312,1.1899938757428439,1.0787935074186832,1.0903594366174745,1.0590280926312143,1.0696293581569536,1.084927183838162,1.0839709791086474,1.088303053055224,1.1150065982722126,1.15155045996986,1.1622724231602644,1.1275576437438037,1.2014431423244794,1.2604039292106093,1.254889628381264,1.1862314954540112,1.1928459939878573,1.186550697327644,1.1833586001226257,1.1655199376213816,1.1437966679389573,1.1912427848108786
1.2106220216550743,1.1914667048582714,1.2941051762633566,1.263549417313651,1.1746100715662853,1.2060797964765058,1.2560844279740142,1.144646663449688,1.103943334542261,1.2243157690367352,1.2006542841473131,1.091484184271084,1.0944237232375653,1.0521392999425316,1.0600191427013266,1.06921102803871,1.067633135402074,1.0724516355434477,1.0988445254129642,1.1208646084944724,1.1308677617778855,1.1194684743667627,1.179763586528038,1.2503928518039003,1.2342356729332382,1.172434460922971,1.200591151555208,1.1861849524987775,1.1785274158658987,1.1704383869839765,1.1521764264970782,1.1655188172992241
1.2107327365881817,1.2113165399616066,1.3013619092691469,1.2530000208411156,1.1706794453207343,1.2109078556366208,1.260083588532859,1.152558070142756,1.1129950789262084,1.2248658622101825,1.1984010421908808,1.0902351103096006,1.0811684539531414,1.0564334654518734,1.0628051344282659,1.0739980240165152,1.0788826633598168,1.0823842850190744,1.0948008044921915,1.1206114539875665,1.1249037823973522,1.110491652280068,1.16678772022449,1.2729737382424442,1.2357618695055899,1.1656766430071606,1.1983494600730404,1.1998267722346945,1.1898856994989324,1.1793934449470953,1.1551156306563841,1.1660199198904388
1.1860904516290256,1.1995671998052997,1.2832293421522654,1.2584555688689023,1.1750142817142062,1.2030471958061393,1.2450038180179583,1.1550605234731428,1.121581089368153,1.2297270519780479,1.2064875645694748,1.116596154188155,1.0831391220875484,1.0808125026574833,1.0909906343447613,1.0979379451884304,1.0916622382878176,1.0891153126434516,1.1042008092593691,1.135011695777721,1.1387778257128118,1.1257936557616293,1.1676143275878026,1.2800990660347404,1.2286480820061325,1.177839948839954,1.1916744752939932,1.183887771276872,1.182154354115288,1.1598845099031772,1.1576269886464945,1.179894252241294
1.1912838464302118,1.2081306489953365,1.271117290736694,1.266735510895008,1.1814824525679861,1.2051856935161405,1.2339216067425582,1.1654787918638432,1.1351519348331929,1.2312683829937874,1.2006810001939505,1.135686310574,1.0991071585087733,1.0970256388460098,1.0876648654784944,1.0846460061653576,1.073922802957671,1.084290752165974,1.0928018133381305,1.116464547389318,1.13124962097561,1.1255233831656368,1.1646381601101956,1.2584764837271465,1.2196618390612732,1.1829893821541302,1.2034933881058658,1.1743296796612677,1.1811971561175527,1.158591687217391,1.1661615793147613,1.1695486304375806
1.1620537179305184,1.1969148425976421,1.2440042728693343,1.2482961197985958,1.1819592557520768,1.19307737272477,1.249380904900078,1.164264019793777,1.1271588526275809,1.22419992691377,1.1899579760391092,1.1114071163382222,1.0908523245074175,1.0801754636134973,1.0761599245434352,1.083881489700268,1.0833144003964046,1.0945524794638384,1.101149266375917,1.116670852222513,1.1409584146925555,1.1188306645886996,1.1739982241306852,1.2632112830509152,1.2177582168133345,1.1683293327135884,1.1837116560598968,1.1506351247280073,1.173891398327576,1.1418328544584375,1.153442983695895,1.1581909900699818
1.1695388090130454,1.1896573065404312,1.2553742424842262,1.239656625145311,1.1885797982572324,1.1847965236308973,1.2584260243966159,1.1836698795693756,1.136070296070006,1.2273560586463754,1.174710041026382,1.1166274134167882,1.089061008905846,1.0874244499962604,1.0854263183580397,1.0818597345059517,1.0768996416247407,1.0841530372946084,1.0931655582703523,1.1101604872695638,1.1361200900592867,1.1162361579118858,1.180698443923525,1.2671862829470226,1.2340244591786989,1.1769271426322911,1.177990785098761,1.1515604808646844,1.1747484387060596,1.1396251151392267,1.1485159298876293,1.160000339622514
1.1533055658204412,1.1808113598734222,1.2500417786289213,1.2391163698579657,1.1785475059261301,1.1620706742968092,1.2893564841076646,1.180102844988041,1.131885281515401,1.210223748217979,1.1714793684770246,1.1107528467692251,1.0822984335277468,1.092007434316301,1.0902922864740094,1.083837085835522,1.0753577055085488,1.0823264416282032,1.097787663425233,1.1099144113456236,1.1350502408170604,1.1139359062969894,1.1700287492060084,1.2458320648729797,1.215619117781459,1.167164756236704,1.1751621563446917,1.145722907260628,1.16242686924759,1.1321084966743726,1.1500590332025569,1.158268198709032
1.1663944067292278,1.2024162405805368,1.2890724371953028,1.2345307251639888,1.1515899734393573,1.1613936556477404,1.305066753434513,1.1803694688490396,1.1295215700142822,1.1966243653046276,1.1630159909434696,1.1078006580825357,1.0889398407167132,1.094748722687099,1.092503938190189,1.0922857680672526,1.0847033768184775,1.0860922936599144,1.1017141958535344,1.1153946119959928,1.1356814819286478,1.1156008163632518,1.1744234135916378,1.24782220052882,1.217399433816769,1.1736392716944586,1.1958032458775327,1.1738761946391614,1.1719670532151096,1.1480760158637964,1.1518447056250485,1.175524335006176
1.154023030339355,1.1970641110693905,1.267245049509089,1.24662999022307,1.170487100599704,1.1521867212005055,1.311037228784352,1.1721397522184251,1.1562606141578218,1.185369899354135,1.1678515572857289,1.1292063111239623,1.1042776014448596,1.11432733548626,1.1136454475015163,1.1074515636595819,1.0959951327676096,1.0979318190534482,1.1127913130668405,1.11688400681185,1.1300179696824741,1.122243043503575,1.160697389440002,1.2368973336631712,1.207493715141593,1.1642565256629727,1.1751973654124919,1.1498533823223682,1.157919126027183,1.12773652757612,1.1485100442970733,1.1748873728389804
1.1821234961213303,1.2295725213647386,1.2662882666288957,1.244611094247479,1.1581854127986588,1.1541997933308574,1.318671562088096,1.1814879743417848,1.1591368897510452,1.180366854014202,1.167059934360494,1.1226005959916439,1.108430446813916,1.103905009828333,1.0978584922652885,1.1070904371179398,1.0980274414432556,1.0966554476936454,1.1238180371330333,1.1215365570171794,1.1490007776591955,1.1416863649077333,1.1881421864589015,1.2457308837018493,1.2548190807830661,1.1659597667830448,1.2047624471563563,1.1835441595585274,1.1674878512233273,1.1491128440566616,1.1623491684503555,1.173469929080869
1.170816092473978,1.2258819939220222,1.2634011980288133,1.2446242885549783,1.1604172041744438,1.154994740635341,1.2976438904513474,1.1828543453416167,1.1831720805377102,1.1774892881029027,1.1655239045228654,1.1364174120574062,1.1283962668967618,1.125886577463771,1.1168494799062934,1.1082073560986223,1.099621607397467,1.1119857256285082,1.142468520142356,1.1385590305926674,1.1698172310893498,1.16322119965919,1.2190223473068424,1.2534554711284294,1.2955991293155034,1.1757013246945671,1.205105311742779,1.1824204799851135,1.1751529736505173,1.1457201507904968,1.1594748495665506,1.196359826681742
