Fp1,AF3,F7,F3,FC1,FC5,T7,C3,CP1,CP5,P7,P3,Pz,PO3,O1,Oz,O2,PO4,P4,P8,CP6,CP2,C4,T8,FC6,FC2,F4,F8,AF4,Fp2,Fz,Cz
1.3329243047740693,1.2454633638380166,1.2234361209328954,1.3451085149522535,1.5485383929788998,1.5066282309983208,1.3753418795064838,1.5950692084526008,1.5446710071384004,1.6857033639780223,1.6151318602628353,1.578079289307971,1.5674455702382835,1.584499936873026,1.560645270375958,1.5337632839975692,1.515713860034699,1.510106708321144,1.5054143405369684,1.5035104543972395,1.4472188934915977,1.487819003304372,1.4661423995512353,1.495068197605731,1.4042662791800427,1.5063381416548476,1.348861263554266,1.450821929968425,1.292599338398046,1.5013541833330406,1.5401689261061362,1.4827530735939267
1.3163668251632137,1.246331183508586,1.2888659811548526,1.414206953797179,1.5422378069341038,1.4344859840760245,1.4455501155501362,1.5437178096825632,1.630492254180022,1.6051716871129675,1.6287177821506642,1.5902746815697852,1.708764556500202,1.6381679978029424,1.63545178704639,1.6295395861636293,1.6044720332890696,1.5945213964352534,1.6015439938056812,1.5523185446009948,1.5184914317700842,1.5522264489304392,1.442345164071318,1.471195944182289,1.3473919929705807,1.4815628927572468,1.3429591606811913,1.4173268895714526,1.3041885747770647,1.4619378441651318,1.4661095433249092,1.477763750777766
1.2936824955798618,1.287647978861916,1.3146369841791914,1.4306157813856286,1.5803277336641854,1.409754555248541,1.51485976473473,1.54176674485296,1.6222655896103864,1.6036706090361443,1.5629415020631177,1.556367313953653,1.6005727053765084,1.550940838269812,1.5678243048136626,1.5807721104093995,1.591176260966151,1.6045292344886024,1.614443493817843,1.582479113095679,1.6060317398394,1.639680934188554,1.5321602403219556,1.4857925950895243,1.3452104902582491,1.4603677774380917,1.305654857677071,1.4080128075730152,1.388343937769859,1.3737810765861578,1.4697455970054607,1.5829301436445478
1.375462182594802,1.345989321574079,1.3226088999914385,1.3977361950194478,1.613686947423905,1.3898458075747657,1.4568002536262006,1.5608704895843202,1.56989712748813,1.5289775239894001,1.5615434192751032,1.5109852428711172,1.5370091120440426,1.5000863753847633,1.5290938189845529,1.498213172186884,1.5059791490142551,1.5150875237930939,1.5191786081817438,1.5337180982173075,1.5348917410065257,1.548578767246147,1.5689534030455754,1.5514165013251535,1.426344538248146,1.5143734310084118,1.3012813699663566,1.4828218085015876,1.3912077862822743,1.4018133560331936,1.554548498319347,1.6091332025757068
1.390287098863788,1.2861742792816295,1.2873539010021648,1.343920936658416,1.6260887759409548,1.367087430039074,1.4380471428657378,1.5651458762268882,1.5717306835131049,1.56076209142817,1.5790448683408562,1.5608956604805113,1.546849269327081,1.524155567986387,1.538564002251516,1.507360249046887,1.5332193963674776,1.5333246323946463,1.5656445839796647,1.5255569957054145,1.546196369949937,1.5411236721736057,1.5256521081289254,1.5153345963164966,1.4172020331623254,1.446380897174578,1.3190581030583717,1.3767935668828548,1.328151999855664,1.3193631405612847,1.5562497195673073,1.5429722400229833
1.3672892231208582,1.1734376216569489,1.2563643857064701,1.3863176469081906,1.5809676025555195,1.3955632229479311,1.3687875600275776,1.5124855133087187,1.5146122511513118,1.5567570917641778,1.5789093443754754,1.5959300531495082,1.5628072097228543,1.5470464170544473,1.516152904450057,1.4578455172836025,1.5715979065676358,1.6210232361801113,1.642514939072004,1.6289024156777405,1.6544376811844668,1.5925911695614512,1.5609484912088172,1.645881737585865,1.4122644232308836,1.400751737715015,1.2742118686958992,1.3469076198826762,1.2170915350552352,1.3606302415389162,1.487630704751269,1.5233942250949202
1.305622542693597,1.3322594449524576,1.305884536762249,1.4000262990189907,1.5817774195520422,1.4193480256831756,1.363369589151058,1.554627790343022,1.4475692297588134,1.5510171006207638,1.5385309357066967,1.5584650143266605,1.527779390925872,1.5528307416323432,1.5318465416127418,1.529828115001744,1.577840984950955,1.5913046462240266,1.598975169775544,1.582279278864822,1.6308152566398393,1.5783584696101483,1.5367587798683777,1.587641283580251,1.4038480715991437,1.4579520876291319,1.3206796922358168,1.3284179826079607,1.1765914626187601,1.334189673807354,1.5764605156825584,1.5426628687140167
1.2736067211730422,1.359000340616596,1.3364209876607067,1.397023253828534,1.5698822324755395,1.4219801742965472,1.3770698608707042,1.5660720957217842,1.5134267945778346,1.5216393730122992,1.5238048009818328,1.5094276824147153,1.5247473831598235,1.5088415630292928,1.5103771298935271,1.5568595380668564,1.5288374257072783,1.5555482103746772,1.5872353512788113,1.553078412604839,1.584636652979097,1.5808045672833402,1.5211254628381166,1.410773013901177,1.3045298210985083,1.4860026063502718,1.3460240912113355,1.2845898611438449,1.248268426143029,1.3425879847773488,1.57792224440363,1.5067659392733141
1.3248198221133098,1.3383102350419904,1.343465254062382,1.360174424764199,1.4404837424656556,1.3904054871156046,1.3755447859421928,1.5507308234471164,1.4840014802873205,1.5759615364230246,1.5614320709894718,1.5018684153747688,1.4705769654200587,1.4702866065035431,1.4592583196861424,1.5415184138920945,1.5122072318247628,1.514693441877945,1.5161465758449222,1.5374651126184267,1.51620346399019,1.4637297835509382,1.4463511321728213,1.4528309017639056,1.3461967356558882,1.4353938520756073,1.2808857071378383,1.3896305436550818,1.2802927585318924,1.488802338222657,1.4683426217197446,1.477887554519697
1.3803541594386257,1.3205946874936,1.3380963722642258,1.459777034585602,1.4208360615880922,1.3941533610118628,1.3197838791732865,1.512572627702055,1.4794084469331723,1.5444880472645777,1.5543879757357817,1.5394034441240299,1.5183406890603088,1.4850672021688982,1.4627241598710767,1.4892268676616531,1.4879553107271655,1.509818245235316,1.5333890502735,1.4909377613686556,1.565452460572074,1.5456301443857232,1.529824747644398,1.4491764410515915,1.4129716432683093,1.383990700433847,1.2671498425999377,1.4873355446197416,1.2895418868164008,1.4549790784848682,1.4643958310657432,1.4842057537267026
1.3755203325056171,1.2846033982679381,1.2910187288233772,1.3449364349405972,1.496861199507429,1.4172503796516254,1.3823102242108294,1.5866898036142478,1.5619397551127887,1.5658642933774538,1.550022457624192,1.5083491607131894,1.5003344663466522,1.5007974242121496,1.4977604014567525,1.4931111677239088,1.5275762495280958,1.5232545464944962,1.5208623205078027,1.5012164369752645,1.5088225016256915,1.5023597754732423,1.5082110227125782,1.448624397651195,1.3982934278174328,1.4411980237645268,1.3227330435604219,1.4249047473306913,1.2969797687165159,1.4824993065976149,1.534942817052654,1.5108094418314306
1.4075607520277544,1.3653051953622901,1.3361143096345414,1.3342363065602947,1.5901216249029049,1.4448263622606057,1.391878515433446,1.6306412322162114,1.6277139450397824,1.6297309255569707,1.622873505326134,1.6253398057053219,1.5711858308791562,1.6594581583334393,1.661287131668515,1.6266228112800327,1.5789637552475655,1.5648842440145434,1.5585614161347188,1.528725307522178,1.546730637818135,1.522413094604522,1.4625914910466644,1.4830523657353727,1.3172243388022848,1.4632438128165972,1.3525913805561927,1.3944247575130153,1.2515332348535058,1.475689632904237,1.5425055853732341,1.5453572828984383
1.443071651263838,1.2959738596127666,1.4112422416956996,1.391077930399597,1.5916871789297182,1.4521567034959815,1.4633868540180333,1.6237825371612364,1.6268674564732646,1.6461752685523434,1.6724176423736496,1.700081980839493,1.6041409347170814,1.748018393832899,1.6738693661562518,1.6617993077610815,1.6013434122702679,1.5863821945099286,1.5604749375585056,1.5666991084820467,1.5462632734669624,1.542370046631425,1.4877463149749581,1.4824089635339202,1.3069118733473846,1.4928868611999222,1.3346563537586373,1.4168236003526569,1.3029937730886167,1.3824466479426671,1.5594724144013072,1.528135714654139
1.4287815363375445,1.3335095396965828,1.3275192834092004,1.3878576680526857,1.5769505993415136,1.440747061187234,1.4717062444082312,1.5927144858655924,1.671967063861937,1.667730494506413,1.7177198488780925,1.6970623806373895,1.537451081665308,1.7380099266082836,1.7712278278594633,1.709645858064615,1.6461725478932168,1.6020031289113066,1.561868876658507,1.6287598681168853,1.5646622649568527,1.5207449935501904,1.5123081685618727,1.4928802817546536,1.4157789512012202,1.5217269394149646,1.3640533024042225,1.4427011676098742,1.3560376486006664,1.4367223772777107,1.5751721840184412,1.5399633822392378
1.38316576590814,1.3047966756844338,1.275770166076081,1.3761703375668188,1.545271245685588,1.422462942460817,1.4379661568966906,1.5511055843736248,1.5818254484398209,1.5683429692503619,1.6985072968253205,1.6052718067691298,1.5460644139123483,1.6974483740438429,1.7325749192740394,1.6736168564469303,1.6282292605710336,1.5782029493017549,1.5517434930054557,1.6007995212244166,1.5495579240262034,1.4714183697031442,1.487015391092413,1.4939336409077748,1.3594466186367506,1.4553798801809472,1.3266809414408032,1.4203439128187747,1.3287898422692224,1.5034404228678053,1.5316607735959862,1.493747269884535
1.3115259005731175,1.2998721658877075,1.251826807623625,1.2791191860039288,1.4393777241764785,1.4120437222061453,1.4072504586325276,1.5324582166687604,1.4928273055804604,1.5728989484092988,1.5937893442806836,1.5193999487302028,1.4916785727147341,1.566828801714998,1.6027085219004686,1.5501844684549264,1.5934840552051273,1.5812271093531394,1.5677173466415706,1.5626750447637994,1.5669743447614355,1.4600178911667971,1.5447877495665154,1.466759546350999,1.3579175720021375,1.4847480998347444,1.3405466336691458,1.3849402917811886,1.320239680037169,1.434502818742565,1.4610215026708144,1.510600633229962
1.242400606195655,1.2776652867248732,1.281614475388789,1.2868157065678865,1.4549211124639205,1.3817150482298086,1.4849924997569033,1.493098489814248,1.4992787826451974,1.589929135145364,1.5512786758959038,1.6010097252638114,1.5222620095106163,1.5973823578303843,1.5590820686476312,1.5823668345399422,1.5957694660678219,1.6302373419056884,1.569789311248441,1.5426661301686087,1.5529287241575729,1.4582748693510106,1.4929383562168217,1.3935384885285953,1.3784454585892136,1.486564054377635,1.290855790598638,1.3697446674081215,1.326758408455479,1.3854795780265459,1.4622779742278036,1.4473182403421305
1.256643342252886,1.3012600979475772,1.3405441795658748,1.4048330151892539,1.5318196428016126,1.375961551094769,1.4055061208331192,1.53047759027259,1.597935125711866,1.627975844864243,1.6128948055148014,1.620111247851695,1.5390172020928752,1.6223009370689534,1.6008032182837066,1.6158693811504912,1.6050201309740098,1.6079062308885836,1.5549114328073688,1.6208406045361512,1.4357799738679944,1.4389686841704203,1.4778917440955082,1.4729701311247163,1.3875124115993378,1.4897353146516426,1.2923022005977975,1.310831485025451,1.2600394335225789,1.4117482633790503,1.4986992108034998,1.5119103121979378
1.3268172191463137,1.273952520384297,1.319597154675891,1.3806231495033243,1.553725144219344,1.330016791710091,1.3792768886909845,1.4873841748391803,1.5777486981888826,1.543344609333359,1.6197627782836383,1.5555590383741662,1.5957310074082343,1.5701000661567932,1.6345958218698928,1.6263916537428487,1.643281919370794,1.6432676792725105,1.6876956837391106,1.6300250596387662,1.5145055060235124,1.6295408010315677,1.5189258271421864,1.558664000521281,1.4241076159989399,1.5160887842047817,1.3388945027313814,1.3355246155981357,1.2406417741383429,1.4496279205168916,1.5326304020058936,1.577819502803663
1.356586088106929,1.2873395160481946,1.3112558323168593,1.3714423220234855,1.5269165523811905,1.3320668340882424,1.3604972124628965,1.4965614191512246,1.5597231619250886,1.5535843313834037,1.614231206399338,1.6178171866062048,1.5634746367102075,1.606131889896127,1.586925534524989,1.5210703295646737,1.5556802661506355,1.587781704937419,1.6176984920875577,1.6118201973123385,1.5833083788158382,1.5480642363614099,1.478030294615949,1.4858942243187427,1.3355928842135218,1.5219310538919935,1.384694810632692,1.379000031015793,1.3462757573425772,1.4606899720987465,1.4596866688585988,1.525081288568434
1.2959656238236519,1.2937408890522788,1.2795481834842357,1.409098942750927,1.5070567750971484,1.326853785876706,1.2854988962870861,1.5312981052838184,1.571641818763008,1.5689806445449936,1.558592096878192,1.5851550325056905,1.6031650934043418,1.629709135611485,1.6289102345004687,1.646993025245486,1.6569634652924974,1.653999072595212,1.5932154046547131,1.6223170246629621,1.583759095771935,1.5535172497752925,1.502147762507739,1.5030210774872492,1.327493478971473,1.4246271071189804,1.3281936790338966,1.3745239060266483,1.357181769773976,1.5244213923471919,1.3754389149311632,1.4788817326011658
1.2814389745805097,1.2558454748599666,1.2468447354824197,1.425777125743285,1.6085495173546926,1.3768381706144508,1.4288218141268991,1.5123875848325692,1.559456954445666,1.6848594851226315,1.5848659867457728,1.601897994583353,1.6082115176129566,1.6066831940833073,1.6393208220718984,1.6358397957848279,1.6474662409097744,1.6322982530808876,1.5770125097033423,1.616414399932285,1.5424778397108674,1.5905863426584335,1.4533008054592798,1.5114222093215275,1.3700150052539422,1.3571769929988664,1.283094303898932,1.4468389270272584,1.2637876890215816,1.5353920113908053,1.4439268589022016,1.4870371442553036
1.2736573446325739,1.2634460244433146,1.2214624670385987,1.3549985779270985,1.6145036131789172,1.4302587571499679,1.423028113890492,1.5354764412903705,1.3904192664060107,1.627895473887025,1.5378636211458612,1.5299871068912207,1.5471728916020122,1.544232301738216,1.5472183588661823,1.590772820801507,1.5975221034499252,1.5610123548981127,1.5764418418935824,1.5921675352315292,1.547583861918549,1.5424109474969365,1.4678009863918684,1.406741912555793,1.3977993365442953,1.4929120945465428,1.3236073623662348,1.4609725222250967,1.2592713155253663,1.4175974014546766,1.517903872824427,1.445068535444208
1.3586072399367983,1.381558572282249,1.256834034035188,1.3892948007882804,1.559993176648575,1.3303129435018812,1.4603955698542128,1.5181929774986525,1.4559964306717028,1.4875665548197405,1.5825955242296692,1.5464611919515594,1.4731260149623309,1.5174719773366323,1.555068021425828,1.5416609804712325,1.5388346587744377,1.481761872412604,1.49956574436951,1.5428860195052925,1.5727816233012535,1.4737706712434653,1.4666024902912174,1.4546352736374328,1.3739275801665947,1.5110838956743526,1.2480456904220427,1.4419912557130263,1.3061546613283375,1.4708880810424907,1.5198795760253563,1.3942696283676559
1.3451979730220094,1.3513216865348436,1.3332412992958185,1.2819434829419576,1.5655196086661605,1.3078529269172128,1.4227313171370632,1.51421735943686,1.5731019699760855,1.5939135707371,1.6506014414766965,1.679017688682506,1.6425089808083408,1.6162043270541449,1.6410752548878142,1.5698558355101362,1.6054690592837992,1.600150137488089,1.5988715508113849,1.606967926801402,1.627174985624866,1.5514664808837126,1.5295792244836175,1.5262711011944414,1.470332274484045,1.602144930751895,1.3757948195545247,1.5338725425135218,1.402268145672505,1.5621267555116638,1.5002054831529503,1.5298410069455222
1.3273416940684193,1.260673390417403,1.3492148180314016,1.4375080413943113,1.596362233499757,1.3560848073407346,1.3315016873961414,1.5619604984294626,1.5946871465191559,1.6235014967207764,1.5324811100322855,1.6288581541758915,1.658080739466642,1.5870673984602859,1.5977158402416103,1.6081940833269956,1.6134434292252149,1.6273139841566884,1.6288994742484224,1.6283758473955945,1.5807840904917139,1.567827556401068,1.510784822272806,1.560595253252541,1.4618965292184987,1.5796929229968883,1.3401487540367374,1.5379508086862528,1.4056188051018106,1.561827961621702,1.5139337338654733,1.6048285276344838
1.356352770648887,1.1982230460708605,1.279527879490966,1.413563358913757,1.6119679735380483,1.3434483747040455,1.3601537749412114,1.5624979783700124,1.4953424092153587,1.560107595583455,1.5042905489392604,1.4564931132409298,1.4733144368755025,1.4559308993859479,1.5379587961665155,1.5465562259476733,1.573715548272235,1.5187962640090253,1.5322073941149517,1.5581175572467036,1.5037789018892624,1.4723241014701751,1.494382249469986,1.469122278971139,1.3584842041443428,1.523589608627663,1.346419346972408,1.4174477839796222,1.3232423570849143,1.4687822031540956,1.519698673618943,1.5937444123186895
1.2733969344198748,1.2611846002292355,1.2672873832672606,1.355025578942343,1.5485097088630984,1.3968842242637511,1.3489715523976349,1.5964971049788776,1.420093036238459,1.5346491430894527,1.6039451164411809,1.4747109327160908,1.4522454383075725,1.5654407168358597,1.5728141606364703,1.5799263809100546,1.5814463845515425,1.4993704629897953,1.4909372433555375,1.5777098953102793,1.450809566858098,1.4155269725313042,1.4419844872423628,1.4333882317516966,1.3229530066831352,1.5150636213887334,1.3653366834721696,1.3545098806341904,1.2874037244513727,1.3842818592627655,1.467494304321973,1.5415867303580744
1.273720074268129,1.3206468850039184,1.2699016327327977,1.341218210779176,1.5026397651413506,1.4113416818758657,1.3595061855157375,1.5613647738828513,1.5163123596192902,1.5213174134187961,1.602673339804271,1.4820531459498072,1.4765541289050126,1.5666755989231422,1.5676407848797598,1.601759592870663,1.5839314609906516,1.5373636690282269,1.5475602114678841,1.5860959384913045,1.55139168873481,1.5108383098675642,1.4916993678017423,1.4978926996409807,1.3154841706157663,1.458852474375542,1.408053258507788,1.3386643171252308,1.2665420644741971,1.3498113744252036,1.4698971868418151,1.536444293595647
1.305783438362247,1.2823300420683288,1.2086010619502012,1.3831601307961947,1.4463936398177488,1.3598529395508954,1.350487225359968,1.529146219658286,1.5121745574392789,1.6047227718762784,1.6194630660849287,1.553942069819971,1.4876291574862435,1.5599201692865008,1.5395113134574907,1.5774552757366382,1.6120102960184746,1.5984871936811054,1.601182487162414,1.592808051363561,1.6293366975965693,1.5693073797440875,1.4814917072380482,1.5270201506726537,1.3928152401018554,1.3781535927333315,1.2841960713978735,1.2893057501035043,1.2742674385678865,1.4236638914348774,1.3670676225310412,1.5537890795905853
1.3211366852574555,1.2542065163731895,1.218856579340646,1.4386599396590853,1.4930926476699111,1.3411554266496193,1.3698013567997216,1.566409940969125,1.5572452874964322,1.6630496486656579,1.5964207168505213,1.5675290722229078,1.5982089368150083,1.5927328248775208,1.5698883494231024,1.594000278396374,1.6363654159505703,1.6314151282387115,1.6403030101185765,1.6230131530894687,1.6482779255595925,1.5746781798761273,1.420323388592598,1.5086987789839295,1.4250782546785037,1.472670926930307,1.333605603151004,1.330120837384177,1.2922552232083628,1.4270827540250683,1.4466839027884222,1.6091678822605517
1.3235762342919835,1.2365660467128934,1.211586729365794,1.4395222184778451,1.5543334742967079,1.3927219873336734,1.3399697294366557,1.520998046421903,1.5208678220810694,1.641586904649829,1.5454303017663997,1.601337764117687,1.573637696063968,1.5931972601722497,1.57924188547304,1.6086117916052223,1.6190987237461847,1.6267640679798738,1.6206951719748772,1.5990217077874056,1.59260601470421,1.523983650181869,1.4495310700417958,1.4911747599402627,1.3513695362658487,1.4887246958228397,1.4010004256965454,1.409601615968588,1.3669241009964326,1.4342746921414717,1.5023331372131208,1.585572482742892
1.3943790392698987,1.2830917485220983,1.2485992926470564,1.3885885696145075,1.4569276216144018,1.3991859366150012,1.3875796941873608,1.4953933205484482,1.4755031317923624,1.517597201465233,1.4916986164858905,1.6017591130760278,1.5179517743323643,1.5873917822151993,1.5962251520789283,1.5948589665470185,1.5777299910728717,1.586799480204864,1.571195271574053,1.5896535837649683,1.549572203630315,1.5045556527128943,1.4854496649068942,1.4444889262050298,1.31536504108731,1.4204935551029214,1.3144954144007137,1.4563709127383926,1.3144019143783534,1.4987213879895203,1.442817173831805,1.4320147538284407
1.401751816964295,1.3365463654921743,1.280219087477717,1.4305290217226925,1.4590802967746226,1.357182117509976,1.3568052319670407,1.5486306407763895,1.5377645276740497,1.5209086738122093,1.4573632540835704,1.555108756633531,1.575620297127082,1.545165686383692,1.5732667698913765,1.5676098693624518,1.5556465056897026,1.5391710864484014,1.535268122813236,1.5040424946901765,1.3845434980365119,1.547282559590315,1.521086539007576,1.309544101383252,1.3568543144608338,1.5045336637385207,1.2624029894948123,1.4208003989733693,1.292139192433564,1.4082596472101523,1.4753802427363625,1.471733347811004
1.3290421101789656,1.3513475008223075,1.3392097354430352,1.462723633018882,1.4843768270381887,1.348670072389155,1.433204597175581,1.6487211526079337,1.538080285415057,1.5644245448042793,1.5969959983665298,1.5888605686681019,1.5541694193113176,1.5837733482931593,1.5960630809853091,1.5308342477738834,1.5630566696287498,1.5402085868526865,1.5322168115349284,1.621590704110881,1.492803186833419,1.4455642628049634,1.5318658493372501,1.4760289050644557,1.3543985064334225,1.5564515954628242,1.2818570585424078,1.3938613120596317,1.2770979336772832,1.3533611882688459,1.528602876937301,1.573973551231004
1.35237632226961,1.3353999791553444,1.32785960217779,1.4527473133212505,1.5788441326260383,1.394627694257825,1.4926895509131624,1.6113979910859617,1.6362346837975288,1.5781468127959484,1.6235909524522216,1.6726976200771264,1.6623380169046738,1.6069256671787389,1.6265763117425955,1.6082198130038536,1.6745770921418794,1.6509990318522925,1.607360061939765,1.6948624157944723,1.5444481063817157,1.5692513370596288,1.4637978249155452,1.4564479924596985,1.2846463052453558,1.5422590012448598,1.2872453627351024,1.3989022094080665,1.2687959669707334,1.38383642203274,1.5326570018377572,1.5455852152323433
1.267378902411328,1.2665571697695517,1.2576495409099981,1.3557349304923416,1.5892201767163747,1.4074144776846071,1.390278588781107,1.5087835310178028,1.6209886954614048,1.6053856779053943,1.567255471079971,1.5550345885024937,1.6964152888928519,1.5964208344526496,1.61972306517913,1.6209269154242574,1.6613984749368291,1.6865429292115344,1.668537573069433,1.6978850587836654,1.6438335452585568,1.6451134656443642,1.5541931234742261,1.511625682795378,1.2909684522178635,1.525000232786408,1.3486326232197903,1.394176986672704,1.3083059451878472,1.4742957733727688,1.5274516218590568,1.4769635359927826
1.2171654049884213,1.2439986090159814,1.318029705667139,1.3419730925779365,1.5280979518966904,1.421969985183947,1.3981316700702942,1.49924061175377,1.5318020377363106,1.5986641708759766,1.5245105527193892,1.5217765480891092,1.532071667367077,1.5210543957549318,1.5315110144625501,1.570365916339078,1.5631584716178477,1.5238151665843556,1.5425737399915753,1.6080002519963674,1.5621493202675982,1.5164441081891147,1.469157162212768,1.497003341662085,1.2300803817696133,1.3944124922221754,1.2972900267148477,1.3921990425993513,1.3584367623473632,1.37011669889779,1.372858027140023,1.4356772359590375
1.3320792161626331,1.2624475768109458,1.316817747463106,1.4181300586833432,1.492713554219056,1.4265913475785872,1.4681663297266074,1.615671191236091,1.5647947374826026,1.6346243370506761,1.63009437491066,1.6096216926633395,1.6296962498705687,1.6184927090612988,1.6593094944330056,1.7420467951721927,1.718256922491156,1.7189703195653467,1.655061640912493,1.6890854288927277,1.6302297302807385,1.564474965781313,1.4213057451463076,1.510648030076537,1.286976459803996,1.3514131579267934,1.287787503381765,1.4082789911723426,1.3565621204137477,1.3974217167069343,1.357520438935673,1.4096885229377194
1.2953793244389717,1.2454397903573693,1.28578901151412,1.4564220209916283,1.5185870031352942,1.3771494620227398,1.3323004047607103,1.5805114407948215,1.5065911661530138,1.5669636621708218,1.571361149635788,1.5703554267851845,1.5196231740661166,1.5563591356765447,1.6367044679328797,1.6619283625955645,1.595710307855218,1.5747189269666981,1.539545252812385,1.534424851204941,1.506838556389297,1.5235481845821932,1.4628266555791742,1.3996659381686185,1.307216509883795,1.379049662628729,1.2895392690955458,1.3577925230683239,1.265366392089459,1.3876666853629573,1.3886458845250937,1.4348345223688803
1.3213388185534471,1.1846177465459973,1.287622142603256,1.442108720875238,1.5258561951069831,1.305311946902557,1.3353905314030068,1.601595987540387,1.4533503470552378,1.552435154237824,1.4959112495196165,1.4622250682682643,1.4684047443648018,1.4853882968757235,1.570895926416719,1.5859104088706746,1.576151839914786,1.5621082895645022,1.5416658302887478,1.5263447611020071,1.4989266633603406,1.4679520213614663,1.4809540716032208,1.4268749493560478,1.3673432101696101,1.4901067647166448,1.29739923777979,1.4326351130204678,1.2640553856303776,1.3923228669288095,1.4331430013469595,1.5131211835066813
1.3343363415650704,1.257772528712502,1.3670136367201335,1.3685229162472956,1.5003590726249783,1.4099118376488886,1.4360618867998103,1.5067851409389168,1.484794509947506,1.7000299738725546,1.5849723993361469,1.479267165979317,1.5189792108083329,1.4845154717653037,1.623346071311099,1.644558856600546,1.632437731631377,1.6205522054936308,1.6203245195542326,1.6694147666482408,1.552949122365762,1.5104247530872563,1.4361905041355187,1.4382639013048488,1.3821727082921549,1.4811462578851657,1.3329131639836729,1.4600805150093505,1.2376839350837718,1.4694083525789183,1.473110747993869,1.5587843306466835
1.3344152223580492,1.3092036101553348,1.4203639704389186,1.390179421039696,1.4463463877600915,1.4905027884790885,1.4651227311782524,1.6110160879545457,1.5589399493557823,1.6587833982416735,1.5969470024348213,1.5387805440601563,1.5736604338882656,1.549040999099641,1.5780558570384393,1.571190525681603,1.5524204873538217,1.53539055128534,1.5556457956467649,1.5387984996735482,1.5169182948398485,1.5614067391603719,1.4904987200345554,1.3872362119310984,1.3917929836797105,1.4476867764363486,1.347671645895966,1.3976485170616877,1.2426029124132754,1.4318649582940681,1.4845759014914717,1.543760195378666
1.3131090579441216,1.3133049253886775,1.2985164565926328,1.3711876288318288,1.4881610157354543,1.4419630411193607,1.4302911256755706,1.5989116357343975,1.5927565376709945,1.6667225977770506,1.61779738486945,1.6274546076072591,1.4968502898667877,1.6062973665435885,1.5383271571813373,1.502079942680258,1.4794742600688628,1.4605223013293018,1.484254536357753,1.5099790888478932,1.4113108611992045,1.4642045874465217,1.4468767745156546,1.383818536348829,1.3575602979194614,1.4349354634644684,1.3249426382222886,1.3543802239530527,1.339173402207125,1.4044264684248025,1.4090292699142837,1.5817247957958256
1.294092047425671,1.366214696175787,1.3307632000213212,1.3742276961962065,1.5192868570668119,1.4099333317227996,1.4419558090948117,1.5915086131007248,1.4790855134889147,1.5919653761357515,1.591645204674359,1.5846619185678263,1.4645520020539247,1.6209818172498385,1.5765490743299382,1.513286059764393,1.5212127806503744,1.4985697861262415,1.4940141551983936,1.5484653438608973,1.504047856197081,1.4716249146774776,1.4694059628131204,1.4110430600643311,1.299206929004555,1.4091920280244148,1.3331600646223878,1.315840118790222,1.3476645130406535,1.3576789201934556,1.400414392946696,1.5359669038496317
1.3254620193785664,1.3520768912277237,1.4003119272467737,1.447331635295808,1.516074505475306,1.4026232111801369,1.4461454062734125,1.5653104503186284,1.4996911180976829,1.5556985861990866,1.645117594850741,1.557670990811948,1.5456976199862165,1.6020867659289206,1.5805585038674104,1.6122967954663647,1.5996165405797738,1.562201856119499,1.5624948097195208,1.5933210975256913,1.5735189601376058,1.5302698461191722,1.5362540874034576,1.374827389815554,1.35784824134764,1.4150916841072871,1.2890382804931029,1.37215194170113,1.3217883032121587,1.3806325328396074,1.4947735483569686,1.4919940840375505
1.3698162176444904,1.232750716398377,1.3159425117817356,1.431518287107634,1.4283072828921095,1.4151256188247445,1.574484186171125,1.6317207168372947,1.5184210126897826,1.6450027628671335,1.6965929798400303,1.5349592665490859,1.5140680009927767,1.5714033414876671,1.5082240580857238,1.6071475165047884,1.562580193893266,1.537179406336054,1.5567937345708542,1.5830539170722755,1.59456676143153,1.5649390046150244,1.5439540723366647,1.478550249721398,1.3737813587430816,1.4264753414409463,1.332987047663854,1.4876660708547762,1.2750464292740664,1.4320440514514605,1.4814414748977482,1.5586487739468633
1.3758286707850929,1.2753332281478915,1.3540923790287036,1.4026833696046945,1.5177537391695737,1.5089042767326524,1.571957796854859,1.6939744370806535,1.4775448786440781,1.7189826723398212,1.7049336260650643,1.6007267400800305,1.572626185930643,1.5605359630710784,1.6013733606045908,1.5749599609586689,1.5532752263737049,1.5406379612367154,1.5981181581569923,1.6095874671858568,1.6138135598770638,1.5157715193291725,1.4701435298801433,1.5811881336084201,1.3455893489177488,1.400509954568719,1.3186330328304985,1.502147117065016,1.3210975064132917,1.485303055087918,1.4225864340756613,1.538345180332842
1.3596028818927377,1.3628943306124968,1.4090981424168016,1.3457797675664853,1.586584978570564,1.5156162056540214,1.5279501695812767,1.626691533756841,1.5135101248585265,1.6923963429981304,1.6322360750295242,1.612247845820088,1.5881720716172465,1.5709408984308795,1.5970459774340617,1.5654602515472136,1.577532118879789,1.5772066188474614,1.6406956667315997,1.6548186135722431,1.6386428294846502,1.5917499962565707,1.5591481034700416,1.5591162655907378,1.4034172969245613,1.4603166893683635,1.2828154063086354,1.4402282610478543,1.3043450594869186,1.47415054071904,1.5156136755435088,1.5155944513222082
1.3190985693908948,1.347301830981006,1.3145666876052684,1.3616398096567912,1.5548636454861438,1.5478321187892665,1.4748969507629615,1.5013488370919144,1.5137798569942327,1.570524927665973,1.5103244400606495,1.491419689612158,1.4940835247523618,1.4641225213684876,1.5493233302012523,1.5843114824197708,1.6180422396758662,1.5866719201224486,1.5872801046154865,1.610033205719565,1.574651358942066,1.5156126053731453,1.6127827687470129,1.4015947649477787,1.3932004628456134,1.5232434364107126,1.3300803178648726,1.3883071176118709,1.3529438098412878,1.4388162445229127,1.5945169673748034,1.5323823320385823
1.3488968073745868,1.2863886404644531,1.3350726290276438,1.4453852630822184,1.5132717569845244,1.3723057194548176,1.3611234738293427,1.494979680042396,1.5840077681594498,1.5272451491929422,1.5787052557932229,1.550500633677096,1.5650615191087454,1.5868512859761037,1.6586978820432337,1.6845883703234479,1.6657712674305352,1.6464295928983752,1.6740266275136528,1.594618331484519,1.6393176396216376,1.597982620344746,1.6298760108091908,1.3489736095890763,1.3562418753845478,1.5282007076699717,1.3259100626268294,1.4433995448348789,1.3514452909810937,1.4389532972092096,1.4019469408169485,1.512767795783496
1.3072281413971434,1.2451933803244777,1.3093032801057907,1.4546030241421166,1.529818427386969,1.3367389580917135,1.3478103568318354,1.52456100460401,1.6025293970069592,1.5395126499408534,1.5945929197354594,1.5914629374647813,1.6473041929824142,1.650580325436509,1.6535888647724497,1.6689517841215575,1.6212937361017856,1.6539486222920514,1.63785728177171,1.5964493812196834,1.5810162759904491,1.6108886581513526,1.6014806307898237,1.455161307759125,1.441239188407249,1.523978779939445,1.2944095948326582,1.4685162899959692,1.2903713206185452,1.4610359278922527,1.4821303967061628,1.4008246566581726
1.3188566783584768,1.3637729775205012,1.2712477330132266,1.4371610162765331,1.5165905542212201,1.5042010582969558,1.4125104189285516,1.564715790951668,1.567694393200544,1.5561660387821556,1.6502981062981241,1.5758745300987582,1.654575619914557,1.6485532431717609,1.6693663072995564,1.6577369740456755,1.6407050047827543,1.6437866673174992,1.6141341815392116,1.6748821025791634,1.6252211721979426,1.6410309925566167,1.627341139797411,1.6154501331762992,1.376676736224955,1.4777786555540242,1.2857247896087636,1.3993088022072524,1.2743417144240143,1.4890850318575113,1.5182967797100173,1.4061932061338618
1.323370424564262,1.4368080091541626,1.3228913644113443,1.4030602830955743,1.5218968010251408,1.4518148245833085,1.4685012742131165,1.5641916230626405,1.594154311312925,1.6027914993151302,1.5739357923965898,1.6094241735378978,1.606780829693792,1.5390225614563298,1.6377955297412632,1.6221766641936886,1.6440846126612414,1.6692656065460962,1.663136371262786,1.726035461731598,1.719672917904155,1.6142034067055937,1.7087327907835852,1.6183170741458843,1.388981159389048,1.5253161211957125,1.3209474002232167,1.4331614967864328,1.3064913615369662,1.4586683695621705,1.5046374940974903,1.5055710307015728
1.3329760181461983,1.4033075368516632,1.3959746565103042,1.3214114970938615,1.5365910672688896,1.413578319842664,1.462119291268654,1.5640751538597266,1.6026518629180317,1.617955200777101,1.5765612381723308,1.5932954843917408,1.5984674424695147,1.6180890034649098,1.635817882551297,1.663174853268731,1.6847135920152514,1.6620947929930772,1.6326617568209578,1.7348027879021126,1.6992173776337953,1.557873859317671,1.63517383023534,1.6591852150228326,1.4237579024777138,1.496779838643955,1.336213002275409,1.5764725100913983,1.3464110722252682,1.5348815623071468,1.5227087022792596,1.5610269187961614
1.309868661483779,1.3144650416888128,1.2786841657074568,1.252497939294781,1.499087224437488,1.4003905687978992,1.4580849004196306,1.5070414638012808,1.5540371925067558,1.592767151883234,1.6147026015396715,1.6132179139304608,1.581940151500028,1.6025508920445346,1.563592216234774,1.6005859948304104,1.588246388579093,1.564954216742201,1.5394287594091207,1.596974073328399,1.5746573423072492,1.558171765260215,1.486528124559484,1.5712179097737347,1.3122735143514224,1.450737262266704,1.2530179062888671,1.3954900887809285,1.2458579351801837,1.432537120796096,1.5318575427109573,1.5065113751838024
1.3014206090103213,1.2395027633073048,1.3266422797664652,1.328470968611904,1.4644937524918487,1.4370377183235,1.4091839390152647,1.4712288022571112,1.5302074565987522,1.51454442067326,1.5178603931590129,1.5327084430003768,1.4791680793075603,1.4546150515416503,1.4870557108256863,1.446058393110645,1.4583657521256181,1.424414122817464,1.4358517055393574,1.496386741918788,1.425774605104649,1.4349113419606885,1.389690890629224,1.5154994947381026,1.3139694766836985,1.4284774083810545,1.2297012876423883,1.3800048712263187,1.2252987760559126,1.3448810767659825,1.4264570122826645,1.4188541220207842
1.355003274114932,1.2553743251506062,1.3170952605558173,1.343281674111391,1.4377362273864016,1.3993051533509424,1.4180467573277191,1.5383091094277463,1.6039839337917707,1.5633318457200356,1.5567016266296796,1.6086404669511616,1.5981243983717552,1.5553954581730658,1.6019734823272145,1.589666472046503,1.6273773937532345,1.595045399471591,1.5643073518976425,1.611617762254375,1.52329131720391,1.5529611235410192,1.4932102843121953,1.5305396453745934,1.331162511472869,1.4960563765724055,1.343089627207839,1.4370070384066673,1.3095058629675143,1.3948406006014291,1.4575281084410785,1.4776833934527747
1.3606050448695841,1.2051405414512317,1.3742070636974195,1.395843396562319,1.4601633706059163,1.4298346816277856,1.415673609569656,1.563412566097953,1.6423552160091397,1.5710635380812286,1.5505198183218385,1.606970918421049,1.562982490331177,1.5455904885974712,1.5950069418742858,1.589110022873864,1.6128781058721464,1.5900155225346084,1.5585989388635346,1.58132712743832,1.5404332003565322,1.5516411054794648,1.5080896297157347,1.4615383533990123,1.3453692378598796,1.5205885747277044,1.3264594558593779,1.3604457533938583,1.2974753922766906,1.345748245269293,1.4746796750729683,1.4400239594924231
1.2792377413304759,1.2770445347008288,1.263765877165192,1.4100732965417822,1.5072638361002422,1.360293899108389,1.3720183337097493,1.5234833996242345,1.5651136467154494,1.523241044365815,1.5353818435901074,1.537940619834272,1.500352051394005,1.5429341343843752,1.5773901507908383,1.5449539303368716,1.5164612719955792,1.5157203773064762,1.5487070389704607,1.5216113285458146,1.5326352566742278,1.56288172239776,1.5343118114344692,1.537515986037485,1.3634288542146313,1.4278135042671158,1.3400327331570834,1.3057664562587115,1.2780208721240178,1.3678274162930422,1.5460301776647312,1.4303588157632463
1.355350589960028,1.2776627065619144,1.2777932571057138,1.2635834371644115,1.4650580997395761,1.3894355252274124,1.4819636873872257,1.534651910385286,1.551690070444729,1.5653729080369905,1.563324446259882,1.6249502078847688,1.5285818345445223,1.586104104999299,1.513104388965472,1.5377914448635177,1.5061763664202132,1.5148573940050694,1.5508715922736227,1.5477311306964108,1.5467480131957396,1.5412397946481986,1.4992106593573575,1.5470412292411684,1.3487096504607345,1.4714449357993864,1.3180181100922548,1.4294166795564935,1.2946751833579317,1.3817609391133623,1.5596086742786968,1.5142055671973564
1.3931738771778388,1.3238906500075556,1.3739598943209728,1.334916596095135,1.4813688843922275,1.4998108414193148,1.5421535631064445,1.513565351364885,1.5689453935543665,1.625180380427691,1.6177682357982295,1.674896815417046,1.620165741058555,1.6474290722755371,1.5856755181631352,1.5774032149594948,1.533045753167886,1.5501940042424502,1.527468311514224,1.5330332428335114,1.494870820860025,1.5276817235589706,1.4608110652590174,1.47691163563322,1.3764604931584834,1.4739150626068935,1.3286589619049962,1.4559156512919242,1.3548797031076014,1.4258462593619727,1.49560638653993,1.516900537369058
1.3145179277846548,1.3581682108812592,1.3467984403643452,1.4068154556774737,1.504537350045662,1.5504616608951214,1.4953981906197968,1.5350222615981275,1.5217153513286097,1.6656848851162223,1.6192847264783623,1.560999419655231,1.641315214695711,1.6176895555927226,1.6344224324964602,1.6742112683767143,1.6439534001445832,1.6453901904393018,1.5975489673108587,1.5833182210579302,1.4921705604406525,1.568048993167073,1.4314438792523854,1.5058919486552291,1.3909208039544902,1.4686662625160405,1.2989070810164198,1.4857953977534153,1.3353503873574981,1.4491999473180184,1.455688820490066,1.5569143087435207
1.341530413042856,1.3979275379409892,1.329653165538252,1.4169943685200486,1.5353331144622637,1.3931802047391415,1.3975568371326281,1.5670649757916473,1.533215114312934,1.5436630153147737,1.5302157578765199,1.4853831501121348,1.6148491620651033,1.5296638132679854,1.5520963857032999,1.6041819213895547,1.6416337909046017,1.623089026911045,1.5619366126082654,1.6276792778227012,1.6113171300255134,1.5730976786438187,1.3752839687339733,1.493875708804305,1.32795014907456,1.479321641116645,1.3504200089921878,1.3755647718552715,1.2696197612324114,1.405452878739781,1.5170209508537835,1.5257921424817056
1.3234539780077867,1.3814071308230114,1.3017915526083683,1.4229983212658053,1.604893601919025,1.4505493565646144,1.345510880292617,1.4601687206597687,1.552222546375951,1.4897100304131938,1.556618346862532,1.5286064795354104,1.548625753346132,1.5336035310725162,1.5568433314883336,1.568326810609481,1.5824491742867146,1.5755751108820946,1.5649781319834037,1.6075879520806506,1.6156069150060401,1.609022673770131,1.512688844818584,1.4480115809841672,1.3338944432477198,1.5158606498841654,1.294665797963388,1.3449435886929406,1.3002636620282972,1.402338041762748,1.5530381228919268,1.6262729672245426
1.3907565298438336,1.3131296075831005,1.264082002232859,1.3916983053853003,1.5222441082668423,1.4988480050751447,1.4186198577123434,1.5186583638464908,1.5170371511208642,1.5588274400379003,1.4971281211397833,1.5463390217828885,1.5705516321798532,1.5911619863201658,1.6508963044385834,1.6454049193445144,1.6177952419802233,1.638304025307232,1.632014667496838,1.6490104784298159,1.6606181541620852,1.5788073185312304,1.5982362563860821,1.535972746703026,1.5238447461858475,1.581446075777488,1.2071643276721578,1.4747659508604567,1.3170405018016598,1.4313487953754465,1.5282316300479093,1.5901881922867276
1.3524292196503385,1.4002307989144709,1.2831406871949933,1.3790602570765154,1.5219927106225646,1.4796004904179436,1.4651719007463355,1.5572524775714043,1.5210041084450525,1.6023799388490898,1.5226577861940596,1.585723763740919,1.607530823453119,1.5736855206234608,1.6221244491823754,1.6438315992635084,1.65810240157236,1.6455327628894265,1.6374745650229197,1.6890365704698185,1.6349122146928228,1.5798406130733946,1.5740965449076472,1.624979171680846,1.4521336896366865,1.5680861121134162,1.3149175505093569,1.5090289491232947,1.2967397145341228,1.4896275793934377,1.573402714743036,1.5487439410506512
1.2726482536900035,1.3684999928019959,1.2676968811779457,1.3724882613191187,1.5978487498189295,1.3904915547811476,1.4024184890202755,1.5531190748475456,1.5341398445469294,1.59688682895908,1.5600358681408615,1.57540525237779,1.6217406414157822,1.6206422014469315,1.6317196744322005,1.6675275868190171,1.7171895236209342,1.7024864472593022,1.643305612603567,1.7340627135232927,1.5858899847840175,1.5890685777354512,1.5537486911464973,1.5293281014650537,1.35760746593696,1.5327520007348399,1.300591519083627,1.4375251802486477,1.327727389556778,1.462887328210722,1.5726615101549595,1.5296246941406006
1.2643367758663007,1.3723352715284,1.2833663301060387,1.38888572732947,1.5103504196485336,1.308459711346437,1.418422225183867,1.57889532667308,1.4916439346042136,1.5646389872645512,1.6114137827896724,1.5114713434161655,1.577785864419556,1.6317582244453086,1.6310257168340438,1.6325417602666377,1.643022797287358,1.6751458961121413,1.6298741736882096,1.65360898396091,1.5510246964244632,1.5506621995675516,1.4811471813903287,1.4451609914571175,1.3713005818291075,1.4292749219154814,1.3568069620072913,1.437610438492858,1.2904835919901034,1.4660510492833287,1.4302443685754347,1.4923480477837991
1.3624423269279127,1.2719977727916567,1.221490393469199,1.3252732148012876,1.4848298554219677,1.3248508484372183,1.4349629434102407,1.558984888238102,1.5483678407067314,1.5771023961051853,1.563483209397681,1.5155197670311658,1.552545100269278,1.5470446882860216,1.5988995196718787,1.6035364178443625,1.5535140953617115,1.5834968061731314,1.5737715176693907,1.57728028803659,1.5059818726077536,1.5585240093537192,1.474422436389266,1.4714808051358348,1.429251611552044,1.4621310765906006,1.40157941925349,1.4918845954314575,1.2962807269374146,1.526469099406057,1.470604360283901,1.4338056141680982
1.3204279659995495,1.2843715070153539,1.2948405581421354,1.4000008872296352,1.6025900928039978,1.4055556897681278,1.4481740064651565,1.5986114588839633,1.7202794228897456,1.6788130335427114,1.677847462933415,1.7131301149382385,1.6993294617142056,1.7672932835519723,1.7569467635194238,1.7204406866936195,1.6676281199758713,1.6459212266044143,1.5983430274340094,1.681303820661613,1.5563903627928397,1.5706082330521713,1.5216746708629982,1.5378243259079896,1.3804016390321039,1.5420862647844717,1.3495653908368603,1.3933330809723614,1.2974665548441786,1.4017896837404957,1.5030160259922434,1.4613193383896208
1.3058273198512487,1.3181607374203839,1.3592173008360793,1.4690029920953962,1.6065569583590766,1.3911296619507683,1.442305811884723,1.5869139770692628,1.6455291067897573,1.614721540127643,1.606020350896222,1.6673003377760678,1.6908954865270815,1.7138442336429067,1.7151890855490926,1.7082356762338606,1.6673709018593865,1.6464934010237884,1.6550200633615935,1.6479978068104473,1.6111077823400515,1.596199731984012,1.5183457997496623,1.526143075731763,1.3556260834379477,1.5181497916011442,1.3091853167089993,1.343369590534976,1.2697510734717272,1.3884586394186407,1.4440897292015515,1.5557193900711237
1.3513164734124825,1.3028426619680136,1.3407887999157608,1.41320360653526,1.5332090063714816,1.333157135528053,1.4551875264770788,1.5830276841256663,1.6038832305815374,1.584759302990196,1.6168264135313712,1.6574440049207313,1.6462823180492396,1.65081610436219,1.686068828857092,1.7024167271263855,1.7107833495483904,1.6981483117464529,1.6617252663609887,1.7127975446543702,1.6153756167369961,1.5483543472174868,1.5848040947338393,1.5920993866503597,1.4398192763244158,1.5240967675920694,1.2889046680325114,1.4724909151547136,1.300447647228305,1.4339461009066423,1.4645431079553763,1.4913396976594275
1.3659312387754041,1.3279597278766007,1.2319711445742765,1.3791668990698787,1.4333548547399428,1.3552610411261339,1.4126730816981474,1.584549338331245,1.6016669100995375,1.5708022701593307,1.5980589906098488,1.625431149792667,1.633142364431741,1.6122769611794925,1.6346478555858732,1.6459426369123558,1.6797722862228055,1.6597441230875822,1.625174241478195,1.7171711953656006,1.5769887867069174,1.5636027513487638,1.5877043854683188,1.5574334482641115,1.430582786107399,1.46409874978703,1.2496336188384576,1.4891114355186932,1.3698145795015928,1.4648119308224057,1.4624838107462876,1.5535395872454667
1.4166919626770573,1.2999409752295061,1.2605504586826108,1.3693687546061981,1.5205888039699649,1.4284070465137941,1.3288585922831553,1.4607450711901917,1.5214918915980644,1.571146072884677,1.5870623046648729,1.5169330405641086,1.5550029210631584,1.5622140199341452,1.539036911366054,1.5855107316756352,1.5770778651316113,1.5798591112604117,1.5369241726514844,1.5564607009141187,1.5065008346570041,1.4964077694288718,1.5026288247376842,1.4461852388338094,1.385241666745363,1.4667324781305875,1.2818882706467136,1.3043102781957978,1.2720935953544394,1.33884940309514,1.501376309479367,1.5480007401117297
1.3935175352991958,1.251293324144949,1.214180577066832,1.467640939763203,1.6077178988984306,1.383180220701744,1.3019919418545753,1.5360020036598632,1.475606913936368,1.5999484499783765,1.568678581122094,1.5437483178795188,1.5542021410494058,1.5753788648769986,1.5897057758503732,1.5900677599481055,1.5844434849878095,1.5716062705327782,1.5783888895636278,1.5690188320842617,1.537386547678344,1.5121908506562645,1.5546147359884943,1.4634094189752649,1.3417299655367532,1.55904789650423,1.3516352661139006,1.285886464973238,1.2391603064768253,1.311578880987953,1.5439636266311043,1.5776873012662103
1.3573178379994055,1.1960484840876575,1.223606787204756,1.4346114263525251,1.5804453968160401,1.3845398330965941,1.3592093366315248,1.4648285750612098,1.5667005112667896,1.6467003397465259,1.6304903723054878,1.5463826176871827,1.5714454479630366,1.5767919994802087,1.6292566058409839,1.5992043029496756,1.6109406391995373,1.5958689919921216,1.5897912800636396,1.5820573572632306,1.5614316761377922,1.6027228255953092,1.5573037572799469,1.4553981988741223,1.4226434879463652,1.4978007471807826,1.398052350626502,1.3556060559556573,1.2712590273229663,1.3585947639353186,1.5373683335386894,1.51507059778732
1.3713639262733113,1.2657352220007803,1.2790564447423065,1.333901041526535,1.4563994411653223,1.4422039899205483,1.4293184917119912,1.5271969609902825,1.5395319517185122,1.6859129182466397,1.6892189069755819,1.6097040429673999,1.5824713072782919,1.6572427345799758,1.6381669588520342,1.649243739124002,1.6365243834843841,1.6169355244050805,1.6146938748203965,1.6200746398614436,1.5784044604667333,1.609823434297409,1.5189994965282574,1.4607813239841754,1.418729912703751,1.4486041978224313,1.3468210406120134,1.4183385801143196,1.247780205155326,1.4233085030256591,1.4015943405642999,1.4888047707349255
1.3292703790699474,1.416127604613241,1.2465680254615155,1.4043394606068822,1.3815411692729638,1.2991194429302337,1.3890077130373109,1.5284368901472123,1.5362107823296256,1.6362067454533442,1.6706922805742332,1.6021019785106683,1.5783951713347801,1.6520699375235466,1.6248472004453292,1.611190420167122,1.6448619546403886,1.6541397695807514,1.6446267313485907,1.6626402458515002,1.603391521331556,1.5822829396369191,1.5390984531525167,1.484917505986104,1.3236612499234541,1.413097527923514,1.269374151093311,1.3657920327704822,1.3170484211253979,1.413659731580425,1.371041626318179,1.4594604857213427
1.331327569744721,1.4101980756442785,1.2164301245513962,1.4019262968343318,1.454072686784748,1.3205317236162508,1.3460241810168612,1.421271767428338,1.4924846936770453,1.5044523718686802,1.61061136236144,1.5770877021670018,1.4823548015827483,1.6386089184535892,1.673738203467846,1.6230606756931287,1.6289055144411586,1.594509843468108,1.5543885997562437,1.6289429562375364,1.4835293636503,1.4632316451299632,1.406776109820276,1.389204442619152,1.3186817433642162,1.3636086015491329,1.1969228975153798,1.3798482697574979,1.280826904984508,1.4134604114959324,1.4917606495701172,1.3818252453175977
1.3670122645600982,1.4354061486190444,1.3485448272758283,1.3893174548785683,1.485373926016638,1.4092834952702782,1.3717072340027396,1.4395332018022604,1.5438623571039927,1.5847220882045907,1.6264274722006347,1.5478560667003827,1.5406171947117893,1.6289591316849659,1.6642497711363138,1.6418298037009138,1.6634682133678602,1.6426482436599734,1.6078513930678329,1.6737225186065265,1.5686143966739141,1.550740728666131,1.450894938900592,1.5157535060007186,1.379052891507296,1.4454775035174112,1.2524264484621606,1.45409735775644,1.2788019299870492,1.4299195707182615,1.529667760648828,1.504961392908227
1.3154507460299527,1.4066388452108165,1.325051090369066,1.3900532998105197,1.4539025433787442,1.442094944574343,1.3701730187224412,1.4841035941826057,1.5810392469106758,1.6335645006045465,1.5762719706280357,1.6076665229192746,1.5409878482193606,1.5334857758761804,1.5468434774219677,1.5821250381713663,1.6109207228091618,1.5894315205494645,1.554989261088232,1.6387103854238545,1.5975101343556237,1.5470130880772859,1.5521687480669357,1.5702882824681461,1.4268951657085212,1.4751648780589492,1.2918064670133254,1.4271435742578966,1.3367569624291427,1.407297443284934,1.462804946429234,1.5166770656241482
1.311230825037959,1.354580759308917,1.3041230639000014,1.368818039952171,1.4633323832454581,1.343421761114335,1.3683943896697843,1.5003165720956313,1.513485225567468,1.567350870407373,1.5667130051907943,1.6552364346532906,1.5619273927824,1.5765445628669086,1.631603325928152,1.6587534279369425,1.6462126295322497,1.641423758456861,1.62255740375361,1.6569223855950443,1.587351730918571,1.486710559058033,1.537859587551198,1.5376918480785877,1.3323493183755235,1.414125625834451,1.2919251680074777,1.3736109406805763,1.3401436247291696,1.4654286548818274,1.4376278544342893,1.4984247489575084
1.2823497271037312,1.3190925888747327,1.3026598221503136,1.3484711929187763,1.5565672000545125,1.2733059578595671,1.389179747305852,1.5082694355296764,1.4810369857237866,1.5510682641417661,1.550445438041656,1.5811753124216328,1.456067471350775,1.5246012931174642,1.5762787150043023,1.5711159331346014,1.5893896938196341,1.5839320347389498,1.533379699066966,1.6151613151355544,1.5771529278285779,1.476592835384284,1.5188021116300703,1.5261831592481396,1.4031559037353527,1.4749576923665295,1.3063365378016558,1.355681807755456,1.3236004743890806,1.4624063523671582,1.4917581630152656,1.5644828860155269
1.2490964573071748,1.2748041115719972,1.3347970279394084,1.330476597438308,1.5703996275823393,1.3179479346462553,1.3990509455278317,1.5231852124698093,1.5457981717381764,1.579169698607703,1.5751701188560114,1.6239233167120644,1.522402575994296,1.5770095905188846,1.5941432482517808,1.5749229661504736,1.5553709245007417,1.5724015493095445,1.5440804322286892,1.5801491120400735,1.5071154317454305,1.5094059991959468,1.5031371156571736,1.5073526631502858,1.408422236243179,1.475492648434005,1.3641590343928027,1.2719415294120147,1.3345276572077625,1.370476701828217,1.513154717051984,1.5415069764859335
1.2438193297695466,1.3066716849377067,1.3092301332605427,1.3680809922537343,1.5441098383461993,1.2880492426532981,1.3961398653864772,1.5144041382399742,1.4865926580901794,1.547812196089904,1.6366442463281923,1.5999523996869607,1.5993359811716414,1.6657023944949176,1.6067631176239556,1.6640334493743385,1.6259302125804673,1.6396198290369102,1.6322303989811675,1.6272439693215037,1.585730295422612,1.5405485998086728,1.5006782494507631,1.5324344953036704,1.3583344062337281,1.4077778464516264,1.3600470504020303,1.2948105488712152,1.3044935053627646,1.4605646006319302,1.46432611611644,1.5017966774730604
1.255338389286725,1.3977595999931547,1.2846993986860236,1.402206726787882,1.4978991043448513,1.3178211475052206,1.3657162658391508,1.4955397502168553,1.524909573009105,1.5866383895231582,1.600724983905694,1.5589316629323469,1.6086868173588245,1.6125471234552333,1.6308021310095573,1.6234924767707997,1.5904414371988995,1.569015104947188,1.558665450342961,1.6027152996001124,1.5816692418500418,1.5079354257763906,1.486163952366371,1.5729459001403974,1.4153591937099264,1.4139025873929914,1.340795561044316,1.3765663710214529,1.3117333345569393,1.4756774064643878,1.470274376632778,1.4759393368146454
1.2617708569428834,1.4035946040048095,1.3117954852960991,1.3892853221243748,1.5380376821758657,1.3592487228553336,1.3934039566905272,1.5260573186969753,1.5308868722738957,1.5988625467556619,1.59645442212047,1.5630088834487519,1.5355116010711496,1.5603363835139874,1.5893499042553945,1.5632977782897521,1.548070643652894,1.514601842630586,1.5373490232667826,1.563808641502942,1.538642814079598,1.5096168079051302,1.5540648988462828,1.5857000990084098,1.4482454897864117,1.3807158478916748,1.3004391737435637,1.3409018400188553,1.313198899236367,1.4488944595816529,1.4739070688467037,1.5035485331026248
1.316059261611453,1.2969547140291748,1.320253986352482,1.375606962366829,1.5391595006915966,1.379639206721603,1.4374156965572933,1.561821819023664,1.444979652844913,1.565350158365635,1.5916777748901432,1.4645978313642007,1.4501496628951134,1.4849605031852626,1.5071280810643435,1.5197529041765827,1.5181887263098945,1.506324487037439,1.5069836220119357,1.526121264432584,1.5072568734893603,1.4955126061409887,1.53282227851532,1.4937100639446752,1.36354001702652,1.4190712734922397,1.3657124802535157,1.377070987598695,1.2940438344510319,1.3872156377752731,1.3855432059129773,1.5040627404561986
1.241050830366771,1.2593562166016523,1.2532235420578677,1.5159199106441974,1.550945087185321,1.3944479138459953,1.4016504842602162,1.6381617113420233,1.5241022509229705,1.5745147270437434,1.6602868639833133,1.5293293344395869,1.487912394226228,1.5780840290672686,1.633897991381009,1.6036543936048535,1.5771532472493333,1.581673067995977,1.5210415858905686,1.6114665878176182,1.499956090706728,1.4760706634074447,1.5285320061205059,1.4389804838762341,1.4396280508879244,1.4999016818576143,1.320278144545817,1.4130713584211199,1.3052620616791075,1.367062843087009,1.4983779306325105,1.5110392789832483
1.2649554027403216,1.2526622967582735,1.320042934248286,1.5061310828826762,1.4905022589875565,1.4422774988750642,1.3440077947446205,1.5387655837546024,1.608303753442541,1.5310160638817787,1.6596099030705627,1.664227122204237,1.6405769314546899,1.6804489142764005,1.681502221771436,1.6191424250766853,1.587511004480704,1.5775221496285512,1.5314508849234516,1.56130833469812,1.4856725098584367,1.5044871321764997,1.506793490998579,1.3567926605626217,1.4113132049115042,1.5114369936722207,1.3164717533792751,1.3120953861481437,1.2606915932166276,1.3800402683375865,1.4714164615831145,1.4979099340607331
1.3306657832621456,1.262818388272757,1.3649755924701945,1.458789499972319,1.4736354139616175,1.4645946290898006,1.437396772876843,1.6177528053982033,1.5536313749171173,1.6023209148694797,1.6189060552491463,1.6422879331079145,1.613902835611353,1.6182319296030576,1.6570665225661407,1.6503004295129462,1.6530668345647754,1.6660774926796384,1.6481740840201136,1.6187604081775306,1.6199769789501723,1.600741508287753,1.534037955874213,1.4099643237137423,1.320886336350832,1.4734903343140964,1.316688310599266,1.3613441667634079,1.2779820837701452,1.4278244732568113,1.4132891136832926,1.4914228187301057
1.2604823141470105,1.3092842293323999,1.362301628080267,1.3980773096650767,1.5746211718255836,1.4780682125466484,1.3693034187379223,1.654051715081861,1.5434258841549366,1.617045263173139,1.5611062647923766,1.5660520070023147,1.6375480720487725,1.5831924447515424,1.623234387346644,1.6449218434649362,1.6437590815599112,1.6834612333088828,1.6777084279989787,1.6360403345040007,1.651007459638509,1.6238888320168838,1.5656555531908458,1.5087132455889638,1.3601520224513781,1.4260092079008708,1.2735252593376487,1.3814316691975306,1.2844603412231332,1.4554448203956483,1.4597994123746247,1.4907382894196475
1.2442783927712515,1.3258591735173508,1.2363044898460311,1.3922039641762516,1.5764070031864863,1.3516634967981662,1.287829326416392,1.539985963099898,1.531715030902668,1.5404270849711,1.5446432674650887,1.4950355157685984,1.6212015437422187,1.567998112420214,1.5478864127110448,1.585098123467969,1.53977780504861,1.5793635386318154,1.602378445523907,1.5401293977208441,1.5128309334786219,1.550914880381895,1.459573193728811,1.4712727896400561,1.3489644734141129,1.345303003898758,1.2457248294813397,1.2209771702154568,1.2401531897473583,1.3278654102458702,1.4585258979196698,1.5201419653588113
1.276248154298875,1.3372286203445554,1.2256323301776693,1.3927698122259804,1.6043078537700601,1.3325007872137136,1.362314423543495,1.5337797824219932,1.6350458850876077,1.5955288775941043,1.5968104525727074,1.5613694296824303,1.5346137809132947,1.6022108732974056,1.6077717038908566,1.6461721739948187,1.5911288946084114,1.5601456670997107,1.5718610859271196,1.5378754347562558,1.493950400413933,1.4926111252984653,1.3672111649763925,1.4518510087470287,1.3745805938985152,1.3720919735326877,1.2458232634581932,1.278551586324008,1.3173016081683067,1.3377190457751098,1.5075290836403725,1.4899192374045451
1.305452661191088,1.3140466976388547,1.3107073959068491,1.3676398187572452,1.5684858086257443,1.4566091130251655,1.4211224533244722,1.5686977969336688,1.582367974130713,1.5666709544256272,1.5877127484928344,1.5388942139505848,1.5849034699192295,1.573990402298467,1.5783905945990764,1.5967779932735289,1.591376619070342,1.607393632934777,1.6000894567488222,1.5708921640016775,1.5220807372491916,1.5380676268117015,1.4121533993763427,1.4146786810530443,1.2893926857190783,1.3955625592980354,1.3694582738444745,1.3066912765873462,1.3427214354401158,1.4027114455603074,1.494456057942214,1.4461772309998426
1.4093109385742584,1.3082392493111572,1.3587705443398568,1.4206802887915073,1.587727766242494,1.4488184122543903,1.431450127559418,1.5416038031779855,1.5579805090625476,1.517634325456357,1.62136374912295,1.5378021213528277,1.6303514306691091,1.668399259122873,1.6504062980360914,1.65957909455787,1.6632430427378921,1.6448575223416102,1.668817521111503,1.6680771927957612,1.6996620147100163,1.5817344242211635,1.5991320012828423,1.5814787591022526,1.383780511206094,1.4892046246017339,1.3636181699002532,1.3953849460307903,1.3463086867497476,1.4409093645677535,1.535875143141628,1.5313676626897015
1.4340545945282976,1.3816756170619406,1.3261936403676997,1.374803143649942,1.6058922347839575,1.4336384749397464,1.4264682582305543,1.5771103522039402,1.5574654287669165,1.592778363084661,1.6047212642846906,1.6364970345305894,1.6120302135101248,1.630507122405629,1.6422845739287852,1.6106112038436142,1.6349912139942024,1.6537094574218605,1.7231605753557513,1.6940893816071192,1.7239383955054435,1.6149644258206868,1.6352859857430888,1.6587260551835532,1.4800135313490543,1.5809852203159112,1.3294952184437725,1.533606034743764,1.3894323346210629,1.5608414086520532,1.6002916888521859,1.5948479844137857
1.4136057005911804,1.3984926522256351,1.3845639315981884,1.3964052937736846,1.5812599521853623,1.331246168243326,1.4085753911697092,1.5916422620159572,1.5442465364682507,1.6080333160800584,1.615031209867516,1.6968766361297307,1.5465702679999924,1.548772825460082,1.5634265678497328,1.5530001520824341,1.579475880914222,1.6214782010951654,1.7018288783453452,1.6790769977120044,1.6954338263513673,1.6063559792355244,1.5928617652348342,1.6746053965687968,1.4689342098916742,1.5375638893951105,1.3462648441927525,1.5180070223678164,1.321304634683734,1.5601345393095831,1.5494932982763543,1.5527390767911153
1.4350557526582692,1.4013437318426443,1.4023134193133917,1.510770648715293,1.5444259905756175,1.4033667238438436,1.458449459792006,1.5765771209037498,1.4784890170281535,1.6470591496951728,1.658419357202035,1.60568498787291,1.5653250766838596,1.6008898352128937,1.6247058629558737,1.605762957273971,1.671532177173075,1.6883739351978135,1.720647168629758,1.7117346370821107,1.6873465703425894,1.6321603409765575,1.574249226291137,1.6864539411070678,1.4869846200274495,1.465638637132823,1.4016323886442401,1.5629058353370975,1.2666079501021157,1.5670633020048959,1.5483471358625418,1.491321157445829
1.4326380651826458,1.3498255374703318,1.3634004512745277,1.4983824695596313,1.5672377916196956,1.4490957536321152,1.459515360875604,1.5828947539192915,1.5767774560925711,1.6632746741468951,1.6658760396242636,1.5522712905934046,1.5323373460793228,1.6222800560661907,1.6244908898648636,1.6187333827346606,1.5963937618067081,1.604190797088717,1.6158584136573297,1.6927598649723312,1.6543512031179706,1.5843338169397905,1.592284014153794,1.7036300211329658,1.5368753469806262,1.6100563514740582,1.40722903459491,1.6222137453830412,1.3513250964745769,1.5635688249934612,1.6168948057055668,1.5403759662464223
1.394261830000503,1.2970898919048752,1.3400054286663339,1.3727362153664309,1.4195850565308519,1.3783331128362823,1.4360970047602666,1.5682883448431035,1.5371916906546546,1.6690696389020618,1.6577238973729307,1.532999264595879,1.5315626686792432,1.639281778787844,1.6246807657887645,1.6274138090197554,1.5877875880707701,1.5914797916238488,1.6521692299556376,1.740428683647812,1.6803115166356584,1.6218909116579654,1.630459543793175,1.6608159819958026,1.4716210676211536,1.5943645002062872,1.406126669196275,1.5074635644180485,1.3406509772534754,1.4598180508442054,1.5092169981036425,1.6312362189461989
1.3617788136071713,1.250445023877376,1.3408354311844344,1.4132499226826374,1.397089198772476,1.3933319899611467,1.4104698644686677,1.5312801370032347,1.4789015513903163,1.5149576180833866,1.5588498053134376,1.6644514454375994,1.4776973988955242,1.4444818440566878,1.485979864626806,1.5344953491740412,1.556696948285487,1.5606575366646653,1.585365104235965,1.7021070733264074,1.5431943904022203,1.5499107719487804,1.4671184863013136,1.4692467473111708,1.3545632312126217,1.4972498643375134,1.4275391323541766,1.3721616801218874,1.378096467549831,1.3583876351162345,1.4428404824456473,1.5728349845201817
1.367485170656015,1.2548032692635867,1.386099884561114,1.3993769174432296,1.450345037208647,1.3805319783928884,1.414951157555371,1.5098327069726976,1.595185177870111,1.5909948491213382,1.577473952348829,1.6556352964507344,1.4908104631774988,1.4238059474588407,1.4518048565958523,1.4835342198548171,1.5429667462134256,1.5602527591142763,1.5800617159326027,1.6513079078563224,1.5804380523659942,1.5506824124825007,1.475262725146402,1.5212290592492352,1.41289205877242,1.456992748321912,1.269773030156027,1.3241444527438027,1.3415602306213386,1.3744297015468308,1.5212412373474538,1.4731949274928358
1.3548014027293969,1.2585077822393018,1.3881268929784087,1.3247278785325043,1.4029320073881866,1.338615795941639,1.4730683737745531,1.4374805312507875,1.6127122398301919,1.5605918279630122,1.5385587891635297,1.5924523471087115,1.5988463950737555,1.5948974401690539,1.565746762443255,1.5666795454528717,1.6244859976428467,1.624066988632681,1.6080745117044322,1.6027325531078975,1.60432385371721,1.5772080594528115,1.4606350906988825,1.5170124878759301,1.3211075553184841,1.3933538019856209,1.2296971442404374,1.382702856826265,1.2237584405145876,1.4175745928930918,1.4042520473268763,1.4793336533276982
1.3346935703957195,1.283905130259,1.3116284156709512,1.353804328468616,1.4121957616255607,1.3757865686927548,1.4568321309545569,1.5212744341358269,1.566656273292811,1.5863285049918934,1.6408170337321595,1.6343083417030202,1.5624817413949263,1.6923427693162392,1.6410228749516869,1.634643919264299,1.6030216283268839,1.5783464357188919,1.5611688043179441,1.5736240266374542,1.5894087040970892,1.5632332153613413,1.4263515460180147,1.4430424901105443,1.3113009211283324,1.3269805534113486,1.2803244068521038,1.401211064230977,1.3031308238542125,1.4235153778900984,1.4526128726889482,1.464055317017487
1.3462178549029598,1.3400506116563309,1.2885124242887234,1.4006031928259424,1.4984239525178429,1.3830522947323969,1.3699547518357793,1.5202347078517677,1.510903457186872,1.604752730155136,1.6913539483777804,1.580978425946652,1.5489278457087408,1.6696767429849952,1.6375733804771642,1.612344881313446,1.5710032320220464,1.5759501690650293,1.5817979327176268,1.5521104164974178,1.5630225190981664,1.5552477021976934,1.3776385474639306,1.4132266183892912,1.3104574357359302,1.3878544569425333,1.3267927254907301,1.381524414352165,1.3460507785779714,1.4689396343674987,1.4248176749352102,1.501841482546887
1.342975612486409,1.287702696409868,1.317090100647499,1.4135968669580974,1.5446515666200902,1.4144175263320655,1.4406290185654749,1.6605081554935326,1.5760893391378021,1.6763277551534785,1.6898425733937998,1.6044436561532078,1.583798527409601,1.5907817391904853,1.550275405017348,1.5644124145982639,1.5647456739324825,1.6115120722921137,1.6365020300988176,1.577388712403659,1.6076584913602727,1.5781284504677935,1.4134026638713388,1.4217931606992484,1.3567934110280675,1.3953755605762777,1.371176899923662,1.3605137887881535,1.3576188472743382,1.4097247332938272,1.5147066602948163,1.53166592724886
1.3673466964223,1.264553751242466,1.367893389162507,1.3520540403316195,1.5325050548933157,1.4328172602951943,1.432855077677899,1.6414891911349951,1.590051820152754,1.6263999839165335,1.6423260431440843,1.5540950270443652,1.5954738339685202,1.5146304184963602,1.5175713931991075,1.5619435864008893,1.5833837729089626,1.6095507779134077,1.6306960007073517,1.667826597062906,1.5787858208972405,1.5710140164338642,1.4678455284376657,1.4871669322894245,1.341206800345927,1.4889343258662602,1.335357133186648,1.2981831869336353,1.302292459159325,1.4147779398552147,1.564230689211291,1.5382712821976698
1.3724694393793313,1.378974421159709,1.3455152297215034,1.3658691673677514,1.5441392825130067,1.4291255815582995,1.3438544156021295,1.5215120918818033,1.4935692127025042,1.4537884141465682,1.5860750262421788,1.4966718692994911,1.4542243503832353,1.437420054366583,1.543774163797914,1.53640782536382,1.5194307599408476,1.502207677003263,1.5472793391420159,1.6277615872008284,1.5278832859283833,1.4928764176110136,1.4905589598947036,1.4866029416568873,1.370602395653626,1.4780625981382876,1.4058293160690878,1.3389591355363777,1.3634549200117787,1.464980569709248,1.5348280404554069,1.4942247256735037
1.3625701410500406,1.3266281442360202,1.2833274434568283,1.4213533618080485,1.4621512540986714,1.3490275834296033,1.3995079175632792,1.5196197430046332,1.5866457029060708,1.5867441444087282,1.6800449712880687,1.589144771843931,1.5984400360836082,1.6006792217152441,1.6291700931160429,1.6196609479612596,1.6244237141475437,1.6251540868176333,1.6552292525168115,1.6817417875175953,1.6606678489352151,1.6043049459032268,1.5515775185290204,1.6089574753284457,1.4659548679058674,1.445054999350569,1.3966959025698118,1.5021848763759273,1.3713776171573906,1.5448681024790212,1.5161064306071395,1.5986631696687619
1.3328306793307225,1.2874233353751556,1.3555057414048008,1.4210032889515414,1.5938802393892741,1.3507444722458342,1.4555302442067184,1.4995011662101807,1.5619021044466888,1.5804977353885676,1.6225516976984318,1.6048068922267307,1.5823265632060761,1.5896812274279222,1.5724428073829229,1.5792132403090897,1.5953217787910767,1.5976480837089524,1.6285674171761118,1.6384680351383136,1.6402478897697517,1.6351428551927694,1.5573562719685488,1.6052376517970617,1.4255071780164539,1.5033020971220208,1.316297593062956,1.4834933995430963,1.3505927790069672,1.4943263723317342,1.6050260848986757,1.6381708155091557
1.3477725131415141,1.3314707216366797,1.2910715424770176,1.4425896371341058,1.6072731194001166,1.4414146877728002,1.4857719504024074,1.5403627561651416,1.6131323660831036,1.6162569331577217,1.611914370455956,1.6077532996991828,1.6404885357060455,1.612319007986432,1.5787549645826364,1.6002564524325167,1.5906085336971394,1.6079839876926987,1.6258771309261815,1.5873516079598442,1.56555133516386,1.6706482360707011,1.4992879824845986,1.4942147802338945,1.4104081395560182,1.5432277923085183,1.2872328489334968,1.4500932391916543,1.3462213872889817,1.4383736546763504,1.6098269274538435,1.5532904102714826
1.389170535404677,1.2476874209916704,1.2853065873511391,1.4148882169627128,1.5033435521919032,1.4805642840714455,1.4352791666306743,1.630093449679475,1.57663347675549,1.6320003030512886,1.6327003945183107,1.5086586701533682,1.6446632628914686,1.6276528022578958,1.6603260487430842,1.6440403070136318,1.6889230170328038,1.6486234163024673,1.6704676824564066,1.6114944097171493,1.5926091079731874,1.690660782416082,1.534019513857971,1.4262445275595357,1.3915039529794944,1.4129177640804895,1.2235326327529439,1.3773716644290301,1.376267187436426,1.4358461334267358,1.473402207308317,1.533751533996847
1.3678410088253814,1.2653318804310358,1.3699666657421379,1.2966529764946342,1.461662382465929,1.4154801582375576,1.3855153142185035,1.5626279767986608,1.515623846378813,1.5879533758388016,1.6066221590273495,1.5414134140733047,1.604026095567867,1.5777055233746906,1.6099057795956409,1.597636677072566,1.6252238879859102,1.5644543123246775,1.572723645566503,1.544135021724886,1.5083349869920986,1.5714191531614428,1.4373600390869576,1.384890721537343,1.284127197763222,1.3488855864170295,1.2894761214141952,1.3954668138654227,1.3451564009814752,1.4497788072498525,1.3809239379370424,1.4801917964172475
1.3232107552096304,1.2755540699502521,1.315446479685543,1.27697666999531,1.432774890325382,1.3979935326738882,1.3048340513857202,1.4463320215570956,1.4883430658765413,1.5366685518455396,1.5303676058856996,1.5427206405314835,1.5587410051164883,1.5822390941877174,1.591746237051798,1.5878993046019438,1.5256122657598863,1.523630982115039,1.4975241239093164,1.493921895900251,1.4569902845440623,1.4319515442033492,1.386725199644274,1.3721384146915758,1.3377288112105705,1.4492886620059493,1.2589736339723037,1.3568580302176365,1.3079317921129632,1.2928058053481228,1.4257349171828888,1.4212720335302995
1.318444538477116,1.2900576694798647,1.3061316292987204,1.2685461207845121,1.4402718738202318,1.4139732244942125,1.3488800637379168,1.4675454310148401,1.490063529280614,1.5072969346592178,1.4437944281307737,1.569731874061065,1.5371888634305295,1.5453718243264936,1.5300798083579088,1.5409296540231536,1.4785390977053563,1.516111075568269,1.5155376194569328,1.4666594580696146,1.4932593137584134,1.5479211396672357,1.4945372402429546,1.441066049779021,1.3853224637934634,1.4315258012057364,1.2344751052201999,1.4028369212677756,1.3155168568888265,1.3548196811641675,1.4631725440730183,1.4976553472360514
1.310647155049783,1.2677816898517156,1.3058315143533679,1.2492663291408546,1.5278083395770685,1.4357259882219784,1.400065340075922,1.6049196348798112,1.5448638273000819,1.5647489289259575,1.5432334409032418,1.5733645720923646,1.55635812859027,1.64283350092925,1.5960479858485481,1.5933688640321846,1.6157697798249737,1.5909528142744427,1.5590112570898107,1.5464273009610003,1.4822696992167033,1.551237647246188,1.4833942398778588,1.4988617033477112,1.3554819006661014,1.4458655298907659,1.2716755222578275,1.4106150266701,1.3181232069846247,1.4174782954506755,1.476714570570417,1.5540503093864542
1.2906161038925892,1.2665149852426238,1.325628495747773,1.2569561786523853,1.5019407289231863,1.3326953158758614,1.3885499540818373,1.4772169787404468,1.4851697019315475,1.467644263939413,1.5045760297668582,1.5341275714146887,1.540934755303711,1.5915818708670952,1.5669778128380842,1.52899239932598,1.5706071730562348,1.5797702938495919,1.5448042853628563,1.5323096962067981,1.5059323983160755,1.5432385291123762,1.4416452039324323,1.5183969152316668,1.2764169376778323,1.385493273780592,1.342648606818004,1.3955752255697462,1.3085493917763116,1.3888876470257934,1.468016440469434,1.5602966140752266
1.2603941885279415,1.2576170988871056,1.3440167649770474,1.2999025501983639,1.5478184823806977,1.3289611048987835,1.4065027281447464,1.4388267321623593,1.5042528698524371,1.5887769803452227,1.5370132963029044,1.586822669857917,1.532940439390347,1.5872185465756135,1.587184785033099,1.6036134051592923,1.5435555150617613,1.5297721539353692,1.5336363022675148,1.484352532686814,1.5215883367155831,1.5254931164150205,1.4655965012216854,1.4760837767729176,1.3048225084520473,1.361206492327241,1.291419053250475,1.2933332722890851,1.252487912696681,1.3464353844616002,1.418812394111431,1.476764842671466
1.2545449192450158,1.241308941347292,1.2673379280447072,1.3336475347798504,1.5471154944037926,1.32843387383382,1.3715022077905608,1.3665787781710959,1.5480631719947489,1.6572082443638811,1.5843204035574647,1.6284510746823477,1.5921269236048647,1.6131410320310267,1.5944908413609276,1.632154837439121,1.6238991135903724,1.6257023536707378,1.6322359366178376,1.6167278731767312,1.5775110669479402,1.6061291307772068,1.4669218022214086,1.43495213610599,1.2999270550461273,1.4470698046930444,1.3315011179249616,1.3566599199417415,1.2487846879514737,1.3964586053979204,1.5007670087541822,1.6580445218940623
1.2873413435476848,1.2330050392562617,1.359402198165051,1.3984576671098152,1.6361819781469875,1.5100355448589167,1.4926557843110444,1.551628224997287,1.536111833100303,1.5565853010630786,1.5824249957170118,1.5776485608977224,1.6320957714768223,1.6232252770169255,1.6189250463520055,1.6517630572252342,1.6635928646593254,1.6603287744260251,1.6574766352570007,1.6196274352942244,1.5771849332373653,1.5882133723785716,1.4960877861574122,1.426524343869763,1.3727319217129295,1.483936439492685,1.3093332091049203,1.3483684851536648,1.2603682824216451,1.40094402038062,1.5298455071012134,1.6240241989858797
1.363091849184386,1.3465855270201064,1.4622637066765538,1.412941465358618,1.6140341649023064,1.5385585675883713,1.5866484490210138,1.6353379374127865,1.5630531510537535,1.6728568538864423,1.6388818727331018,1.5814245521860957,1.5946690962449026,1.6475138177766646,1.7027362570583087,1.671873434481824,1.6557874234164003,1.6447216477216908,1.6082705630752312,1.5861588043057644,1.540757644025167,1.5423370042995965,1.514365508694678,1.5337934493196803,1.3795734194860134,1.4569715091882673,1.2831996693451764,1.4626140830229242,1.3806109055149798,1.440188241840376,1.5350063384653994,1.5653641117113792
1.3816598599657288,1.4024770607684243,1.4540511999895007,1.4230804253670777,1.568640378622045,1.5574124241955027,1.5107925691375899,1.6067542285379655,1.6374750668951692,1.7717511789912843,1.723876374697959,1.62938468621688,1.671757825163306,1.6797870435083446,1.6959769069564559,1.6988183449117011,1.6761965577772648,1.6479085019561284,1.634947512255651,1.6070634762192317,1.5969844005526093,1.6245808099526653,1.5554027042427563,1.5382047275749076,1.3480720892932503,1.426091978598455,1.2774154516497753,1.4872768693402711,1.367274892023987,1.4990392009410263,1.563255739894711,1.5193876557443995
1.4057829332538283,1.4117564608362816,1.4714482645112024,1.4469760859645533,1.4273374981547702,1.5570160884559905,1.5544940132459013,1.6270563330662942,1.5503499052822867,1.7323486303794093,1.6985099121112983,1.6263155048742304,1.6499806249117093,1.6792424082783084,1.6707199682044256,1.7234080923465729,1.6809081853745678,1.6626905142535564,1.6782339272336997,1.6833108092231914,1.6688298591204114,1.6377407899341536,1.5908498048095308,1.6225301761673614,1.5476658236486338,1.49545883344479,1.3064254917002682,1.6096704926617558,1.2917093264076298,1.5994364213445698,1.5168870104784717,1.6149082761382616
1.4150630471985381,1.3611833202555723,1.4912966484432895,1.4440310198869084,1.4325517832833048,1.552491794331343,1.5995493987718286,1.6182556736262927,1.4887272131069478,1.6811859815257062,1.5780503576015392,1.5845987744145038,1.539882521036875,1.5254016574925517,1.5642524621313292,1.5793059591348377,1.5567278189733185,1.5248158362983524,1.569591911277831,1.69279686254161,1.6446967804623296,1.5215378408106561,1.5248462574636172,1.6677727529938915,1.546995475595195,1.464854841081095,1.3415466738234882,1.660823562488598,1.328228219934409,1.6199865430182023,1.507601546377452,1.5377727125130447
1.36687235708526,1.2965171047229982,1.396473783659535,1.4318132715353715,1.5227554575514517,1.5058772209904878,1.584948053164321,1.6191765184833067,1.4934015541487822,1.646585671593177,1.5943774831642843,1.5274693096942895,1.5298989626339916,1.5203621426446734,1.5318453919999162,1.519747794392946,1.5322451997584614,1.4948696185690065,1.467824885254681,1.6369495538892334,1.624265840873327,1.4753692825719311,1.504804403768126,1.6321840073426546,1.4830446486638462,1.378888153092249,1.297536232602078,1.6356651592307394,1.3420094036183559,1.6158282026651978,1.4753995938728393,1.4184893648758359
1.3310522870060566,1.3269039069462858,1.3820916368082505,1.4152922546158264,1.4801039098883262,1.5375479515356367,1.589818300834981,1.6850775942927567,1.5485463583168,1.6669483080050567,1.623164732182354,1.6620047234273687,1.5468486847234288,1.6060321604874803,1.572123060681959,1.5599776081361103,1.5438137985325897,1.541264019186574,1.5058646622077,1.6303607792430255,1.5612672825380547,1.5236870788695238,1.5102441553069015,1.5834542902276545,1.4844054109294635,1.4855305378756831,1.4087187164635124,1.5288287400322373,1.3535066492298868,1.5275431001813256,1.5540859142036239,1.5675600559470901
1.364273032172408,1.3638847664775076,1.398515811409647,1.4574476489739716,1.555242626430799,1.5482964267245847,1.6218517731357518,1.7328516233224087,1.512025538534589,1.7103590599533005,1.6631803317965255,1.637953793023565,1.524459586424147,1.614586684918372,1.6044564797759637,1.5960474288762732,1.5476395495000326,1.5358841722016072,1.5521754409636592,1.5908086166944204,1.6198508186190053,1.5536717205549375,1.5446116308429578,1.5691112954493533,1.454311974668451,1.505346770804219,1.373351453254788,1.4876260704515318,1.3111622065314628,1.5339480589567822,1.5586233397558191,1.6391675227017741
1.2833285726044692,1.296669422373403,1.3213515791698365,1.42769075718756,1.5060311723432045,1.3950250018105548,1.4919637689018383,1.5183315201100038,1.4775322789375398,1.6444081421371044,1.6167711148161796,1.5588430337492094,1.5314768589703445,1.490151461137405,1.4814061603779192,1.4680716667752023,1.491862004320669,1.488960966071525,1.5139112258631084,1.5355448288130438,1.5444299971414612,1.4782393185196918,1.4492702528163788,1.5387239620365512,1.3333601621582223,1.4247011322246899,1.2738266148348703,1.3512374787439727,1.1883574190294741,1.4536386223782503,1.420467171584244,1.4699243603148517
1.221213804575915,1.2528709745888564,1.2470996517795774,1.3838266827145917,1.3968104144981763,1.2793712400051713,1.2835673421889113,1.5347972824461138,1.5211367821261244,1.5539326307632093,1.518973118383558,1.56583640885179,1.4824393596397392,1.426729166173327,1.4379156768486319,1.4771703400380496,1.5100324490736117,1.5099013897726123,1.5400455625577085,1.5226455459143369,1.5534800664869695,1.5575760089242876,1.488450268916303,1.4536822838088257,1.3122672449845587,1.4238410675005952,1.2394624752599406,1.3331459750107508,1.2890590724028324,1.3629505489598128,1.4267906844791263,1.5385156585221276
1.2301817698881121,1.3080529341681952,1.3551762390286695,1.3910468972611647,1.413389642760324,1.3460893997805634,1.30627627083243,1.6011632692307303,1.5097386414057286,1.3970737638107444,1.4359035781966512,1.484855231695824,1.5146603335964661,1.4185162314629327,1.469541820187127,1.5241386941691735,1.5362855589193827,1.5581465229959368,1.5740167677131163,1.5349288789679691,1.510688463815939,1.5476167558581848,1.4784114469858134,1.4196895580440594,1.4188411303264608,1.4699035885456664,1.2709011185307402,1.3742926086335638,1.3514703000015869,1.3659677166191835,1.4511100425546535,1.5361298833019672
1.2659142835080024,1.2870056453585332,1.358631176044487,1.4196809840449907,1.4255799182783249,1.4672315939364482,1.4478236331419745,1.6326664129281716,1.5296781129271189,1.4815844950181343,1.5457031421934293,1.4474158654966833,1.5709145011681982,1.4843550072436398,1.5395354152071843,1.5729751399384915,1.5411440997234922,1.58167094324001,1.6119421848496593,1.5857909312126264,1.5782419600644186,1.5710391881577772,1.4160768730837399,1.4896617687881877,1.385774537536641,1.3744598936205505,1.3485654011359116,1.4835775850013513,1.3466874063845444,1.411812627539769,1.408054567563031,1.4261870879626244
1.387803397814525,1.2186742484773412,1.3203513722762152,1.5338895591607375,1.4669919356363907,1.5120039826535172,1.4310860295399042,1.5952123103570435,1.6232872436840378,1.5779598284365355,1.6263638572914647,1.5150690306403185,1.669058333720165,1.550091475993673,1.5886929211323317,1.5942229555447387,1.5654550693567604,1.6118779626431448,1.664229305988872,1.6087180049278436,1.6223117480060338,1.6073681681651615,1.481152090459402,1.5561913029984216,1.4033358280028492,1.4204817390054003,1.3382647556938372,1.4843642341358274,1.3768326175276704,1.5216336955256093,1.429859420312839,1.4747466284242177
1.44687675082848,1.3243154772748698,1.2775658568751742,1.5020008651524757,1.4801024851606488,1.4682284842374598,1.378536671344623,1.6050960126993103,1.5982129792420892,1.5539750132519128,1.5280872838495811,1.5471082084950651,1.5571034041101675,1.5736852780399526,1.598861864715929,1.5997009956930972,1.5710189523141713,1.5737555196101638,1.561064930572166,1.5862241598068145,1.5384271950290311,1.5127849478979831,1.5476379387585593,1.53987676842152,1.4260822242496551,1.434989432530211,1.2832073206624488,1.5303201016218813,1.3576670291557849,1.497395927514965,1.476037929021747,1.4864005102627635
1.377218904914805,1.4051261790734546,1.3315290025246294,1.3830086937793815,1.4823418135064519,1.4410689821963885,1.4122748940342675,1.512552741257653,1.5379830632532876,1.4820749852686612,1.5064912080903876,1.5134007036699115,1.5470566068214104,1.5615073227495926,1.6348481489863917,1.596220817472677,1.567413400835518,1.5900434497381248,1.5646218740270428,1.5294861406464724,1.530336049189308,1.5481463500760089,1.4992322330836265,1.4874710453748192,1.402549279160366,1.3742869262806356,1.2755696901134872,1.4802992491384863,1.333748411944723,1.419290509333398,1.5051812578696355,1.5329696602207403
1.3332353839789028,1.3364000855306366,1.3786660849028058,1.4953853375347794,1.5167564028751859,1.5332809594875063,1.5232545851502115,1.4747906236815742,1.5292123686503727,1.5805069568937329,1.6042520941706433,1.552201313331798,1.5376117626428916,1.5936827012686074,1.6446153758990876,1.6197806753706658,1.6131054266460878,1.5839805165310232,1.5431668975221502,1.5772929893533651,1.5171606520203735,1.4966378905500874,1.4817144412885355,1.4793104555747667,1.3751584933390404,1.4481304616682147,1.3434785231539002,1.4541078415500994,1.3630872738262079,1.4023586179236753,1.564991829659535,1.5028038773293948
1.3469774146639613,1.3045375536336548,1.355585843658443,1.3678450066131784,1.4970913954258491,1.403708377106224,1.4431352663508736,1.5495078261045936,1.6601619764694242,1.6123463034336754,1.5787334477202253,1.5678866472332058,1.6047552797143738,1.6200086108046121,1.5598664454158875,1.6031525621363383,1.5773654672265647,1.5798160042470335,1.5755760548262316,1.5998100504561719,1.5992740274887323,1.5210034437155053,1.4908100374155144,1.4609653247292738,1.3682859485471226,1.4233761158270235,1.3435005719198647,1.3438717698612377,1.3052942800138663,1.3904107072564238,1.4790810418539586,1.4619706521188596
1.3694514410157856,1.3980366221943548,1.3937532262715147,1.357355589830356,1.5189640466358036,1.4579706435711328,1.4512870455204328,1.532937259455373,1.5730817903109142,1.578145418206064,1.5733788881652935,1.6439824765226523,1.612511102458234,1.6007289262678757,1.6107506872098303,1.5997901297629926,1.5552020769055626,1.5733591891523975,1.5859747839681675,1.6337558594407424,1.6400308864893731,1.5988343145056887,1.5690938214817296,1.5682348825164645,1.4937182932645998,1.4336993850888533,1.3364419115405781,1.5000501662122498,1.2824644559428386,1.506559508278434,1.5444644372902263,1.5035257260966333
1.3842871304229796,1.345225908588984,1.400880567396952,1.3998442606108543,1.5771498570469635,1.4451177683361545,1.505243864545514,1.5938543795208688,1.5573829701865474,1.6224310831062079,1.6055766639531264,1.7138687783561095,1.555546787758702,1.5990556765874349,1.6165224039597268,1.5416683603316226,1.5190628021111743,1.5399831473896022,1.5639433526700615,1.6191175212497275,1.6542532776559358,1.5365649165647983,1.599718946838814,1.5854893530717802,1.5336686630687344,1.567316379447139,1.3849076159405074,1.5045917773663062,1.304019418844063,1.5309859838542517,1.6264744306364236,1.503250074388708
1.354695620525894,1.2449882211534335,1.2926186605817893,1.4455070756096096,1.5774683744564824,1.318979934489247,1.4409029145599803,1.63520468916689,1.6183731803428023,1.6661048465757564,1.6600037643804217,1.6153421296496961,1.5992929746793505,1.6396472607596555,1.6250209914480036,1.6113052702134616,1.5598835551792942,1.5491740423247045,1.5963647519226267,1.592998667682201,1.595517822878746,1.5866179447070394,1.4880806404419233,1.5325541193214767,1.3881038871821216,1.502299025378033,1.3905372803928155,1.4050707861031286,1.3163659217477703,1.4925233271293807,1.5853903196917074,1.4973727251077933
1.3030477955920299,1.2480122652442096,1.2974169536304636,1.455607129331214,1.4736020876350595,1.3955334419163818,1.4278576685169637,1.5687051863950985,1.5710159097108884,1.6266101472562096,1.6568450895034934,1.5617796571042488,1.6231919618247208,1.6097339467519125,1.5789060981499126,1.5958003426876495,1.5842018576426542,1.5825426740846589,1.6300863491967477,1.5604424709219071,1.5450990103824405,1.6300892374793983,1.4534527584803403,1.4028216021282238,1.2948956232891644,1.478436506829638,1.3755096538859222,1.405879892534353,1.3228409859761292,1.3748115524131064,1.5260032485221777,1.528396736999441
1.2819321743219807,1.2874886542362123,1.2528590453999262,1.4512904547695187,1.3960881174347672,1.334953363334216,1.3378799365837863,1.4771272973611949,1.5938340700004303,1.5567242987732923,1.5252506879069467,1.5627287123458922,1.6095967990030589,1.6077678949764052,1.5373014806561063,1.5707864707852948,1.5841798518826986,1.5939106296301386,1.5676241826278678,1.5849133307570435,1.43093358633451,1.549457575537064,1.472192822485689,1.4158738413736776,1.3036081709389766,1.4754031295996166,1.3629482123689036,1.3971924586434323,1.3288225045187063,1.370768234011489,1.4368089465825895,1.5280638724888824
1.2304638653659175,1.2794914385555396,1.2895400639900965,1.4521342403252353,1.495819667641715,1.342766448459437,1.3729873721812214,1.551299631147411,1.5115722331323134,1.4893306662721075,1.4948913654050358,1.5940508313785005,1.5275571988929415,1.581785435705544,1.5739422459146886,1.5661730012895458,1.575655766399026,1.5643975287309095,1.5064986270608618,1.5178321309684721,1.4582685915309523,1.5103691465501257,1.4884905082744595,1.3753706596393018,1.3318934879049389,1.4868519287141284,1.3699784543563496,1.3961806697858272,1.3695853530219264,1.354363488277691,1.4278561710006294,1.4998186868830397
1.2910678188862508,1.3534794689905036,1.310243482653297,1.3602694521589689,1.5058283746877852,1.4513451255264718,1.4948110829378949,1.612156177513448,1.504818149438069,1.565478728778029,1.5672227185007213,1.5628625679178796,1.5042219355333,1.601593744023271,1.551700168786795,1.5396654251646162,1.5393067494004726,1.549737857839429,1.4968539201092486,1.5301939289664717,1.4471481083833184,1.4929120897882386,1.4608141494014313,1.4170468815180943,1.373175954771815,1.4854062434313318,1.3520222487749107,1.4479955188438933,1.3602031349290387,1.3681131813580336,1.4811551147686457,1.533401301089827
1.305054040325225,1.350245375112852,1.295243049479247,1.4039598864710743,1.4853071439834593,1.423066892883372,1.4490185707527294,1.52304402070908,1.558905417441121,1.6255325118971995,1.636216634784996,1.6466069828580945,1.5845131049944938,1.637802031119514,1.591845846098698,1.6370499670629883,1.6596336676674013,1.6645739755554263,1.6117298769789337,1.662446573593109,1.5081781227587372,1.5492041491199058,1.4610298312074455,1.5216968290572292,1.439192780309913,1.5185860161329494,1.391771788438654,1.5132393476347588,1.4146944552975411,1.4369695863448029,1.5555980032157788,1.5084741913539037
1.3562820747623592,1.3136833290492766,1.3180199546140499,1.4049529649084398,1.5574429722579581,1.4718534537005,1.4262469093429881,1.6129417447791468,1.5102159224785596,1.6472048887155417,1.6885491383639466,1.6665928042618365,1.5470490284038305,1.6442977423551228,1.5883521973437287,1.606971687096547,1.6095952176086787,1.6118641877742779,1.5961186909330867,1.605008028334179,1.541199428680874,1.5285897584442734,1.5554365782522965,1.5034679718891362,1.4541205738919945,1.4956596191963218,1.3548052739536365,1.4553930781331694,1.2740402985503967,1.4577580774875691,1.485689683237437,1.5830592367524507
1.3712366786400767,1.3537519349617126,1.3978882123001584,1.3405864878073392,1.576533480958547,1.40779668913971,1.4250932391685138,1.5651675227675497,1.584423136780848,1.6036839882626117,1.674412879511622,1.6226944238115317,1.5418545071531788,1.650939524898546,1.6177129016160394,1.604659186312605,1.5670116913514223,1.5486485399825458,1.551605776269609,1.5594952003581781,1.5009520540373567,1.4537002062126552,1.525922809683975,1.4794866085923686,1.4007359943184998,1.530067910117781,1.423956629221672,1.4138068831450115,1.2513643324586303,1.4400422769848065,1.5255904618595406,1.522737275947051
1.276312039779359,1.2578172396604885,1.3941482215195922,1.356954693371797,1.5029913180765506,1.2994731153816885,1.3575050067866274,1.564171365371717,1.5445186679344294,1.576889732570758,1.6227620558276872,1.578445044564033,1.567962966031709,1.6111191427414266,1.6381397004713163,1.6480895517967682,1.679793875608293,1.6251914277647876,1.5798582268294525,1.6055195565203482,1.5169335240218962,1.483773472034425,1.4509477249952119,1.4506829694659542,1.3052138700101164,1.5035178911453737,1.3899905844097535,1.410256310311393,1.2817119255398288,1.4667108417413255,1.5418861754990794,1.451637028046891
1.3672710667733714,1.2752787659218339,1.344752509745977,1.3658231482216976,1.4670375123017885,1.3174677192471778,1.3876627593271995,1.5668967890566852,1.5499795280704534,1.5638105224771652,1.555014362942259,1.5983395742397524,1.5864545673840695,1.6230380694727538,1.669884699258902,1.6393908128808397,1.6400507724523774,1.629998959028124,1.5987373606518254,1.575020561954134,1.5862181526399655,1.5399293224750965,1.4024133646859098,1.4446346467461988,1.326424679405112,1.4197817768741643,1.2957144133954572,1.4178879852484065,1.346492672461183,1.4088567977793338,1.4635449768628326,1.4526542762986574
1.3151768559578547,1.331621317150255,1.3774690930647988,1.4367408121203329,1.5733832902945415,1.450399974029044,1.4393387972850202,1.5448135894715145,1.6241798825496692,1.6006690360005087,1.6231015540626585,1.608738830834592,1.5892615892466415,1.6289030719921662,1.6176764184296255,1.600171396935526,1.6082670460336896,1.607820572315147,1.600317039062171,1.622178683359669,1.5730485948388246,1.5304930136500858,1.450485547849334,1.4920950072849406,1.3781486828946157,1.4523686855357707,1.2748071655906026,1.454605111355354,1.360340098579917,1.41811197899933,1.5231812763028911,1.5127735797636865
1.359962182231613,1.333782939315715,1.3159962838284718,1.3974233008844454,1.6371684456984767,1.4163075623784436,1.487249891319442,1.5277592922055871,1.5922918915198614,1.6239355894189658,1.6490707360320975,1.5846705320834642,1.5922892212626876,1.6681732866813326,1.690699114492651,1.6995657721655806,1.6713612825471496,1.659172293256707,1.6104065340463694,1.643686674458121,1.5539987387934928,1.556536392182542,1.5179769045382134,1.5299614825195098,1.382745210820019,1.5179153073557305,1.3123388665136368,1.606437484170058,1.3380064856429181,1.5464086112851565,1.6290020103024072,1.6027642112163003
1.4069769342956662,1.3112940779397224,1.2870196309903095,1.38270093304734,1.5605070787616293,1.3957979154250122,1.50192650489969,1.5803215373128396,1.589484905922162,1.6434724826631286,1.624349652553344,1.6459132809718169,1.669068933260303,1.7120690425973095,1.7547934795077202,1.7376809263789146,1.7130862617362805,1.7087785860885063,1.6837936823266921,1.6050510881047053,1.6000734427862475,1.6982198597262042,1.651321641573365,1.5118183406663992,1.4090442004386448,1.5442288151486194,1.2312812563968065,1.5356062243673652,1.2711896762046584,1.5120285072430497,1.5657457161009096,1.6622329323236835
1.406308115359645,1.2831831673721013,1.3577398254864086,1.4181260849116752,1.555248184049528,1.5155947660694946,1.5328958125613226,1.679009087773222,1.5653597275633215,1.6959049202577479,1.6414255417455592,1.6007760098343349,1.5979815301816536,1.5757607155127755,1.6541330571062816,1.5529873818421998,1.5821093368566022,1.6107194648640455,1.6770584695248414,1.6153383974770568,1.6055131724593155,1.6898947933426165,1.6335589889509134,1.439814248568187,1.4164881062896855,1.4994246197746826,1.2745569791353277,1.4908780170100935,1.2946981569229319,1.477989427323087,1.5043162722868826,1.6284111992548351
1.4271135728203341,1.287875190670124,1.3610101644090062,1.436522930242465,1.6414583848615,1.4961195513691388,1.4792942007826544,1.6212313615868779,1.48432726733019,1.584459577219791,1.5663799296189576,1.5884181096040455,1.4864174190121666,1.5740492171672569,1.6074562636594014,1.5831169665819038,1.5826558288321184,1.5215561964999802,1.5547118675120146,1.5800288158577227,1.5705424456795778,1.4963900630823583,1.5230046920743432,1.5037103475873885,1.3825732750316735,1.4901710492977864,1.3553906995715486,1.4908995467974462,1.3570228338626973,1.4617286885842509,1.5430895083605343,1.5350719061608513
1.3566004821959703,1.3221921425194638,1.31665232065777,1.4202389163169244,1.5415353132828393,1.4603547922219005,1.4440375811240347,1.5438596643299112,1.5180083522800774,1.4901906267377667,1.4937379546439387,1.4994612820677324,1.5868548173774442,1.595857758238412,1.6184481979113168,1.6322821773848726,1.6450847227049508,1.6031350238233095,1.5943670812018078,1.513103488934546,1.5948802908655957,1.5695284504525497,1.5083947131866435,1.4715864368319673,1.4183962842780906,1.4082469926626922,1.3472944074593753,1.429655610152193,1.3293804269805531,1.3848099153391364,1.5158063899716219,1.4836568138250918
1.3185805297723896,1.3085489382221098,1.330321603974329,1.4369190716523141,1.4830504177701427,1.4661571390399666,1.4757500382344462,1.508503731932259,1.6184749225612753,1.6167399217454848,1.6671103397041362,1.5132212126074194,1.5331424353986918,1.6411853991097334,1.6528357485209106,1.6333335403179992,1.6094664107484549,1.5846629620303734,1.5647446388504602,1.5248379614673835,1.528301257477435,1.519730278269093,1.4705093793723336,1.4123528438101727,1.2801389056099612,1.40999020853661,1.312771862171907,1.4149323491941805,1.3230860479615094,1.4056858826383747,1.4407999536995015,1.5342513316190252
1.3255520996596646,1.3120692887462853,1.3201296516234955,1.4016771039986193,1.481651570114072,1.3802732632948986,1.365912361757679,1.5722697201774014,1.5483481551234854,1.5580964758305458,1.572475691868415,1.480259851008459,1.477754754102426,1.5119670647858043,1.5118698133107908,1.4798922483768417,1.47002495721331,1.461448460127749,1.5057304832037934,1.4866425451070664,1.430176152001652,1.5246313777917946,1.4996249458308375,1.4939964488025106,1.2735197482960616,1.4520560814708436,1.314730562993733,1.376516011094871,1.3472398871521478,1.4050648197221878,1.4753754586581367,1.5750282057974678
1.262303379939789,1.3659497901141104,1.4034595315459184,1.3397790016651763,1.446931047811732,1.374378250606559,1.3875452542671038,1.5476433432199004,1.4995114420629836,1.5917493279351667,1.58441511069818,1.5375795472218008,1.5092551847829259,1.5452637456083869,1.566322632248399,1.5793192583545803,1.5649488377717986,1.5895082721225502,1.5810935616512278,1.6509006567375784,1.5676886709411635,1.5538283417164511,1.4768165621141411,1.5410997946882317,1.3506334728678437,1.342397327842795,1.3303188156292438,1.3383136813512058,1.3419090871220731,1.4093748637384258,1.4128118497599287,1.52840647737973
1.2798985562926555,1.3094660060697634,1.3462926384961702,1.3381808393960364,1.5468514092838253,1.3622584618026095,1.3265040228709848,1.5076812904530252,1.5641443601719596,1.5742402441358598,1.562141340952538,1.5751670691284585,1.6053879805119655,1.5762055743651897,1.5681664862542721,1.56474453906068,1.5573224877370104,1.6161764122963143,1.6393012607286517,1.599563323592048,1.6535140294781396,1.635995123550044,1.5155614241668764,1.5066666470414898,1.4010758385420485,1.3824684737886046,1.3859851673293608,1.3707272371459462,1.3624129864960688,1.447415768951951,1.4288644081515391,1.5385641051197347
1.3475740246210095,1.2642952332009494,1.3199335320425687,1.3752398789966926,1.5928556118064403,1.4746528173111355,1.3818361120929419,1.4369080335516948,1.5640823248675717,1.5758309505024275,1.5987465022660403,1.551614165948732,1.6072356043904803,1.5717382657014478,1.5815451654048256,1.491819501557924,1.5198440685841976,1.5996735107359592,1.6514487995151914,1.7015189668801403,1.6687874264427631,1.6520326104459824,1.5324064783361162,1.5263351289862956,1.4216299956866068,1.4601012797687065,1.3013659529692616,1.329196101394131,1.2406813708505582,1.403393828149918,1.4487435621169031,1.4978033599918197
1.3445103350468546,1.2745910037688213,1.2514757054159158,1.337796157740444,1.534052223268129,1.4248679157472055,1.5308130942640605,1.5303074759741577,1.5882009427135197,1.6050556204600877,1.6495242805647665,1.7102752895073061,1.5997822134763868,1.6139522306133456,1.6320084865300768,1.5892434430839484,1.613538480900947,1.6138405451156277,1.6129533737190884,1.696617393645525,1.671371786747975,1.574249647966236,1.5730757133275295,1.5086955606162413,1.3440843931863065,1.4543074593093552,1.2871904854786167,1.3761605401175452,1.202498624903057,1.4466650666637813,1.4252249820988907,1.4942829431702451
1.392251964516559,1.3573976326528168,1.2669066935586397,1.3602856257503344,1.5094869967178055,1.3514780258260914,1.4261488840536862,1.5533198168513844,1.5849306102551712,1.5376979597967748,1.5323127881318364,1.7654899098297436,1.620123234530483,1.5368660173015187,1.5334290950718683,1.5898178429272927,1.6115656992736815,1.6232026358237925,1.6118494625186983,1.6233744400785715,1.6266231241531988,1.5902841609929763,1.5489588112756354,1.5720207046027694,1.4135391131353305,1.514270080491426,1.3114537048543764,1.5023055113416295,1.3117148460553225,1.498435177649162,1.486211253014851,1.5810383148753946
1.3863049628518276,1.3139693943274773,1.2779724508737675,1.3596703951103482,1.4952670208003105,1.3573806690704238,1.3560590246010442,1.5827596323714777,1.613457478764952,1.4962481478157985,1.5388190077913007,1.555987992537404,1.6171236879488178,1.511044548886602,1.5526746446248703,1.5337867493672441,1.56404358922559,1.5867780100408055,1.5774510084464382,1.5915821865946478,1.5831318148746294,1.5717342882462269,1.5503915203914156,1.5800199767162346,1.5162936668347256,1.5304235383153117,1.3033484704467575,1.4731538146732222,1.3373220248914377,1.4961733319282706,1.48339303475242,1.5844161992255321
1.3251047030994763,1.4086111254191003,1.2858487110046881,1.390348496811135,1.4839526344560026,1.3655495211830349,1.350225816959029,1.5817413809343024,1.5008446209946744,1.52218406214454,1.6106375364913184,1.5974778022768008,1.5873304476718022,1.6064640011808937,1.5714171342157155,1.5668628721174032,1.5530044684006585,1.572084503241978,1.5427650152810848,1.573483444302393,1.5527951261944104,1.5529528670019412,1.487320564951551,1.5444377908453302,1.405502396729813,1.4866494170746467,1.259116262446025,1.4058749607799743,1.3048381965380547,1.4276645036572835,1.464075956322472,1.4920688088225682
1.2414138357569011,1.367307464318786,1.3000321122847829,1.4152804863410922,1.5330765464269358,1.3320152868278663,1.3440491267541474,1.5633809539785022,1.499955656887101,1.5530312433502844,1.564504840603382,1.6218582769450605,1.5338465544116056,1.5898737311067161,1.5456267051871475,1.5179342822700792,1.508469367585649,1.5220832912323832,1.5062808067928992,1.5340602399960082,1.5444010752071549,1.5330660376833911,1.5311073981287036,1.5346546627686573,1.3583339258277138,1.5044386216046275,1.3281905202945146,1.3801404522986662,1.3041014635561166,1.4305565781433625,1.4923024118126844,1.48005945260966
1.2170195804930868,1.3098917611766705,1.2593772223755653,1.4095422105669686,1.5291539158138865,1.4138786400654877,1.3203160181689964,1.49997508157343,1.570371936113968,1.6035717142305177,1.620938885109113,1.608165828824988,1.561773035382924,1.6137843983373625,1.6211252957947868,1.5637188826431745,1.5276167643009484,1.5299345051226096,1.5334712855496473,1.5268602265178417,1.5130936411012141,1.559733583901796,1.4798951296083467,1.4738939220494958,1.3543915269804052,1.4914757709358417,1.3059503063490887,1.3581729139582568,1.323963401142645,1.405374805851342,1.4471888027257545,1.5514362469065521
1.2459342616235496,1.3024748179229426,1.3035905501576501,1.403509925896364,1.5975982628802472,1.3665718646981124,1.386605694415858,1.5665707248835756,1.5225495574690069,1.653710290134088,1.667688168200196,1.598779875087542,1.540965952693558,1.6286493032706508,1.671923711127492,1.6170441286178932,1.5979600147555546,1.560999321987045,1.5430332816055536,1.5950759033623478,1.505645629881575,1.4853457545656925,1.5135506013253222,1.4456348465289277,1.408250289442156,1.5317647056706607,1.3149246831756791,1.3702505796480393,1.3576657656907594,1.4506108048790947,1.504464730578738,1.540372546128392
1.4433737265986248,1.3111211680256551,1.3493886011441647,1.4257514821099095,1.5665576018602672,1.445941204803564,1.613629567220153,1.658599594471062,1.5214749497527111,1.7016848771985544,1.723164975224239,1.5767327463488825,1.5385012744795528,1.5956566349839827,1.6414324846804504,1.6644745275741246,1.6860023572165004,1.625260692309391,1.632039011017323,1.7328081206982069,1.6500095969854693,1.545826112189506,1.6333462011772248,1.645551159208174,1.5340572694416588,1.591513694225814,1.3205901351807627,1.5304524062874851,1.38742763676689,1.605442228987543,1.592804063944668,1.5472731884365316
1.4382255460284645,1.370624254292244,1.3903469631298293,1.411159813511742,1.528774265124903,1.4544230207635782,1.477736858029433,1.5991064764737979,1.6146287687632923,1.6744228128328833,1.6991294586729162,1.6120453541180648,1.6647243969111958,1.6289512609781294,1.6033236741965495,1.6509247691649525,1.654058587813193,1.660322877933754,1.6870250034763927,1.7284346179647523,1.6925035948645992,1.6515084640586055,1.6519602906683206,1.6915039631069064,1.6030849974471872,1.6226339607072722,1.3680592888533982,1.6143188719621258,1.3843077086589506,1.6141303725219693,1.6338077221821672,1.6331984009315967
1.3202068675753087,1.29609131768288,1.3303452235141229,1.3395161174823864,1.567603399217883,1.399782119658481,1.3716121684116147,1.4822790436418352,1.5724537727230556,1.511692385705491,1.5573628746223425,1.637847798223288,1.6560047552916282,1.6651466426813828,1.599777493732017,1.6751511892630526,1.6249051598094202,1.6217677707188076,1.6775817150747288,1.6236027328509823,1.6257680523947042,1.6119088501436984,1.5698010090322807,1.519096784114063,1.4671541273965925,1.521411391409454,1.3760818207469967,1.4301112546670607,1.2811727325256792,1.373796395749273,1.530770410465531,1.531613603351132
1.2764316347051547,1.2202914607967696,1.279844550289611,1.3212894181293804,1.4857529510164291,1.3130153642426619,1.335001833671631,1.5002068999480054,1.5069661354605715,1.4694584204576648,1.588736093665868,1.599033723894909,1.5589172086332863,1.5949834222036616,1.5939151210772904,1.627488972034208,1.6043064609792113,1.6184494932166549,1.6267337661627352,1.613918228855623,1.5918623739327098,1.5550130796886612,1.4232617417890863,1.472145105582214,1.3477292109504515,1.3800298286383885,1.3622424606715218,1.4020885363084465,1.2645035705827643,1.4254472568373069,1.333364416539486,1.4646524312699813
1.2844947702694849,1.2583096295059992,1.2157075579838361,1.3704173628501888,1.4466919330514905,1.371244053284641,1.4300431263082196,1.5348480704139211,1.5292083477873666,1.6103566987078068,1.6266293418838627,1.5928749751813236,1.5205124398878282,1.5188171021525132,1.4973958646498462,1.5185976433813246,1.510051062439045,1.5185271944318623,1.532659016150746,1.566354604621599,1.5723530691496546,1.5629803188088556,1.4416498427889743,1.5110678482922788,1.168118788805941,1.3823277633110418,1.3465673913552176,1.3958455066687065,1.2366645762443111,1.3973588204758842,1.4035995992946853,1.4782818493722147
1.3202686138311435,1.2598222962944703,1.2269331666792753,1.3286780122075077,1.4747824287438938,1.4214598993154888,1.4169487985125786,1.507792475422059,1.496578427218771,1.6186618755982096,1.5673970248330313,1.57935340982767,1.510375301940052,1.6027399757263376,1.5985220831726212,1.583515341295106,1.5470533143264211,1.5114154607267876,1.481927694720678,1.523605753689361,1.5013878573076913,1.506424421390631,1.4369055093704202,1.4985683891287513,1.3194165706718335,1.4316540433054834,1.3435952763996097,1.315279340686437,1.2428792780395108,1.298075868732382,1.4756115546411532,1.4280095505464123
1.3570777550303328,1.2837396105324455,1.244647098546971,1.3518049927552898,1.4965670614404678,1.335650863540635,1.3844326108937448,1.5347480126516548,1.5184179308079675,1.6477251683388265,1.6257667627525687,1.5993018063926216,1.4961812179197598,1.5918142408071692,1.576907389252587,1.5985236716910696,1.5731233095565207,1.5269523555450883,1.444585901234206,1.4819101088378837,1.4275712972912373,1.4055797063698503,1.4355899256255382,1.409747756200569,1.3516428966434502,1.4503468982065002,1.2949733646919928,1.2992131125318707,1.3223960064067222,1.3013857432922904,1.4222960115257082,1.4600083187597308
1.3509482973242168,1.3207243829491582,1.2756847987774824,1.341403168643666,1.5739396168238284,1.391134293764541,1.4709617008729527,1.5905615868724436,1.6105930916593585,1.6907204204465909,1.6653548129885478,1.6826044418873372,1.667179196944635,1.6642163330083797,1.663592798510156,1.7001310600313813,1.6885733961206149,1.676761622884828,1.6178537583202468,1.6481622682704726,1.554217384246242,1.5839861098064385,1.5187816788192727,1.4937706907910941,1.4474114884405318,1.4567022858111354,1.3326520184518433,1.4061884224518044,1.3443745206794429,1.3753779570803795,1.381081299082607,1.5510377258406547
1.289956612302892,1.2946315675031246,1.3368014997620443,1.3416911948877193,1.6099247047131107,1.4296974320793612,1.5090168715308654,1.5980385330335287,1.657564670423941,1.662497533819806,1.6346161446992047,1.6856689578953792,1.6925339740329082,1.6812958058938618,1.6897499513733831,1.6644846948325969,1.6426178976099752,1.6516785912375407,1.6213601450637831,1.6145185379051938,1.5505766894013022,1.6025770766541103,1.4991435719413708,1.5210189236801839,1.439879384926531,1.4765722529445109,1.382073074108653,1.406422555824508,1.256568234147478,1.419818888948814,1.4651396661328047,1.477464146784322
1.2946377516184786,1.2590312735912013,1.3711213777176832,1.4222303944082664,1.5592906699502185,1.341375230641309,1.362186156680044,1.552752050369215,1.572190766774773,1.547859162001117,1.5451028288210382,1.5680261071256294,1.6056268052488236,1.5896834476968438,1.615940006998523,1.5928330665397792,1.5144426233472539,1.5140631159544735,1.4876206657835784,1.4763851656306797,1.5598139422546242,1.4912809067029558,1.4745151136208046,1.4706743681098726,1.3487358551453283,1.3796473723481917,1.3451637892326453,1.3306035673727248,1.3158541943467443,1.34195101672571,1.4991586765197564,1.4952033570212782
1.2896876066553937,1.2896385145922986,1.3082066607693035,1.3727978212986078,1.4732145498239793,1.3820599132539255,1.2837853711104454,1.5207239893875755,1.509942474406882,1.5812300675616333,1.6116961862298458,1.5345794774747474,1.4660983042362947,1.5288786964983192,1.5120162946417903,1.5177013618763,1.5336921471146727,1.4994735402916235,1.544284746952494,1.5407197531985435,1.574339330402496,1.5027041003658967,1.4185428611488715,1.490200591479791,1.2195476570431028,1.3566524487833134,1.2898627125553492,1.2821088115875245,1.3090233468314594,1.3730924896132644,1.4438484866677121,1.53861712165577
1.2710862663447313,1.2322119024165157,1.2687078900613538,1.3619438562155208,1.4112679563236574,1.327678776965638,1.3060990817804476,1.498852475735695,1.5355098021032063,1.5670248150211215,1.5734904571309962,1.5395575932061036,1.5679995258711286,1.5996727568241784,1.643700676204111,1.5840828636958595,1.6056085545069352,1.6014482027111614,1.5755384250854143,1.563982265242421,1.4671012377963157,1.532346675538915,1.431584645667931,1.4414084579894362,1.2788718710435603,1.447116584745168,1.3118397226245053,1.4140012633636676,1.3179193285321071,1.3857709059390357,1.4386946438174493,1.5258749715167648
1.304027300603519,1.2597812275676106,1.2166345720955667,1.3752196741974048,1.4351378953160734,1.3675146079165417,1.340192679987986,1.5311239028847783,1.6387245874696579,1.550229331170044,1.5562898846588549,1.553864488853942,1.5726234168166366,1.6025631150373518,1.627365429401515,1.6147645329045655,1.6215174045213279,1.6162923648497423,1.5412649725734777,1.6205245867179259,1.436111627007006,1.5216110963648375,1.4395083469843815,1.4325500708482144,1.2462697311541444,1.4015647793679331,1.277671462214937,1.4149190157511948,1.3644624373287,1.3874923822618221,1.4135713716170741,1.413444533954745
1.2839422676171577,1.2655378979830814,1.3208983261764444,1.3615722683877183,1.5746964786354714,1.4210826946886344,1.4100663553436537,1.6589752548972645,1.6065156686571918,1.6125693830997505,1.6519920372152825,1.5847949501523633,1.5346570480960826,1.6385735701939455,1.6883337068995217,1.6630129088448853,1.631332358948976,1.5852740598091257,1.5272409290414695,1.675477109020395,1.4954599961041417,1.5214046166597224,1.459174660552912,1.5213188955456758,1.276114486888165,1.4213033205211214,1.3363681558976324,1.4474549547162685,1.3492689471744435,1.443923731947033,1.464273710226295,1.439366653758676
1.3161616652382695,1.3210705047257998,1.3016235024580483,1.3399750672654491,1.5525634318757242,1.4087945359248677,1.4454476532591736,1.5802861312631702,1.573173127896321,1.623258877407026,1.7064078438179546,1.6609547096786559,1.546129668254368,1.6992489027929119,1.7308755089337873,1.6895925014633868,1.653124663295055,1.6277249742638986,1.5751944290707713,1.6706694959562796,1.5458614945639746,1.4910556836009117,1.5002872164773073,1.5094077095647842,1.3474048867688868,1.4623405582353315,1.3914104870510227,1.5233609783058448,1.355062785308068,1.529750427852274,1.4795675575635288,1.4794621108038344
1.3469328747296134,1.358282289267834,1.3323190251522106,1.4233221928087063,1.589073670733334,1.4658064206150292,1.4174193699313962,1.5457810187235501,1.564596735841334,1.606724932251266,1.6614194316080575,1.6196479312685403,1.5905804234711063,1.6752943442837187,1.696262483155407,1.6674534851124299,1.6573934625543563,1.6663692758127064,1.6086675245062803,1.6804893243032157,1.5972561257405193,1.5206447095586466,1.5167621236784699,1.5696656387341288,1.4004771120238513,1.4206738619762034,1.326557899892974,1.5014904304579484,1.387376932794197,1.5847858984822139,1.4715133717032387,1.5117823650346454
1.3082050085019963,1.3290317928927524,1.307182344359026,1.4305620749448054,1.5923522685792644,1.4334228892252474,1.3536339856019997,1.580104083483533,1.5769388073988937,1.5743678507313357,1.645872463283923,1.5601456892975558,1.5943826646429822,1.6158491362351983,1.658879132536821,1.6460006764694541,1.6077342403068369,1.6043649771501296,1.5648836032754099,1.5952259734884133,1.5291122374569088,1.5248059425886806,1.4667815688009502,1.4808777118033458,1.3472812477400853,1.4617382809362125,1.2709076930486298,1.4560108398257101,1.3439846841699623,1.497652499332531,1.4954398461147453,1.5066597554872816
1.3163025039163225,1.3135826654780356,1.2727463336427758,1.3546478870761363,1.489874441757035,1.3579527194051215,1.3428708268642433,1.5420893192712082,1.5589268404039875,1.5191109651863561,1.5910673530425352,1.5128602498196053,1.566709932361852,1.5858197737360564,1.62796890984318,1.631633110219269,1.6245973449059865,1.5973351268055997,1.5355149531267462,1.581661360947994,1.5435816159548583,1.5340351202170615,1.5048097220875185,1.4026989325260002,1.281734769510636,1.4947293475300063,1.3494451330815855,1.425869723896085,1.3336769878121064,1.3916000661482524,1.4726627415092959,1.4939741511010474
1.3871869537999006,1.2805134835051117,1.207777139708488,1.3779533478419725,1.4540807122938466,1.3547633538824717,1.3675289873404735,1.4078754695906697,1.6643475190364638,1.5960222180615247,1.584548929663518,1.6275388734314562,1.6489767177993435,1.6726091274661927,1.6763448367781622,1.6776334367767296,1.7032564965511998,1.6982738359277563,1.6164944289349295,1.5970707893649903,1.5675421892816843,1.5902801504718553,1.52839086803318,1.4033841368942805,1.3528043932291536,1.4884446921539074,1.4139511033633543,1.381891630726474,1.3615106305680318,1.316329956655208,1.4291163480219562,1.5094375119369117
1.340204761645738,1.3595004713405534,1.2154206339570202,1.3542002609966584,1.447455780146003,1.3755799092767682,1.377912212059287,1.5370120488206056,1.613500201320492,1.719236054903525,1.6860210062642849,1.6777265206167544,1.5413386183891493,1.7023222712460007,1.721713276755104,1.6887492994994302,1.6914808142460664,1.6095959844620225,1.5562245799887546,1.5911778702883579,1.561247729249621,1.5008375625030628,1.4985096522281798,1.3722252580210554,1.3435769673893898,1.4918392391663844,1.3873222044844564,1.3678848484672332,1.3787653463034213,1.3886969501156334,1.3930486849125883,1.5644763029415105
1.3329208660704615,1.3456463205408624,1.2329586174190776,1.3722785849703816,1.4963989701905016,1.3047541969584509,1.3985736070683377,1.591335396761028,1.5995827641825329,1.6227806504126316,1.5744886132171971,1.593909040355163,1.566433214059789,1.5868261246377668,1.5754511950475718,1.5615272948674084,1.5483791068367851,1.531967527591795,1.5460602827552912,1.5719951260924947,1.5736765120478842,1.5175766575422818,1.4924600373203556,1.4790425160445655,1.4013216998288975,1.3556726931337455,1.286094949958152,1.3958126452405186,1.3451471777951913,1.4684331451793604,1.3311738806184112,1.5553355383863483
1.3574420512547207,1.2558292779064104,1.2516353962622553,1.4010898446396762,1.5442199018221447,1.3421898579827212,1.4185349558930096,1.5168848774411436,1.5666788599226882,1.5808901301810523,1.5294512147572128,1.5526898513586185,1.6063303455540496,1.5565848343809001,1.5996130668914037,1.6279080503063765,1.6644112754640916,1.6226990680068585,1.629940550173184,1.6448670300570285,1.5691424623553463,1.5864474444309953,1.5254773846028524,1.5592765540729785,1.3480327731483344,1.3158423249562763,1.2272427177757745,1.4722107543724392,1.330882807279544,1.5186189719731507,1.3398886005797592,1.5174547086128831
1.3010323588865096,1.3660183749179455,1.3301214128513232,1.3750049612981847,1.4920091643004578,1.458829626946133,1.4149859363555461,1.5003873206801261,1.4486376835694803,1.6096658544808664,1.596929678179089,1.513106533798296,1.5620335097260396,1.5964031121649782,1.673081307480952,1.6563732037368046,1.675363229215978,1.637472255775871,1.6092833398296922,1.669324460468447,1.5900993895539102,1.5831826426222928,1.494088792844676,1.432720473390425,1.3471471319452775,1.4035589008106693,1.2629423946829936,1.4395745245884857,1.294478488077228,1.511267462454464,1.3578351401315554,1.5667565129836452
1.2480353889266764,1.3381786087974357,1.3486541630898636,1.3725393103264447,1.489848671055131,1.4061058281689771,1.375525914807034,1.470354038068493,1.551274283172178,1.5144610750519676,1.583539895326914,1.6009373238278508,1.5432997217979538,1.5657733737361128,1.5986036663213112,1.588930276839277,1.5596336571587586,1.5352642529714229,1.572551295866323,1.5494215380595207,1.49832907785889,1.575546771630598,1.4545917499683745,1.280840843576892,1.36261988558138,1.480203717512564,1.2915803338183889,1.4360979336182995,1.24727953071107,1.4202012747091437,1.4474639397021567,1.5441942406388394
1.312684853483857,1.3270009357471797,1.2821353034118936,1.4683061652877483,1.5325999076129715,1.430216248843261,1.412508200617141,1.4916166776043154,1.5918794223772748,1.5441216484018603,1.5884391720442372,1.662616516074421,1.7026642657856692,1.7081719410908336,1.717286500178594,1.7043498615534451,1.6833020640311935,1.6774294378717693,1.666445525972974,1.6629619600743326,1.5724660389717908,1.6406663633201652,1.576269340676615,1.4295267584353522,1.3756982634107489,1.4851806413926567,1.3220271621237598,1.4147842580949517,1.26042987081045,1.4156462568175439,1.5423359297615093,1.5480752408548835
1.3393802329984534,1.3600373730483264,1.3304750759775648,1.343248217022536,1.496645226081809,1.3673139180884608,1.4451015829511724,1.456278771773402,1.6110778506067256,1.5975699941318109,1.6262328717229826,1.6583886619380948,1.7452443822345176,1.7165240010158886,1.7415852216096621,1.7761233804281933,1.742747354494954,1.74023642159454,1.689360294403214,1.6640415265270536,1.5737279099649528,1.6236061113808755,1.5351012747444426,1.4659617609596611,1.3318063630743129,1.4479674687438622,1.3043672164581688,1.3663262851808298,1.2697000310786686,1.4301877372052176,1.4979591739297204,1.5344151346924504
1.331904017405712,1.3321385553146972,1.333944650055118,1.4023303785866559,1.5124204189611534,1.3965270635720353,1.3976195074832505,1.4993233684408802,1.579084380655575,1.5529530983740611,1.6070459000830695,1.5053213057125296,1.5964787969352425,1.5775390625197365,1.6260787694578858,1.661970668405961,1.648324086182252,1.6595388867374332,1.6717136070169023,1.7463539674656734,1.6932695999581064,1.5946595540879784,1.5898698056690708,1.6113431994960188,1.3870756233911936,1.465782687736898,1.318871929595869,1.4408291315868758,1.3267643463039436,1.48247675783631,1.3968644725004875,1.574303843516581
1.3435803519857976,1.3242016126066534,1.3025361738765366,1.4123468288580316,1.5218199749913635,1.5291389450456712,1.5279424709451377,1.5516509389109439,1.6292822916312657,1.5920152689531077,1.6409269920556937,1.5484491615377323,1.5960787564885968,1.6170367762962445,1.6419758024560265,1.6022989409148454,1.6192781153892386,1.6489784573282034,1.6748749401991652,1.7377272142200602,1.6569862562799826,1.6149965733992429,1.584784384727939,1.6392980825047352,1.4241859507802945,1.4961035520166255,1.326394026325936,1.5982945405152096,1.340770847792809,1.56366606382621,1.478104159089847,1.5726097893770854
1.3441512916344829,1.3350688208118926,1.4018053312967584,1.559964344664993,1.5587535046902263,1.5647744202166427,1.534557355006437,1.562801538287654,1.55887835508623,1.6679248052041848,1.6725158786535506,1.5833475065345326,1.5036220464761436,1.613753119855551,1.61267337212714,1.589906621217924,1.5875170317934628,1.561439764376653,1.5561812917763373,1.6219733667255132,1.5552040011707757,1.4359470740870823,1.5168441091713496,1.6554606870749276,1.4509753221781663,1.439832335543959,1.3137284460795289,1.6300852164793378,1.3016649965127927,1.579750177043022,1.5279171957379285,1.4558111110719143
1.3331461122382167,1.2847361112839746,1.3092784992701967,1.5742437112901502,1.5942353640151887,1.4117408049297466,1.5220094214694238,1.57161992828724,1.6073248543240337,1.6903107995370552,1.682096672036569,1.696961089465662,1.5671194380275564,1.6934548569022982,1.65769603172217,1.6572518828134495,1.6367170965536746,1.6198252225051368,1.5908348234028598,1.6168001350307988,1.58309202405746,1.532366393547632,1.519740549111884,1.5502438921700457,1.4425493671752192,1.4707725104532876,1.3858359159026543,1.4136211165907382,1.2843655836483132,1.4545305846368928,1.5077407266093843,1.4485458524356636
1.3875699954783567,1.2662564186612504,1.4044489956599338,1.3919200663960323,1.5962284261659025,1.500744282302628,1.6687508575173087,1.6940861665451856,1.5325891750637501,1.7185444738853124,1.732074454975746,1.5931569374878516,1.5872871061689235,1.6037893890949702,1.6016980204000792,1.6172083948327576,1.5930808600168955,1.6096709200826498,1.6008576688597091,1.6260850628326944,1.5765431108531978,1.5913845324888196,1.4965899811342025,1.484348491068762,1.3756948761808037,1.4896629121601797,1.3776623355890134,1.3498686287575004,1.372448286872105,1.3841896729914474,1.4963155172473404,1.51067623879187
