Fp1,AF3,F7,F3,FC1,FC5,T7,C3,CP1,CP5,P7,P3,Pz,PO3,O1,Oz,O2,PO4,P4,P8,CP6,CP2,C4,T8,FC6,FC2,F4,F8,AF4,Fp2,Fz,Cz
0.5299671960588321,0.5393656013883247,0.5277580125062735,0.4645954762282573,0.28215793462780026,0.4228010142155442,0.5091086181375173,0.37404639729708206,0.381117681829017,0.3869053542610222,0.41190238448672906,0.3581985936052092,0.40542189814415175,0.43375986606483347,0.4179575135656258,0.42268286225849133,0.4232382372732266,0.41167474077928995,0.42799047631382564,0.4485699605936297,0.4530901005224784,0.42919486793530087,0.43656665299941594,0.4598938688950506,0.464150385469481,0.44159000243539137,0.5076736207539649,0.4483679755611775,0.5045244601781486,0.4302333387545114,0.3774204847081116,0.40079080792163807
0.5350051242201679,0.5488873925359418,0.5265362545042852,0.44651106980778466,0.3462209808082687,0.446856486427049,0.4886693846648159,0.39045736325596464,0.3568132613410841,0.3742532648069953,0.37715571379616086,0.3433356529960734,0.3406780892728434,0.38524191653821493,0.34769109428558737,0.37931679786984585,0.372843758633317,0.37016549258268366,0.3977769505065019,0.41403845950481166,0.4178680675310852,0.40570230591841333,0.41300068356654424,0.4510910080862391,0.4981086179365814,0.4688714869734693,0.5159369757697364,0.472175544623753,0.529461682205091,0.4547834712220753,0.41432990504207673,0.4412554615301297
0.5310444680831558,0.530488471509515,0.52979512076455,0.4092248818845719,0.4145327004523105,0.46786017508691885,0.444595119540478,0.4199062551448314,0.3513234461313729,0.3868373256422836,0.40068572376720135,0.4012665648222773,0.38054406584534367,0.4132681295363077,0.378903692597511,0.3897168049883931,0.3736682712284564,0.3732575123639526,0.3740547735687074,0.3851912199301068,0.37977513516182204,0.37386047999699407,0.38490495638365374,0.40351401353518357,0.47866890722768296,0.46022334665317727,0.5220628498435393,0.4515575871929074,0.5162813809188934,0.4521876414370918,0.43711142219189675,0.4266761673988373
0.5000579137567905,0.5109946718316659,0.5101044022059898,0.43003183642075266,0.37872953995545183,0.44600723764380973,0.43046881869941833,0.3730983095930355,0.3490730775389151,0.3942928527443051,0.364870202201448,0.40277335776593576,0.3903718030679637,0.4184190795906309,0.37938494322440935,0.3796036911303777,0.3823553115532483,0.3853727662832936,0.3849580832698855,0.3839724163629056,0.4035636222825345,0.39075533331642504,0.40269312924612993,0.4015418040720634,0.47797515988027356,0.4436581269140269,0.5307594445031606,0.42810200217989747,0.50052452064371,0.4412466392093021,0.4094381338577739,0.3952119942468566
0.49852246012553775,0.5422660748896407,0.5328123974987005,0.49332228014319873,0.3785982518467383,0.4571801838056004,0.44841632529794134,0.356879082871115,0.38009841781486403,0.3835668306591147,0.33245296369493,0.39930885151168743,0.4010386658370693,0.4028809788877097,0.35311671016094437,0.38675833071171484,0.3963783164721049,0.39876199397355194,0.3987413958765728,0.41197952899923845,0.41102321049239193,0.4237997147686875,0.4348644005708478,0.4362198616203948,0.4790446038813552,0.4625980486582686,0.5262734000889431,0.4588985960615893,0.5348731313527759,0.4689900503301072,0.4270492741520107,0.3867946708957939
0.5253337134027294,0.5635444493099353,0.5439571903533769,0.5089208996994131,0.408723956617645,0.48654021258895297,0.5143856593383654,0.39260218393182705,0.3861467159825037,0.38187070128020284,0.3737390678577157,0.41324734163490257,0.43314627599997135,0.4302700356569263,0.3873948317989156,0.45488470714753826,0.4164316353516747,0.4132991869456322,0.4019854374443347,0.4113269771252765,0.40162160418450427,0.42441655985553395,0.421017176307422,0.42361653897446494,0.4870973398723037,0.44648461773951725,0.5351073910009906,0.5001826681831095,0.5632313435491186,0.5103534312751169,0.43216955971001747,0.39378886268965646
0.5476074750576102,0.5268455796951467,0.5256692959998781,0.4919246935133174,0.38830789629304663,0.45918051806958227,0.5201805610923036,0.40286572539686,0.3741684140621628,0.38866772388274534,0.4048888340829491,0.38706440643116147,0.419366170795907,0.4140036517069173,0.3749604246513529,0.4009159098185902,0.38810643366694364,0.38656682380796187,0.3820645922505419,0.38684308343745155,0.41254883861489267,0.3856914503927433,0.43529250141339537,0.43521232579354385,0.5029253997870216,0.43417751325041326,0.5375120742486557,0.5263643889006916,0.5639388612387422,0.5175587858772096,0.41952475778552634,0.4230193385401408
0.5401948532100097,0.5238976168110889,0.5225591054330035,0.5016155275415171,0.4008095877732628,0.4418106497512343,0.497529169069189,0.4140181757554493,0.3770888321395529,0.3857884743447505,0.42774908689997587,0.38379565046906583,0.421929826366517,0.40433216280379525,0.37700750045804293,0.37859708796134706,0.37687408620401436,0.38145142566442325,0.3788892743568179,0.3637187296772126,0.407631862784499,0.40794847188700606,0.3837128152240559,0.40434671540783734,0.49886168307260936,0.4448574917066846,0.5165637106307822,0.4921000812945028,0.5418131134482335,0.4588326927271612,0.42345816386906093,0.4414262715730037
0.5138415325646218,0.5336188990362933,0.5173225191653231,0.48209763389462823,0.4507014677484641,0.4530973665542312,0.5040590357153345,0.3166638584641075,0.3777995568454591,0.33390474407639464,0.3997430396720511,0.37822531325597064,0.4343811027752234,0.4374105919632434,0.40473328105650025,0.39916007293150924,0.39998905647076644,0.39806447215855206,0.39488425417154244,0.3604347479998878,0.39991730710466483,0.45225174259221596,0.3749864030110707,0.3862397557603773,0.5054487187027871,0.45858998005606183,0.522971341617377,0.43729882196460834,0.537374312723258,0.40107660656390615,0.4565848262852403,0.4329890151526539
0.5077311104154292,0.5448325378997214,0.5197172149527659,0.4289874571258324,0.4407428008599602,0.45863487081302196,0.4948175083615808,0.28805315186401587,0.40348237832813344,0.3521799571757883,0.404130205200686,0.3865830224220347,0.42201233572879093,0.4488397021345569,0.43332475336270765,0.4209977894729884,0.41702366398204893,0.4158728486054625,0.4279368980322375,0.43079388805168434,0.42114517432225257,0.437872921897398,0.41910412921530754,0.46083078766989893,0.5018372777054293,0.4722467129256409,0.5441363776740928,0.45364416201363716,0.5567503587226112,0.45990651656281095,0.4656491465905071,0.43637961475195
0.5148257993066035,0.5387191045241876,0.5320190685596856,0.47183179051711,0.3492954330502217,0.45714856785355684,0.49667181181849973,0.3269148247002857,0.39808578563698804,0.403213246953333,0.42142854881824426,0.41005363561915736,0.40801673598029625,0.3968394211372667,0.42563143477396015,0.42233600832335105,0.39456149171134886,0.41528880000519175,0.4261031903400631,0.42198816664993655,0.40789318606984026,0.42638538701502354,0.4310260300906005,0.4716243970172326,0.5111098339259182,0.47023001645920354,0.5370340378882541,0.48551098072318916,0.550647569341422,0.4693895991482004,0.42098714777430024,0.4452263706537093
0.49211006597484874,0.5125522550798103,0.5282721441085763,0.5245014110907257,0.34595863212427574,0.4603663700726142,0.483189659327491,0.31317005225505473,0.3720710749353467,0.40794034877906366,0.3823991308629874,0.3622327284950997,0.41377857326202766,0.3433029541028873,0.3673355358411007,0.3829016793905321,0.3838206670799594,0.4140656452922431,0.4178680737106537,0.41497976612125065,0.39108864841011826,0.44282287809854515,0.43534540422410206,0.4440237791958642,0.5213123816895733,0.4452115183816325,0.5265077975269122,0.4903784237112378,0.5473860881774011,0.45511286266503476,0.40499008392453567,0.43600178812974366
0.4587951214406399,0.5237738681715653,0.5014283989851485,0.47613994174401186,0.36079111998965346,0.4572189128722373,0.4443971339663704,0.31178710154459044,0.3574080975111142,0.3604063081359209,0.341615149460044,0.32403255100114736,0.39969345908396864,0.2833137826411096,0.3098621809754732,0.32555332894324424,0.3352194634371917,0.37918755543062466,0.3906449322826367,0.3706447909564949,0.3694122817470825,0.42791668733495564,0.41022888412190583,0.41050460773762776,0.5022776090889918,0.38901005850253983,0.529029967877878,0.4387666733637153,0.5343398635045691,0.43764360811403324,0.402541651148484,0.41983730891556903
0.4850737981814393,0.5246826613290109,0.494828145006014,0.4578151628948873,0.3484739455176741,0.45715741581737795,0.45971931821995227,0.36789998873464486,0.34336129186321096,0.35166065499454263,0.33407791409800286,0.33337306762401436,0.38981967180045896,0.3040961723093434,0.3096392141886624,0.29973630150437336,0.31052465312770666,0.35269739765391833,0.3653743452743896,0.3497921387112237,0.3711021586306694,0.4302295843297862,0.42714712319229614,0.42456431808430667,0.47990733009068937,0.36174742278527716,0.5291720877043813,0.4021481235347678,0.5154403041477581,0.4094187970754994,0.37903242183620806,0.400761362501426
0.5033735345156606,0.5285761643874751,0.5104675878420161,0.4090238357837542,0.3680445008911969,0.44766013219392375,0.44996579743062154,0.3777117706393142,0.36941437567393237,0.3647679797226593,0.3463426127677092,0.34824039597274875,0.40489036797431,0.35668635974305746,0.33700851481701344,0.341430464068813,0.35560104794543085,0.38635772421720027,0.38810870881820025,0.37708178271926496,0.40927434811974883,0.4572056876575577,0.45481992402810706,0.43441965521591525,0.502367789061095,0.413872775757474,0.5166257924649369,0.45103440261931294,0.5311265296636338,0.4116361833742268,0.3764939964657722,0.43264321999904204
0.5267178305616038,0.5356213018759576,0.5484074603860336,0.45260020959324504,0.396211054778294,0.4642985705601503,0.45177031610377927,0.382148563884872,0.43072148623208184,0.38320321936824664,0.3983517662361137,0.4067540591535395,0.4272533928119525,0.400851173333853,0.38222911724631714,0.43625328310216355,0.4339909667246858,0.430252486203775,0.4257256526932061,0.42023502922967737,0.40279320789036543,0.4490965596793133,0.4257878737706002,0.45396956919729176,0.5115490495451318,0.447122333066756,0.5231452388932853,0.4811625561343948,0.5380529802950574,0.46171963899469337,0.39071757321850725,0.4738359653161505
0.5445262600454295,0.5369437664539208,0.5404172515963,0.5322583584261731,0.4084618535392005,0.48752600519272216,0.4771382442499854,0.4277738528926948,0.3750179599347765,0.38250940330782535,0.4197739779587651,0.37029036463444276,0.4280608758075502,0.3998500554180564,0.3574752361672334,0.3814804972679177,0.4016843480815805,0.4114219201668018,0.41538411075839304,0.4257255842252939,0.4261222031548195,0.43552684039368256,0.4098431187578943,0.468185034104872,0.4933431516041327,0.4434610050157958,0.5375759279234575,0.49217130810371806,0.5284166120136684,0.47770392905798914,0.4124968759355596,0.4457535159607174
0.5392476746486817,0.5454260816399147,0.5290772951345434,0.5043267141693372,0.4014783292201814,0.49624313707443884,0.4795661294679013,0.4023724628510863,0.351392052179034,0.3628328380864863,0.3814384295786972,0.3606339998303309,0.42327227002730317,0.40521209702914684,0.36900324057632256,0.3486056815599303,0.36842877645730215,0.3849490020170077,0.39954999183725187,0.37856773796582005,0.4668663802986078,0.4077449201764364,0.391549350002666,0.4495171785802567,0.5007087519408858,0.431651357301135,0.5400145445088091,0.5201710314598588,0.5534109195579402,0.4604605150052011,0.429814579931701,0.3973971669986411
0.520114483516976,0.5466569342530851,0.542711213515101,0.5021725048316377,0.3959880805016454,0.4840433588854524,0.4887750286338951,0.3920272206622106,0.3801177601372249,0.39461381445073074,0.3662528512249174,0.3845868829922598,0.4257778862030295,0.4160050146077802,0.3647218663880097,0.36173955581062234,0.3628549067402645,0.38108882941674316,0.3762124413701321,0.3773437189025446,0.4273111955529182,0.34991671417576675,0.3880017306712747,0.44549921994220143,0.5046445989087228,0.39186979672067596,0.5280449875809102,0.5144508896771476,0.5657113494618138,0.4675433546118455,0.43094452656768467,0.3234911843450504
0.5099814312639537,0.5301671718128285,0.5289054363037548,0.48518754351416965,0.4313072503540851,0.46649880835221785,0.49873560489788926,0.3861781390913525,0.40762505937326526,0.4242210555761429,0.36099556877582006,0.37761807639424255,0.4180320958917562,0.39877299606193617,0.3472362400819184,0.36753849794466253,0.3634163521105944,0.39113973518501144,0.3788144962616746,0.3921341346576487,0.38188782402620586,0.38256611200051893,0.4255170563442852,0.45601598501015617,0.49980554891412365,0.38914661602925577,0.5103595478402952,0.5074839659628898,0.5348220823483963,0.46209521035781875,0.47300969428459994,0.3074214265125231
0.5386249174530718,0.5502592511346796,0.5377360898804271,0.45141199901045326,0.4505754648769622,0.5034061795194883,0.5058050141162808,0.366200907309113,0.3989623404777214,0.3918796294301106,0.36917748583817667,0.3587528384617969,0.40986545239288635,0.3780130686420103,0.3691158813462062,0.3823571231544733,0.3680420491094726,0.39703976249088835,0.40872477231086457,0.3877389428055485,0.3881390628116914,0.41217978574050096,0.39841861729724365,0.446030295732684,0.5036941427795344,0.43304747577675334,0.5429240596320984,0.4907444006905059,0.5180580098306086,0.4440103541217228,0.45778993499762105,0.3309173463203192
0.5466449781839601,0.5542501813001505,0.535900916443708,0.4250701501016176,0.37757369976173216,0.5208678579711041,0.4889077020384698,0.4092790329230514,0.38752555439362485,0.34976935880959686,0.4068044175222407,0.36643347830691597,0.4149563459825357,0.3829566241783731,0.37547405041282395,0.3762572454845377,0.3638687759862975,0.389373176718678,0.4268198691242966,0.3958623646159507,0.42508600779733685,0.4085449254231023,0.3914597723520774,0.44308656068841146,0.504157580661256,0.45914671581499883,0.5406425047448297,0.47331899496980595,0.5510176863196469,0.45808308013713633,0.4041112673198088,0.38326152721219037
0.5411415235226886,0.5443407210187147,0.5263285229405285,0.4745182780548623,0.37647302291918566,0.49767176607163527,0.4802257094578857,0.41983780357984235,0.3906701908812574,0.34915749510708105,0.4194687091548083,0.4182187746606342,0.4329812819488916,0.4253265936359385,0.4064368367080223,0.38576808231232496,0.373127844985633,0.38796695769099343,0.42189483959022944,0.39403013145074167,0.4310882995055857,0.4350204022139446,0.41405352574304516,0.46424200471543536,0.49770664525294567,0.42566107311220247,0.5303338967896337,0.47669560293026736,0.5513354901980726,0.47722213298129657,0.413031965930605,0.4601316625895873
0.5127763290543932,0.5121931366360702,0.5307596217327498,0.49982202417784805,0.38608151095759596,0.5247182053388864,0.46992927003695273,0.38725899968812677,0.38742080059479184,0.39087664211207956,0.3676238141154073,0.40590938282031946,0.4312113499410085,0.41789292447005794,0.39177579197023543,0.4025561607093132,0.3910713534880352,0.413589140339797,0.43297798757115113,0.40657832429612284,0.39837170184303483,0.43485486531099676,0.411634512928785,0.45868667847305183,0.4907055228346209,0.42619691131852055,0.5305345621517968,0.4588557168211343,0.5358275855441963,0.4561492006045861,0.44094711783995494,0.47668973309703605
0.4949736540297001,0.5077170941190349,0.5215213882215953,0.4995735698454719,0.3866585111258269,0.5321733535955923,0.4684364554042119,0.39190882389050075,0.3870438134177951,0.41556037018500386,0.3398658890782463,0.3624179758649736,0.3868410954013422,0.3832529133356412,0.3762489359309215,0.4020710282713849,0.38589750190113997,0.40228787771023283,0.4061793166411819,0.38601280551623046,0.3740881001775045,0.39779022955381527,0.3780910509254809,0.4152054757970483,0.4477231959820147,0.36505701640316135,0.5139968966920844,0.4345067876933313,0.5194285989510291,0.4152383107544456,0.43824264732896356,0.43044457499293465
0.5135039647370047,0.5423744600250223,0.5172360709820691,0.47121212915851085,0.38348530046530477,0.506507870553147,0.4862670618468087,0.3950073025481576,0.36778444489450285,0.36424352245409697,0.39178482563502176,0.39542835418592287,0.36287817311667,0.39716274402406015,0.4094037203935936,0.384340959399003,0.3741480996758054,0.38359450246359394,0.37601020027353116,0.37751185585912517,0.38962771453815276,0.376464772776972,0.3879388429720746,0.4145582813572973,0.4800771069639033,0.3685490420185772,0.5208210300186669,0.4487044678702356,0.5115496397924288,0.434479661871943,0.4236209193267222,0.3586651397354622
0.5226941886098655,0.5634585272710969,0.5435116265713554,0.48845438559722637,0.36995546187559764,0.48848169580753154,0.507239168568762,0.3969511375090855,0.38052682081583716,0.3490896298508746,0.4090074822566043,0.44452575688110846,0.41245186365347664,0.39499544590733343,0.40133843977332145,0.3855086709394253,0.37886419780244623,0.4123118558711985,0.41087128120418187,0.42176697370710536,0.4143266331858747,0.4106443139986337,0.4099577261099703,0.4701144684672235,0.5139138959999184,0.4356468914262911,0.5267915526627693,0.49851610493688037,0.5343243636083143,0.47922493568996866,0.43667581537316774,0.36944413899829326
0.5324849305514076,0.55473621099316,0.546192975607239,0.5100992975506978,0.40347841611775154,0.49043138324698526,0.5155739805514657,0.3637399079332498,0.3994642175802454,0.3808638888640985,0.3726940776660711,0.4346955064312619,0.3867140903977473,0.34495100476046847,0.3805276487364069,0.3454951474864529,0.3506448450931856,0.3741068645494268,0.41167535238917596,0.403925352040715,0.4173103053123149,0.4280364016393263,0.4143298689179389,0.46672888702490634,0.49668704429965366,0.4524311164837652,0.520739928406417,0.5083519248601391,0.5473787172200297,0.4921392317294241,0.42295969772486297,0.38950845544636753
0.5333159104463483,0.5353253919709027,0.5477557251078232,0.4880732391739651,0.392153164796052,0.4954572614362161,0.5101526925190385,0.3631657464556165,0.39886180170983243,0.39281004722952895,0.37422562335781423,0.3866735022852923,0.35104389170702177,0.3344623729130056,0.3911457060319426,0.31664652500321777,0.3440478344272536,0.3460475742105428,0.37311024482370697,0.385188686241983,0.40212156256892945,0.3815268841358289,0.42892845577933025,0.38856379503548,0.4735909001916286,0.4154103553205067,0.5027186360519884,0.47280694248620087,0.5341654441594226,0.4598618947366576,0.3640140959665533,0.3813750935097822
0.5303588366037167,0.533849629684831,0.5693906863344033,0.48939470026589693,0.38911611280763847,0.5044952628161308,0.4922167532551064,0.3268326520819551,0.38923060761639383,0.39082132449110496,0.38334477937402034,0.37288155705960657,0.3777544438870259,0.3722976200033279,0.3969253882260058,0.3690686505330911,0.3902170786503998,0.3873464871550685,0.3801686548755703,0.397534023277658,0.3714893557985787,0.37149034347500376,0.4209071480221618,0.3930842713997431,0.47147527788242155,0.42804687905271366,0.5311227303877277,0.4919036411226211,0.5347180552516646,0.450394437740314,0.4018411509029065,0.38468433938012486
0.5347000874020369,0.538441426549933,0.5535445001758792,0.49871114487356955,0.4237433578124734,0.4887339140499253,0.4827917905334431,0.28539331336816587,0.36908493358897276,0.3754563602151295,0.3888720103175578,0.407992370401267,0.4104827549600248,0.4047869162125659,0.3918876673572115,0.41609361490972163,0.397811119624996,0.4101575413904208,0.40492463641166054,0.38856731848984516,0.37934296749861107,0.4152132314614879,0.4233095614658646,0.44513172741699686,0.48371596060403305,0.45759425107915674,0.5400205433742614,0.5193099570398382,0.547639574640338,0.47550925025643154,0.48064400522644923,0.3847914858164044
0.5186221641828724,0.541075182069893,0.5387252032973098,0.4813383173341507,0.4399748892641471,0.46768591400856246,0.47331344352051863,0.3036066362745555,0.37757498743166046,0.3761998041289019,0.3729923352293417,0.3897666606835975,0.44320865241797125,0.4015952317965143,0.3814801924077873,0.421342718359518,0.4164067648597129,0.41301171788944274,0.4173124362463212,0.39184122469720734,0.39178808348412764,0.42625424932550227,0.4423707485151932,0.41883626324434114,0.493657453351932,0.4213275755055119,0.5122538462658736,0.45699760273812184,0.5164655532084059,0.4348658644875453,0.464470527558937,0.4214746739470091
0.49274206859122005,0.5351307983448237,0.5247003705488256,0.48426828099335745,0.4447901014890585,0.4618742540751012,0.4745433030113705,0.37924185169235564,0.38015949479376937,0.4155954792413517,0.37401538902103837,0.3672215738516106,0.42547988754733596,0.3679491984418976,0.35885692973181943,0.3866744250523408,0.39887263748809476,0.3957844416653224,0.4005842616064223,0.40334155871435096,0.3909589289446589,0.3984324191027484,0.4295833143252548,0.44108169143881937,0.5179786457851364,0.4220003823891585,0.5318218061996188,0.45632179997635847,0.5372005631645718,0.4283722891949691,0.43587144675019157,0.43243495392336223
0.5041902880747509,0.5343164042736375,0.5283271678365594,0.44099967265274487,0.4361551884596618,0.48251160271327753,0.4940039398571859,0.38517294977839106,0.36444733040417987,0.4136745297535734,0.4352490850185419,0.34107295871460763,0.4035241842516161,0.40244049276887234,0.34435229814081847,0.37830642108226537,0.3733638643781333,0.3916997553248896,0.3786538744155611,0.39026650399855833,0.41354358729346624,0.39317654202213964,0.4051610770519657,0.46985093552705376,0.4955213059257544,0.40421156176876133,0.5425456270120935,0.4734223773672166,0.5447171704110073,0.452967141016719,0.42187175906735097,0.41784663184578374
0.5226219976956922,0.5321841689792389,0.5194051185373659,0.43960302690296593,0.4218406537244829,0.504845041014193,0.4825280057149664,0.3437612253502952,0.33907090858562555,0.3594095184356063,0.3982861812862146,0.3020120720759453,0.3439671250162079,0.36750145359837827,0.31775218441566444,0.40661387937847904,0.3877411866189283,0.377918498526231,0.39010075372694186,0.3818583335691724,0.38312601845204136,0.4089137921486821,0.4175851662510024,0.4405518110768411,0.4919732242911452,0.38909309596944597,0.5382099031713429,0.4917093268694409,0.5446821144064788,0.48808367423346616,0.43249797628031483,0.38924476671648905
0.530851960422892,0.5390645150785657,0.5302760272527146,0.47698286765493886,0.3767964029705501,0.49854365362863895,0.4767789464156988,0.30939903105117644,0.3171568811418233,0.3405768724378967,0.38954869693947947,0.31597543169995,0.3151025234937543,0.3443415019552178,0.33137935554898446,0.4027314308440036,0.3729091717417719,0.35426146187420804,0.3701067634380431,0.3528133676659642,0.3551949195025954,0.37555816639220563,0.41991173715107266,0.44610386613238995,0.5242046997949825,0.4165719631913087,0.5323577965491795,0.5007634546997005,0.5439233630891847,0.5089585361098242,0.4168724347030886,0.38291662653490033
0.5590505180964512,0.5475284526054692,0.5381465464216363,0.521034752706085,0.3651608310395253,0.4904478363970515,0.4790263785159766,0.3411326319912403,0.3691502045176693,0.357624521674408,0.3953884398239887,0.40461306250179124,0.3615986710436483,0.38327840069509556,0.38718360091176107,0.39870055436469304,0.3721458023532727,0.37898496183247554,0.3714226931384942,0.33185913864349964,0.38306394400442156,0.3908253118933865,0.42163693649738077,0.4565265686119055,0.5331447615418102,0.44834846208948015,0.5245156902723813,0.4965396533037436,0.540441668791609,0.4859672748857828,0.4011536953553867,0.4202640950102167
0.559868332706605,0.5469727567280838,0.5291649318292625,0.498547918832916,0.40897826433544393,0.4905718258826151,0.500658414809118,0.3953776149303605,0.4102759376335528,0.3407742924496698,0.40173071162209734,0.4085777658694025,0.38368216361830254,0.4126907240672664,0.4253689696441171,0.39240947854079405,0.41100061066102517,0.4107955266100409,0.3819638884034389,0.36875086189243245,0.3789964507953899,0.43447913802356347,0.44631278947494774,0.45469423005381937,0.5415167574875835,0.4863180847923965,0.5402569127203037,0.49987701408928237,0.5245531563149256,0.5031665317080889,0.45506409405041837,0.413890158551143
0.5280425777928394,0.5443691910250535,0.5216141804894275,0.47782222685922643,0.41604262594337915,0.4804438729890427,0.49280336481500997,0.4053394372292607,0.3696293497503221,0.331143603350227,0.3436217626404003,0.3771840807881804,0.3523849422156586,0.3465661584069123,0.3901925364825254,0.3461753383172649,0.3621364252525199,0.3700006347576488,0.3717935011719559,0.36811044819450683,0.3720207070844393,0.4122107656344138,0.4285579549615392,0.4614288211519316,0.5353408187940826,0.49499656344806237,0.5339003082775481,0.47971239749075045,0.5218915934643193,0.49239418402572205,0.488729598652944,0.41645928721673614
0.51544414993234,0.5481124957710144,0.5142357071626633,0.4761398513989812,0.37246390774977817,0.48979587420339127,0.5018603459940226,0.41894988609848655,0.3922069641131527,0.36887776870335853,0.35681807247224373,0.41959865118106987,0.40806762144417746,0.35628455869343967,0.3794057746499781,0.36829596606976117,0.3716382282642113,0.37806346097318977,0.3887908363046549,0.39920157379243687,0.41105621660190694,0.41449174492836593,0.3933007542280955,0.47322966996517674,0.5140699044280268,0.44391710492855563,0.5287540759274384,0.4784240745083576,0.542293090974069,0.48942544041624847,0.4771683102552343,0.41510324164477697
0.5146472175905982,0.5479445570391067,0.533847213710952,0.47329125172325737,0.3886963971021931,0.5073453963995647,0.5005654929429667,0.3415602898448832,0.37463011241600097,0.39444092749033133,0.4261976656984835,0.4249398501104562,0.442617883875736,0.4031534890519819,0.38851397896359924,0.4095733797835834,0.4074134376818923,0.398395376092277,0.39242508362258244,0.4161544090207974,0.43206582673455557,0.4559000103585531,0.42263242361061604,0.44465481482105557,0.5070940855591254,0.4192226218102112,0.529663052454271,0.4784594009146182,0.5413274428573184,0.49547195222932544,0.4817264280341843,0.4151603291367686
0.5189499177183806,0.5431763855358084,0.5165556544326104,0.4846636654457814,0.42722557078586504,0.46709240971358823,0.45876644817698553,0.3635837445765996,0.37215721339179414,0.3675471725597504,0.4225972510228343,0.42692440753285643,0.41980404887324807,0.41204030559741317,0.39746950991765434,0.39399056484956707,0.3931679517770606,0.39838256274073974,0.39262339453770023,0.3893492792475748,0.43501846720508436,0.4318863991322233,0.4561181856087482,0.4659606316342656,0.5094088481247356,0.4570098878832624,0.5145403125855286,0.4818306430259879,0.5464010936812789,0.4837766435392745,0.46413715966400265,0.427070181009565
0.5198922948005291,0.5419992583965386,0.5038429211330119,0.49817629588377266,0.4098069283194668,0.4647262686603238,0.46450708682123926,0.3505566164198474,0.35950916835191643,0.3619485073311408,0.3989787832639212,0.4253605099184512,0.384726621758065,0.3860304785296062,0.406055969961173,0.3989533968754626,0.403099817106882,0.4098688978532777,0.3949132414573796,0.37218423390265637,0.4227705912745553,0.3922488065214933,0.4279104328338322,0.5000165978817396,0.5029139052721698,0.4651644918370644,0.5190000218846678,0.4890158569546196,0.5384030714517845,0.47459736121295676,0.3951069591993468,0.40458549699326785
0.5286358722915998,0.5338381568808632,0.5235465269515135,0.5035415997231876,0.40376749591844385,0.4733874171048036,0.46588912409719596,0.32611258905464413,0.3306115058970117,0.35145398379144394,0.35856202397840675,0.37695923922037533,0.3925329204233622,0.33912560260977664,0.39125491425185827,0.39394554749702143,0.4146106711718342,0.4227388424440013,0.40760759175358025,0.3857781153459533,0.4154218257662252,0.4217989309921109,0.4410001833395033,0.477068876103784,0.5098586183116202,0.4567329498934724,0.5342136116311761,0.49586035443722226,0.5274513063945794,0.45804906760657127,0.40760886512960326,0.3537302789854552
0.5287740516441036,0.5242329604775003,0.5195893886297523,0.487392475327758,0.38268612400906066,0.47081559036611925,0.46289883538531656,0.3735698302644573,0.3432021199035494,0.3565519174262719,0.3477373101797225,0.376058416048,0.42451464630382063,0.30366784147226505,0.40057440758291596,0.4105416814383171,0.4173567678160137,0.4372357260716504,0.4493945336414051,0.4042396427980708,0.4233364625850259,0.4563669536749192,0.41195696301462725,0.459851570995137,0.5244616246115335,0.47251724792314376,0.5373133130013131,0.513097616965465,0.5162798097032122,0.4834579746592215,0.4503270449361291,0.356361103172983
0.5266128337206679,0.5346549602478375,0.514987490777894,0.47325597996255203,0.3592347854792243,0.4903605450405346,0.4571343007051369,0.33692062997544003,0.32103412647788915,0.37659925259063115,0.376262360241617,0.40053027748535136,0.37606714107377415,0.30636824200126117,0.39494041545388076,0.38916859878220894,0.3959139069177766,0.4041606507754771,0.38515665546933364,0.3664876741929176,0.3519659522197532,0.41915915211806537,0.3883606060358983,0.4535348020324871,0.4984994324961326,0.4576655070491456,0.5326103047635774,0.5018572093884441,0.524796044522566,0.4920199089006386,0.4248035107026234,0.3907447174489135
0.5256183010011094,0.5514664539156116,0.5267082524999639,0.465994218001057,0.41554663348737114,0.4746014276778667,0.41759065151638824,0.32751037351304424,0.3537066492153682,0.3603663720352732,0.3698362413933831,0.385746662988571,0.38148854556758677,0.3998136694388722,0.3716672595680279,0.3572629879035011,0.3743177386262401,0.3925471903695141,0.3708266473333042,0.3655233821656802,0.35037764993689025,0.407866364621365,0.4355315411825574,0.42834899395483284,0.5029489514194702,0.46137540992449616,0.530813321482968,0.4610952574784336,0.5346757851335002,0.4595965975690716,0.44360048696663706,0.3810120944291347
0.5147440383728499,0.5435299566414961,0.5049068629545566,0.4617164282154945,0.4335341732412227,0.4495735168655892,0.4150944290103611,0.34007489905859317,0.43037487688541437,0.34716555544472727,0.3485522990788754,0.3519392504204619,0.4064462556340143,0.42033296861348834,0.36829842807699,0.3970780928516888,0.40320207791611046,0.42422977273375123,0.3875571744193803,0.375120853824386,0.34944081370462493,0.4273214327465543,0.4474964733326056,0.40572013447296834,0.5119630731833393,0.4886012953464637,0.5352388471857472,0.447668592254316,0.5309838806315903,0.4566106686967865,0.4664375117043122,0.3904153470121533
0.511661073169868,0.5196416571651402,0.4985142656065462,0.45283943430439444,0.39494806812685324,0.43637347377585606,0.45540383740087237,0.3422323612609522,0.3745175940930132,0.3583369608837415,0.3717642091405459,0.3753923504097019,0.3613511231345376,0.3713638271989963,0.38349857885978855,0.3928224029069348,0.3971485270950146,0.41025782243633085,0.38731870133688895,0.39533193453027604,0.3423657544142962,0.3934238478088682,0.41996385955953985,0.42575806498909274,0.4929678858773081,0.4932133282570971,0.5388043297543471,0.4849572175240745,0.5346928415806875,0.4811932505215759,0.43763394785978516,0.3737242171780467
0.5089395735244326,0.5160909344212413,0.5089561826759968,0.4470286198580144,0.40742034859884196,0.4405265778227925,0.4533841566579832,0.3801939502649979,0.35203426695257845,0.35561510386101497,0.407174839918723,0.4215486605954397,0.35334139736563297,0.36424856665909494,0.39344753221012596,0.3594724808759529,0.3565745442895329,0.36808999468536696,0.3772950221765287,0.38658710973405647,0.3720052682866158,0.3806853669986364,0.38171588779895144,0.4634390079002211,0.500929344591238,0.43697289512144555,0.5345956304349052,0.5017044574249965,0.5263747404333958,0.47543843225352606,0.4253652136453227,0.33971323040492407
0.5075680132469423,0.5453606427541233,0.5064569434512255,0.4730591948074802,0.4021120642830233,0.5052416689359639,0.4665349850400594,0.36291761034211145,0.32184008435205896,0.37438598355084257,0.37301978734712676,0.37969871637838704,0.3595575831825424,0.35862212883342476,0.3766972200649079,0.35374041113202653,0.35382557984168334,0.3449506446496904,0.357403871062557,0.36293575236289094,0.3648140408386316,0.3696232162754586,0.36828056879838084,0.4667143578209375,0.49553516126754377,0.4227721474937596,0.5285711887966799,0.47428763468167323,0.5239749734602442,0.45746272290825607,0.4517665426041295,0.3839806120783676
0.49018611325869504,0.5383970300657185,0.48908575156723616,0.4467857052121881,0.3950033639159856,0.4668220921424683,0.4456709641308496,0.3461495040152101,0.3450996332103223,0.33962771830658595,0.29895187996348294,0.3586773611571551,0.29762332095079086,0.29663610373815724,0.3065349219864391,0.29379756624945796,0.2975602657481803,0.2920240521632333,0.30434002164977925,0.30099087080925657,0.3452103771752074,0.3419908461890334,0.3728529075661558,0.36043648962839014,0.44182948616723733,0.4275006766060902,0.5294395745739695,0.4137726376092895,0.5319551310955573,0.3854193117358767,0.39959828173765016,0.41991076900772684
0.5043192095898937,0.5006599228115989,0.5124116039558005,0.44134800799550983,0.4023871493941393,0.42811708162783224,0.41777024181623135,0.3302815372363539,0.3956742553578293,0.3216586455860291,0.2983510021433264,0.3824848309089675,0.2848705643637075,0.2957581587184205,0.29237370370068605,0.30407091657522767,0.2967497767665993,0.2973620898369578,0.29985704430846316,0.3022762075716857,0.32914420480608286,0.3333775714982776,0.3785124925746551,0.3156401654881672,0.46601921001466606,0.41115675141668767,0.5347472815592874,0.45851173717065097,0.5351257204419801,0.39465315142235735,0.3978111718218649,0.3899782327811016
0.5284077413638578,0.49016008561538427,0.5239876506356284,0.48061850618082497,0.3944103949693499,0.44120568126326115,0.44662850297419504,0.3119639525171397,0.3720283004692944,0.38005192185049735,0.37774701873073235,0.41003558093974996,0.3767831468112725,0.3896530726666474,0.35698279744628164,0.3821013694789623,0.36008968525585106,0.37723997863340736,0.3702049892482639,0.35269912712138196,0.35845345351150715,0.406274731806681,0.37140646734206073,0.3866884658811882,0.5015755278991507,0.409340670324134,0.5270877033041678,0.47772309692134857,0.52741404274768,0.4546480825037315,0.42345080892590453,0.4104915541290344
0.5027630411687484,0.4930816925083148,0.4823812359054406,0.5167555300286345,0.40905986006627587,0.44416620787430106,0.44277952395283776,0.31911768993565437,0.37185180606901796,0.3629467715901569,0.36152673230785853,0.3778769700584982,0.38875879772734856,0.37987460707716547,0.35945911056016894,0.3802022068238401,0.3594091760793447,0.3845006354920035,0.38739556815658016,0.3366338327194896,0.36827353021930687,0.43219954666614036,0.35881110190894644,0.3767514504534622,0.470370902723231,0.4148955102204337,0.5127205583047343,0.40639487677838343,0.5084775481401779,0.414532670727738,0.3814243069489465,0.42447555724343566
0.49225146089739014,0.5307261812612823,0.5077514212248379,0.5344126569731733,0.4394004031395364,0.46750150843680516,0.46714479141716864,0.4012133267318809,0.4142442923591392,0.38515456821778693,0.3652368819126719,0.3720489638387115,0.41500592627589084,0.39853131107782136,0.34394084257382057,0.40060724297990313,0.39597701343322933,0.4150263644635098,0.4218889735537291,0.36323594499168793,0.39872903311330804,0.43655443951334694,0.41895652653809357,0.35605811861840975,0.49090113143382114,0.45246093554908773,0.5413212524169007,0.4318471334698401,0.5353849498776259,0.40339880985181786,0.38294128595318266,0.40962476115774343
0.5156778202481004,0.5525758017053308,0.5329002127280975,0.5160271308607483,0.44763295410760934,0.49188061701410873,0.5002016682547843,0.43569738359938115,0.40200431783642154,0.44992215711447514,0.394540083075712,0.3388978910444584,0.38179053027439197,0.42872183477842585,0.34371657146754653,0.3929925778586087,0.4191830027732343,0.4126848502613535,0.4406462636902648,0.3812632170763704,0.4166827939475351,0.44395956203184656,0.4710624931365066,0.36090078374541246,0.4894098134109474,0.4839756479382881,0.559529901821897,0.4803195020887005,0.5556127949750977,0.4499793492601243,0.44714308994688046,0.43544326912346815
0.5148033119017665,0.5510479719992603,0.5231865648097509,0.488825733610454,0.45592290366111576,0.48118160605024685,0.4847866698784808,0.3677831763194139,0.3842171173007754,0.4311403918745314,0.3413620989155615,0.31516941724255787,0.3604181822464431,0.40688661472797605,0.3742519025542507,0.35983113146511375,0.3754132070153719,0.3902796594259591,0.4152705850752734,0.3692654332179176,0.3968470679856345,0.44307258784239767,0.4229957438804671,0.39775559350346945,0.49143255059511864,0.44755490217898,0.5366161370730287,0.4756690409065974,0.5321406735670036,0.4721889854601465,0.43790024040978054,0.4436455284674572
0.5196641205132835,0.5517390960989198,0.5143863477359721,0.46481161531980797,0.4406389841801626,0.46642208458301526,0.47578725963232243,0.35630673011576086,0.3759156667128074,0.436919186335958,0.3551920214433289,0.38052012034601584,0.3955969946567675,0.42261979167602953,0.3820046143296857,0.3709032433497899,0.3676631629883042,0.392402384986277,0.4003694192572237,0.3773911486912247,0.39682371294480634,0.4098150281440263,0.39988005002598037,0.4238654940979916,0.5127784676693805,0.4402310290873429,0.5279118994504949,0.48738430204912137,0.5336217971022985,0.4619059785607244,0.4295618303039777,0.4545926816813313
0.529061910315921,0.5425774979140974,0.518050812950258,0.4591622238723254,0.41047120821878785,0.5024809809633431,0.4982193392891119,0.41666052062838677,0.38983415232248997,0.448596096777462,0.3993611993005716,0.39958624987739233,0.424152093933989,0.43614985098446835,0.3808964193673715,0.4099613878445295,0.4072269670859425,0.4202065609088691,0.41626620277945864,0.3817802436787489,0.42823020824862856,0.3910782810952397,0.4214191925456441,0.4208400044079615,0.5144283541233448,0.4614714813106019,0.5221607330455502,0.5041193892900153,0.5466198670810574,0.4726496247775951,0.40779317887312444,0.4365039116352971
0.5002490646420709,0.5307928306681609,0.5162291345644986,0.48636992016375274,0.42295074227414026,0.5065108984121809,0.46464295858520827,0.41426151547658624,0.4106372346065585,0.3873439827733727,0.4011623920640027,0.3508685556255374,0.43435278885407635,0.42676457719467226,0.4270665440541191,0.4310407949390517,0.4569973485055132,0.43882021837504515,0.4424712894145591,0.3931704610213054,0.43811294139200835,0.4120690464535522,0.42604922246358234,0.44104128819810323,0.5047490621750896,0.4333673701608689,0.5229341563094463,0.48311212430751127,0.5411347524950141,0.5078950804705074,0.36850086413698074,0.3974979766364801
0.4861358103051855,0.521343773436757,0.512832466830179,0.47899716868432335,0.3875178730680751,0.4757851858970992,0.4447829643707827,0.39618763140681024,0.38784820996921127,0.35243141592306715,0.36768286852899235,0.32960652128578455,0.4032862980241358,0.4037225075546607,0.3927477393015695,0.38669020277786775,0.38761076214913065,0.3678375245165268,0.40990355543430407,0.39416874176640265,0.44280532440172143,0.41953118825177643,0.43303655601291346,0.4538075057027281,0.4911268042029558,0.4229236673244783,0.5183004236290644,0.4607733409867112,0.5311669881864494,0.49131230800584175,0.3711967191821851,0.38940479674313305
0.5149203238960768,0.5138806149362728,0.5050707289406476,0.4458680417353356,0.34609066763005475,0.46490267073271613,0.4642865688847756,0.39463516555810624,0.3880089400880001,0.36105029268143146,0.3547212213616427,0.3854374920912074,0.37094759462267907,0.3905869868362166,0.36100930733769276,0.3254018711850864,0.3396872574288514,0.3349096148427894,0.39220382396947756,0.38667120182011644,0.4297117383941724,0.3918568018999983,0.42815359866383235,0.46351674500134477,0.5020557993921898,0.4309984525658979,0.5214645731532798,0.4734980191948524,0.5344893327767283,0.4877538296386407,0.4163599205379097,0.3880382940885032
0.5242183598036088,0.5149419603778913,0.5204156451155251,0.442297090592581,0.38676649667498386,0.4725085338082514,0.4982216461935927,0.37263227973818835,0.36903112601725707,0.4022899280977107,0.3755855973634872,0.41529463607618267,0.35768655134489946,0.38419475102226575,0.3666576658012326,0.33413476857940083,0.3436350955759621,0.36107713609885894,0.37346317777735566,0.3643496614216171,0.3590590349600997,0.37528831929720924,0.4174243043669153,0.43724844563203363,0.5020672480574829,0.4412454004208439,0.5183401495425121,0.49776271652846765,0.5437830657871031,0.4711676291600059,0.40626406771603785,0.37682080785358507
0.5088502628181673,0.5213579866838624,0.530588594193906,0.4739616552510501,0.41859569484541714,0.4690891704206323,0.48520651836127976,0.3711194681843062,0.3392229200165349,0.42348843712730627,0.39958518503762225,0.37599795765370114,0.3862726058307802,0.3885570911229015,0.3876709239354836,0.37926077059911073,0.3812571984013116,0.3799741438647585,0.3840429023994437,0.3679656090746701,0.35501699913656937,0.4065952816802079,0.4273433647612885,0.4485282749878983,0.4910539689537845,0.45447642530056676,0.5448513556133558,0.4830954071268207,0.5328359407205607,0.46251546266797855,0.4041990386345707,0.38866341050910563
0.49064657409784995,0.5299519855691412,0.5329769065858142,0.4870575254951383,0.39673549291078875,0.4624188489553967,0.45498058467261193,0.37399414098622746,0.38159177943754474,0.40485324301776565,0.41764196222643934,0.35525348016048136,0.3696237186490508,0.39914801306681214,0.37444569645882747,0.34758475207763023,0.38193981538604305,0.37322367375853527,0.3868514026268322,0.35694594799856666,0.37374460842386403,0.4171368431759374,0.4300462613944678,0.4368842089031188,0.4757364283705267,0.4200974665791047,0.5597160222997841,0.4612114954034039,0.529344313131047,0.467127881646439,0.40117603320141737,0.4024725042077883
0.5105876224422325,0.5155885885681208,0.5415745010764833,0.47174159804810273,0.3408081554253745,0.4446721293012073,0.45606905029205824,0.41410226269772665,0.4061536523706827,0.4044113612879399,0.39875198368178116,0.24821762925771204,0.36141766750421417,0.3983091773200734,0.3852096582354704,0.3502100759942626,0.3768160077070935,0.37088134653110066,0.37065935991210336,0.33947401638343233,0.3841982271706823,0.39397604575688505,0.378782183873744,0.38983378256167606,0.48069654877638796,0.3635527293586222,0.5293731254392802,0.45833943927276066,0.5342372716548525,0.44985178704923195,0.37641411965559934,0.3794867610251448
0.5434072950164357,0.5209359552116782,0.5452225307032903,0.4611208930342582,0.323075747599096,0.4658821507903806,0.4942728341408446,0.38866054718673154,0.4038583606647105,0.41100294531023657,0.3641208849656815,0.25279256032973196,0.3620450669093282,0.37559470637784953,0.390389747719441,0.3649638396693505,0.3789755155434065,0.36773732605886805,0.3684930826016246,0.33060239373446576,0.38822480721413954,0.3914042567892277,0.34208378989352833,0.4253135292436237,0.5026342974556518,0.36518296718147364,0.5330936961151422,0.4766439191976549,0.5310937415774378,0.4643065514528151,0.38303127678168997,0.3737130035079614
0.541363382780165,0.5259735629100862,0.5511690012927117,0.48758591027231335,0.4051378901489258,0.503936890340619,0.5008599752235846,0.36631169554988224,0.408572232697788,0.42963856070372225,0.3301017070763825,0.42206289320271284,0.38130415635753595,0.3957988351203706,0.3948103584573559,0.406788185202605,0.39481745701921517,0.3757052034628644,0.3813912724199966,0.35100585400643003,0.4074828265435801,0.4031204394446459,0.38549980656976834,0.482748392508206,0.5073209691757185,0.4546222624821361,0.5259507167827913,0.490390050528603,0.5335473950886938,0.4646693175668317,0.447150657593533,0.416061279478469
0.5195466108395574,0.5454049883014839,0.5520556100596675,0.5164690670147517,0.4342378925102814,0.5059267188125522,0.4879339762953705,0.3785418925177268,0.37131405627669967,0.3636037776563708,0.35486198857142975,0.42564296702843335,0.3992236194099736,0.3969404835432976,0.37615811399016313,0.3754329367066041,0.370457686967256,0.36191830299084765,0.3720742933864354,0.3478955727750651,0.42042688754835345,0.3654374357668788,0.42935775563699285,0.4362976769880033,0.48692972087905056,0.4422989259190266,0.5142272636909303,0.4659249526874606,0.5313110842718627,0.43457088322829407,0.46129363439236554,0.43415459175155213
0.5235799343632749,0.5457394977391296,0.549400420498278,0.5003159933189122,0.36785828956463645,0.4948268885595019,0.4680458953467292,0.3909486101696141,0.3499511620056946,0.3392843194720143,0.37076456743097064,0.35549727109579415,0.35541089336257037,0.34197395856191815,0.33117831081652443,0.3473230420412974,0.34187538219931596,0.3586850255983641,0.36008476948178625,0.3323038835696412,0.41238297725925577,0.37241328224142245,0.4288344345052143,0.4300021675058177,0.5071714290018786,0.40793564122862014,0.5324992021519932,0.4893447161224555,0.5323660466380644,0.4654875733876639,0.4502717789878561,0.4146334230970906
0.5230272109818036,0.5393011138664391,0.5372119876585644,0.48935001362796243,0.3601843062456945,0.5035389230464443,0.4672409754054752,0.40073649785721455,0.37096519567874037,0.3720541342239525,0.38871905617924196,0.3517836717426001,0.35290992839183016,0.3541204432752119,0.3466202166460847,0.3719838061998745,0.36363996723728237,0.3869848874978298,0.3882317261486528,0.34355487799954876,0.3988036959973838,0.40967904752208206,0.4515802859899504,0.4544500740624298,0.5058515168914067,0.42298159195482476,0.5371897968892513,0.499337563028185,0.5448090704140272,0.4740553216382867,0.45495120160468516,0.4239232432754284
0.5204589633610339,0.5391900969979072,0.5278281304986773,0.5034862013806946,0.3714599870306305,0.5113171466021046,0.4657464911990825,0.3609773777086942,0.4013260618299702,0.37632798791119076,0.3977860288920562,0.3538466423680088,0.31738788504921966,0.3731701747904908,0.3845180019493815,0.3442490865026073,0.3502595785059334,0.34090609370062036,0.36770018428474666,0.31699540871362636,0.37719541533306117,0.40885627319197304,0.4375430717364322,0.41709656183262206,0.47284995396146323,0.4438758746724437,0.538072789270373,0.44624864376658735,0.5370820790511978,0.4413768678903246,0.460993387289423,0.4453093249426546
0.5123410291992961,0.5166300902313529,0.5478845221886974,0.5062737628007996,0.409848060080267,0.5009276661215688,0.4876482840182849,0.3211993366906157,0.38181509830581134,0.35799952906400395,0.3516873175769005,0.35172462837734403,0.31468325048449775,0.3600355563282034,0.3668813748903313,0.29570119197318345,0.3353152678708167,0.31951224753149493,0.3409976268468765,0.33201923700916086,0.39089769688081455,0.38103127619274857,0.4153372901119331,0.41985716759695285,0.47305461116673414,0.4486149968791891,0.533758587536132,0.4331912674940313,0.5186923133098057,0.42895905244185184,0.45094304853464995,0.434282390551436
0.49155301341481156,0.528166460772686,0.5469377603671206,0.504130501345653,0.4456738600492017,0.46628463848865837,0.5201900810960431,0.3524875113738659,0.3655986758559778,0.3615099679185304,0.3544579231473615,0.3859165055442434,0.39356442293968447,0.38040144525934805,0.39944641981724716,0.3460576368386899,0.39148683904097,0.3832194083175714,0.3975448138458141,0.42744465741050736,0.4273996161962282,0.4172564054134151,0.44581229970910674,0.4572756595235595,0.49927788079661234,0.45816508328516387,0.5336345577198482,0.49393930489100263,0.5390605296355313,0.4843986252903938,0.42896214288957085,0.4295140789255621
0.49892186541032957,0.5507584123090689,0.5529842140311164,0.43661146399366285,0.38982361998291576,0.47687923161957646,0.5194394035878527,0.36117596055347606,0.3329450394795689,0.3895784236299305,0.40072084160294863,0.4136562153903391,0.38136599960337264,0.3924316145261401,0.4254213341656441,0.42637420166679546,0.42260257639171955,0.3881767433030563,0.402802277789657,0.42985780832956605,0.4081733813741929,0.42796840530667024,0.41206370291579186,0.442624875169815,0.5163399746708834,0.4235247382842864,0.5093082086185831,0.5149241947012339,0.5534239249418141,0.5236232566815433,0.382153022781599,0.38188106102956115
0.5219569266265012,0.56290252780404,0.54350556483289,0.4475754476800248,0.3328339918945318,0.49514613674194086,0.5117312182396946,0.35636142038426133,0.3498921621399645,0.38003740340987263,0.39275562430876243,0.4188587230539473,0.3757404976536236,0.3866984477599346,0.4018954138291939,0.41441402786333476,0.40485073268617205,0.3966334674669438,0.397148981361073,0.3796078675418139,0.3984844407244586,0.399258045207722,0.3901782506977021,0.44874771370599204,0.4876797179115748,0.4148876931938247,0.5047794800185698,0.49148098855956235,0.5454115552686545,0.49652911823478446,0.3792684459228505,0.36194444930834097
0.5209041536934954,0.5489533798133776,0.5316397504018701,0.49948335988219605,0.3340932503817142,0.4764903347252406,0.4855834059943053,0.4074903240498642,0.372234868379395,0.352159957164932,0.36406363091812727,0.3753579961311396,0.40376568733673934,0.3683132771368292,0.3753936118584954,0.398307836117663,0.38492605222123033,0.4084269130158584,0.4112877258369705,0.38592357768937335,0.42196399370940274,0.399917643666317,0.41730392561951596,0.4655193549927816,0.4842784674873772,0.40964376901430644,0.5305698015607849,0.4798763774873145,0.5425336000149095,0.4733604842061881,0.42971452161606094,0.37132189446367014
0.5153916532815671,0.5210883248153673,0.5495691344480638,0.5027848990365641,0.37733724109101435,0.49171502099559083,0.48908601125082235,0.4069427906752153,0.3521120489532157,0.37319685463236996,0.370825447748139,0.38153050019258816,0.3819387086142583,0.3790651453707725,0.37829382015015756,0.3875466719715577,0.37476972770676475,0.38131291668279393,0.42206468254133034,0.3961481638337359,0.4239545961719246,0.404285192596506,0.4088317309090311,0.4625883217944757,0.5152509700416387,0.42070609706344136,0.5553298535058595,0.5103584226642727,0.5293177069609412,0.48341262147492836,0.4658579129225777,0.4040656159598123
0.5267908880979935,0.5130595606998778,0.5519921985674636,0.5054114140719572,0.425585795137675,0.5071692573198072,0.4906736378224398,0.399108600065058,0.41072423581366235,0.4392393224135752,0.38645974559888047,0.4217594864705991,0.4011295025279212,0.39202751839052263,0.3711077319741655,0.37911496761464664,0.367259630355665,0.3801724522388151,0.4051439706992612,0.3691986007828671,0.40835899655153207,0.410990754893563,0.41604585098902913,0.46671447271340266,0.5056477107498913,0.4599303115804575,0.5582085134889934,0.5076655597096524,0.5332432004799258,0.47915500120691007,0.4442492700562303,0.45135358162108347
0.5110554714164987,0.5013743273613189,0.5248184128537206,0.49420549103023514,0.3939231916856703,0.48693041355001626,0.4529577473049693,0.39718646503129,0.40847582333716653,0.40140832579100294,0.38530144393032767,0.4045042980673151,0.4330050906160495,0.4072987189207185,0.38735425345500546,0.3731337249977504,0.3749847921061999,0.39330347328184445,0.41012232860795933,0.3808930839078652,0.41120643718150046,0.39670112504576066,0.4224363201230407,0.4482599398564528,0.48985770900328607,0.42831142021721913,0.552231649890412,0.4752335806726194,0.5441255022933109,0.475303725145986,0.41787843270546077,0.41008405150507854
0.5228031757109407,0.5036937897995731,0.5188292134788337,0.45936974680270637,0.39618019084824335,0.48127224907295024,0.4755015427221926,0.39195128912731764,0.36866665095141027,0.379538785405972,0.4139188099556522,0.23341693087016707,0.40912140913774775,0.4198316711954309,0.4179953058639419,0.37943797693814957,0.40315790002712404,0.411497462303695,0.441410543863156,0.39983512487495393,0.41950191575709994,0.39978973469106893,0.40900207028932783,0.44029790004372943,0.49986427244167203,0.3869050054220266,0.5388044803571085,0.4911759200083665,0.5395924099321551,0.4934173639691219,0.4155045375062549,0.39377111548287996
0.5362806144250213,0.5172266899955276,0.5232638645558159,0.4461272632746374,0.3951561756827177,0.489313882749915,0.5094562404640816,0.39401309563766285,0.36515889640000154,0.3305847350847661,0.4284154986609935,0.1807954283674245,0.3783632632775832,0.3740221023390677,0.3943032474529659,0.3805522206421038,0.3690861438671029,0.3767766921425331,0.3890316971107267,0.3722092177122555,0.40786309170337337,0.4006543749177332,0.4068779919036811,0.4146072700214624,0.5023764674365504,0.43538659811433905,0.5367853042945999,0.5012795529554973,0.5329878212975364,0.4718981215631024,0.4287282950698673,0.405347025604819
0.5262585868835238,0.5369415052536479,0.5283422294514408,0.48152575024220706,0.3496452525252038,0.47835257206745,0.5016927593829831,0.37773602339481943,0.3640766501063205,0.29902569039841187,0.42456077787051977,0.20904119483908926,0.4088447003150115,0.37314784911126025,0.3805974868845224,0.3932996817583418,0.3738358646171681,0.3839920390702921,0.39367855852742245,0.3775737964248844,0.38634994935373956,0.4217743281063469,0.41715345089832645,0.3885126940479504,0.4796279261015204,0.45006364299303026,0.5301478883797727,0.46290773708578253,0.5286506814681564,0.4422880960589769,0.42267623250878494,0.38153300371490895
0.5367571837111196,0.5382140842523915,0.5175715417604684,0.48112368249846876,0.3576779259136147,0.4708845485976478,0.48619915398837865,0.36503756826081,0.3904130819325934,0.3479087301813375,0.4152914456767692,0.36217797431616233,0.44085072678883935,0.3916856078212361,0.38319584541839147,0.4027969307084388,0.3996786344785731,0.40862223266902853,0.4244940936606511,0.3982964410782914,0.3896200681754318,0.45168922931798355,0.43551436889687,0.40732190107099403,0.49278571031472373,0.4361772356399598,0.5174990334367389,0.46007733842681364,0.5237217947056971,0.43820639487349483,0.40234375185730364,0.384848653100312
0.5421897054420928,0.5206185232572441,0.5075010296557967,0.4463117897136128,0.3685145159084964,0.49757210664296975,0.5037904076657841,0.3097305426426934,0.4445510518128022,0.3824311734636878,0.3822757134958812,0.34779404802588315,0.4138630687631383,0.3482633384105347,0.3892926089854762,0.36843832700799484,0.38387191806513915,0.37995311430023626,0.38536070764615116,0.3632195493192304,0.3918311546712425,0.3932578969933647,0.3822567573487807,0.4197394934648067,0.5031252244491802,0.4519007577987092,0.517752813183743,0.47007949160924034,0.5337045593430757,0.4292225858987837,0.42076927052078966,0.4226302979862128
0.5476009714192668,0.5127475145562033,0.5249867392924773,0.4345822933796033,0.3741518427243415,0.5163752310832316,0.507277951450763,0.3227511924454039,0.4315718830114259,0.3347005304641592,0.35204986462849736,0.32020884489171375,0.3528929474096016,0.3553980395825961,0.35719154156739186,0.3437204698690585,0.3594432273024133,0.3668435011088075,0.3733478015171991,0.33950673713692786,0.4033671854528522,0.37361546990659267,0.3941725925004474,0.4271797253991501,0.48104846140185276,0.4523785799658256,0.5203623258835814,0.459049821121036,0.5375176780723552,0.4266567530033247,0.44718529265876716,0.4078743151789065
0.5392170049150388,0.5152387149069474,0.5263244292537067,0.4658464814685674,0.38642683867306804,0.46740620906418495,0.4794657350017429,0.3713795700755179,0.41615675642916383,0.33645499822148167,0.376648415908741,0.3753952663960654,0.4022603742570075,0.4183838980560934,0.3452999311680114,0.4009532761536042,0.3772499304151951,0.40065323924846613,0.402959689785193,0.37513710345150253,0.4303093804807461,0.41391647883355015,0.44013382421433805,0.4160451611583721,0.486689843742634,0.4470521316316775,0.5240682108093366,0.4736222371053809,0.5306562999065244,0.4513920153914872,0.46691406414035985,0.4015092936355893
0.5246768320247063,0.5481888992448741,0.524304856585987,0.48362411868063543,0.2820255362594486,0.47594178746554117,0.483762010569874,0.36492880683792955,0.41572613420995114,0.39265992186337323,0.40322666422777814,0.4217755787307632,0.45142213262876435,0.42855868250152473,0.3730969316304428,0.41944504225354295,0.41562503352781116,0.4391214270814927,0.43475767023236755,0.42352385459950254,0.4363979258834974,0.4074492689179622,0.42524530632214996,0.4194721062339062,0.5069545467158896,0.3949503657453084,0.510478707271964,0.46764753017939337,0.5330913085896036,0.4652304185166242,0.43796762358944025,0.3387447149387088
0.54944820510711,0.5501380393744145,0.5498643684271429,0.4483078859534159,0.31456838959151445,0.4777015609389674,0.4809408450875532,0.38208844358629757,0.37776355013292084,0.39924486646538376,0.3770848864291891,0.3754432926810939,0.41051462297622976,0.3855775923714739,0.38642507477492827,0.3955061223040661,0.4074265202153832,0.4295939632319392,0.4337206101146367,0.398223657086786,0.44104283221525165,0.40741616077980164,0.4122705223858802,0.46505371731078743,0.4976791861552783,0.38626543262101415,0.5337842610137463,0.48082034910086296,0.5287974567696686,0.49011659267698854,0.4302320452901107,0.34858977221998627
0.5356591110994467,0.5395475949040405,0.5275816847912981,0.44446011560347237,0.43378100975535566,0.45439975918419623,0.45638839241497486,0.403943880256599,0.315500823642299,0.3310875879148204,0.3577463306085745,0.315492465097876,0.38290356526569913,0.35232461136354704,0.36890373713006946,0.3554669278710696,0.3608730793617658,0.39639153424302703,0.4063839052040811,0.3781857532521873,0.41666863509405183,0.43816979631212716,0.43871046525193014,0.45388228647860995,0.5190702400783805,0.4274373221988282,0.540157337317274,0.5152391158194555,0.5418844468809368,0.47645497336882614,0.4443798380723557,0.4021827741825513
0.5114409329304207,0.5390926727498551,0.500852846423241,0.46043142370160317,0.4347748536862027,0.45479114496343664,0.4417119416248307,0.3980273638495293,0.3452625340881664,0.3281292154569064,0.3583140120860395,0.337470698222714,0.36915168196046466,0.37160988615734025,0.37867858616745775,0.35313884849407623,0.3637178507979125,0.3762946048030213,0.3839655200085557,0.36771911533207036,0.3912339324200156,0.4211111622891895,0.4403890306021895,0.43726175852342103,0.5335632305592664,0.46549243444583527,0.5371261036466054,0.507600196948006,0.5465389401851078,0.4781458466710426,0.45770551476034793,0.4434162155345748
0.534887575095909,0.5321442451282139,0.5256378902211066,0.4982762593206593,0.4199680486842501,0.46671189964106585,0.46974551662414554,0.3875136797001912,0.37228627450120494,0.3733152143973326,0.39995619191411796,0.40321496245659766,0.3779424756670407,0.4140681902254862,0.40133922893421914,0.3811025824484018,0.41785180215336737,0.39372274455898576,0.39168329931342566,0.39788805623379153,0.41088320109082593,0.4262095950717542,0.4221489382833488,0.4438187177243368,0.5268897043851635,0.47994613945364506,0.5388400630498233,0.4805175299939711,0.5424240587291488,0.48455536878586225,0.44275655906223554,0.4675537216522296
0.5241209222997976,0.5271064407842643,0.5383277571057208,0.5030300640648647,0.3995561433772994,0.49281981590549084,0.4408996252492233,0.3851629737459633,0.3131555913536801,0.4061380890110758,0.3907671401237927,0.42056717322609743,0.3683369935027974,0.3878282756037056,0.3732975200434879,0.3650872140633657,0.39054489141175897,0.3877896565206097,0.3900237798436006,0.4163220346589967,0.41641666206064964,0.40507328832442985,0.4051462705137488,0.4242873618770766,0.4973680702142092,0.4545642334053979,0.5427482474492081,0.5029135881776153,0.549250857812186,0.47368297567551004,0.41532546440482104,0.43137283255142633
0.5247167016567645,0.5255544322115542,0.5371813556766247,0.47127359504619365,0.39253748132946803,0.48559481821203776,0.42301374703615197,0.3401094339059054,0.3235091012924384,0.3751296742182386,0.36675354205662875,0.39064836480356446,0.38331864502912544,0.3605243155433352,0.36405446310126344,0.3764952018358373,0.36100697181597446,0.3703278664395346,0.3875712129583394,0.41640548608738537,0.42310335394778537,0.3979389205049202,0.39461203269067324,0.43118463555530245,0.4934830192716869,0.4467201167011794,0.5470963007481228,0.5164907772283199,0.5260840289252648,0.47667230449958786,0.41197206467600417,0.42129413354654793
0.535470116304063,0.5342758761207427,0.5119696053197668,0.444568068675645,0.3978496304121759,0.4788912385059906,0.4755064646059749,0.3510432825279342,0.35687784854573645,0.38722180490334496,0.401091629373065,0.3935764706909859,0.41381613091240044,0.37703956579932496,0.4051619382344508,0.41784893789698696,0.42441554035813994,0.40283534436113116,0.3738514392618175,0.410328372968125,0.4098438419303868,0.3957715224996708,0.4072262004836457,0.4614463659156334,0.537294299463111,0.46973181153174953,0.5316978535428063,0.5230498715352143,0.5242655763576229,0.48397101398956877,0.4086811408143059,0.4177832212122308
0.5003678107072997,0.5397782771276968,0.5103621465517856,0.42409995542352125,0.359169364847131,0.46351451404192134,0.4667599052664628,0.39463955345418333,0.3531860284329356,0.40662832239300134,0.3948569497991324,0.37276833756619554,0.37205232040363706,0.36445008719490735,0.36595952722527253,0.37637370460328295,0.3810450886317867,0.3722959757701793,0.332466896329772,0.35899170581477924,0.36131888303031734,0.3765035707277053,0.39441790420300077,0.4256999551971418,0.4989288745968127,0.43850786616982906,0.5203295389295427,0.5135762674000368,0.5233547307659591,0.4908570852266325,0.40416673829563815,0.41604070743460647
0.4938012941949067,0.5237266992870341,0.5319410778926574,0.4743523331800169,0.3730722122223731,0.46955386584346126,0.4550176082892608,0.3493434019694971,0.32423548560191506,0.35594003400612906,0.3634829790717879,0.34442472532250046,0.3900512732432077,0.36381027304890706,0.3247795933152185,0.37476179596238146,0.37191416621143303,0.36985184378295877,0.33967932287080455,0.36302415512118485,0.3655987318624168,0.3908887071856914,0.386538637173586,0.39689516105289496,0.4625821110614208,0.4215286815898347,0.5214207756406917,0.44721405380987406,0.5161872600012136,0.44382199798949834,0.4080278687435119,0.38823728420641035
0.4908606623623598,0.5052782326290914,0.5218082273547284,0.4632965442427001,0.4211742085033576,0.4956395560585674,0.4575868116963762,0.35175227357637145,0.33736738654677645,0.31797010366660355,0.329114985444354,0.3370882317194998,0.41146758684746376,0.37990567119072616,0.31295788855830964,0.3983562819297987,0.38775583700985494,0.38542668101560223,0.3503659275177959,0.3578010642551813,0.36161816163748817,0.39173992937906904,0.4057136259714302,0.37426261207873995,0.4574563308495613,0.44205966079801334,0.508382784018736,0.43921994280025106,0.5321676043699899,0.41322358502231893,0.43977869979459033,0.3734579239167525
0.48426063404757913,0.5091164357207747,0.5044621262395895,0.43199288285917364,0.4172329079152352,0.48101346799036937,0.4430951860951825,0.35508215659153236,0.3977222324779513,0.3273892093531865,0.31870987742621343,0.32602358698217654,0.37644819986728983,0.35181407803277115,0.2992666339054568,0.3618773187064214,0.36486712588996734,0.3471921228122815,0.3418545759272836,0.3293524470941989,0.3513560083870197,0.36439166525976463,0.38235863226936895,0.34877479035071796,0.44313749190967566,0.42978147573409275,0.5067689073028944,0.40581519691736767,0.5324715542024866,0.3921265968862925,0.436875498538333,0.39162983313477995
0.48441438288364136,0.5225735585020381,0.5030835294859032,0.45781188087479213,0.4110173198258337,0.450951782949504,0.4363894336444099,0.3551488271710455,0.411070628260074,0.32631041131272365,0.32816535026187654,0.3513237523061066,0.38852047075815854,0.3474255647338958,0.3104257990340655,0.3526186619446245,0.3874422407968166,0.36997024873801765,0.3705007441347654,0.3283447390598516,0.36289412464141574,0.3809859425020302,0.3643440325620221,0.3447999788289366,0.4312901804568362,0.3525114043764968,0.4989537844021319,0.3674000770813256,0.5244401994739344,0.3815004801163534,0.39278714416149874,0.36664745066940174
0.5014418930853972,0.5361872183457012,0.5297193002594325,0.5034192563745254,0.4717836695405049,0.4600229082050042,0.4367491400706796,0.39842787926902135,0.409376002476082,0.35079004049817897,0.3417048072036368,0.39323561383658456,0.4005203929705856,0.37642432067672016,0.3354544297112807,0.372552006653846,0.40008283151550017,0.40575683942828006,0.3905289846965985,0.34043096123423566,0.39276726664696593,0.39549015466700255,0.37579756507474654,0.3850917673538968,0.457880896272542,0.3680100148325716,0.4765809486915927,0.4209955786935193,0.5243238624885348,0.43923427808076737,0.4151480252985594,0.3819333921401168
0.523543543384784,0.5567805363488652,0.5280354736785993,0.49470423102207783,0.481282331507529,0.4756286385272193,0.4443499480623698,0.37774424268925355,0.3505327723889592,0.40403150621361034,0.34610821724481405,0.3198847131675708,0.33606948241286877,0.36403646916282634,0.37700921443031055,0.37756619721271356,0.35918002739863414,0.3685657512006327,0.38457368719012813,0.34202429803989004,0.426901332008234,0.403665226723249,0.4264982167305273,0.4370097120696642,0.5006560931299158,0.4486378608014629,0.49930307414607844,0.5000476229287308,0.5230705749112604,0.49743922780003635,0.45481379787184656,0.41966610725111747
0.514820190582427,0.5568988552686011,0.5083539841341694,0.4660668577512016,0.43571267766723304,0.4728643286532736,0.45220435191951885,0.36012512594199547,0.28594578056579567,0.3886280877145163,0.35392623981302396,0.320184788994955,0.3369135883162381,0.3496782425007219,0.419479467648575,0.3858778055798617,0.3608538907823389,0.3797659814483867,0.37780044246712063,0.36813802599807616,0.4123800514196545,0.4203905107244359,0.42965390447053986,0.4026865646942762,0.5033544191550832,0.46476036514389946,0.5508719459866107,0.5133537645478962,0.5334563870725928,0.4910349611957172,0.42611344310799143,0.4726326527009289
0.5107123906843457,0.5468474791838633,0.5102453431305535,0.47253909173321157,0.4360927758564209,0.48244198646651076,0.4355669186354487,0.34892463111670424,0.277738799304461,0.35192487540702955,0.4046643577563829,0.33433996132187777,0.379521293478313,0.3734675422339977,0.41622948654424907,0.4135401616434702,0.3814622850939677,0.4015576031510163,0.39031567591119687,0.41220588348431025,0.39926570633839314,0.40613436591862717,0.4195521805732083,0.4164730226442552,0.5162820111484306,0.4765353166259273,0.5591820170882331,0.4938065386070232,0.5452957422577006,0.4926083963711164,0.44115150216206045,0.47216707675308806
0.512117680014249,0.5490390974591204,0.5294445829087403,0.4736375022115453,0.46052238843372145,0.48115730059370315,0.4312481932486714,0.36375016141100563,0.3313688360219151,0.34072154648327474,0.3745101412659209,0.33648953763993006,0.3975706669996374,0.3652470549223708,0.37620379755484973,0.39393605149778677,0.38469501718044924,0.40302721728531954,0.4150319722818893,0.39368806719175636,0.4059974829824631,0.42115567270425736,0.445061052678931,0.47009535872269037,0.523545981519714,0.4848996719928331,0.5529183272558413,0.4867869891179702,0.5400280999646289,0.4723812644572244,0.48644873349253037,0.4629455652907497
0.5101202305347435,0.5348233818374062,0.5437129224577745,0.46696509967601596,0.41930896079422536,0.47789746182664283,0.4648981297532574,0.391804904164768,0.35749631066516696,0.3618675312389773,0.35746636223820755,0.3643966686105928,0.40716191618731934,0.36920960533570873,0.37456031777887416,0.3817861215175151,0.37688749132500704,0.3969679207683181,0.39700984054121147,0.40030371609494264,0.3886561031031266,0.4218937556530008,0.4603585128152079,0.4727353432203991,0.5207453210375241,0.47226096309958854,0.5272691688917882,0.48305225796987666,0.5292289301807561,0.4499312209962822,0.4777013636026589,0.4400774110459954
0.5079027789238215,0.5391904896299785,0.5299681859590013,0.4745943433120334,0.4141133514785195,0.4705044201349507,0.4618037332411719,0.3822069415237883,0.33721172560205964,0.35189262144813305,0.35610201945930475,0.37822686994766325,0.389141672647578,0.3964258264886804,0.40648482769981426,0.3838979468824844,0.3745829802975497,0.3889888712691078,0.3727868998600717,0.40927903555386164,0.387303261431227,0.41381855290857517,0.4736816214815666,0.44559404595956775,0.5105939509315539,0.46787800766446613,0.5167639863624386,0.4883387813541379,0.5198534898171517,0.4677401143580655,0.4480503309666873,0.42187073847987533
0.511416354406386,0.5481518631417652,0.5253207281030927,0.5079917639959043,0.4089258930109569,0.46941238660754075,0.4786006738325833,0.3910898890612006,0.35627017192726856,0.37604999002592493,0.35317912902134885,0.41476080913219476,0.4041052303704705,0.40979490415302205,0.40261259645275704,0.41590497615614713,0.3898671270852622,0.40511309689573616,0.38629081523363135,0.383505129285997,0.4219130340219616,0.4210116828314356,0.46957618186581734,0.42092432692671705,0.5296235543925913,0.43345846500202884,0.5250611975633808,0.5244102404783016,0.5336652232117591,0.4801640133908514,0.40468016441102267,0.3993140464870966
0.5112437743279196,0.5312653772762295,0.5269752074833813,0.49492966073990496,0.35605838675698015,0.4869902168737373,0.5280665816808714,0.3694159905365768,0.3752638048351829,0.42151093951962887,0.3581347627869081,0.4032146123376345,0.41082024575049475,0.3987600129967228,0.3860267045503717,0.39681308802483445,0.3663798711102158,0.3835875856839814,0.41453958877779407,0.3827723404690734,0.4236655936638862,0.41192800105793254,0.4580698652877369,0.4636623677964039,0.5185388909135025,0.45672691960720513,0.5171517321794957,0.49114415583784227,0.5119197773123847,0.4538885215786553,0.4014453067594336,0.4151490394555268
0.5112777798304105,0.5377118794987414,0.5263661175264261,0.46881455671658695,0.33703325355595676,0.5097590174745129,0.4958936699857389,0.3780465104587584,0.33680327032011215,0.3921208853266829,0.35786760286631075,0.36038601259608627,0.3654854921544834,0.36664500476564116,0.3858386170880158,0.37475176955252654,0.35564489221770934,0.36689694780105747,0.39403839001572133,0.37897055238765115,0.3798045497026452,0.40117297553907755,0.4401714863804222,0.4117231192494892,0.4885981595000232,0.46727516037076067,0.513268828788355,0.4236009010838503,0.4965543999544876,0.43602903141517474,0.38229805905498904,0.39999715526101587
0.5120538972883467,0.5258995416254149,0.5133045086637322,0.44416539633515184,0.35059548858020656,0.4640287309580284,0.41976600575899986,0.39723212157610727,0.3151936300286229,0.31584018049953616,0.3543008810750739,0.3343364805136708,0.3595327600633656,0.3536207240051176,0.3665876991647176,0.37792900650308436,0.35500148966859973,0.35918094002695417,0.37424010030181043,0.37727846859210945,0.38358341187478545,0.3715640291143408,0.41474674754465773,0.39919619375486554,0.5021942954411639,0.4336235529932322,0.524439978034414,0.44044169187722526,0.5130899523738316,0.4388745864380591,0.3491496261343892,0.33739719094514925
0.5058683831440444,0.5075702642344094,0.5216189221233315,0.40548979950236785,0.31453094738940846,0.41825005412320815,0.39985632986112923,0.38155758685973284,0.3000442776726234,0.2906537230786052,0.3267154884493749,0.31805428783574763,0.34510538321564593,0.3292166041401206,0.3210284325387733,0.319485150490464,0.32209063609987043,0.3318131953637903,0.3414366438200948,0.36509772138225627,0.3899948652636242,0.3353814096564058,0.42008528353015423,0.4138902364522834,0.49290684787686934,0.4391258413210221,0.5350554036638878,0.4789848977856405,0.5147081967691006,0.46073640161726565,0.3617587471250461,0.3626262019491768
0.49862510174315705,0.5440394665194249,0.5318207203277218,0.4345671183659606,0.3429816748774759,0.4556180169578878,0.45971592667813366,0.37944103793448886,0.33537230926133904,0.30598105493570854,0.3307110713562064,0.3559776338996505,0.3382202739457644,0.30160534842056735,0.2563338026163375,0.2946503360774478,0.3061414576212962,0.3326696806458982,0.34566057680411444,0.3806450710556514,0.38493524131894513,0.36240033815975775,0.42315080723695536,0.4535429728529415,0.4969479065116033,0.45767978418986205,0.535986051210948,0.5042960936269945,0.5068113251984173,0.4654766159415262,0.4077297698872774,0.4275304062110194
0.5208244042008069,0.551171424502438,0.526808251785826,0.5161627317383287,0.4307356726759113,0.4861779464469114,0.5178280297052036,0.3497039871942166,0.35733826825256343,0.32121084974848757,0.35071955859743686,0.37973078646525854,0.3479865918232698,0.3066578917817071,0.26463614248205286,0.34870383898729895,0.3381983399295676,0.3528809701261084,0.3617582380540002,0.3981875421982291,0.34602851304544957,0.39344419854602075,0.41127435322492495,0.4524661925950129,0.5189899055910219,0.45659658588833896,0.5273431904693969,0.48703398634074646,0.5220955386154308,0.45157603380661465,0.46830914406126084,0.4357334408238705
0.5285392419819237,0.5379447075913991,0.5272850297751319,0.5203023194979696,0.45513933179887095,0.48098590927481816,0.5227665225604847,0.3637542816512524,0.349552034517637,0.35702607648873835,0.37231229964327284,0.37909892626141295,0.3821507204615783,0.3483536186026623,0.3471343924214103,0.37931523823314,0.3923104783067617,0.3793414304804391,0.3921795398339613,0.3916424541649968,0.3482397332884077,0.4302629237771327,0.4363089192461418,0.4379022095645185,0.5103825098313736,0.43081998702967167,0.5337653513724439,0.4728646833030547,0.5327753088606418,0.4809555302027398,0.4725741107316161,0.44962745030995616
0.530445054801409,0.5382833445775563,0.5338010581419197,0.5238272886240294,0.42710991118855646,0.4795436565243832,0.5220513897112821,0.3815328025629,0.3776175397160628,0.40998999476845543,0.4477008316657767,0.4017184053174508,0.40204211268392215,0.3963275865146407,0.37932704628800157,0.39666434960188424,0.40970065868184313,0.4014593460549755,0.41360472145080573,0.4102193679780369,0.4060366339767431,0.4493560360468559,0.4217618898152369,0.44692315101446944,0.4802957659591526,0.4554492460003449,0.5508292431222667,0.4927035209569794,0.5310390542035128,0.5020729763141814,0.48072819033006947,0.43054708218409266
0.5313786429701023,0.5431184272069626,0.5341613407437216,0.5055316296643997,0.31993241103500925,0.4867999423744812,0.4955470827522849,0.3617312405176465,0.3700627028519935,0.4200997758319812,0.416858900160765,0.39537200704011904,0.4046802023915055,0.3828838967468285,0.37835155183806796,0.41808658790073755,0.39889318105172217,0.3968740946520714,0.4250401935811924,0.39790341021771164,0.42014489046595127,0.4325351173500966,0.41845159419440553,0.4464498348602583,0.48364933261816434,0.44752720584722216,0.5432586064480467,0.4977169221705642,0.528993501184717,0.4802849651312742,0.42613375899002837,0.3973643513185231
0.5289309036629998,0.5427181911855162,0.5230356415252231,0.49399995732034013,0.33202482703471087,0.5079991403377636,0.5008897802565857,0.4246273870065414,0.40239273743275955,0.44524080983939124,0.4204067184149142,0.4057445611526603,0.4224099951978341,0.40390526528283094,0.4103689741512327,0.42204160999491425,0.38979253812282394,0.400105300854059,0.4124519347998078,0.38491782911762196,0.372258403632981,0.4197852362512342,0.43675201730840396,0.4391087541876922,0.5229953894071947,0.46599610851899964,0.5336034968183988,0.49736856760076686,0.5354369865880991,0.4933044425051781,0.4077779800002248,0.4229267596707123
0.5312040566863324,0.5337969335055486,0.5125794609167477,0.513439619514358,0.34917630313834147,0.49726305208594623,0.5037710003671727,0.4551445874695881,0.3956740442148813,0.3829855069956795,0.43404923884510155,0.34905424874527585,0.42162169497431967,0.3894418166067005,0.4086483918696666,0.3918759191193615,0.40048687975143055,0.42959799441119784,0.39443520129673953,0.4016979292880142,0.3471367854863039,0.42581261658952135,0.43655241588548543,0.42764902918660597,0.534155715695667,0.46777747999329033,0.5278905886549436,0.4956728339003877,0.5456892894470236,0.4977192623511207,0.37607335265408887,0.43724133006750115
0.5347584757586877,0.5480657908706448,0.5373058274042962,0.5062564277944169,0.35421520370377324,0.48486045211176404,0.5148968487099804,0.3794635318823164,0.3542121931523647,0.33394286548692426,0.42664580809080044,0.33583110930698107,0.4202230827691718,0.38125649967765773,0.3983484939888781,0.385826441075728,0.41343662241059775,0.4221504876156034,0.4066731444897954,0.37004357118298437,0.3720087446926942,0.4085588257942786,0.4194334245170906,0.4422780767538285,0.5147341689350838,0.43472163447145956,0.5221497285311937,0.4817953116392876,0.549492687302071,0.4619743389307127,0.3649859594438644,0.3827887443438736
0.5336078849741993,0.5594331024273147,0.5340129423315847,0.49141259320334807,0.40265972748093753,0.45183340111429704,0.46132287879021033,0.33135947530817306,0.38021727496595437,0.3596536966181282,0.40453334476928376,0.41054033439576376,0.40177171159332914,0.3972015203951701,0.3991841104660405,0.3837823628358072,0.3834211674551639,0.39097557528950794,0.39897636719184526,0.3514164690035608,0.37192274892724464,0.4073803010470656,0.41779253841362596,0.42095160120279035,0.47927633416904025,0.4320263782469753,0.5319925173050498,0.4496832910099617,0.5388081072415416,0.43866745678499863,0.4171499471486496,0.37241360075146596
0.5029389728808897,0.5204840542364587,0.4919441734397138,0.4739260757746553,0.3497427064252919,0.4194750866622626,0.4111293773751702,0.3289129758929612,0.38543809719617794,0.34112078831177356,0.3762614761849705,0.39146125002033294,0.3973767785397928,0.3844964088457265,0.350208361788628,0.3824157066749169,0.372929017759798,0.3927993518857656,0.40085932523387446,0.36630215420406326,0.35654090121433274,0.400600453602402,0.4224505909971829,0.3641686550932324,0.47762294861653254,0.4443815727886584,0.5294995937482035,0.4285623989561265,0.504171679511227,0.4423169741963206,0.4218665163103151,0.39608564881000174
0.4994722583382951,0.5087671046546337,0.46187024953229505,0.47384525616116685,0.3671502208536968,0.404178918777047,0.4116381329110832,0.3670146978047372,0.35277761725693285,0.31909159488004524,0.364458237177656,0.3519446199767585,0.36082264284434235,0.34145621462163955,0.34311489287818425,0.3571648000386412,0.3572342770324116,0.3777783174871494,0.3817343617634574,0.37571406515471134,0.3758022031233515,0.37982059467454105,0.4178590133080743,0.38451167686777554,0.4962049371147096,0.4536721808576075,0.5360727129860963,0.44347380202235287,0.5176423744647055,0.4518866838909207,0.4308192137562997,0.41296828091687365
0.514183816849701,0.5142327638883738,0.46371927367484933,0.4751212941134643,0.42196572403375826,0.41619423359341495,0.39747339015901506,0.36069869235166846,0.38510309005061333,0.3233498663820658,0.37630804715837524,0.3321103830995086,0.3593393863334005,0.3231649545493486,0.3523108163158241,0.32355939011007095,0.3522737279495026,0.36068191513431963,0.3741791464423117,0.35539309065123276,0.39449746762512006,0.401366885612303,0.43108263727227747,0.38848744145472913,0.431962438321625,0.43506975443641593,0.5318445103656255,0.41775311972213464,0.5372552228589793,0.4243353290982007,0.43931991645332236,0.41394487177885825
0.5093966222210351,0.5233924230266647,0.4918364372216365,0.4652509296417166,0.36749555578342713,0.444134474565355,0.40288999930075536,0.3346914728273924,0.43347489381333076,0.3478768582780626,0.4022873880851648,0.36381245349796093,0.3979724967071421,0.3478257994023538,0.3635908421314543,0.34043104632486215,0.3874236907091551,0.38915106965452023,0.4106834925475636,0.34783095006151493,0.38503123321736327,0.4348499790716482,0.4313964276448454,0.3876590466889271,0.43939932516532487,0.45036469253706,0.5224852865622578,0.39228294811143305,0.5298184693448672,0.40671988500813616,0.3997103517224798,0.408338827103556
0.5079387326295315,0.5385738366091098,0.5023889164030679,0.4740644043218426,0.36636733119519976,0.44188264486695633,0.411346767235691,0.36797974097019387,0.43146968565137195,0.3625308253585292,0.39985034740669945,0.39025485208823396,0.42450586921613453,0.3998002116587192,0.4012411240986151,0.39374380132586845,0.417633106919633,0.42782898427254473,0.4594744520524358,0.37789374329728326,0.40643512174262963,0.4457702482943323,0.4419074117088685,0.42061182594070473,0.4859228613306896,0.48224046856993624,0.5300258158901646,0.4072304609067285,0.5203883098786085,0.4240984983427407,0.4004899513353843,0.436463779212786
0.5114742416938799,0.5246230194460813,0.4874250139092472,0.47030372119867736,0.44160134986681676,0.403481894337706,0.3768356067835416,0.30860807462022294,0.40415244078269746,0.36782380696754574,0.3636776827262861,0.3650938833686206,0.41937699506232895,0.41360586634364205,0.40471903534293785,0.3910606580618794,0.38972635588586796,0.4005684355882725,0.4155832538024485,0.3870280313031815,0.4056352165157731,0.4147657717024352,0.4365609117390127,0.40259998126821633,0.4674888513623932,0.43189303932545264,0.49006954050650336,0.43075019934717945,0.5138990511562875,0.43377552846134476,0.40414008418504777,0.40459931052586146
0.5109698544858654,0.5202476594010358,0.4985481106420963,0.4714324749841328,0.39751631128750897,0.40314728002657724,0.3812720651851957,0.2857660101863127,0.3772147891542303,0.353338933099705,0.35939804383862617,0.3857443691522255,0.40265042399527196,0.39455877172725856,0.38961325439631234,0.39678190324109724,0.39111994723990606,0.39710741174272934,0.3932654690972238,0.39655873918274376,0.3934070604916497,0.38076499829197685,0.43752388851458307,0.39808434996345576,0.4974290333781344,0.42695007118125133,0.4832846870407079,0.4628981044013552,0.5220922815324573,0.4469782208154064,0.3926010739430909,0.34912593998899766
0.5312192801402893,0.5350736629628795,0.5228070485463727,0.49014288961554153,0.394976177378395,0.5019590822982555,0.4497398879896007,0.40862420345201567,0.38495177642114636,0.3576548521291617,0.39452528392779285,0.38595172674212674,0.3935664982025612,0.41906712618118275,0.3945648741508571,0.40859769119363637,0.42049037375606074,0.42865860814258633,0.43451569572493426,0.405014623003063,0.42438485532940856,0.4214416579636919,0.44324848619599694,0.4302040753398065,0.5159911348911976,0.4611331467881752,0.5315430027852809,0.48645555386304506,0.5502267214177686,0.45969409912402537,0.4546422420067341,0.39878649578657965
0.5554322723091556,0.5482333675586004,0.5400847170285498,0.4884422257130358,0.42756504388632166,0.5293184031105432,0.491017361586291,0.38097704291214846,0.4005918302011982,0.4079545263846605,0.41673554575220667,0.3918385615190249,0.40751435587855656,0.4395497542323915,0.42942659726159815,0.41753550041754883,0.43238996131574325,0.428090887788425,0.43197171183763383,0.4059583865709952,0.41078260276001577,0.41331173402585925,0.42657531334017296,0.4593084402411631,0.4955456656795529,0.46374104330043736,0.5420276755240092,0.5005012632383684,0.5400149464446454,0.4942988490000999,0.45582081880762193,0.4061115485047939
0.5563254262836363,0.5370526362117514,0.5234978996269851,0.46377878434070274,0.4146961978487511,0.47868204105580564,0.4895879782901236,0.3369058187748762,0.4238758993455793,0.46299444733386663,0.4519315890788606,0.4441329614182043,0.4325187761307653,0.44988413666357707,0.4555829377393567,0.4308209443948934,0.4236415631758998,0.40846236080639364,0.39218849298384406,0.4010889972794345,0.3870869911457275,0.40034674793404207,0.4310528401601504,0.47547326449332655,0.4653108949198079,0.4393365583780588,0.5366369300881044,0.4900710225345229,0.5114830376267017,0.5012621170856036,0.4161061728840341,0.40794414512335414
0.53870305680502,0.5366516880156242,0.5093034878293804,0.4364833907981793,0.37678278194870146,0.46730388606321166,0.47484814873708986,0.33321711146901234,0.40610834178627425,0.4252889102362947,0.39570424903998297,0.4278978191041533,0.399249756499195,0.41015642101283856,0.41520944364059365,0.3945619951944121,0.4010136431161119,0.3861842144846029,0.3645137380076818,0.3831155787769549,0.3579162066860585,0.4135236904997942,0.43509096468102293,0.44444926146849284,0.4706211636756641,0.44938395020267075,0.5157737026751168,0.4506737072258494,0.5061373114867596,0.4531609081713181,0.4318198152564188,0.4783592061573595
0.49445022455552534,0.5499762924404734,0.5266897738415051,0.40024179688510436,0.39040884850826485,0.44285679864335825,0.482494957296996,0.31058058320778065,0.34555758901640016,0.3925499534468771,0.34683725706234875,0.3400559620961717,0.37428461251737416,0.3736446792055986,0.3757219381948238,0.39795199563228983,0.4193962387303248,0.41068363428748966,0.39094509338767625,0.387085992975917,0.368876186823384,0.4212346190536462,0.4091696988745948,0.40293682679062,0.48699108477261654,0.4772919920331079,0.5208740747727647,0.43419715746564663,0.510906102904158,0.40788765409124195,0.47840098042377543,0.4417500511609781
0.47828789101431257,0.5338993967929375,0.5401651998712693,0.4248151711561314,0.3898170681413321,0.431043437137864,0.4922709783094413,0.29195318050507124,0.38389265940019385,0.3907325028716594,0.40249708597475214,0.36197961118572936,0.4211837257976131,0.4191537456189465,0.3959949802593749,0.4374473861450072,0.4576691444931231,0.45189913236474616,0.4428207876836138,0.42544511722402956,0.3129082769457638,0.3901728626723501,0.38482258666194546,0.4232845306664969,0.47912889169606593,0.4758493864762504,0.5453816064408019,0.4374703172143666,0.5171618100357213,0.43585319756801066,0.43419130132402195,0.33246865899137656
0.5013491552969832,0.5050023678430835,0.5191116379108536,0.45764141874929065,0.3698920414641095,0.4542705277206208,0.4800214158567109,0.3625514889089951,0.43091271369428663,0.3799012526980647,0.4140430973541945,0.43296735723555063,0.4370987103918349,0.420802174238479,0.37179607354113586,0.42832402187189256,0.43394474107305064,0.4346904745405324,0.4276632200801894,0.43740703862297425,0.29406890396000845,0.3727431628431043,0.40179603256396423,0.45272451646436845,0.48774909149989837,0.47197039568542737,0.5417017797376374,0.46427631751354337,0.5211716238338052,0.4758862715161708,0.41329163189011536,0.33263330443493655
0.524396240955479,0.5237191692129877,0.5077337960680887,0.4149127000447277,0.4204624743320755,0.4581390457588318,0.46557382814321424,0.4529753366341215,0.42597493874208214,0.40832535218642735,0.41842571794108446,0.4376921726566002,0.40557156819450724,0.34098643849461613,0.3896433486063117,0.4201779106142105,0.4080359274521744,0.4274770841459567,0.4233456020298683,0.4212344270459931,0.3500694105185245,0.3928917644510292,0.42574563580324354,0.4739065461924482,0.508149801754591,0.46237194755076166,0.5185838857923389,0.48298904591129893,0.5194303895337277,0.4990321285526613,0.41670525324569224,0.42787134665184795
0.5067639733157568,0.5342353832276755,0.5030059897270147,0.4605200438581849,0.444376471671486,0.4544811201461493,0.43803604595204293,0.38504397421341235,0.34366748053825047,0.39399572639937736,0.40772899914887756,0.3900796272363307,0.3639160951504254,0.3052582887286079,0.39640592442013156,0.37797814915615613,0.37481727913805524,0.39043735486246495,0.408231924469212,0.3694171555568452,0.339260661519683,0.4025179543184321,0.44258469916233545,0.42826984358019177,0.5128237810788505,0.4539446853330992,0.517391015056677,0.486258426082893,0.5332942973606164,0.47544841362878537,0.43666735340468554,0.4069577307833688
0.49730235144194207,0.4939642404490803,0.47508404930334774,0.47199022195960677,0.4180085828100775,0.44361779342986973,0.4292338554782582,0.37196666663800765,0.3780916782832392,0.41246023878364996,0.4080964495450978,0.36589383849344337,0.38797283989684583,0.33887511596911835,0.3767634446417858,0.39009705659739247,0.40368699444069656,0.4032590393099165,0.4007754082312131,0.3718091709211723,0.3433046577861519,0.38704006129084956,0.4135578490938618,0.41356751846396933,0.472023812232091,0.44871229353820447,0.5130523711307765,0.45999146962250714,0.5430562540151418,0.45342015915232786,0.4356981757901583,0.3988330432309456
0.49339646602224363,0.5150192999398656,0.49288491176638743,0.4548818109073933,0.3992675096481457,0.4732301397012908,0.44663350122768875,0.3470681870638914,0.42833646273331094,0.3986629925515964,0.3969540181802595,0.3276372894366668,0.4289633405679269,0.38199140075611626,0.36310540406251823,0.4067470834288865,0.438428627782764,0.43692995917685945,0.4190619338990666,0.38843600618135693,0.39920152096199335,0.4202637591642346,0.40838312420614326,0.4316613748610886,0.45357957564083806,0.4070841965331202,0.5155753634752137,0.46124239898729613,0.5381500038397785,0.45192738797201093,0.4188077263497831,0.4308157791300425
0.4985094711366291,0.5544132665714834,0.5243997945713103,0.46590603414178405,0.3863145170325493,0.5094821837117564,0.46698007037040723,0.3523794029227129,0.4032531333379134,0.3648708537057948,0.3799257563079622,0.34861848861971345,0.4177186712535861,0.36777624748658666,0.3580492724716613,0.3853011919641068,0.40012018001315297,0.40403130437121293,0.3956728723417937,0.38740984646874066,0.42535998015135695,0.39476104720539035,0.4113547041604977,0.439522704199481,0.490087931596851,0.41671076207382673,0.5110450715882057,0.4803210059788079,0.5368866152033779,0.4593599776026036,0.4279040324885258,0.3911490828020774
0.540958038188335,0.5532333641358401,0.5297250914561744,0.4585579196481092,0.3983231753628158,0.5001279277698222,0.49645296682889906,0.3793696290846193,0.3890938661852138,0.36145901362918115,0.3977106764913096,0.38801158559301585,0.3777117116952881,0.39016424361623825,0.37163552836526803,0.3785748060228803,0.37890873045667856,0.3777917692139161,0.38175687509110934,0.384657851027273,0.4618913284042729,0.36168972866137716,0.4059445619795007,0.4307101648911719,0.5310598344401446,0.46677255073190543,0.5215015447253657,0.4790821710439046,0.5318768557318555,0.48580441820268844,0.421654010585607,0.37124912220433426
0.5405925772740194,0.5384926047887808,0.5431434889332311,0.43864861751234324,0.4489859165503729,0.4970251343016202,0.5066818375197136,0.37984551253113275,0.39519262558902596,0.3491171315672898,0.4056255795759621,0.3535560940739746,0.37095339921189285,0.38777771379220033,0.38950499647736914,0.3841111312537988,0.39342899360419664,0.38788992809772216,0.3973792773364207,0.4024326023436812,0.43140458938368237,0.41196825651835856,0.3905026706209362,0.432966864747939,0.5172781082774489,0.4519708339564156,0.5264564781185576,0.47199354527465043,0.5267215204681257,0.48701055579113905,0.42225743416634176,0.4265819784241802
0.5387976644307195,0.5397558539155621,0.5371714332705044,0.44131885114570474,0.4197912145905545,0.4681311053163742,0.4901736752112463,0.36148956839545515,0.3658011724970651,0.3847018296960653,0.4164485767827111,0.3719608529953956,0.3951151336409976,0.36509726693399497,0.4038965541718739,0.40483144632435847,0.4097862907340914,0.4122485980426168,0.4066990974538873,0.4208464258553341,0.4247328867417257,0.4162731687547864,0.408606230557828,0.49138873866278926,0.5038273208438225,0.4690389309625329,0.5139239624156221,0.48959119155138947,0.5185451735816226,0.5122707313560887,0.447341625536502,0.46459253157997293
0.5332561998645884,0.5261202399614417,0.5289986349625475,0.5030086861141524,0.3675748660577496,0.4505263967328095,0.46027010531896856,0.38981109526774077,0.37529325085087334,0.4030182172130042,0.43018304093423654,0.40544314858298725,0.41460456754811276,0.3714367156224824,0.4087532467285645,0.39688736368793387,0.38459306815403105,0.41214200901024595,0.42285963543168653,0.3804188676766872,0.4521558506207884,0.42887273929185976,0.4119042878928087,0.47186736415919167,0.5010879210368766,0.43934409587138856,0.5167324620186311,0.46038047991200076,0.5156741576027348,0.49843681830201836,0.4469507050796549,0.44380630145515815
0.5258717173370724,0.5183059932093108,0.5332360032963139,0.500591027127779,0.3545143567805451,0.4729109887590641,0.4651005077352737,0.4179617292614449,0.45234222676000574,0.3880919373122954,0.407383592256618,0.3446901714001124,0.4011365198571816,0.40200682150118555,0.4038908072613266,0.3900499127421111,0.3647160913130262,0.38184133423692684,0.4018094748487963,0.361777327516743,0.4334338519061008,0.41924270143591097,0.4082964385538375,0.43907860073100946,0.4792508027569423,0.42400928334539384,0.5160727707112905,0.4465567551945012,0.5046765597472481,0.47742899320253984,0.41011025976791876,0.44250141239843205
0.502778277492957,0.5134689620716102,0.5178975436769091,0.4883734425245454,0.3807462836009794,0.47033393289899483,0.4597177034728608,0.39890898336847064,0.3953952539766921,0.38773533474419897,0.3841622193244641,0.32861595489120854,0.41369359818311136,0.40920220309809324,0.4034082820391663,0.4062028189470754,0.39788503688556426,0.4009459667543075,0.40769115012498314,0.39039047926117426,0.41689286879525106,0.41628340306959294,0.4315828012620817,0.4393223768159365,0.47018173554572823,0.42385475890388324,0.5182865446941305,0.4670491360185896,0.5338048477327018,0.46747057536951675,0.4152231856889897,0.42278377703744635
0.5197295649008774,0.5210985172272492,0.4871390452124784,0.5072235084437065,0.38576931162373557,0.4779509183346755,0.47678244907234374,0.4090406307759985,0.39041269747412266,0.3731826474424672,0.3773123511547317,0.3570859445617504,0.42864951428935744,0.3887945858885764,0.4040450392610355,0.4128780222849142,0.41454681131782917,0.41590799792330624,0.4218867524999167,0.4020072466315087,0.4177985916097414,0.4427840979773044,0.4171201112157284,0.43566288689436017,0.4728251249147947,0.39982777571297823,0.5007740461240442,0.4684692854648527,0.5463136835133582,0.445921342246887,0.4185273578430247,0.42787306748209314
0.531070831253676,0.5358030893583569,0.4952205924556961,0.4706191357282349,0.3500424566632639,0.5198548967876612,0.5057708631333137,0.4047301853074676,0.4434378744264168,0.3638449007432088,0.37615491392804684,0.39056633514171235,0.4190518004372961,0.3766820615339444,0.3821745787450092,0.38511694347199965,0.37914160225814153,0.39093947058479384,0.408826209009805,0.38709445531101444,0.36559871471056976,0.45296805566398635,0.4398829654677327,0.4446494302255772,0.4953472892589773,0.41894928249569907,0.5048043232500747,0.4600098683967858,0.5311327600274187,0.4483713858884434,0.3948318095744597,0.46628062682112126
0.5004276475086681,0.5333796070573891,0.5016730109599851,0.4466827362340663,0.3686942646730076,0.5191343471578044,0.4947966932980961,0.39471343850990703,0.41817597842518034,0.3998501313337795,0.39835534882763823,0.3698363371767106,0.4167386491986969,0.39998215169384527,0.3847905711463719,0.3843105259220737,0.3817065528390266,0.39419212588112595,0.4139795028326657,0.38142741486510623,0.3526291251404108,0.4428590262164492,0.4929224910876408,0.4651032388750963,0.512508680861271,0.46792906147317787,0.538319425542204,0.4706431857811517,0.5221277098251514,0.4706390869511422,0.42560444040633294,0.4213793560292389
0.5208080436253261,0.5333991949667921,0.5072647077454536,0.44780417486215746,0.3612798702031755,0.4655951251966592,0.4845656797149995,0.3948788002255347,0.3441643192191392,0.3777396007895383,0.3875684512246135,0.368633937193532,0.36526508401125934,0.3669641134252907,0.36825123942160093,0.37036008477329246,0.3711114807542761,0.3804050106219303,0.38359673629685487,0.3554536148341009,0.3699592380262722,0.3853297230021766,0.4340242910887093,0.4339093231255421,0.49475649431711416,0.46034994500840026,0.5379486065035799,0.46047410269095795,0.5226163795459969,0.46603130295449324,0.41240071288252933,0.394557985460981
0.4986785849951592,0.5197937822323238,0.5184691951731111,0.48088292161998636,0.34296144209542134,0.4495677208638021,0.4617432399017473,0.3891299731884994,0.344667551780876,0.3591350256154572,0.36027753913405497,0.39488361671324085,0.35212504970037883,0.3540132973815636,0.336748007707573,0.35577494345752453,0.36592815110227933,0.37098280476316015,0.3855796458186395,0.36872020978064807,0.3870139209136257,0.37778259451998575,0.41722738766324996,0.424760748293178,0.5065062139137719,0.4491791556793782,0.543818618974673,0.424400889334859,0.5217844100790707,0.4277207387111321,0.40141539145887567,0.39218584136710355
0.4777729761038829,0.5188915351704958,0.5110580625728971,0.4722626522478676,0.3843052365480707,0.46825707488839774,0.43218707635331804,0.3755083657275624,0.33364011038064817,0.39447968898819463,0.38115677965766037,0.41523210393784676,0.37452244693957,0.369783572492536,0.3436969594757246,0.35838806070999685,0.37071541838276617,0.3665722103036706,0.3703254989956248,0.3970895004507171,0.3952474512927552,0.367980743218592,0.37810654614269673,0.44566587353239523,0.4923415302818413,0.45045501494106066,0.5541018487884662,0.42425680480733874,0.5428311925427604,0.42173173490271265,0.4272779894873595,0.3565601637219817
0.49154062941253523,0.5372152236121357,0.5037137951568952,0.47487755127847964,0.41723008280391144,0.46242837659708097,0.4584027358293953,0.3516784497360244,0.3437943238162872,0.40285876686750344,0.3996695327438527,0.3602841739677723,0.3952164873066279,0.36963177786240226,0.3672519180856416,0.3966374677030669,0.39675542101379063,0.3965775076347696,0.37592703209156686,0.3903139283606335,0.38149598840806653,0.3802228077776309,0.3762636085138689,0.4688538268231609,0.47175763621761885,0.46459907745941076,0.540697003917716,0.4598261379750945,0.5399933512136638,0.45010141535671994,0.4641594627534226,0.38716681518269347
0.4754578789599659,0.5341202074392952,0.5118183837417922,0.44540624449020044,0.3590205353974981,0.4421733647582058,0.4563068328993089,0.3565501606743211,0.3598261049195583,0.38596760733705304,0.38276661697319936,0.3240831762977614,0.3818326743631365,0.33161321233427454,0.31059074153207106,0.36278165938921053,0.3749501688362076,0.4145704519518529,0.4271261203869968,0.39582894401640284,0.4034102658578261,0.42521437873156837,0.4054465589627062,0.42784691229213473,0.46611172438392606,0.4356830950599284,0.5191114469681747,0.4370162133141803,0.5242322161768364,0.43230125515586865,0.43850381085513407,0.4240968544711885
0.5085469936492343,0.5273479107903274,0.5139312842508608,0.4239091045065483,0.3346348534256302,0.4313856414577809,0.4368735744195557,0.35517597644272525,0.3393142572502383,0.35766904244728126,0.36808679135451733,0.3587354973920656,0.37044739246308034,0.32635241015440997,0.3100371430370029,0.33608740074421106,0.3477120385689011,0.3650936914285597,0.40014525580564714,0.3978429346832745,0.3964200849939574,0.40035088098307053,0.41638340838442417,0.41884484928985327,0.47092269723628005,0.43862173993494336,0.5297130310524709,0.46939363999629435,0.5321238316838304,0.4734023810115626,0.4212101246040291,0.43810140544513787
0.5273220054070141,0.545197962479514,0.5277761857789488,0.4731666474919959,0.3911549919802122,0.45377831329470725,0.46153324941258,0.3655309289502957,0.3479908817949958,0.35351528704427965,0.3457351572650064,0.36354575189189503,0.3702039299109892,0.31670860476591817,0.3299630121373582,0.3316915772372534,0.3467312351706508,0.32939569803448837,0.38015297785719937,0.4031661151506872,0.39174517264494624,0.41496223276103433,0.44675154207166506,0.4752928964662817,0.5273920523536432,0.46094181083123004,0.5393942348120184,0.49601594960004425,0.5293492701598885,0.48542413661131056,0.44076976736388396,0.3827796707259039
0.5392877579078666,0.5428183631448407,0.5342485122532786,0.4874317938913957,0.4309005639745119,0.4610919433963656,0.4949731017513821,0.34605519790356126,0.36388370728469355,0.32994253624059766,0.3621291663859651,0.3665385970129904,0.3893066910918698,0.3390944632069599,0.36286580740882957,0.3686544470643223,0.3575224073934567,0.3466711954211815,0.3918254759948565,0.4047551427669729,0.45260565745339043,0.393328603027822,0.4627751433133183,0.4542532915153089,0.5413677005555485,0.44716835863130133,0.5449629786528378,0.5081594304574832,0.5286554104112777,0.48344450125169397,0.4204920386391911,0.32989340780772625
0.5511864462564399,0.5216183336198756,0.5061213099869724,0.4983135240224347,0.3768086466195143,0.4924505678138826,0.5042835447896646,0.3691106956136415,0.4003815890347195,0.34836778284421344,0.40839604397060275,0.40550090166581,0.4288529995061956,0.39547227714318317,0.4017016281908064,0.4130433588842519,0.4080405060985972,0.415886426881516,0.42920949102444445,0.4093274896939553,0.41467244939643033,0.38311216026522515,0.45340129627011416,0.41935795617336447,0.5151351058221065,0.4563303461296962,0.5340597405057306,0.5100129296722389,0.5263135118664176,0.4984428665519977,0.46177224296667196,0.3458622074618228
0.5362333537692688,0.535976318819619,0.5173101147292939,0.5030690651878762,0.37700003333567267,0.5067165547123547,0.5142417091869206,0.4324028925357417,0.41319297697594515,0.39030384536386814,0.43617013537763666,0.4202553380406073,0.4193543162828146,0.4161783592489601,0.42661324162664865,0.4403591964816689,0.4474075220128171,0.4204506015254435,0.40375053477674794,0.427176812964613,0.3909167735804957,0.39517577771424783,0.41025151451117625,0.435086048514436,0.4957121696718059,0.46375335609093565,0.5151882307087918,0.4998749554507167,0.5158439449906573,0.48695980158183855,0.47463151079559474,0.38606310819672957
0.5211922353810832,0.54025941298726,0.5235093655073857,0.47099534036560453,0.3754417266214676,0.48111935246915466,0.4925193735452556,0.4066959467235026,0.4280107223235861,0.38404596005788444,0.42546416118264396,0.3988624435192174,0.42575228304362767,0.4223967527123367,0.4322794556078723,0.45084725387625235,0.44123475939327217,0.41032089974558833,0.381115193422692,0.3894717283500847,0.398959332367333,0.3929031603028943,0.4159140074187814,0.4603486400742366,0.49487334966744273,0.42132217748062784,0.5374953081814452,0.53065864573702,0.5489331684051273,0.49990583105136704,0.461496256384042,0.3975638127879604
0.5135930735307421,0.5307717528506034,0.5324696557798781,0.46847490369735845,0.38948288712357015,0.4925251307562281,0.46186126036542563,0.3537902478942144,0.38467364300854356,0.3716789756141166,0.4077004384415539,0.2348477592899912,0.39877397532022973,0.3880014085996714,0.412371382130363,0.37259660549142126,0.37293751912692613,0.37500276103098074,0.37027926903303343,0.36353315814384235,0.36813601593859524,0.37247471178374697,0.4055626535009627,0.4173983462834282,0.5097298237390465,0.4307886851403167,0.5451054528563831,0.503306157560618,0.5630390372318291,0.4649884306006072,0.48230702968770667,0.3977564170933961
0.5027848890335764,0.5215449483453849,0.5296973683310969,0.48454710944674295,0.4303896284367042,0.4995721651258198,0.47508747632559367,0.36397360824395064,0.3762149994480471,0.38088713288553855,0.43397905678205434,0.23523008796130507,0.38976701033557404,0.41259866869412687,0.425470725603305,0.38579060101987434,0.3865350213435886,0.38832758599539524,0.38456198418895177,0.388549391279591,0.38407397931595166,0.38916557665088336,0.37660828716076533,0.4117931871930717,0.4858319379868332,0.439541103438772,0.5412217375153074,0.4672899250304199,0.5243615065955336,0.45484898211977615,0.46875128044983094,0.4043311360721861
0.5043114714932038,0.5311750372066738,0.5309888704705532,0.4735171114218486,0.384245241762213,0.47369187915751243,0.4700301325986751,0.3640498075118868,0.3885369344757749,0.3596058069098486,0.41827176320190546,0.316506396903778,0.3874501203948309,0.44162828225625866,0.4133898827876388,0.4133852050463159,0.4040362365134402,0.39039600612856895,0.39634240847879537,0.3927723909932465,0.3947443600220404,0.4063600482507992,0.3540553429466069,0.381800713021293,0.4114832389760382,0.42879238330034464,0.5301166193964509,0.4478246690104202,0.5152113558170051,0.44847614810103764,0.45125992785307023,0.4038068113047397
0.5366743733113952,0.5101201293313901,0.5349771782816883,0.4262431773956636,0.34018485225328504,0.46831600819861646,0.4962525349295222,0.34873490558712966,0.4186225720745778,0.37822058435595846,0.39877444080422825,0.40371143052181413,0.3970277358768373,0.3981859304246622,0.39473414921835653,0.403484577785141,0.39933887635799575,0.3901249843135352,0.403873888984185,0.3910209622958741,0.3940595130378422,0.4032552583050874,0.35845663699337954,0.3831872882050324,0.46146714994704563,0.4321525241852164,0.5434506058943378,0.4651423545176985,0.5276655872573499,0.44175716403605503,0.39319658072068714,0.3990592500432078
0.5526625477732645,0.5097957096595686,0.537200908308002,0.42767675101301,0.37063414448622584,0.4861019402351669,0.5344397481022097,0.4045038569655743,0.4170094188158449,0.4478937743744783,0.4266146051799046,0.39968785085717357,0.42117879484842546,0.414457237983164,0.41314217337887577,0.433580617881997,0.43726475641430007,0.43191890463728494,0.408139366908717,0.4279811297566457,0.4005865685434808,0.3967025624580624,0.4087761986649195,0.4061536653847184,0.4966868027937446,0.4201212603919493,0.531802265795153,0.4897682431042035,0.5301113392992302,0.4655005670324527,0.4031800656355499,0.3804970566920292
0.5596358589336086,0.541170943623887,0.5406802014830554,0.43107627988138436,0.4168275858413471,0.4483753001367324,0.5101409255062852,0.3836836005137408,0.370271249680795,0.37689119762038287,0.3896653766429436,0.3607713530815217,0.39704704874290875,0.41043720067328243,0.38295502468099024,0.39837884708038757,0.41031115621221126,0.41143001757622594,0.404907160647939,0.4016510365465728,0.35538971605529607,0.38680884808656635,0.410760435945559,0.42107907007060347,0.49013190524221917,0.40811486660339635,0.5220595338112124,0.4941294094218285,0.5288564048187504,0.47544522989226173,0.44004933275872093,0.4067567984423272
0.5487708435577521,0.5467608171182119,0.524365317724437,0.4458832151549617,0.3651002470791643,0.45438393218083023,0.4854795128123576,0.3608302955308421,0.3707510471487382,0.36630866419674674,0.37408478036618786,0.34922513093643953,0.3854511950288267,0.3871000070570815,0.35620373030129704,0.3552213217946675,0.38013286440450744,0.39251004817165847,0.39847965006169056,0.38358677958720405,0.3629605110539229,0.3954795287004849,0.36182801311089274,0.4324509482747358,0.49763059146484007,0.41982245511074057,0.5177687551876319,0.4949188215979417,0.5139947150641522,0.4526050592063134,0.4399516727281517,0.4137173695834423
0.4962175313050344,0.5318506220927489,0.5135207157606101,0.4821923239549553,0.3918121570760004,0.4787329117830649,0.4401039201057755,0.3902041471876423,0.4247621665803912,0.3814467921787478,0.35402589141173313,0.40558115489293084,0.4082945279304746,0.3922125983365863,0.38090714713472484,0.3600341139328271,0.36783178946675965,0.38729074346905945,0.39221624683987666,0.35236301400584963,0.3957029170221835,0.40954361459119826,0.35499894684588085,0.3731895850998973,0.43192119458513206,0.42467995042536194,0.5185697796200321,0.4381232456991523,0.4970752245500719,0.39614303457709676,0.4071236659028495,0.393267741498476
0.4815766450132038,0.5105834410893731,0.5009641904484091,0.49197401506212196,0.382600795315435,0.4732794933562643,0.4503220704639588,0.3557714888181685,0.4310800483329348,0.36083694405192474,0.345779648435385,0.3832444796406468,0.3854810618340593,0.37907919105904736,0.3810263044442451,0.34340423040524404,0.35095827790171275,0.36464784701030367,0.3700331526322861,0.3459702800240895,0.37307469916969027,0.38242017684613194,0.3639437955370644,0.37240363858674363,0.39950797017216827,0.39365467881551985,0.5123759521483571,0.4150424794079132,0.49773173177864616,0.39944421389234075,0.35707268711886614,0.35305349997668883
0.4972124937957626,0.5367012114685236,0.5128252935780914,0.4875294465675898,0.3047395487996684,0.4819369622484808,0.49702834989009514,0.37944261498873016,0.4319767562508322,0.415686194145443,0.39602830414849544,0.34780370966116714,0.3708053848867811,0.3743033772176698,0.39137186973911703,0.3522974235757216,0.3655960726992883,0.3648542612687292,0.36409214946892365,0.39601022654262247,0.36147615454039717,0.38090700921857146,0.3747349040970133,0.419859253788829,0.4452672616505868,0.4045698209182126,0.5010866730040106,0.41488516719330876,0.5323286598949505,0.45913328622785715,0.34342951454325554,0.368134275355858
0.5191467576044421,0.5460321546553718,0.5362116431947636,0.46562306900982336,0.3308090121513478,0.500548889200494,0.5039062819309102,0.3468238876330263,0.44343221108482905,0.4170216753303043,0.38360215344383614,0.3667256689545677,0.39968646911475475,0.39526855942808997,0.3937960488657369,0.3847297902314627,0.3812261221686704,0.3543227599769791,0.367706978415432,0.39267477880002055,0.34633213812720454,0.38508238108913656,0.4239326405698455,0.43043503040520037,0.48771521208419505,0.44464953318072703,0.5119145159145134,0.43063234282561375,0.5399825679540379,0.4628533283040138,0.4145084366541905,0.424534954324614
0.5494939279133878,0.547345057718052,0.5640433794163244,0.4758922572508761,0.4308248877785857,0.5061187898578589,0.4922298358596752,0.31830011141692205,0.347253319802799,0.38137904190710464,0.3654523969598496,0.40815212069275386,0.3798191097347567,0.3952052531749401,0.35779720796745235,0.3919044108837629,0.3852919385340372,0.3526972935403277,0.35054997051935455,0.37920670494393005,0.3386312841621721,0.3333366022931015,0.45145918301289883,0.44471394006353154,0.5332535706380904,0.45367783403762185,0.5126340416529541,0.49537317400612685,0.5448839543790449,0.49536120783029985,0.45932686342530366,0.3961312128051104
0.5337420578533443,0.5479401524253703,0.5538684346261068,0.49364088073417006,0.4242236923176849,0.510612632531786,0.47971369210027875,0.3818283799205377,0.3089960044705214,0.38615297580237645,0.41669185253770896,0.3738635951573781,0.38913267872340335,0.3946945119084508,0.38685437260285405,0.40569407079349074,0.3977997272094793,0.4210796134710727,0.41617233676197674,0.4135735404704938,0.43558909817064756,0.38801442617627957,0.4663154349572507,0.42269362830386376,0.5270161420371959,0.47289476610310144,0.522366022747008,0.509957075274547,0.5524123838118981,0.512639354549846,0.44458776890813806,0.4067761165325426
0.5138356191463367,0.5392515626447474,0.5403075324070524,0.5088833739324187,0.429991216316064,0.5234019880825462,0.493717929596494,0.40688630192837455,0.3402387894513283,0.36711104635631125,0.37434653091835607,0.24714591657055496,0.4300507455424243,0.3929088304544474,0.41266394914231985,0.4020174022023382,0.413737551653303,0.4408119827777335,0.46847373193832537,0.39586730800293024,0.4398189981071075,0.4395166250179893,0.45368556607672866,0.447643736330796,0.5042396462907697,0.4330108302545068,0.5290092155555755,0.5135830836747134,0.5241135953806644,0.5051195936271072,0.46423092690641615,0.4279931252445572
0.5216895050665832,0.5365465009232332,0.5309493147824275,0.4915916853709656,0.41176153489178113,0.4714004334389261,0.46686429428415677,0.3752021889921831,0.3573393030727169,0.33508327065296883,0.3631613663461232,0.2625783489765794,0.38902890051265737,0.37474699637787057,0.37227192370805146,0.371005885290679,0.38042677785045576,0.36386819942845733,0.3865457035811332,0.3686760861903017,0.3889780269791173,0.4080927712961308,0.3658269260218784,0.44349375676838704,0.46697814249508923,0.4161928474519024,0.514270216775438,0.46703898689010426,0.5212906203280591,0.4792879312346896,0.44316703214820546,0.4037029534203992
0.5362603961805847,0.5418067809198334,0.5048959529740428,0.46510945493025374,0.33967219303749435,0.46173375446435855,0.432925961063881,0.36056157273851885,0.3328948312797073,0.33200116640998223,0.36828031713659126,0.3620616921047408,0.3346520338515445,0.35182572728953426,0.34522734546895373,0.3541592944720239,0.35552335533263923,0.33843311279179944,0.37237805788572165,0.3818755598598573,0.3855930892383642,0.3938006326082361,0.35810959103808404,0.4232040700121739,0.4623006469827672,0.4194701517976501,0.4836347119582363,0.45770782912957597,0.5495380486500046,0.4816639980140672,0.3905094322319342,0.4242430129937109
0.5389134159645528,0.5343327918274293,0.506632351169365,0.4398165640268656,0.3240226995459251,0.48984494006321977,0.45917821804064846,0.3693687299629907,0.3151405054322318,0.38423165372122764,0.34262449660531097,0.3485533759408061,0.33891309874279174,0.35007630037864157,0.3112249264253609,0.33802133232090675,0.35240774347078535,0.3664757640179271,0.4098111030820354,0.40508589857766814,0.4172769179881594,0.4314304543674801,0.4032750022615425,0.4362181295413085,0.5170621893305062,0.44763244037563954,0.5169632678092758,0.5211678464638407,0.5526559894835568,0.5062343552087216,0.40769509045806823,0.4500108737759642
0.5248284273421792,0.5368263779192306,0.521263413194394,0.4347596488175889,0.3422860740465364,0.48983297207689536,0.47795025857156415,0.35961499558785487,0.347887276458761,0.4164685376808037,0.37295069083994636,0.3895412045838458,0.3812182659714602,0.41387939166026244,0.34269026819557624,0.3579166246714252,0.3503601785614542,0.4042124079624426,0.4042412084460072,0.40653648565188255,0.4122060587375267,0.4535187329462262,0.413711699246321,0.4067521436334931,0.5285611664276132,0.4081850770033218,0.5478754004490229,0.5273233801420852,0.5487062688047883,0.4975874268568729,0.41232786682392913,0.4189598580404225
0.5335059168017786,0.5480546705643015,0.5452416802373171,0.47132206590374953,0.3984368972607643,0.5026300429798916,0.5041089113016615,0.4137897309161566,0.38785204176200244,0.4184786249413571,0.41016387689583955,0.4076992139734856,0.3514024375495752,0.39004790014718405,0.3551530145112324,0.35427901475254525,0.34663414535468773,0.3842671075866836,0.3979407097716572,0.4086860787556177,0.47041107691346856,0.4259649005861512,0.440029164958761,0.43263869972236085,0.515047098859996,0.3702541300433679,0.5428376110775559,0.48603768858747853,0.5407659671937863,0.5002143963190513,0.37554046298007965,0.4239793129943756
0.5332564459814871,0.547237966020401,0.5491621376505419,0.4818436662120058,0.431357767982835,0.4783565919446164,0.4954012239361736,0.40853756832732946,0.3347346760193895,0.40090408642300457,0.4073924295056323,0.3943172454619381,0.3435676382655989,0.37422890518409624,0.37230157640994554,0.36533677227623496,0.3599424047560308,0.36653258638777586,0.37002824871131523,0.39484702373804326,0.4629794313319253,0.3725790716224333,0.46597599566173653,0.4751934300141476,0.5301678758316621,0.45083728455850225,0.5445575966406365,0.4964169085331338,0.5233022068613018,0.5092822080141584,0.4077574553853564,0.46933888262256646
0.5374942663558355,0.5491965193783558,0.5288511239713152,0.5002259423763643,0.41764729269172846,0.4680827404983605,0.48522637962940157,0.314704989316829,0.33798065139050687,0.36694861216706354,0.39037747215097596,0.40892869413467114,0.3609179340141324,0.3923113712954582,0.38418538422276816,0.3870349631720477,0.37425636164534465,0.3840896679640297,0.34588619313223634,0.35836193954330947,0.4394078825095278,0.33828274153434684,0.44857452391937,0.44923437920331927,0.5398337164875406,0.4651028716239471,0.5410808205622598,0.4968684012584542,0.5378259560317992,0.49546357861798707,0.46114171276528804,0.4579961849990036
0.5359161657358528,0.5375597198896027,0.5403416513109176,0.5038638774353698,0.38829174373595216,0.4897109983987621,0.4840747880149333,0.336365348663599,0.36241322192018216,0.3704548819946797,0.39261701507177915,0.3782489906272626,0.37513163996273485,0.3838598985968309,0.37613177698862443,0.3736554487580889,0.3792967104471542,0.3833863154105332,0.3816357533837419,0.36392209606352605,0.4247448833542397,0.4028366067998884,0.42311682453962013,0.4404209005519693,0.5120562508168982,0.41446616479865556,0.5165829165222274,0.4528197490188543,0.530076984767076,0.463257814250903,0.4617055095293919,0.43386811186759416
0.516790611458393,0.5209362183543239,0.5379940754616083,0.4751868698824014,0.36386712504027785,0.49046777630445515,0.4995214284246058,0.3945602379002923,0.37659569127488896,0.398237543911675,0.4073153302717126,0.384182974041672,0.39657200797915315,0.3751849440421782,0.38320190756780276,0.3934130515161555,0.40160992329879647,0.40035510111145345,0.41857583240611557,0.395998412191459,0.4084198484780234,0.4280869060625187,0.42827187692790114,0.4333267187494927,0.47839958954996237,0.43907800672870706,0.5137733788498533,0.4620296159379531,0.5169266625540265,0.4370451301206945,0.4394173503999983,0.42092255137647033
0.5146760675151949,0.5231144374250584,0.5360250797832803,0.4942492972549446,0.4021611283826647,0.5007248596147326,0.5022013661930371,0.34003216960663496,0.40183144105859314,0.41083629610300954,0.38736699351333603,0.4101707069915543,0.4044980179196877,0.3915121276224617,0.3642092937445299,0.38905994228122015,0.39272609684886733,0.4120517199430226,0.4298995789837877,0.38199820235274007,0.44082874540734696,0.4359026264072093,0.45266310849511515,0.4149021996882429,0.48070030861000485,0.449746324610362,0.5327440153476359,0.4636516619545266,0.5306855010123505,0.44086778289048206,0.4320635818396726,0.40914022303087894
0.5200889998158971,0.5402034817281044,0.5435565729361401,0.4993349301539568,0.445973785592731,0.5074330825967583,0.5025625387466072,0.35952674334304835,0.37060442565456225,0.39507746659508597,0.3759168024013026,0.43568140841982333,0.3873803820803582,0.38703752736579644,0.36723286863510224,0.37863758721488155,0.3615635195379157,0.3792591105090877,0.4059825448151092,0.3626653236602209,0.3526679422607299,0.39289234205609824,0.4164096576386452,0.41953707049129446,0.5134090444266559,0.4476415997016135,0.5309728295971807,0.46473884798754184,0.5400549493098965,0.47144486019973986,0.4627817520053473,0.42324316635829096
0.5107128277628074,0.5472698976250133,0.5497810944627232,0.48336649120796576,0.45392388118513083,0.4911096910870469,0.4921446613639584,0.4023894662584191,0.3515346488988782,0.3554059548469464,0.3741647887384345,0.39286864028865665,0.3454502026049046,0.3303327192110645,0.36015576531236976,0.35150895905975843,0.3278184080412272,0.33559407318607726,0.33787740146526735,0.35926342669749234,0.3138022408764365,0.3489406959783068,0.3656200223454992,0.4030129762117803,0.5059875643693867,0.43980723807930266,0.5003867309495323,0.44308178406839976,0.5149825765761337,0.4707563100809661,0.4927768398196327,0.45241722909098947
0.49858052451054335,0.5214920899896162,0.5480238363535906,0.5087126760930312,0.4610604137327261,0.4677057334349382,0.4793489769479949,0.3840863031184459,0.37360777929827377,0.33406164046577536,0.38609342212544834,0.38047721270892115,0.3571025749192599,0.3496827599803785,0.35672129103779904,0.34628938796241443,0.33200179149089254,0.35158694988560146,0.3271465558985245,0.36524635365200664,0.3408220367773502,0.3948751648317567,0.3877477219762159,0.39600373301765457,0.49492629976864244,0.44271566643666255,0.5087726368678014,0.4580773455175436,0.5080408867650402,0.44995071403568915,0.47713523003950875,0.4439291263490433
0.5050379836434734,0.5236773735299995,0.5320583462930636,0.5169860584028452,0.414267840260168,0.49625721578930465,0.4944708692917389,0.3911206471540433,0.3943464692433786,0.3858837927859324,0.4323703906501944,0.39709158699317,0.37879626289863416,0.41138982855099304,0.3995716192771235,0.39698521422511623,0.4069706204833212,0.4110369227960118,0.3785424304731976,0.4158041304846499,0.3803820131530999,0.42897387709381346,0.42270042324640167,0.3948373635952295,0.5013966383325319,0.4774571657553683,0.5472102096538035,0.4829886640666467,0.5278701758901421,0.44380014695957093,0.454676502027171,0.43436523122112025
0.5159905065607583,0.5454124443393125,0.5161290259051979,0.49526481507495107,0.406106424993887,0.5119991969520128,0.5049012165843415,0.4052600500459676,0.4084040692245186,0.37282948625583956,0.433229209896546,0.38819697684136956,0.3887989449288484,0.42026132176690867,0.3818122270725144,0.3707037776929366,0.37918997939412724,0.3998099881009875,0.3804497953191006,0.3838439439681111,0.3877492784916372,0.40263546789068394,0.3709904254675414,0.36936262643025125,0.5087827944059459,0.49452288991528376,0.5579646654259881,0.4593592784825173,0.5296218431455679,0.40951451329493704,0.45454190036318826,0.4252385436528957
0.5361076355950136,0.5234448803104156,0.5018772661639233,0.5036371297923302,0.3989062176976598,0.48726265600471813,0.4974575431897138,0.37300310176931306,0.35833354599345996,0.3405563956053057,0.4039445474104092,0.39601396060280797,0.40803657212244804,0.3903867828622048,0.36874451235223143,0.3586860489895041,0.34556099059357265,0.367909157845297,0.3478669750154869,0.3454962548977156,0.3773151210260673,0.36628982883251887,0.3738794851530741,0.4245444269714575,0.5156973527214369,0.48813026354373507,0.5427836327936751,0.4735753285092604,0.5358542782483291,0.43124284884703795,0.4410904661355155,0.40095759636982636
0.5502863717209183,0.528787532841013,0.5058852476765114,0.49563682355002747,0.37014419632211776,0.46864433329437294,0.4942789673335137,0.3663210325374292,0.325264661213631,0.3901395935681178,0.3874225321760947,0.40023284119919267,0.39668232428864725,0.4002135852857455,0.4057635743170319,0.3889089645630757,0.3798202114291471,0.4081944185980016,0.38087075960519523,0.36165654345579135,0.4303566924360103,0.3471860683640377,0.42860955442497645,0.46201719560364973,0.5120535399432986,0.4527368877499821,0.5373927783031861,0.4919854429550765,0.5491925313511398,0.47636807024385297,0.4054926442415842,0.3859426258282762
0.536715720150455,0.5375780018693906,0.5357120942537199,0.4679050999988894,0.3708194158867715,0.4780997225607271,0.49249427516801436,0.3480470191056514,0.35394087398257823,0.40801901618066444,0.37857480879142225,0.36809674317547614,0.3425378762107402,0.35041066466096116,0.35545217101042315,0.3404349932673298,0.3563243918715415,0.36757175865529806,0.35574733657359797,0.3578386313362071,0.4113428058189424,0.3625847338585568,0.41704287150174946,0.4623164042876268,0.5157539690872003,0.4673033127880696,0.536137938745053,0.5065117224739141,0.5496252082822904,0.48178260810949847,0.42587434730449875,0.3869791975646909
0.5365464371838611,0.5166990088631253,0.5198297157571001,0.47622193965320436,0.351584395461613,0.49241681864964043,0.4789343597579522,0.3416698022638964,0.37532651352300916,0.4341779120034173,0.3786288581172555,0.3688334087990947,0.34292044354444456,0.37513490758788703,0.34986391025011554,0.33475059121099626,0.35011611231818224,0.3485641076626052,0.3455451616919218,0.3803491397140538,0.3849202456247296,0.37331517236867173,0.39544138392239486,0.414918365634545,0.4982630368038049,0.414474554384698,0.5235247437668709,0.5023878634994933,0.548523019954423,0.4537980490492004,0.41910563157874436,0.37232695455749304
