Fp1,AF3,F7,F3,FC1,FC5,T7,C3,CP1,CP5,P7,P3,Pz,PO3,O1,Oz,O2,PO4,P4,P8,CP6,CP2,C4,T8,FC6,FC2,F4,F8,AF4,Fp2,Fz,Cz
53,56,45,38,14,29,49,28,19,24,32,26,30,32,28,24,26,34,44,38,42,36,37,37,39,34,39,37,51,33,30,30
54,56,45,38,14,29,50,29,18,23,28,24,29,30,28,24,26,32,43,36,40,37,37,39,39,35,41,36,53,32,29,33
55,54,49,37,20,29,53,32,17,23,26,25,27,29,26,24,26,32,42,36,43,37,35,40,41,36,46,35,54,35,32,34
55,53,43,35,22,30,52,29,20,23,25,24,28,26,26,21,24,28,40,36,42,38,30,37,39,40,47,35,57,37,29,35
53,55,43,37,25,33,51,28,23,23,28,30,24,26,24,24,24,24,36,32,41,34,29,40,40,43,46,34,57,38,32,36
50,56,42,38,27,31,48,24,22,20,26,30,25,26,26,24,24,24,33,33,43,31,28,41,39,39,44,36,56,41,34,32
48,54,43,42,32,34,47,24,18,22,26,26,22,25,28,23,23,23,31,31,41,27,25,40,35,40,46,36,54,42,32,29
49,51,44,43,34,35,47,23,19,23,24,27,21,28,28,21,22,21,29,31,40,28,26,38,34,40,50,40,53,44,34,33
49,50,45,38,33,39,42,27,20,23,26,28,17,28,29,21,22,21,25,30,38,27,26,36,35,39,54,38,52,46,33,31
44,50,45,34,35,43,38,24,22,23,27,27,17,30,28,21,19,19,21,27,36,23,24,34,36,40,56,40,49,45,34,31
46,48,47,33,35,41,38,28,22,27,31,29,18,31,29,23,19,20,18,25,34,24,22,32,36,41,55,38,52,45,33,29
42,50,46,29,37,40,36,28,22,25,30,30,18,31,27,21,21,23,20,22,36,24,23,31,37,42,52,36,52,42,34,27
38,51,43,30,33,36,33,26,25,28,33,30,19,33,29,23,23,22,18,22,34,21,26,30,35,41,49,35,47,41,31,24
40,53,46,32,30,36,31,29,26,29,32,32,20,33,26,25,25,20,16,21,32,20,28,29,38,34,51,35,47,39,33,23
40,51,46,32,31,38,30,26,24,30,29,29,22,32,27,27,28,22,18,24,32,22,27,26,39,32,52,35,47,37,33,24
40,47,46,31,30,35,28,27,24,30,28,30,22,32,24,28,28,22,18,22,31,21,27,27,39,35,53,34,46,34,29,27
40,49,49,29,28,35,27,26,26,29,27,32,22,32,19,27,26,20,18,20,32,22,30,26,40,35,50,35,49,37,28,28
41,51,48,31,28,38,26,23,29,26,28,29,24,29,19,28,28,22,22,20,33,22,29,30,40,37,50,35,51,37,27,27
39,51,49,34,26,40,31,22,31,25,22,29,26,30,17,30,28,22,24,22,32,24,30,34,39,38,50,34,50,34,28,25
40,53,49,39,26,40,34,25,32,21,21,27,27,31,18,34,34,28,29,27,35,27,33,39,43,36,50,37,52,39,31,26
40,56,48,40,25,38,34,24,34,23,23,31,28,29,19,33,35,26,30,27,36,30,36,40,41,37,50,40,52,42,33,28
43,56,49,45,24,38,40,21,31,24,25,33,27,31,23,38,37,25,30,29,37,30,34,39,43,36,50,43,54,45,32,29
45,55,52,42,28,41,43,25,29,22,22,32,28,30,22,34,33,24,32,28,35,28,31,42,44,34,53,48,58,47,30,27
45,51,51,41,28,41,43,26,31,21,24,33,26,32,22,34,36,26,34,28,36,32,32,44,42,34,51,48,59,48,26,28
47,53,51,43,29,41,43,29,32,23,23,33,28,33,27,33,37,26,34,28,36,32,34,44,40,34,52,48,58,46,29,30
50,58,50,48,28,42,48,29,32,26,28,36,30,34,32,32,36,26,35,28,36,36,36,42,44,32,53,49,59,49,28,32
52,57,50,47,31,40,47,28,34,26,29,36,32,35,35,35,37,28,36,30,35,35,36,41,45,32,53,46,60,45,31,32
51,58,51,45,32,40,48,33,28,27,29,36,33,36,36,35,37,25,31,27,34,36,38,43,45,30,53,46,60,46,32,32
53,57,50,45,31,40,46,35,27,28,35,37,35,36,36,35,33,25,29,25,35,35,35,40,46,28,54,50,61,48,33,31
55,57,48,44,33,36,47,32,25,31,33,36,33,31,36,30,30,20,23,23,35,33,36,37,46,28,53,49,63,45,30,30
55,55,51,42,37,33,50,30,26,26,32,31,34,32,32,34,31,22,24,26,35,28,35,35,46,28,52,49,62,46,26,31
53,55,50,40,39,31,48,31,27,29,34,33,35,31,32,34,32,24,26,26,37,29,37,34,45,27,53,50,60,46,23,31
51,57,47,45,37,32,46,28,28,27,33,32,35,32,34,33,32,24,24,26,37,31,41,30,43,30,51,45,58,42,25,36
48,60,48,50,38,32,47,27,22,26,31,29,36,32,36,32,27,22,22,25,36,26,40,27,45,32,47,45,57,39,28,38
44,57,50,47,36,31,47,27,19,26,32,29,38,33,32,32,24,24,22,22,36,28,38,27,46,34,45,47,60,41,25,36
42,53,51,43,39,29,44,31,19,24,30,24,38,30,26,30,22,22,20,20,36,27,33,25,45,33,45,43,55,35,27,35
41,53,53,44,36,33,49,35,19,25,29,25,39,30,25,27,20,22,20,19,36,30,31,26,44,32,44,46,54,35,27,34
42,53,54,44,39,29,48,31,22,24,29,25,38,33,26,28,20,24,25,21,36,33,32,23,47,34,41,46,54,35,29,31
41,53,52,44,41,28,50,26,19,22,27,21,37,31,25,27,23,25,27,23,37,33,33,24,48,34,43,44,54,34,29,33
40,51,53,40,42,28,50,25,16,22,28,24,37,34,25,31,25,29,31,23,35,35,33,25,47,35,44,43,53,33,32,36
38,51,50,43,41,28,46,23,17,25,26,26,35,35,25,26,24,28,27,21,33,37,35,27,49,37,45,39,53,29,35,36
39,50,48,42,39,31,47,23,18,23,22,22,35,36,26,25,22,28,28,22,30,38,35,28,50,39,45,36,54,24,38,38
42,51,48,39,37,32,47,22,18,27,26,23,34,34,25,27,25,32,32,24,29,40,32,31,53,38,50,38,56,26,38,36
44,51,48,33,34,35,45,19,23,30,27,25,34,35,24,28,27,32,34,25,32,42,33,33,51,39,51,39,55,29,39,35
44,52,46,31,35,34,43,18,30,28,26,27,30,32,24,26,27,30,37,27,30,43,34,33,51,38,52,35,56,31,41,36
45,55,47,33,37,37,45,14,29,28,27,29,27,35,27,29,29,33,39,31,31,41,37,37,47,39,53,37,59,35,41,34
45,54,46,35,34,34,45,11,28,27,29,28,27,34,28,32,35,35,39,31,31,43,41,37,49,43,56,37,58,37,41,39
45,53,45,38,27,34,45,13,27,31,30,28,29,33,28,31,37,37,38,33,33,41,38,36,47,42,55,37,55,37,37,43
44,54,46,37,24,34,45,14,30,33,31,31,28,34,30,30,36,36,38,32,30,42,38,36,47,43,55,36,56,35,34,45
46,53,45,41,21,34,46,17,33,33,31,31,31,33,33,28,34,34,39,32,30,42,40,40,48,42,54,36,56,35,35,44
47,53,47,41,19,37,46,18,30,32,32,30,28,30,32,30,32,34,38,31,29,40,38,39,47,43,53,39,55,35,33,42
49,55,49,39,18,39,43,17,32,32,33,30,29,26,28,28,34,33,37,33,29,39,34,35,47,42,52,39,55,37,37,41
45,53,49,40,18,38,42,16,34,28,29,31,30,27,24,28,30,29,35,32,30,37,35,36,48,40,50,40,52,36,35,40
41,52,50,42,21,34,42,19,32,27,31,31,30,25,25,29,31,31,35,35,28,36,35,33,46,39,52,39,54,35,32,41
42,52,50,46,24,37,44,20,26,26,30,27,32,26,24,28,31,30,31,35,30,36,38,32,49,40,51,38,54,32,28,40
42,50,47,47,20,40,45,22,28,27,31,27,34,24,21,28,32,31,31,37,29,37,37,29,49,40,50,39,55,31,28,42
45,51,46,45,26,43,45,21,24,28,29,25,29,21,18,22,26,29,29,37,27,32,31,27,47,36,48,37,54,27,27,39
45,53,45,42,26,42,44,21,25,27,26,26,28,15,15,20,20,24,25,33,23,29,32,24,45,38,51,33,55,24,30,36
45,51,44,41,27,41,41,21,23,25,27,24,29,13,15,19,19,23,23,31,22,30,34,23,45,35,49,35,53,28,31,31
41,53,43,42,30,40,37,21,23,23,23,21,27,13,11,17,19,25,23,31,23,29,31,21,43,31,47,35,52,27,29,29
42,53,38,37,31,40,38,20,26,22,24,20,30,16,14,16,22,28,24,32,24,30,30,22,41,27,45,32,53,28,29,31
38,50,38,36,31,41,37,22,25,21,22,20,27,16,14,14,18,24,20,26,26,31,33,25,40,25,48,32,51,26,22,31
42,50,40,37,33,40,42,24,24,26,24,17,28,15,17,12,18,26,20,28,26,34,35,24,40,27,47,28,50,24,23,31
44,48,39,43,30,41,41,24,23,27,23,15,28,14,15,9,15,23,20,23,28,36,34,29,40,26,46,27,49,24,27,27
46,48,40,39,26,39,39,25,25,27,24,17,30,15,17,12,18,28,20,24,26,36,30,28,36,26,44,28,48,28,28,28
46,46,41,34,26,36,38,25,28,26,22,17,28,19,19,11,17,25,19,19,27,35,31,29,37,23,46,25,47,25,26,26
40,46,39,31,20,31,34,25,31,24,20,17,30,20,20,12,18,28,22,18,32,40,34,30,38,24,46,28,48,26,23,27
40,40,39,28,20,32,34,22,29,21,22,18,28,22,22,14,20,30,26,20,34,40,33,34,40,23,45,31,47,28,20,29
43,45,41,27,20,32,34,26,31,22,20,19,28,24,20,16,22,32,28,22,36,38,31,36,41,28,46,32,48,26,20,34
46,42,42,29,18,33,33,24,33,21,19,21,27,25,23,19,23,30,26,23,35,39,31,34,40,30,47,32,49,26,19,37
49,44,49,31,18,34,32,25,30,23,18,22,24,24,21,18,24,28,26,22,38,40,32,36,41,31,49,32,50,26,19,33
52,47,51,38,21,32,35,27,30,25,20,20,27,29,23,25,31,33,31,27,37,38,29,38,43,33,49,33,50,29,23,34
54,49,54,38,21,30,32,24,29,24,22,23,23,30,21,31,33,33,33,27,37,39,25,39,41,33,49,37,52,35,21,36
55,53,57,36,22,31,34,24,30,22,24,25,24,36,26,34,38,36,34,31,33,39,26,37,42,34,48,40,51,36,17,37
54,50,59,39,28,32,37,24,27,24,26,27,24,33,23,32,36,32,34,28,32,36,26,36,44,34,50,40,49,36,18,37
54,50,60,44,28,33,37,23,22,25,25,25,26,31,25,35,38,34,36,30,35,38,28,34,46,37,51,42,49,36,20,37
58,52,62,50,34,36,40,24,23,26,26,26,28,32,26,36,40,34,37,36,33,37,27,38,46,37,51,42,48,40,24,38
57,56,62,54,37,38,40,28,25,27,27,25,29,31,27,37,41,33,37,37,37,41,31,37,49,37,53,44,49,39,26,39
57,52,60,55,37,37,44,25,24,29,29,24,28,31,28,38,42,32,36,36,36,43,32,34,49,37,54,41,48,40,28,35
57,55,61,54,34,40,48,26,19,30,34,21,31,30,25,37,43,33,37,36,37,42,32,37,50,39,55,41,48,44,29,32
53,54,59,57,32,39,47,28,18,27,34,18,30,29,23,36,38,32,38,38,32,42,30,38,46,38,56,44,47,44,28,32
52,54,58,52,31,38,47,29,17,26,34,20,27,26,22,30,32,28,34,35,33,42,30,37,40,42,56,40,48,41,26,29
50,52,56,51,29,41,48,29,16,24,33,17,30,25,23,25,30,27,33,33,33,41,29,33,41,39,57,40,48,40,27,27
50,51,54,50,29,43,46,28,14,24,32,19,29,22,19,23,23,23,29,29,36,39,27,33,41,36,58,38,52,38,29,28
52,55,53,50,26,42,44,29,16,24,33,19,30,25,25,27,25,24,30,29,37,38,29,34,43,37,57,43,53,39,28,26
52,58,54,48,27,42,43,30,18,24,31,23,30,28,30,25,25,25,29,28,35,33,29,37,45,37,58,44,55,43,30,25
50,57,55,47,21,43,43,31,18,26,32,22,28,28,28,24,24,22,27,22,37,33,29,36,45,36,56,42,54,42,30,22
50,57,54,47,22,43,43,31,16,31,31,21,29,31,26,28,23,25,25,21,33,28,25,37,43,34,52,41,55,41,31,20
47,57,56,47,22,44,39,33,14,29,28,23,30,28,23,23,19,23,25,21,31,24,26,37,43,32,50,43,55,43,33,22
46,58,56,47,24,41,39,31,18,28,27,26,29,27,26,25,19,23,25,21,30,20,24,34,43,31,47,44,54,43,35,21
49,57,53,46,23,41,42,32,21,29,27,29,31,28,29,27,20,25,22,23,32,20,28,33,46,29,46,43,58,43,38,20
48,56,51,47,24,43,41,31,21,31,27,31,36,32,30,28,24,26,26,23,32,21,35,32,51,25,43,47,59,45,37,18
47,54,51,46,26,43,40,33,21,33,26,35,36,34,31,29,25,25,23,23,29,20,37,34,51,27,43,49,58,43,42,16
45,52,50,46,28,39,40,33,23,32,23,30,37,31,27,27,27,27,27,25,27,23,37,35,50,28,42,49,55,43,44,16
44,52,51,45,26,40,43,31,26,34,22,28,33,29,25,25,27,25,26,26,27,25,35,37,47,23,45,44,54,38,44,16
45,52,52,47,28,38,45,31,28,34,24,26,34,26,20,28,28,24,28,25,26,28,32,36,46,24,41,46,52,38,45,16
46,51,49,46,34,38,43,27,29,34,20,27,36,28,22,30,28,26,28,28,24,28,34,34,46,27,44,46,53,38,45,16
47,53,51,45,32,38,44,25,30,28,19,28,34,24,22,23,26,24,29,31,27,30,35,33,45,26,45,45,54,37,49,13
53,54,53,43,33,41,48,22,32,32,23,26,33,25,25,25,27,25,30,28,32,31,33,34,46,29,47,44,56,37,47,15
54,51,51,39,34,42,47,24,32,33,22,24,32,25,25,22,24,22,28,24,31,31,31,35,43,32,51,44,54,36,44,14
54,51,49,37,35,42,45,21,34,34,24,23,33,25,25,24,26,23,32,24,32,32,28,35,44,37,54,41,51,33,40,16
53,52,50,39,34,38,46,21,33,31,23,21,33,23,25,23,23,25,29,23,32,30,24,36,42,39,54,42,49,33,44,20
52,53,47,34,33,39,45,22,31,31,25,22,33,23,24,24,22,26,32,24,32,32,22,37,40,36,53,43,50,35,39,25
56,55,50,32,30,45,47,25,32,31,27,25,31,23,25,25,22,25,32,23,34,30,22,36,44,36,54,43,50,37,36,26
55,55,49,35,31,45,44,26,29,27,27,25,35,24,25,24,21,27,32,23,36,31,22,35,44,43,52,43,53,39,37,24
53,55,44,31,27,44,42,28,25,28,26,29,33,25,24,24,20,28,32,26,38,31,27,34,44,39,55,42,58,36,35,25
55,55,47,32,23,44,44,30,21,26,28,29,30,23,22,22,18,24,32,24,37,30,26,36,46,37,53,41,60,36,35,27
55,51,43,35,24,44,43,31,23,27,31,30,34,28,26,26,22,24,33,24,33,31,27,35,45,39,54,41,58,37,31,34
53,48,42,38,24,41,39,33,23,23,31,30,35,32,28,27,24,23,32,24,29,32,30,32,42,36,54,43,56,37,30,30
53,50,43,38,24,44,38,32,22,28,32,32,40,33,30,30,28,28,36,28,32,38,30,34,48,33,52,39,56,36,31,34
58,53,47,36,25,47,39,34,21,27,31,34,36,35,27,27,25,25,33,25,29,34,29,35,51,32,51,39,57,37,31,37
57,52,50,34,24,50,36,33,24,27,31,36,34,33,27,31,27,27,37,27,29,35,27,36,53,33,53,37,56,36,28,38
56,50,51,40,22,53,37,30,24,26,30,33,33,31,27,31,29,27,33,25,29,33,27,35,51,35,50,35,56,35,29,35
53,47,52,42,26,51,38,31,22,31,31,30,36,33,29,32,28,28,33,26,27,32,28,34,48,36,53,35,57,34,32,34
52,45,49,41,23,49,36,29,27,32,30,29,34,31,26,33,28,28,34,27,26,30,30,34,48,36,54,34,56,36,35,38
53,43,51,43,23,52,36,27,29,30,33,26,34,30,27,31,29,29,35,23,23,28,25,36,48,36,52,34,54,36,32,37
50,43,48,44,24,54,37,28,32,33,35,26,35,30,27,31,31,31,35,23,22,31,23,35,44,35,51,34,49,33,33,36
47,43,49,42,24,53,38,26,29,35,35,23,33,27,25,30,30,32,35,22,23,28,23,35,41,33,51,32,49,33,32,31
42,45,47,40,25,53,39,25,29,36,32,25,30,23,24,28,30,34,34,24,23,24,20,36,41,33,53,33,52,35,35,33
43,45,47,43,26,55,37,26,26,32,28,23,22,22,24,30,28,32,31,24,21,20,20,36,37,33,52,36,51,36,36,30
38,42,46,46,25,51,38,27,25,34,28,22,24,21,27,31,31,35,31,26,20,24,21,32,34,29,50,36,49,36,36,27
39,43,42,47,26,49,41,28,24,37,31,22,21,23,27,27,29,30,26,25,20,23,22,31,32,24,48,36,49,38,38,25
41,43,42,48,27,46,41,26,25,35,31,23,23,27,29,27,29,29,27,27,21,25,25,31,37,27,51,33,49,37,38,25
42,47,41,47,27,44,40,22,25,32,32,28,23,27,29,25,31,29,26,27,21,24,27,32,38,30,50,36,49,38,37,24
44,49,41,44,28,46,42,21,21,33,34,28,22,29,31,24,30,28,23,26,25,24,28,31,39,28,50,36,48,38,32,24
43,51,44,41,29,43,43,23,19,33,32,28,20,32,32,26,30,26,20,28,28,23,28,31,36,29,52,35,46,41,35,22
47,51,47,39,29,42,42,20,17,28,32,30,18,30,30,24,28,24,20,30,29,24,31,31,42,30,53,38,48,45,35,21
47,53,50,40,27,41,44,26,19,26,31,33,18,33,28,24,28,24,17,28,29,27,27,31,43,33,54,37,49,46,38,23
49,54,54,41,24,43,46,28,19,23,31,31,21,33,25,26,27,26,19,28,29,32,28,34,43,36,52,34,46,46,39,23
50,57,56,43,24,42,47,29,24,24,34,36,26,36,24,26,27,28,24,30,25,30,30,31,42,37,53,33,49,47,39,25
49,59,57,44,25,42,46,31,22,25,31,36,26,34,22,26,26,28,26,31,27,28,32,35,42,40,51,33,50,47,39,26
50,60,58,45,23,46,44,31,20,26,32,36,29,34,26,28,29,31,29,32,28,32,32,39,45,42,51,39,52,49,41,26
48,60,58,45,22,46,42,34,22,28,31,34,28,30,27,27,29,32,30,29,30,28,32,36,42,39,51,35,54,47,41,27
51,62,54,47,23,47,42,34,23,28,30,32,26,28,26,29,32,34,32,29,32,30,33,35,42,38,50,31,54,44,39,28
51,60,56,49,26,45,41,33,22,23,25,33,26,26,25,28,30,32,31,28,25,28,30,37,46,38,51,35,54,44,41,27
56,57,57,49,26,45,43,31,26,23,25,33,25,21,23,23,25,29,32,28,24,31,28,37,50,39,50,35,56,43,38,29
54,56,55,47,24,47,44,32,26,26,22,33,28,24,24,26,28,32,35,28,25,27,30,37,46,41,50,36,58,46,38,28
56,55,56,49,26,48,45,32,24,26,23,29,25,19,25,23,25,29,33,29,25,23,34,36,47,39,49,38,59,45,37,25
57,54,57,49,29,46,43,31,27,25,25,27,21,17,27,21,25,24,31,30,28,20,36,34,48,37,51,41,60,43,34,24
56,50,54,46,27,44,43,29,24,23,23,28,20,16,27,18,25,22,28,25,31,22,36,34,47,36,48,38,59,40,32,24
55,47,55,45,24,46,44,27,28,21,27,28,22,16,26,17,23,19,25,23,29,23,35,29,46,33,50,35,57,37,29,26
57,46,56,44,22,44,46,23,28,18,24,26,23,15,21,19,21,19,25,21,28,21,33,25,45,32,51,33,56,35,24,26
55,49,57,43,25,46,48,22,29,19,24,28,23,17,22,24,20,19,25,24,25,23,31,29,46,35,50,38,54,38,26,24
55,46,61,42,22,44,49,23,29,22,26,25,22,17,22,24,17,19,23,24,25,22,29,29,43,35,51,43,53,40,28,24
54,49,62,44,20,48,53,23,31,24,25,27,25,17,21,30,23,23,25,27,27,23,32,29,38,36,51,44,52,39,30,22
50,51,60,44,20,49,49,21,29,25,25,27,27,19,21,33,25,25,24,27,26,21,32,27,37,39,51,43,50,37,36,25
48,50,62,46,23,45,48,20,31,27,24,29,31,19,24,32,25,25,23,28,23,23,29,28,41,36,50,44,51,36,36,27
50,52,64,44,20,44,45,16,30,27,24,31,35,21,26,36,28,28,26,26,22,24,25,30,38,40,51,45,50,36,36,29
51,53,61,45,22,42,49,13,29,27,21,35,39,25,27,39,27,31,27,23,21,25,26,30,38,43,47,46,48,35,40,28
51,52,62,46,22,42,52,14,27,28,24,33,39,25,26,37,25,29,25,26,22,27,30,32,41,43,49,46,47,36,42,26
53,53,61,45,25,41,50,12,26,29,24,33,40,28,30,41,29,33,29,27,23,26,27,37,38,45,47,51,51,41,45,24
52,56,61,46,27,40,50,14,26,26,23,32,37,29,31,37,29,33,29,29,25,25,30,41,38,45,45,50,51,42,47,25
53,50,61,47,26,37,50,14,24,23,21,33,38,29,30,33,30,34,30,30,25,26,30,37,35,40,47,47,50,41,45,26
50,49,56,44,28,34,45,14,23,20,19,34,44,29,29,33,31,33,30,32,23,31,30,38,36,38,46,42,49,40,47,27
47,44,51,46,29,31,45,13,23,22,19,29,43,31,31,28,27,31,31,29,24,32,34,35,37,38,42,39,51,37,48,28
49,43,54,44,30,32,47,13,25,21,17,27,45,29,29,27,29,32,34,29,25,35,37,35,38,34,41,44,52,39,43,25
51,45,54,46,32,33,47,16,24,20,21,22,43,31,29,29,31,32,34,27,26,32,36,37,37,34,44,41,48,37,39,25
47,45,49,47,36,30,44,17,24,23,24,22,42,30,28,27,31,33,33,31,31,33,38,42,42,30,42,41,48,39,38,25
46,45,50,44,35,33,45,21,23,26,27,21,41,31,29,24,31,31,35,33,29,31,33,47,45,29,46,37,51,35,36,28
44,46,50,46,39,31,46,20,25,28,26,19,38,29,30,26,32,30,34,30,26,28,31,46,47,27,48,40,56,36,36,29
44,50,51,47,40,34,45,22,25,27,24,17,35,25,23,21,27,25,29,27,25,26,31,42,46,28,48,40,56,34,36,32
42,46,49,45,42,33,44,23,25,30,24,16,36,24,25,22,28,26,30,28,28,26,31,38,49,29,49,41,58,35,33,29
42,50,44,41,39,35,43,24,27,31,29,17,35,24,22,22,26,27,29,25,29,25,32,37,51,33,50,40,61,31,37,30
42,52,49,39,40,39,46,25,26,32,29,15,32,25,24,23,25,26,31,21,27,22,33,33,51,33,50,39,62,29,34,29
44,55,52,35,39,40,45,26,25,31,32,18,32,26,21,21,24,26,32,24,29,22,28,32,53,31,51,44,59,29,33,31
46,57,50,36,43,39,44,31,25,32,37,21,31,31,21,19,21,25,29,23,30,20,25,35,50,30,53,40,60,31,36,33
45,54,48,33,37,39,44,29,26,30,34,20,29,30,18,17,21,23,29,22,33,19,27,34,47,30,49,41,65,31,39,32
50,51,50,30,35,41,45,27,27,27,31,21,27,29,19,19,21,21,31,22,31,19,26,32,48,29,50,42,67,32,39,30
49,51,49,30,32,40,40,25,26,26,28,19,26,26,16,21,24,22,28,21,32,18,29,31,45,26,49,44,67,35,38,28
49,51,48,28,31,43,38,27,26,24,29,17,29,28,14,21,25,25,31,21,37,23,27,29,41,27,47,41,63,33,35,30
49,45,45,28,30,42,37,24,26,24,28,15,28,28,14,26,26,26,32,22,38,24,29,32,46,29,48,39,59,36,36,28
49,47,48,31,31,48,37,21,26,25,30,15,25,27,10,25,25,21,29,19,33,23,27,31,43,29,47,38,56,34,39,28
50,46,53,32,32,47,35,18,24,27,29,11,24,26,11,26,24,18,26,21,33,23,28,35,43,32,45,42,56,38,36,28
50,46,52,36,32,46,34,18,21,30,31,13,21,28,12,29,26,20,28,24,36,25,27,39,45,33,44,45,56,43,34,28
50,46,51,38,32,46,32,19,23,26,31,14,19,29,14,32,29,21,25,21,35,25,24,41,45,31,44,39,58,44,31,29
49,47,47,40,27,43,32,16,22,23,28,14,18,24,16,34,30,22,26,22,32,25,27,38,46,34,43,41,60,43,31,29
51,48,49,42,29,45,31,15,21,24,29,18,19,24,18,34,28,23,24,21,30,27,27,37,46,33,42,42,57,41,27,31
51,50,47,46,27,46,30,16,24,23,29,21,20,27,17,33,27,22,22,20,26,28,28,35,48,35,43,43,55,41,28,32
54,51,45,46,27,46,30,17,27,22,29,22,19,31,17,33,25,21,20,18,26,31,29,35,51,37,45,45,55,41,26,33
55,51,46,48,25,43,30,16,26,24,27,27,17,31,21,31,23,25,21,19,24,31,31,36,53,37,46,49,56,39,27,32
57,56,49,50,22,40,34,19,28,24,30,32,18,32,26,31,27,27,22,21,26,32,31,38,57,36,47,51,56,37,26,33
60,57,49,51,26,39,35,23,27,22,31,35,23,35,29,33,28,31,23,21,26,33,29,41,57,35,48,50,57,38,27,32
61,57,49,54,28,37,37,23,30,22,29,39,24,36,32,32,31,32,26,21,25,32,31,41,59,32,48,51,55,38,28,29
62,57,48,54,27,38,40,20,31,18,31,38,24,32,32,28,27,29,21,19,21,28,33,40,56,32,48,50,54,36,33,28
64,58,50,50,27,38,41,20,34,18,31,36,21,30,34,25,26,26,20,18,20,30,35,40,56,36,51,52,55,41,34,25
60,57,52,48,30,40,43,24,32,20,33,35,22,33,37,27,29,29,23,19,23,32,36,42,57,36,53,50,53,40,34,28
60,60,51,49,32,40,44,26,31,18,34,32,23,34,38,28,30,29,24,20,23,33,35,44,59,37,54,48,52,44,37,30
57,61,56,47,35,37,41,27,27,17,33,30,22,33,38,28,30,31,26,21,26,34,36,45,57,40,55,46,51,44,40,30
53,60,56,50,36,37,43,27,23,17,31,31,23,27,37,27,31,33,28,25,27,34,31,42,53,42,52,41,50,43,42,29
51,60,53,48,38,38,41,25,26,15,29,32,23,23,34,27,31,28,25,23,26,31,31,42,53,41,50,38,50,47,45,28
53,58,50,44,40,37,39,25,23,14,28,30,25,24,33,24,29,28,27,25,25,29,32,40,50,40,50,37,52,49,44,26
49,58,47,44,36,35,41,23,24,16,28,29,23,19,33,24,29,28,28,26,25,30,36,42,50,43,51,38,52,48,39,29
47,58,46,41,34,35,41,25,24,14,31,27,26,18,33,27,31,30,29,29,27,33,33,43,49,40,53,34,54,48,40,32
46,60,49,42,31,37,43,29,25,17,27,30,30,20,33,30,34,34,34,32,30,34,31,45,54,38,55,37,55,50,38,32
48,59,47,44,33,35,42,32,21,18,29,31,33,22,32,31,36,39,38,35,33,32,30,46,51,34,54,34,54,46,40,34
48,58,46,48,32,35,43,29,21,20,26,32,33,21,29,29,35,39,35,39,35,30,31,44,48,34,54,34,54,49,40,31
49,59,46,45,30,39,41,27,21,24,23,37,32,22,28,30,35,36,32,36,35,28,28,41,47,33,54,34,54,48,41,27
49,58,45,47,28,44,45,24,26,29,23,36,35,25,28,30,34,36,31,38,33,27,30,42,44,29,51,37,53,50,37,25
53,60,42,46,29,43,45,25,26,32,27,34,35,28,32,33,35,35,33,38,35,29,36,43,47,30,53,39,53,51,39,24
53,60,44,43,30,44,47,23,23,32,32,31,37,29,33,35,37,37,35,39,38,31,36,39,45,30,54,40,54,50,40,25
49,59,49,44,28,45,49,22,21,30,32,32,33,28,29,35,37,36,33,36,39,35,36,37,46,31,53,39,54,47,41,25
50,59,49,41,31,45,43,24,19,27,31,34,30,28,26,31,34,34,32,36,39,34,36,35,43,29,52,38,57,45,46,26
49,60,52,40,31,44,43,26,18,28,31,33,26,28,25,29,32,31,29,33,39,31,35,34,43,30,51,37,57,44,45,24
51,58,51,41,36,44,39,26,18,29,33,32,26,31,26,28,32,32,28,32,40,28,34,32,42,34,50,37,59,42,45,24
46,58,51,42,34,46,40,26,21,31,30,31,28,30,25,29,29,30,27,30,37,28,35,33,44,35,47,40,60,42,42,23
48,57,50,43,35,46,40,26,24,29,31,31,30,30,26,30,28,28,28,24,34,28,33,37,45,37,45,40,62,39,41,24
46,57,51,41,37,42,41,30,25,28,37,27,30,28,25,32,31,32,32,28,33,30,36,38,45,39,46,40,64,38,43,27
45,57,47,39,38,41,39,31,21,26,37,25,26,24,24,31,31,31,31,25,34,29,34,36,46,40,47,38,67,33,39,27
44,56,49,39,40,41,37,28,20,23,36,27,25,21,22,27,29,32,27,24,30,28,31,37,47,39,48,37,67,34,33,29
44,56,50,46,37,42,37,30,23,27,34,27,25,23,21,27,29,31,27,25,29,25,31,39,47,37,49,37,65,33,32,30
45,58,46,47,38,41,33,28,25,30,34,28,28,22,24,27,29,33,29,23,27,23,28,44,45,35,48,37,65,35,29,29
45,59,46,48,35,40,34,24,28,31,32,27,32,24,28,30,34,35,32,26,30,25,28,44,48,35,46,38,61,36,24,26
44,56,41,49,36,37,29,23,28,28,27,27,34,22,25,29,32,35,33,26,31,27,29,40,50,37,47,41,58,34,25,25
44,57,41,49,32,36,31,21,31,25,29,27,35,21,23,31,33,33,33,27,29,31,31,41,49,36,47,42,57,36,26,27
47,58,44,49,34,34,31,20,29,25,31,25,36,22,25,32,34,33,31,29,29,32,30,42,49,37,47,43,56,37,27,24
48,57,48,46,31,35,31,20,24,25,31,25,37,21,27,31,33,36,32,30,29,35,30,38,49,38,47,46,56,40,29,25
47,55,49,48,28,37,32,18,23,26,29,23,35,19,29,27,33,37,33,31,33,33,31,39,53,36,48,47,53,39,26,20
47,53,53,48,25,35,33,19,21,25,29,23,35,19,29,25,33,39,33,29,31,35,27,37,53,32,51,49,51,43,28,21
48,55,55,47,25,36,35,23,23,27,32,22,35,18,30,27,35,41,37,28,33,37,27,34,48,31,50,50,48,40,30,21
47,55,55,43,25,35,34,22,22,24,30,22,34,16,32,26,34,40,38,26,30,38,24,36,52,33,47,49,49,42,28,22
47,52,53,42,24,39,35,25,24,23,29,19,33,15,31,27,35,38,36,29,30,39,24,32,54,34,49,51,49,44,32,24
49,49,54,43,24,43,39,27,23,21,29,21,29,15,31,29,35,35,35,27,29,39,21,35,55,35,52,51,49,43,37,24
54,50,56,42,21,47,42,25,22,24,33,23,25,18,35,29,38,36,34,28,26,36,26,37,53,36,53,53,51,49,36,24
53,50,58,40,19,45,41,23,19,25,29,21,23,17,33,25,32,34,33,22,22,35,25,34,52,36,52,49,52,47,33,24
52,51,55,40,18,47,40,22,18,23,26,21,17,13,33,20,32,31,31,21,24,33,28,32,54,36,51,49,52,47,31,31
52,52,54,41,22,47,41,19,21,23,28,21,15,14,29,18,32,28,29,22,26,31,25,36,52,34,51,48,51,46,30,28
51,50,51,39,25,44,37,16,22,20,25,25,16,17,29,17,27,25,26,21,20,32,23,36,46,34,51,48,54,47,33,30
51,53,49,37,27,43,35,17,26,24,26,25,20,22,30,19,27,24,30,24,24,34,24,37,48,36,51,46,55,46,38,32
52,53,47,39,28,42,35,14,30,23,25,29,22,21,33,19,25,23,31,25,28,36,29,36,54,39,48,42,56,48,42,31
55,53,46,41,33,43,35,15,32,23,25,29,22,22,30,18,24,24,28,26,28,34,32,37,52,41,49,42,56,48,45,29
55,54,49,40,31,40,34,12,29,23,25,32,22,26,32,18,24,24,28,25,30,38,35,34,50,41,46,41,54,45,43,27
55,57,47,36,31,36,29,11,31,23,25,31,23,29,31,13,19,23,25,23,27,33,35,29,47,40,43,39,57,43,40,26
52,56,45,36,31,34,27,12,34,21,22,28,24,27,30,14,16,24,24,22,28,36,32,31,46,39,40,37,57,40,41,28
51,54,41,39,31,32,25,11,34,19,21,33,25,31,31,17,22,26,25,22,28,36,31,36,46,41,44,38,55,41,46,29
50,55,41,36,33,32,26,11,34,19,21,34,29,31,29,19,25,27,27,23,25,37,33,33,42,41,45,35,56,39,47,24
46,53,38,35,29,30,23,15,34,20,21,36,31,31,32,23,29,29,29,23,22,39,33,32,42,41,45,35,56,39,47,26
48,56,37,36,29,33,25,18,36,26,23,35,30,31,31,25,33,28,29,23,24,37,35,32,47,44,45,34,52,42,47,28
47,54,37,35,27,34,26,15,34,24,25,38,31,29,34,26,36,29,29,23,23,35,37,31,46,46,44,36,53,39,43,24
45,53,38,31,24,33,29,15,30,22,26,34,29,33,28,28,38,30,28,24,16,33,31,36,42,46,46,41,53,39,42,24
45,52,42,29,22,32,31,15,26,20,26,37,26,32,28,28,40,30,32,24,18,34,33,35,41,43,47,41,53,39,39,21
47,54,42,25,23,33,33,19,28,20,28,35,27,29,27,29,41,30,33,27,21,31,34,35,41,42,50,43,54,38,39,26
47,52,41,26,22,34,34,22,26,22,26,34,26,24,26,28,42,31,36,32,22,33,35,39,39,44,53,47,55,42,37,28
47,54,44,26,23,34,37,24,23,21,27,35,27,23,25,25,43,31,37,33,23,33,33,42,41,41,53,48,54,43,36,27
47,53,45,21,26,37,39,28,20,23,29,31,24,21,27,25,41,27,34,35,23,36,31,41,43,35,49,47,53,43,33,26
46,51,45,23,24,34,38,26,23,22,28,31,22,22,26,26,40,28,34,34,26,36,28,44,46,36,50,48,51,42,32,24
48,52,48,24,23,36,38,26,20,23,26,28,18,22,24,24,34,26,30,33,29,32,27,42,47,34,51,48,50,41,30,19
47,50,48,23,24,35,39,25,20,23,30,29,20,24,28,24,34,27,31,30,30,33,24,42,46,31,49,49,53,40,29,16
46,51,48,26,25,36,42,25,19,24,26,28,18,24,25,21,29,24,26,29,30,32,21,43,44,30,51,48,51,39,30,20
43,52,48,30,23,39,42,26,18,26,23,30,16,22,26,20,28,22,26,28,33,30,23,41,42,30,51,47,51,39,26,19
43,51,44,37,25,40,46,27,19,29,24,26,19,25,29,19,27,21,21,29,34,29,23,38,44,31,52,45,50,38,30,23
40,52,42,39,25,40,40,24,16,28,22,23,16,26,31,20,26,19,22,25,31,26,22,41,45,32,52,43,48,41,29,20
37,54,44,40,30,44,42,20,16,29,26,23,19,29,32,23,27,20,22,22,31,27,22,38,48,33,51,40,44,39,30,20
37,53,44,44,28,44,42,18,20,35,27,25,21,31,33,27,27,21,21,21,33,27,23,33,47,37,53,37,45,37,33,19
38,56,46,46,26,41,39,19,24,35,25,26,22,28,32,24,24,22,22,20,34,22,26,31,44,36,54,38,45,38,32,21
38,51,44,44,26,42,38,20,20,36,26,26,20,26,32,22,20,20,20,18,30,20,24,28,40,32,52,34,45,36,30,22
38,52,41,44,32,43,40,16,23,34,24,27,21,25,31,21,20,19,21,19,30,21,25,30,40,32,51,33,45,37,28,25
39,53,44,44,30,44,41,17,19,30,19,26,19,23,29,21,17,19,21,19,28,23,25,27,38,33,55,34,44,35,27,26
44,52,45,45,30,41,41,17,20,27,19,23,17,21,30,22,18,19,21,19,25,22,29,28,40,35,53,32,47,36,29,25
45,48,47,42,33,38,38,20,22,24,19,22,20,22,28,22,18,20,20,20,24,22,27,27,45,33,52,34,51,37,29,28
45,47,47,39,31,34,32,17,23,22,16,22,20,18,24,24,18,20,20,20,26,21,26,26,48,32,52,38,52,38,26,28
50,46,49,37,27,35,33,22,26,23,14,28,22,19,20,27,16,22,20,22,24,22,24,24,47,32,50,39,52,36,25,30
54,49,53,38,28,34,32,25,28,23,15,32,20,19,19,25,15,23,17,21,21,18,23,21,48,27,52,39,54,33,29,27
55,49,49,33,29,31,34,31,24,18,13,30,17,17,15,21,13,21,15,19,17,17,23,21,51,27,53,37,53,31,25,32
58,45,47,35,31,32,34,26,20,18,16,29,21,19,17,25,17,23,19,23,21,20,24,23,52,31,53,40,55,31,29,32
60,49,54,38,32,33,37,24,21,19,19,29,23,21,17,27,19,25,21,26,22,23,27,26,53,31,55,41,53,33,29,33
60,47,52,40,28,32,37,26,22,21,21,29,25,22,17,27,20,25,23,25,21,25,27,24,51,35,54,42,52,32,31,35
59,46,52,41,27,32,36,28,25,23,22,30,27,22,16,26,18,24,24,26,22,23,30,24,52,35,49,38,51,30,31,38
55,46,48,42,29,37,33,31,25,23,21,31,29,25,13,27,17,27,27,25,23,24,26,22,47,32,48,37,47,29,29,37
55,46,49,45,30,38,30,28,25,23,21,31,29,27,15,28,18,27,28,23,21,26,26,19,42,34,48,34,44,28,31,40
53,49,47,45,32,40,28,27,27,22,20,32,29,28,16,27,18,27,32,22,18,29,25,20,41,34,50,31,43,27,31,39
51,46,44,45,33,39,31,20,29,21,24,28,30,27,18,23,20,28,32,26,20,33,26,24,40,34,52,29,46,28,31,36
48,42,40,45,30,38,34,22,29,21,21,21,30,25,18,24,21,25,33,26,21,35,25,26,35,35,53,26,45,28,26,37
44,40,45,49,28,43,32,19,34,21,22,22,32,26,20,26,26,28,38,28,26,36,26,24,32,35,52,26,47,28,24,35
43,44,44,46,28,41,35,27,39,23,23,23,32,25,15,24,24,31,39,29,27,38,28,24,34,33,53,24,46,25,22,37
42,44,42,47,27,41,37,30,40,26,23,25,34,27,16,24,24,30,38,28,30,38,30,21,38,38,56,25,49,25,26,38
43,47,46,51,31,40,41,28,39,26,23,24,34,31,19,25,27,31,37,27,32,36,33,22,41,37,56,26,50,28,27,36
43,50,46,48,32,39,40,25,37,27,22,23,34,32,18,28,34,34,38,26,30,38,34,20,38,38,59,28,51,30,28,33
44,48,49,49,33,36,42,22,35,30,26,22,30,30,18,28,36,30,35,26,30,37,39,20,36,38,62,31,53,30,30,32
46,50,45,46,31,40,45,23,35,33,27,20,31,29,17,27,36,29,34,25,32,37,41,21,36,37,64,29,54,28,27,27
45,49,49,42,32,42,49,27,33,35,27,21,32,31,17,24,35,29,32,25,34,34,42,26,32,35,63,31,56,31,27,26
46,52,52,44,35,41,49,29,31,37,27,21,29,33,17,22,36,30,30,22,34,33,43,22,36,35,64,32,54,30,30,28
50,55,54,45,37,42,47,27,32,37,29,21,28,35,17,21,34,32,32,24,37,34,43,22,40,39,64,37,55,33,34,31
53,57,55,44,38,41,49,24,30,37,32,24,26,36,19,23,31,29,29,25,32,32,42,27,42,39,65,43,52,37,38,32
51,58,55,46,39,45,46,18,31,37,30,26,26,36,22,23,31,28,27,22,26,30,40,26,40,40,63,44,53,38,41,32
48,58,55,44,40,45,45,17,30,36,30,25,22,34,21,22,29,25,26,23,23,30,34,25,36,36,60,45,50,41,38,31
47,57,54,40,40,47,39,21,29,34,30,25,22,30,20,22,28,26,26,24,21,33,33,27,35,33,60,44,49,40,39,28
48,55,54,44,41,45,41,23,30,30,27,24,19,27,21,19,23,23,25,27,27,33,30,31,41,31,60,42,50,41,35,29
48,60,55,38,41,46,41,25,34,30,24,24,23,30,25,19,23,27,27,29,31,36,26,35,47,32,59,42,49,41,34,30
48,62,56,43,41,43,41,24,36,30,26,25,24,30,26,20,22,28,26,30,30,35,25,34,51,34,59,46,47,40,37,31
51,61,58,45,39,42,41,22,34,34,31,25,23,31,27,25,23,30,26,31,30,36,26,28,53,38,56,45,47,37,35,32
50,60,58,43,37,40,42,24,31,34,30,26,24,30,26,27,23,29,27,31,29,33,29,29,51,39,55,45,48,40,31,32
50,61,58,41,35,40,45,25,29,36,30,30,28,32,24,30,26,28,26,29,27,30,29,32,47,37,51,44,48,38,32,34
50,63,58,42,35,42,44,27,26,38,29,29,30,31,24,30,26,29,28,28,30,32,28,30,45,37,53,41,50,40,31,34
50,61,60,45,37,43,45,28,22,37,30,28,30,32,24,30,26,30,28,26,36,30,28,32,46,38,53,40,49,42,29,30
51,60,55,42,34,44,46,30,23,39,28,29,30,32,27,34,30,32,31,25,38,27,30,35,50,40,53,40,49,40,32,32
51,61,53,45,30,45,47,30,24,39,29,31,33,33,25,35,32,31,29,26,38,26,33,33,49,43,52,41,54,41,31,34
51,60,52,42,28,48,46,32,23,41,31,31,34,33,27,37,33,33,29,25,35,26,33,33,47,42,52,47,52,39,35,32
48,59,49,47,28,44,43,30,22,37,31,31,33,29,24,38,34,32,29,27,31,26,37,32,43,42,50,44,54,40,33,34
46,55,49,45,28,46,42,31,20,36,28,29,30,30,24,38,36,32,32,28,35,24,35,33,42,40,52,41,51,47,34,31
43,56,49,41,27,47,41,33,20,32,27,28,33,30,26,37,37,31,33,29,31,25,33,35,41,37,53,45,49,51,33,30
41,59,47,40,28,48,40,32,22,30,28,27,36,30,28,38,38,30,32,30,32,26,31,36,41,37,51,44,49,52,33,29
40,55,46,42,27,49,37,34,22,30,27,26,33,29,31,37,39,31,33,31,33,30,32,36,44,36,52,44,49,52,31,27
35,52,45,39,25,45,37,33,23,29,27,26,32,29,29,37,39,30,34,31,36,27,34,37,45,35,51,43,48,49,29,29
38,49,42,36,24,44,37,36,24,31,24,25,29,29,26,34,36,26,35,32,32,27,35,37,44,30,51,43,48,49,27,29
38,48,45,40,24,44,34,32,25,26,24,24,31,31,26,32,34,25,32,34,35,31,35,38,42,31,50,44,50,48,26,27
38,45,49,37,23,41,37,30,23,24,24,22,30,32,28,30,32,26,34,31,36,32,32,38,43,30,51,45,48,47,23,25
35,48,51,36,23,39,35,27,22,23,23,21,30,33,25,27,30,24,32,30,39,32,33,36,43,30,50,41,48,49,22,28
38,48,55,35,21,38,35,28,21,24,23,24,27,37,27,25,27,23,33,28,41,29,31,37,47,27,50,41,49,50,25,25
43,53,53,32,17,35,36,29,21,25,27,28,27,32,26,22,22,22,29,27,39,30,31,37,47,29,46,40,52,45,25,27
42,50,52,33,17,35,39,28,19,24,29,32,24,30,22,19,19,19,27,25,43,27,29,38,48,29,46,39,53,43,25,29
45,46,55,34,15,35,41,29,19,25,27,32,23,31,23,17,17,19,27,25,42,29,30,37,48,30,45,39,53,41,25,29
45,47,55,30,15,33,42,26,20,21,26,30,24,32,24,15,14,18,28,26,42,27,27,35,48,31,46,38,54,43,25,27
49,52,54,32,17,36,43,28,24,18,24,28,23,30,22,11,14,17,25,25,37,30,23,33,46,33,45,41,54,43,27,23
49,56,57,31,16,31,45,23,21,18,29,24,24,29,25,15,17,21,24,25,37,33,26,35,48,36,43,41,56,43,28,23
48,54,57,31,18,33,44,26,18,22,30,26,23,27,23,13,16,21,23,22,32,29,23,34,46,35,48,40,57,44,28,25
50,56,54,31,20,36,46,26,19,25,28,26,20,24,20,14,14,20,24,22,32,27,27,34,47,37,48,38,56,44,32,27
52,53,53,31,21,36,46,26,22,24,30,29,20,25,23,17,16,22,24,22,30,26,26,35,47,39,47,37,56,43,29,27
51,54,54,33,23,42,51,29,23,24,30,28,22,24,22,20,18,23,24,22,28,28,29,34,44,39,51,38,56,44,27,30
51,51,53,36,28,40,49,28,21,25,27,25,23,24,24,25,21,26,26,22,27,27,28,36,44,37,51,40,56,43,26,29
53,54,53,40,31,40,46,26,24,27,24,22,23,24,26,28,22,28,26,22,25,29,29,35,42,37,54,36,55,40,25,28
50,57,50,40,34,46,46,22,22,27,26,22,24,24,25,28,22,28,25,22,26,27,29,38,41,36,58,37,54,41,26,28
50,56,49,43,37,45,46,23,22,30,28,25,26,24,25,29,23,29,23,21,25,28,32,39,41,37,59,34,54,35,27,29
46,54,51,42,37,42,42,21,21,32,28,26,26,25,25,28,21,30,24,20,27,26,34,40,42,36,61,32,55,34,29,29
42,55,50,43,37,43,39,22,28,31,24,26,28,25,24,24,22,28,24,20,28,26,31,40,39,35,61,31,54,33,27,31
42,55,50,40,35,38,39,23,31,27,23,24,26,25,25,25,25,32,26,21,30,28,33,37,41,33,58,31,51,33,25,29
40,56,50,38,36,37,37,24,30,27,24,27,29,26,29,25,26,33,27,25,30,31,31,36,40,32,61,30,54,32,26,28
39,57,50,41,33,37,39,25,28,27,26,24,29,25,27,25,25,31,27,25,29,31,31,36,41,31,60,32,54,31,25,29
36,54,50,38,30,34,40,23,26,30,30,20,29,27,28,24,25,30,26,27,30,30,28,38,41,31,57,32,52,31,24,28
35,54,50,39,25,35,39,25,31,27,31,19,30,31,31,21,27,30,26,28,32,31,30,38,38,32,57,31,53,32,26,27
36,52,50,40,21,33,40,28,29,28,30,16,29,28,31,18,26,26,24,26,29,31,27,34,39,29,55,34,51,34,27,25
38,49,52,39,19,29,39,33,33,29,32,16,28,28,31,18,28,28,25,24,28,31,24,30,41,28,52,30,51,31,27,23
40,47,54,39,18,31,39,32,32,30,32,16,26,28,33,19,27,27,25,23,30,30,25,28,41,26,50,34,52,33,24,26
44,47,54,36,18,30,39,31,31,31,34,16,28,30,36,22,30,28,26,26,28,31,26,29,44,26,49,37,50,35,20,29
49,43,54,38,18,29,37,31,25,30,34,18,25,30,36,22,27,29,25,26,27,29,25,27,44,27,51,36,50,32,22,29
52,42,54,38,16,33,40,28,29,30,34,20,29,30,34,20,28,28,27,26,27,31,26,30,46,32,51,39,51,32,20,28
56,41,53,38,14,34,40,30,29,29,32,17,25,28,31,19,27,24,24,22,24,26,21,31,44,30,47,41,48,31,18,26
59,41,55,36,16,32,39,28,27,31,27,18,23,26,32,16,26,24,24,22,24,26,19,35,42,30,49,42,50,33,20,23
63,44,54,39,20,32,40,29,31,33,25,24,25,23,31,17,25,23,23,20,22,23,22,36,44,32,50,42,50,34,24,23
65,46,54,40,23,32,40,26,29,32,24,29,24,22,27,18,23,22,24,18,20,24,23,36,47,35,51,44,50,32,24,26
61,46,53,38,28,35,41,25,30,31,22,34,26,25,27,21,27,25,26,22,21,27,27,41,48,40,51,42,52,32,26,28
63,47,54,41,30,32,42,26,32,30,20,36,28,25,25,21,25,23,25,23,20,26,28,44,45,41,51,46,51,34,27,31
60,48,54,41,31,33,42,22,34,28,18,34,28,24,21,24,28,26,30,23,21,28,30,46,44,45,52,44,51,33,31,30
58,46,57,47,33,38,44,26,31,27,19,33,25,23,21,21,27,27,27,21,22,26,31,44,43,43,49,43,51,30,35,27
58,48,58,47,33,39,47,28,33,29,23,33,25,21,19,21,26,24,24,19,20,24,30,44,42,44,49,45,52,33,35,26
56,50,58,50,35,41,47,28,26,28,22,32,22,20,20,22,22,22,20,18,20,20,30,40,40,42,47,42,51,34,39,26
56,50,59,55,38,39,48,25,27,26,24,31,25,23,21,24,24,24,22,20,22,24,34,40,42,41,50,39,49,33,40,30
54,51,56,56,38,40,47,26,29,23,26,32,27,24,19,23,23,23,21,19,21,21,36,37,42,41,51,36,49,32,40,31
54,48,56,55,36,41,43,27,25,21,27,27,23,23,19,22,26,24,22,19,23,24,34,34,45,40,50,39,49,31,40,30
53,47,60,55,36,41,44,30,25,22,26,25,23,23,21,21,24,24,20,19,24,21,35,31,43,36,48,39,51,31,41,29
55,47,61,52,31,41,44,31,26,21,28,22,21,21,19,19,21,23,20,17,25,18,35,29,42,33,49,41,53,35,42,27
52,47,59,52,30,43,44,28,23,21,29,21,19,20,20,20,22,24,22,16,26,19,36,28,43,32,48,40,54,34,42,26
52,49,60,49,27,41,42,31,20,21,27,21,18,20,21,18,18,22,18,17,25,18,36,30,43,28,49,42,54,36,42,26
53,52,57,45,27,37,40,30,20,22,27,22,18,22,20,20,20,22,20,22,25,20,35,32,43,29,52,44,56,42,41,28
53,52,57,46,27,40,38,28,20,20,22,22,20,25,22,23,24,24,22,26,26,22,34,33,45,25,53,45,56,41,44,27
51,53,59,45,28,41,36,31,21,21,25,19,18,28,24,24,26,28,22,27,25,22,34,34,45,23,54,45,57,38,44,28
49,54,58,44,26,40,33,33,19,22,24,20,19,27,21,25,25,27,23,24,23,25,34,31,46,25,55,47,57,39,41,28
50,52,57,42,25,43,35,31,19,29,29,20,20,28,23,27,27,30,26,23,23,26,38,31,46,26,53,47,58,37,43,30
48,54,58,42,22,43,32,30,22,28,26,20,18,28,24,26,24,28,24,24,22,24,37,32,43,30,53,45,57,37,38,32
47,53,57,39,20,45,34,31,21,29,26,21,17,30,23,25,26,28,23,24,23,25,35,32,42,34,56,44,56,40,37,34
45,55,55,41,25,47,32,29,19,29,29,21,15,30,24,25,25,27,23,24,23,25,35,33,41,32,57,43,54,39,35,38
45,54,55,41,28,46,32,28,20,28,28,20,13,30,25,24,23,26,22,24,24,26,38,34,40,33,59,38,55,38,38,38
46,53,55,45,32,47,34,25,20,28,28,20,14,29,25,23,27,25,23,21,25,24,37,32,38,35,58,36,54,37,38,38
49,52,57,47,32,50,33,24,24,28,30,20,16,30,24,24,27,24,22,17,26,24,36,29,37,31,56,32,51,33,37,37
47,51,56,48,35,50,36,22,24,26,30,22,16,30,24,23,26,24,22,16,26,26,40,27,36,34,55,31,52,35,36,35
48,49,52,49,35,48,36,21,25,24,26,24,15,27,23,21,23,21,21,14,26,25,39,32,34,32,56,28,52,35,37,35
47,50,51,47,34,52,37,18,26,24,25,25,14,28,23,17,21,22,18,14,30,19,38,35,36,33,52,25,53,33,38,35
44,48,53,48,38,49,38,17,25,19,19,27,15,29,23,15,21,21,17,17,31,17,33,35,37,33,52,30,51,35,37,33
44,47,49,47,39,47,42,16,21,18,20,28,17,29,24,16,22,25,21,20,32,21,36,35,38,31,53,31,54,34,41,33
42,50,48,52,43,44,44,13,19,17,21,27,19,26,26,17,25,27,23,25,33,23,39,37,40,30,54,31,55,35,40,32
42,51,48,52,41,40,48,15,23,18,18,30,24,27,27,20,28,30,24,26,36,24,40,34,43,33,52,32,55,32,42,29
42,53,49,54,36,41,49,18,23,19,16,31,25,28,27,23,31,30,24,28,33,25,39,36,45,33,52,40,56,36,43,30
41,53,50,51,34,42,47,20,23,19,17,32,29,27,27,24,30,31,23,31,34,29,40,36,49,34,54,45,58,37,40,29
38,52,50,49,33,41,49,22,19,18,13,31,29,25,30,25,28,29,25,31,31,31,40,36,50,37,54,48,59,36,39,30
39,54,48,44,28,42,51,22,18,20,14,30,28,24,32,24,26,28,24,30,30,28,36,35,52,36,55,47,60,33,36,30
39,56,49,43,27,44,52,19,17,24,16,32,30,24,32,26,30,28,28,34,30,30,34,35,57,39,52,51,59,38,35,31
42,56,54,41,27,40,52,24,19,26,19,31,29,22,34,28,36,27,31,38,26,34,33,35,57,40,53,53,59,44,34,32
44,58,57,39,22,40,47,25,20,28,22,29,28,18,36,29,34,27,30,36,29,35,34,34,56,37,52,47,61,44,32,30
45,57,59,37,22,42,50,26,20,28,24,27,31,21,34,30,36,25,29,30,28,31,32,33,52,36,52,46,59,43,29,29
48,59,56,35,19,41,49,25,23,26,25,25,29,19,34,33,33,23,27,25,23,29,31,31,50,33,51,47,57,39,30,27
49,57,57,36,18,43,46,24,20,26,26,24,28,20,33,32,32,22,28,26,22,30,30,37,47,31,50,45,54,39,26,27
52,56,56,34,17,43,45,21,22,28,30,23,28,21,32,30,32,22,28,24,25,27,32,37,46,32,48,42,55,39,25,27
51,59,54,34,18,45,45,21,18,26,28,24,26,20,31,29,33,24,30,24,26,26,28,36,46,33,49,40,54,39,22,28
51,61,51,35,16,42,45,21,22,25,28,23,27,21,28,25,35,27,31,26,28,24,27,36,45,35,48,38,56,39,26,26
54,61,54,39,16,40,42,24,25,26,30,21,28,23,27,28,35,28,32,28,33,26,31,38,40,38,47,38,56,40,30,28
53,59,51,37,14,35,37,27,26,23,29,19,27,23,27,27,33,29,32,27,33,26,34,39,40,37,47,37,56,35,32,30
52,58,48,36,12,36,37,24,24,23,29,19,30,23,28,28,30,33,31,26,36,24,33,41,38,32,48,38,56,34,28,24
54,57,43,38,16,37,41,27,23,21,28,20,29,24,24,27,30,33,33,29,36,24,32,38,40,33,53,40,54,33,28,26
55,61,45,41,16,39,36,27,24,22,26,24,25,24,23,25,28,31,32,32,36,23,29,39,39,33,52,43,54,36,30,23
57,56,49,42,20,42,36,29,25,23,28,25,28,30,24,22,30,36,32,30,36,23,26,42,42,38,52,44,54,38,35,25
58,55,49,39,25,42,34,27,26,22,26,25,28,28,23,20,28,34,32,28,34,22,28,38,44,38,54,45,55,39,35,27
56,53,48,40,26,38,38,29,22,23,25,24,28,26,24,22,26,34,34,31,36,24,27,39,45,37,56,44,54,39,34,28
56,50,49,41,24,36,41,29,24,27,24,24,24,29,26,21,22,31,33,32,34,22,26,39,46,35,56,49,51,39,40,30
56,51,50,42,27,37,41,30,20,27,25,26,22,29,27,25,22,32,34,32,34,22,26,42,46,34,56,50,48,43,38,30
53,48,49,40,27,38,39,29,22,28,23,29,23,27,26,28,24,36,33,31,30,22,24,42,50,34,57,48,45,44,35,31
55,47,52,43,30,41,39,29,22,31,25,31,25,27,27,29,25,35,32,31,29,22,24,41,49,35,60,49,46,43,36,32
51,47,54,45,33,41,42,29,23,31,23,32,24,29,27,30,26,32,30,32,27,21,28,40,46,35,58,45,48,41,39,35
49,47,58,48,33,41,38,28,28,34,26,34,25,29,30,31,27,34,30,30,26,24,30,43,45,36,58,47,47,42,42,36
49,45,55,46,33,39,40,28,30,31,25,30,27,27,30,32,27,34,30,30,25,25,33,43,49,37,55,46,47,42,41,41
46,46,52,46,36,39,39,27,27,34,26,32,23,26,30,33,25,31,29,34,30,25,37,42,49,32,58,44,47,42,38,40
43,46,49,46,30,39,39,30,27,35,27,30,23,27,29,35,25,31,29,35,31,25,36,41,48,32,60,44,48,40,39,39
41,47,51,43,29,43,34,28,31,32,26,32,24,28,27,33,25,31,27,36,27,23,34,37,48,30,60,43,51,38,37,36
43,46,51,42,27,45,32,26,29,29,28,35,30,29,25,34,26,34,29,34,30,25,34,38,45,28,57,38,52,40,36,32
44,44,53,38,24,46,32,21,33,30,28,35,33,30,25,32,24,30,27,32,31,23,37,37,44,28,57,35,51,36,36,33
45,44,53,38,26,47,35,22,29,30,28,31,32,29,25,27,23,27,27,31,32,22,35,39,40,30,59,38,51,34,34,32
44,43,51,35,25,46,38,23,30,30,26,27,31,30,26,28,22,26,28,30,34,24,31,38,39,29,59,38,50,38,32,32
48,45,49,36,27,47,37,24,31,29,27,24,28,30,25,27,21,25,29,31,37,27,31,39,44,29,57,43,50,39,29,33
47,43,49,34,27,46,38,28,27,25,27,20,28,30,26,26,23,29,29,29,35,28,31,35,43,28,54,43,49,37,27,30
46,45,50,34,30,46,38,27,24,27,27,20,29,32,28,27,23,29,31,29,37,29,32,32,44,28,57,44,50,37,26,29
46,47,50,31,23,44,38,25,23,23,27,16,32,29,25,28,22,28,32,29,36,31,30,33,44,31,56,47,52,35,27,28
49,48,52,32,24,42,42,24,25,23,28,14,31,28,26,26,24,30,32,32,38,32,29,36,46,33,55,47,51,37,28,29
50,49,51,31,29,42,43,22,25,23,27,11,32,30,29,27,25,31,31,27,37,35,30,35,43,35,53,47,51,37,31,30
48,51,50,32,32,39,43,25,29,21,29,6,28,27,29,27,25,29,28,28,32,33,31,33,43,37,55,46,51,33,30,29
47,51,48,36,31,40,41,25,25,19,27,6,26,24,28,26,26,30,27,27,32,36,30,33,41,37,55,50,52,35,30,28
44,52,46,37,32,38,41,23,29,17,30,7,29,26,27,28,27,31,29,29,34,39,31,29,44,34,53,49,52,38,29,28
46,53,49,40,33,38,42,26,29,14,31,8,31,27,25,26,30,34,30,32,32,40,37,28,43,34,52,52,54,38,28,26
46,53,48,36,32,37,43,27,25,16,31,10,33,27,24,28,33,36,31,31,29,40,37,27,39,37,55,49,52,39,31,25
48,52,48,39,28,37,43,21,29,17,31,9,35,28,22,32,32,32,32,34,26,39,36,28,38,38,55,46,52,38,30,25
52,51,48,40,27,37,42,21,32,16,30,11,35,26,21,32,32,32,30,34,24,38,36,28,34,36,55,40,50,34,30,22
54,51,50,42,28,35,42,25,35,19,27,14,35,27,21,31,35,33,31,33,23,39,37,27,33,35,55,39,50,35,28,23
52,52,48,40,29,36,40,22,36,17,24,16,37,26,20,32,34,34,32,32,20,40,36,26,31,34,52,40,50,32,27,25
53,49,47,40,25,38,43,26,37,15,28,19,34,25,19,32,32,32,32,34,22,36,34,26,33,36,52,39,47,31,26,26
56,48,50,40,25,38,43,27,35,19,26,24,35,28,18,32,35,34,33,35,22,38,34,28,33,34,54,38,45,31,24,31
57,48,47,38,25,37,46,28,36,22,28,25,37,31,17,35,35,35,36,36,24,37,34,26,33,31,55,34,48,29,23,29
58,47,49,37,25,38,48,27,35,23,27,26,35,29,17,35,36,35,36,34,23,35,35,27,32,29,55,35,50,28,29,30
60,46,48,35,21,37,47,24,35,24,28,25,30,29,19,34,36,32,36,32,26,34,33,29,34,27,56,31,50,26,32,31
61,47,47,36,19,41,45,22,39,24,29,25,28,28,20,32,35,29,34,32,27,33,33,31,37,30,54,35,53,25,32,30
60,51,47,31,21,42,49,22,37,25,25,26,24,27,22,27,32,26,31,28,29,31,30,32,37,31,54,36,55,24,32,31
54,49,47,30,20,42,46,24,35,22,24,24,25,26,22,24,32,26,33,29,30,35,28,37,38,33,55,39,57,25,31,30
55,50,49,31,24,44,47,22,35,19,25,22,23,25,25,23,31,23,29,29,32,31,28,39,39,33,55,38,56,22,34,30
59,47,52,30,23,45,44,22,31,22,26,22,18,26,24,22,28,20,28,24,31,28,26,39,37,33,56,35,58,23,35,28
57,51,53,32,22,42,42,22,28,24,25,21,17,26,21,21,27,21,29,23,33,29,27,44,39,29,56,38,61,26,37,28
55,54,50,27,22,42,44,19,27,21,25,20,16,22,20,21,25,19,30,22,33,29,26,41,41,29,53,37,62,26,40,25
57,54,51,32,24,43,45,21,28,21,29,16,17,19,22,21,25,21,31,23,33,32,28,45,43,30,49,40,60,29,41,28
55,54,50,32,21,43,45,25,27,19,29,15,17,26,21,21,24,21,30,25,32,33,28,45,41,32,50,39,55,28,40,28
55,54,48,33,24,42,44,25,25,21,30,21,23,25,19,21,23,23,27,25,31,33,29,46,43,36,51,38,58,29,40,24
50,54,48,38,26,40,46,23,26,20,28,24,27,26,20,22,21,27,31,27,32,35,26,42,40,35,51,39,58,28,41,27
49,52,46,42,29,35,44,24,25,19,33,26,30,28,18,23,23,29,34,29,33,39,29,41,41,34,49,37,54,31,45,27
52,54,47,43,27,36,43,19,27,21,35,31,30,32,17,25,23,30,32,32,34,34,28,39,44,31,48,39,53,36,47,27
52,54,45,44,21,37,40,20,30,22,34,34,32,34,16,22,24,34,34,32,35,36,25,35,44,31,46,41,53,41,43,27
49,56,41,44,19,38,42,25,33,24,34,37,35,37,19,21,25,35,33,33,34,38,30,34,46,27,43,41,52,42,39,23
47,55,44,47,18,39,41,24,32,24,36,36,38,36,21,21,27,35,33,33,33,38,32,34,45,33,42,41,52,43,37,20
49,53,45,50,18,42,39,27,33,25,36,33,37,36,24,23,27,35,34,33,36,36,32,35,47,32,46,42,54,43,34,18
46,54,47,47,20,37,37,26,33,22,30,39,39,39,27,23,27,33,32,32,34,34,31,33,49,32,50,41,54,41,33,14
50,57,53,45,22,37,35,27,32,24,29,40,38,35,29,22,25,33,31,33,35,33,33,35,49,33,49,40,58,42,31,11
50,58,51,46,22,40,37,26,30,25,25,37,36,33,28,24,23,31,32,31,33,34,34,34,48,30,49,41,58,45,32,14
53,56,56,43,21,39,36,31,27,27,25,32,33,31,29,25,28,30,30,29,36,36,33,37,47,25,50,40,55,46,28,10
55,57,58,43,20,41,33,33,28,25,22,29,31,31,31,26,31,33,31,31,35,38,33,39,49,27,55,43,57,46,25,11
52,58,59,39,23,39,35,34,27,25,21,27,30,29,31,25,31,32,32,26,32,40,34,38,47,28,53,44,59,41,26,12
53,58,59,39,25,38,35,31,23,25,21,25,28,25,28,27,27,29,35,21,29,44,37,40,45,30,52,39,61,35,27,13
53,60,59,40,30,37,33,29,21,19,19,20,30,22,29,28,28,30,36,22,31,45,34,42,47,34,56,44,60,37,32,16
53,58,56,37,32,37,33,30,21,19,16,19,30,21,30,29,28,31,37,23,31,46,34,39,48,31,59,43,61,35,32,18
50,58,56,38,34,37,36,30,20,22,18,19,31,25,31,27,29,31,37,23,28,47,36,42,49,32,56,46,61,37,32,20
48,59,54,40,36,37,33,29,18,23,19,15,25,25,28,25,27,29,35,20,26,43,37,39,47,34,54,43,61,37,36,25
48,57,50,41,35,35,30,28,19,21,19,14,25,26,29,26,29,29,35,19,27,43,35,38,46,32,53,46,59,38,35,28
47,57,50,40,35,33,30,28,20,18,20,15,22,27,30,24,29,29,34,19,27,40,33,37,45,34,51,43,56,32,35,29
47,59,46,41,35,31,28,25,21,19,19,18,23,27,29,23,25,29,35,17,23,39,34,35,48,39,53,42,56,34,36,30
47,62,46,38,34,34,29,24,23,21,21,20,28,28,30,24,24,27,33,17,23,36,35,35,48,41,54,41,57,34,38,33
52,58,45,41,33,35,29,26,24,22,22,18,26,30,31,25,27,28,34,21,25,35,41,36,52,41,56,40,55,39,39,39
52,57,42,43,33,35,32,30,22,22,22,21,27,31,31,24,30,30,32,24,26,31,41,36,52,39,57,43,55,43,36,38
54,55,44,44,32,35,36,29,21,25,27,21,23,31,31,24,29,27,31,25,26,29,40,35,50,38,57,41,57,41,36,38
57,57,47,48,34,32,39,30,19,25,29,25,24,33,31,25,31,28,33,26,28,29,41,36,47,39,54,42,54,40,39,41
62,54,50,47,31,28,37,29,20,23,29,26,25,31,29,24,31,29,30,31,32,30,40,33,47,36,57,42,53,41,40,41
63,51,49,45,27,30,36,27,27,26,32,28,30,33,31,26,33,29,34,31,36,34,37,31,49,37,56,41,53,37,40,38
59,49,49,46,27,32,36,24,27,25,33,28,33,33,31,27,31,31,35,29,35,36,37,28,48,39,56,41,50,35,41,36
58,50,51,48,26,36,32,25,24,26,29,27,32,30,28,26,30,30,34,28,34,34,38,27,48,38,57,41,50,35,39,37
59,48,51,48,26,38,34,25,22,26,33,25,33,31,28,25,27,27,35,29,37,31,35,27,45,39,55,42,51,34,39,43
58,44,52,52,24,37,36,26,18,28,36,26,28,30,28,26,28,26,34,30,37,31,34,26,44,36,53,44,53,34,38,38
54,45,53,50,26,37,33,24,20,28,34,28,27,28,25,25,22,23,35,29,36,28,27,27,39,33,52,43,53,33,35,32
52,47,54,51,25,37,33,21,20,29,33,25,24,26,24,25,21,21,34,26,36,28,25,27,38,36,54,41,54,33,40,30
50,47,56,49,23,37,29,23,24,28,30,27,27,26,23,25,23,23,35,27,39,29,24,25,40,37,54,42,52,34,37,29
50,46,56,47,24,40,26,19,25,29,29,25,26,26,23,24,23,23,31,25,37,30,24,25,39,38,55,42,53,34,33,30
48,48,56,48,23,45,25,20,26,29,28,28,27,23,22,27,25,21,32,22,38,30,22,27,39,42,53,41,53,33,34,32
49,49,55,46,26,43,28,22,24,25,28,28,29,18,20,25,26,24,31,23,40,30,18,29,36,38,54,47,53,37,28,32
52,54,55,41,28,43,31,25,24,29,29,31,28,18,23,23,29,21,33,27,37,29,17,30,38,37,57,45,53,37,26,37
51,52,53,41,35,39,35,23,28,31,33,33,30,20,25,24,30,22,34,28,38,32,18,32,38,34,55,47,54,40,26,34
51,52,52,38,32,38,36,23,29,30,31,31,27,19,24,27,35,27,33,31,35,32,23,33,39,33,58,46,52,40,27,32
50,53,50,34,31,37,37,23,32,29,27,29,27,17,21,23,33,25,34,29,35,32,25,32,39,35,55,49,49,43,29,37
51,53,49,33,31,37,40,27,29,31,32,30,28,23,26,26,36,26,30,28,34,32,24,32,38,37,57,53,52,45,31,36
54,53,51,27,29,41,37,28,31,31,32,31,29,26,29,26,35,26,28,28,32,31,24,32,37,37,57,55,47,45,29,39
53,51,49,29,29,38,36,29,27,33,34,32,26,25,26,27,33,23,27,27,31,33,26,35,34,35,56,55,44,47,30,41
51,51,48,29,28,37,36,31,28,33,33,32,27,24,25,27,31,20,30,26,30,32,26,34,38,34,57,53,45,45,29,38
53,52,46,26,28,34,36,32,28,34,31,31,25,26,25,26,29,23,29,27,28,31,31,33,37,32,55,55,46,47,30,37
52,53,47,26,25,34,37,30,23,34,29,27,23,27,27,27,28,22,26,29,23,31,33,33,35,34,51,53,45,47,32,38
48,53,48,31,21,32,37,32,22,31,29,24,20,26,23,26,26,22,22,28,24,30,32,33,36,34,48,53,47,48,33,33
49,52,48,32,15,32,36,33,20,29,29,22,21,26,23,27,27,23,21,27,23,27,29,33,36,35,49,52,49,47,31,31
49,54,52,33,17,35,35,33,23,25,27,22,25,25,21,25,25,23,21,25,25,28,28,31,34,33,46,49,47,45,31,30
47,51,51,34,20,35,31,31,17,22,24,22,30,24,20,28,26,24,19,26,25,28,26,31,32,33,45,42,48,39,30,29
49,51,55,35,19,36,32,27,15,19,20,21,31,19,15,29,25,25,19,26,25,27,28,31,34,33,46,38,44,34,31,34
46,49,54,38,23,32,38,27,18,16,20,21,31,19,12,30,29,24,18,28,26,27,32,29,37,31,45,35,47,34,31,33
44,51,54,34,24,33,40,22,21,13,18,21,33,21,14,29,30,26,18,26,26,22,32,27,40,34,46,35,51,34,34,34
42,50,51,30,25,33,37,23,24,12,18,19,33,20,14,28,29,27,16,27,23,20,31,23,35,35,43,33,50,33,37,34
37,50,50,32,28,37,41,25,22,10,17,17,31,24,16,26,27,25,17,25,21,21,27,23,33,35,43,31,49,31,36,33
40,49,52,32,30,40,42,26,22,11,18,16,28,24,14,27,27,24,20,23,21,21,28,23,35,34,46,31,49,32,38,34
43,48,53,28,34,42,39,22,23,12,17,16,29,26,15,26,26,23,21,20,20,23,30,22,36,34,47,34,50,31,38,36
40,48,54,26,36,43,40,21,26,11,15,16,28,26,13,26,26,22,22,20,20,24,32,20,38,37,45,32,49,30,39,38
36,46,50,29,35,39,38,19,24,14,18,16,25,25,13,25,25,17,19,19,19,25,31,17,37,35,45,30,52,31,39,36
40,48,49,28,36,37,39,21,26,16,20,18,22,28,16,24,24,18,20,18,20,26,31,16,37,33,47,31,54,31,39,37
39,50,46,29,37,37,38,24,28,16,20,15,22,28,18,22,24,18,22,17,22,24,29,15,35,30,42,29,54,29,36,31
39,52,46,30,36,40,35,25,25,18,22,16,25,28,19,21,23,23,27,16,22,24,24,14,32,30,43,29,54,27,37,32
40,48,44,30,34,39,32,27,27,18,22,16,23,28,19,24,26,22,26,18,24,26,24,14,32,28,42,26,52,26,34,28
42,50,45,32,32,41,37,24,28,18,22,19,23,28,18,25,29,23,27,18,25,28,24,18,32,26,42,28,50,26,32,27
44,52,47,35,29,40,35,23,30,20,25,22,24,28,14,25,30,24,26,18,26,28,24,16,34,25,41,26,49,24,30,26
40,51,43,36,29,38,30,22,35,19,23,27,28,27,13,21,27,24,26,17,27,29,24,15,32,25,41,25,50,20,25,29
39,53,41,38,29,38,32,26,38,21,24,28,29,25,11,23,28,27,27,19,30,29,22,19,31,28,39,24,48,20,26,27
42,51,40,41,30,38,28,28,36,20,22,26,30,28,14,24,28,28,30,20,34,28,23,24,28,27,40,28,48,24,30,29
43,54,41,41,35,39,29,29,37,21,20,28,32,31,17,23,28,31,31,19,33,27,23,25,34,29,39,30,48,25,29,30
40,54,43,46,36,41,31,29,37,21,19,30,31,29,15,22,28,33,30,18,31,25,22,27,35,31,37,31,45,27,30,27
42,51,41,46,36,42,34,29,36,24,19,34,30,30,16,24,30,34,32,22,29,29,26,29,36,34,41,33,48,31,29,30
42,51,41,43,36,40,28,31,34,22,17,33,27,27,16,22,26,30,32,20,31,30,27,30,38,33,41,38,46,34,27,28
42,53,44,46,40,41,30,31,29,26,17,28,25,23,17,18,24,30,30,18,28,30,28,30,38,34,40,40,45,34,26,30
46,51,41,52,39,39,29,30,26,27,17,26,21,21,19,17,22,28,30,19,28,28,34,31,40,36,43,43,47,35,27,32
47,52,39,50,40,37,26,28,25,26,14,23,21,18,22,16,22,26,30,18,28,27,36,34,40,36,44,47,48,37,31,33
50,55,42,51,40,39,32,33,24,28,16,22,17,21,27,20,27,29,27,19,27,25,36,37,44,39,44,49,48,39,35,30
52,51,42,48,36,39,32,30,18,26,14,25,17,20,29,20,27,27,25,18,26,25,36,36,45,36,47,50,51,42,34,30
49,55,43,46,35,39,37,29,16,27,17,27,17,14,30,19,27,27,21,19,24,27,34,32,47,35,49,51,54,39,31,32
50,54,43,42,30,38,38,30,13,26,19,28,17,13,32,21,29,28,22,21,25,27,35,30,47,35,53,52,54,38,31,37
49,53,43,42,28,39,40,29,12,25,20,25,16,16,33,22,29,29,25,21,26,28,36,30,46,36,58,54,53,38,32,38
47,57,48,42,30,39,35,28,13,23,20,29,17,19,33,19,27,29,23,21,26,27,35,29,48,38,57,52,52,38,35,40
46,54,50,43,31,42,35,25,15,25,21,30,19,21,33,21,29,31,21,23,24,25,32,27,47,36,55,52,54,35,38,41
46,55,50,44,30,43,38,23,18,23,21,30,19,21,30,24,28,30,22,26,22,24,32,30,48,38,56,48,57,36,43,43
42,57,53,43,32,44,37,26,16,22,23,31,22,22,31,24,29,30,23,28,24,28,30,28,49,38,56,48,56,38,44,45
41,58,52,43,35,42,38,23,14,19,25,30,22,24,31,28,31,33,24,31,24,33,32,29,50,37,57,45,58,38,39,46
43,52,52,42,32,40,33,20,13,17,27,26,23,23,27,27,27,29,27,33,27,31,35,29,47,37,58,45,57,39,38,45
41,54,54,45,37,39,29,17,13,18,26,22,20,24,26,26,26,28,26,31,27,28,40,29,50,42,59,41,57,33,39,45
45,55,57,47,37,40,26,14,16,19,28,24,19,27,28,25,25,27,29,34,27,27,39,33,53,42,59,38,55,34,42,41
45,57,59,48,38,45,27,17,22,23,28,24,22,28,25,24,28,27,33,34,28,28,38,34,52,43,59,41,56,36,45,39
48,56,62,44,36,43,23,19,26,23,28,24,27,28,25,26,28,27,30,33,32,29,40,36,54,43,57,39,58,35,46,38
48,55,57,45,33,39,27,20,26,22,28,20,29,25,23,30,29,28,31,31,33,30,39,37,53,44,57,41,58,35,44,39
48,57,55,44,33,38,29,23,24,23,27,23,31,25,25,31,31,29,35,34,33,33,39,37,49,43,52,39,55,35,39,39
48,57,54,44,33,39,27,24,21,22,29,25,35,26,29,30,31,30,36,31,35,33,37,37,49,38,56,41,56,33,36,36
50,58,55,40,32,38,27,26,25,22,27,25,33,30,27,32,29,33,37,30,32,31,36,38,50,38,54,40,59,35,35,34
51,57,57,40,27,37,26,29,29,27,29,25,33,29,27,29,25,31,38,29,34,29,34,37,50,40,54,41,57,35,38,34
50,59,59,39,29,40,31,30,27,30,27,28,32,26,30,26,24,30,35,28,32,30,32,36,50,38,55,42,57,34,37,32
50,55,58,39,27,42,36,31,31,28,28,29,34,27,35,29,26,30,36,29,32,32,30,35,45,36,53,45,59,37,34,35
47,53,54,36,27,42,39,39,32,30,25,25,36,28,34,33,29,33,37,27,33,35,31,32,42,36,53,43,57,35,32,35
48,54,53,37,29,39,37,37,27,25,23,27,35,27,33,31,25,31,33,30,32,34,34,34,40,35,49,43,55,36,29,37
46,55,52,36,31,40,38,34,22,24,24,28,32,26,36,30,24,29,35,31,29,34,35,32,38,32,48,44,55,38,26,36
46,54,53,34,31,42,37,34,23,24,26,28,29,26,38,26,28,28,31,31,25,33,38,31,39,32,50,45,55,39,26,33
48,51,54,38,29,39,39,31,23,23,27,24,24,24,37,23,27,26,28,28,26,30,43,32,45,35,52,45,57,40,29,33
48,49,56,40,32,41,38,34,27,27,25,28,24,26,36,25,27,26,28,27,25,29,45,29,45,38,47,43,57,41,28,33
48,44,54,42,28,41,40,33,23,30,25,30,25,25,33,25,29,24,27,27,30,31,45,31,46,38,50,41,58,39,26,31
45,45,52,43,30,43,42,32,24,28,24,33,27,28,33,31,32,24,25,26,30,29,42,30,44,37,50,42,56,37,25,31
45,47,52,41,34,40,40,33,28,29,28,31,29,29,29,33,35,26,26,24,31,28,43,30,44,37,48,46,57,38,26,32
46,50,53,43,31,41,40,32,25,28,27,30,27,32,24,29,35,29,26,27,28,26,40,30,45,35,48,44,54,38,30,28
46,50,53,41,29,44,40,28,23,29,27,33,25,30,23,26,35,28,26,27,28,24,39,29,46,34,47,43,52,39,28,26
45,47,52,43,30,42,45,30,23,31,28,28,25,30,24,28,37,32,27,27,31,25,39,30,47,36,47,39,51,37,27,25
47,47,49,43,29,46,46,32,24,34,26,28,27,32,21,29,40,31,31,31,35,26,35,36,48,40,48,38,50,37,28,26
49,46,51,43,31,48,48,31,22,33,25,27,26,33,19,29,33,29,31,31,35,24,35,38,50,41,47,38,46,33,29,28
48,48,53,41,32,50,48,32,24,32,25,30,30,34,19,31,33,29,31,33,35,25,32,39,50,42,48,40,48,36,26,29
49,48,51,35,30,48,50,28,25,28,25,26,31,33,19,30,35,28,31,35,36,28,32,42,50,42,50,41,44,37,26,32
50,52,53,34,30,48,47,30,23,25,24,22,32,32,22,30,36,28,33,34,33,26,29,36,46,40,50,39,42,36,27,33
53,52,57,32,28,51,43,33,19,23,25,19,30,31,21,26,39,31,34,35,33,29,30,35,49,42,47,38,39,38,26,30
52,52,55,34,22,54,43,32,16,22,20,18,28,30,20,25,37,29,33,36,31,29,31,34,48,43,48,32,37,38,22,31
54,51,53,31,25,51,40,37,15,25,24,20,28,31,22,27,36,28,33,34,33,30,29,35,48,39,47,33,37,39,17,30
54,50,52,34,27,43,37,36,19,21,23,18,27,30,21,25,35,25,31,30,33,29,30,35,45,39,47,34,37,36,18,31
56,49,52,30,27,42,33,32,21,17,24,20,25,32,22,26,34,24,30,30,30,27,28,37,47,38,48,36,37,40,21,29
54,49,53,28,28,35,31,31,22,13,23,18,22,33,25,27,32,24,26,27,27,23,27,34,46,37,50,37,38,40,21,25
56,50,51,31,28,34,28,32,20,12,20,14,22,30,24,28,32,24,26,26,30,26,24,31,45,35,50,38,42,40,18,20
56,54,53,30,24,34,23,33,18,13,18,10,18,28,20,25,28,21,23,23,29,23,23,30,43,33,55,38,41,36,18,18
54,54,53,31,21,32,23,34,17,15,19,12,20,30,21,24,28,23,24,23,28,23,22,28,40,31,57,39,43,37,16,16
52,50,53,29,22,31,23,30,18,14,20,18,18,30,20,22,26,22,21,22,26,23,26,30,44,32,55,44,46,40,17,17
51,50,49,31,22,28,27,30,17,13,15,18,16,27,20,19,19,17,20,24,24,19,26,29,41,30,56,46,49,40,16,20
50,49,49,29,27,26,27,31,19,10,16,20,19,31,23,21,25,23,25,26,24,21,28,32,42,30,55,47,50,38,19,21
46,49,51,33,30,30,32,27,20,7,15,22,20,29,21,19,25,23,25,27,25,20,29,33,42,31,56,47,47,37,23,22
47,52,51,33,31,34,38,25,18,7,16,19,22,27,21,21,25,25,23,30,23,23,32,37,45,33,56,53,50,40,25,24
47,55,51,39,29,35,37,25,15,9,15,19,19,23,15,19,22,23,22,28,23,24,30,34,45,34,57,51,49,36,23,26
48,56,50,42,26,40,40,25,14,11,19,22,18,18,14,18,20,20,20,28,21,27,33,33,41,35,57,48,50,35,26,32
46,55,52,42,23,39,44,25,17,13,22,29,21,21,20,16,22,22,23,28,20,27,34,33,42,38,55,48,49,35,25,33
45,53,50,45,27,40,49,24,21,16,23,33,23,25,21,16,23,23,25,31,19,33,37,37,45,39,51,48,50,40,29,34
49,52,48,48,30,43,46,24,20,12,20,32,17,24,22,15,21,21,21,32,16,31,34,34,46,39,51,47,49,38,34,32
52,56,48,49,37,45,50,25,21,11,21,29,20,23,23,19,25,25,23,30,16,34,31,33,44,38,53,44,48,35,33,33
51,55,49,47,39,43,49,22,21,11,23,27,22,19,22,19,25,25,21,26,14,36,35,35,46,38,52,42,48,36,34,36
51,56,48,49,38,43,52,18,18,13,23,28,20,18,22,20,22,20,16,26,12,34,33,30,45,37,51,44,49,37,35,36
54,58,48,47,39,43,50,21,19,16,23,27,21,17,24,22,21,20,17,26,11,38,36,28,47,43,51,41,51,37,35,39
54,54,48,50,37,40,48,24,21,19,26,34,21,20,26,21,23,21,21,25,13,37,37,27,45,45,51,37,50,41,34,42
53,54,50,46,39,38,51,26,24,22,27,33,21,24,30,23,25,23,23,23,12,38,37,27,43,46,51,41,50,43,35,39
52,51,53,46,43,38,51,26,25,22,28,35,23,27,31,22,27,25,25,23,11,37,39,29,45,40,50,44,50,49,34,37
51,52,53,45,44,37,52,26,27,24,26,31,26,28,29,23,29,29,24,23,13,37,38,29,42,36,52,43,51,49,36,37
52,53,50,46,42,36,53,24,24,24,25,28,28,24,29,27,31,31,27,23,18,36,37,27,39,33,51,42,49,46,34,37
52,57,53,48,41,35,53,25,25,29,29,27,29,25,27,27,33,29,29,21,19,35,37,27,37,35,49,42,50,43,31,41
51,55,53,51,37,35,52,25,25,31,31,26,27,28,26,25,31,27,30,26,21,33,39,29,37,38,50,40,51,46,32,38
49,55,51,51,39,36,53,26,27,35,32,32,27,29,28,28,34,30,34,28,22,32,36,26,36,40,52,42,50,45,34,33
52,56,53,52,37,33,49,26,31,38,35,31,27,26,28,28,34,32,36,28,25,32,35,30,39,41,55,43,48,45,33,31
50,54,54,53,30,35,50,26,31,41,33,33,27,27,28,29,35,32,35,28,27,30,34,30,38,39,58,43,47,45,33,32
48,54,56,49,29,35,51,23,30,39,32,30,26,26,28,28,31,29,33,27,28,31,33,32,42,33,58,45,49,42,32,28
47,55,55,49,24,39,50,22,26,39,30,30,30,24,25,28,30,30,32,32,30,29,33,34,44,28,56,41,49,42,28,30
50,59,53,48,24,38,47,23,29,41,30,29,31,21,25,32,31,31,32,32,35,30,30,32,47,30,56,42,49,42,32,29
53,57,53,50,26,36,46,21,28,40,31,26,30,20,26,37,30,27,36,32,34,28,33,32,49,33,53,41,47,41,31,29
52,57,55,49,24,37,44,26,35,38,31,30,29,24,25,34,29,28,32,31,32,25,30,31,48,34,54,42,47,41,32,29
50,58,51,49,25,37,46,26,34,40,32,32,30,24,28,36,28,30,30,30,30,27,30,31,50,34,55,40,48,47,33,27
49,61,52,45,27,39,45,28,32,40,30,31,29,23,29,41,29,33,28,30,31,27,28,32,53,35,57,44,51,46,37,32
50,59,54,46,24,44,44,31,34,38,31,28,30,24,29,41,29,34,29,31,35,29,29,35,51,31,54,44,54,48,32,34
50,55,52,44,24,51,46,33,33,37,31,27,30,23,27,39,25,29,25,27,37,32,31,34,51,32,50,46,54,50,33,35
51,55,52,44,25,47,48,31,34,35,32,26,32,24,28,40,26,30,26,24,36,31,33,38,52,31,50,50,59,55,31,36
50,56,50,44,25,46,46,34,32,36,30,26,34,24,28,40,27,33,25,29,32,31,35,37,51,38,48,48,60,56,30,38
52,53,50,46,28,43,42,33,33,31,33,25,32,25,29,40,27,31,25,30,31,32,37,32,50,41,47,46,60,53,32,37
52,51,46,48,23,44,43,34,30,29,33,22,33,28,26,34,26,31,25,31,29,32,38,33,48,41,47,44,59,51,25,39
50,52,45,47,22,50,44,35,29,30,34,25,33,29,23,32,27,34,25,32,28,35,34,33,46,36,46,44,62,52,22,40
50,52,45,47,25,49,44,33,23,31,37,23,34,27,27,35,27,37,26,33,26,36,33,34,48,36,48,43,61,50,22,40
49,49,50,46,24,47,44,32,24,27,34,24,36,26,24,32,26,36,30,34,30,35,38,37,51,37,49,47,59,49,21,39
49,48,48,45,25,46,47,32,28,26,34,26,38,26,25,27,26,34,32,31,30,36,37,36,49,32,47,46,59,47,18,37
50,48,48,46,27,40,49,26,26,26,36,26,38,28,24,24,27,34,30,29,27,34,34,36,52,36,48,46,56,45,18,36
48,54,50,46,30,36,50,24,24,27,36,26,38,32,26,26,29,37,33,29,24,31,30,34,52,35,49,42,58,44,18,34
47,56,50,47,30,38,50,22,20,25,35,26,36,31,24,26,28,34,32,29,21,28,24,27,45,32,43,37,55,38,16,29
50,56,50,48,29,38,50,22,21,28,36,25,36,34,24,26,29,33,31,25,24,27,21,28,42,29,45,36,52,38,18,29
53,61,52,47,28,40,50,23,22,31,35,28,35,35,24,24,30,34,32,22,24,28,20,29,40,29,47,37,51,37,22,30
48,61,56,43,31,41,48,22,21,30,33,31,32,32,24,28,30,34,32,20,24,28,20,28,40,29,46,40,54,40,26,27
50,60,56,38,32,36,43,19,23,27,33,31,29,31,24,27,29,31,31,19,23,28,24,27,43,34,46,40,52,38,30,28
48,60,55,37,29,34,42,19,27,27,33,31,29,31,25,27,28,28,32,21,25,28,29,27,40,34,44,41,53,40,28,28
49,60,47,33,27,35,38,19,25,26,32,29,29,32,26,30,30,30,30,20,24,27,26,25,38,35,46,37,51,39,30,27
48,57,46,36,24,32,33,13,22,24,32,28,28,32,23,29,28,28,28,19,22,26,26,23,37,39,46,35,47,43,31,23
48,58,46,37,20,34,32,17,20,23,30,26,27,31,22,30,26,27,26,21,23,28,29,22,36,39,45,32,47,37,36,25
43,55,44,39,19,38,27,18,23,20,28,26,29,30,20,29,25,25,25,23,23,29,31,23,35,40,49,29,44,35,37,28
41,52,43,36,21,36,24,22,25,19,27,24,31,28,21,27,23,25,25,26,28,30,35,24,39,39,54,32,45,38,41,33
42,49,42,36,23,34,20,20,26,16,27,22,30,25,21,27,22,24,26,26,28,28,34,23,41,38,52,33,45,38,43,34
40,48,38,36,24,34,24,20,24,15,26,19,28,22,22,28,21,25,25,25,29,26,35,23,41,39,55,35,47,39,41,35
41,47,35,41,23,32,25,18,23,15,23,15,28,22,22,26,20,24,24,24,31,25,37,22,40,41,56,31,45,35,41,33
42,48,38,44,25,34,30,22,23,15,23,17,31,25,23,25,19,24,22,26,33,24,36,26,38,38,57,31,47,37,38,32
41,47,37,46,23,33,31,21,18,13,22,14,29,26,23,23,19,21,19,23,30,21,31,25,40,37,59,29,50,35,39,31
43,46,38,49,29,33,31,24,19,14,24,13,25,26,20,20,17,19,20,24,30,23,32,26,37,36,53,27,49,33,39,34
44,48,38,48,29,36,33,24,21,13,22,11,27,23,20,19,17,19,22,26,32,22,39,30,39,32,54,27,51,31,36,39
44,48,39,44,35,36,31,21,26,15,22,16,29,23,24,22,20,20,23,27,31,23,36,27,34,31,55,27,52,31,33,37
50,46,39,41,33,32,31,20,26,17,24,14,27,20,22,19,18,20,24,28,32,24,39,30,31,30,51,30,53,34,31,38
52,47,37,43,31,35,29,19,25,20,23,15,27,21,22,17,18,21,24,25,32,29,39,30,32,36,52,26,52,30,33,33
54,50,38,43,28,41,33,16,24,22,22,14,28,19,23,17,21,22,28,24,36,30,40,28,32,34,52,26,53,29,28,30
52,48,40,42,26,41,30,20,26,21,22,20,32,22,24,20,24,22,28,24,34,32,38,27,34,32,50,24,55,30,27,28
55,50,37,41,28,39,27,21,28,21,25,24,34,22,24,22,24,22,30,25,30,29,33,31,34,32,48,21,55,29,24,31
54,51,34,39,26,39,26,21,26,23,26,23,32,21,25,23,26,25,33,23,31,31,31,29,33,36,47,23,56,28,25,34
54,52,36,40,29,42,28,24,31,23,27,27,32,22,23,25,28,28,34,23,32,32,37,28,30,35,47,22,54,25,27,37
51,51,38,40,28,42,28,24,29,23,25,26,33,23,24,25,28,30,32,22,31,31,37,30,35,32,49,21,54,31,27,39
51,49,37,38,29,41,28,26,29,23,25,28,35,25,30,31,31,35,37,23,35,35,34,29,35,36,50,22,52,30,30,36
51,51,35,39,25,36,28,29,28,24,23,23,32,24,29,29,29,34,34,20,34,34,35,30,38,39,54,26,52,32,33,39
49,52,36,43,27,36,29,33,24,23,22,31,31,28,31,32,32,36,36,18,34,33,31,28,43,40,55,24,52,30,33,38
49,54,35,45,29,34,31,35,27,24,24,31,29,30,31,36,35,41,37,22,33,30,31,31,43,38,53,27,53,35,32,42
44,53,34,46,33,28,30,35,25,24,24,30,27,31,29,36,32,39,33,24,29,31,28,32,43,37,50,24,53,33,31,43
46,53,33,48,34,27,30,31,27,23,24,28,27,31,31,33,29,37,33,25,29,31,29,32,43,37,50,27,50,34,33,43
47,52,37,47,35,29,33,33,28,23,25,26,27,34,33,30,29,35,29,26,30,33,31,29,40,34,50,28,51,34,34,40
48,52,36,47,37,27,31,30,29,22,25,25,27,32,33,30,31,35,29,26,31,33,35,26,40,33,50,28,48,37,36,39
49,53,33,42,36,23,27,25,27,24,23,23,28,30,31,30,30,34,28,26,30,33,30,29,42,36,46,34,49,40,32,34
47,51,34,41,33,21,28,26,26,24,26,26,31,26,29,28,30,32,28,26,33,35,31,28,42,39,47,38,49,36,31,31
50,53,36,46,34,22,32,28,26,27,31,27,28,28,23,25,27,28,24,27,35,30,32,29,42,37,47,41,51,37,31,27
54,51,35,45,35,25,32,28,27,25,34,31,29,27,22,25,27,31,29,26,35,27,33,28,42,35,42,38,52,38,32,25
53,50,34,42,34,26,32,25,27,23,34,24,28,26,26,26,25,32,28,30,35,26,34,27,40,33,39,37,53,39,32,22
53,49,38,41,34,27,30,23,23,20,35,23,29,25,27,25,25,28,26,32,34,26,34,28,40,32,40,38,55,36,34,23
56,47,42,43,35,30,30,26,26,18,34,23,32,27,29,26,27,31,28,32,33,28,36,30,40,34,45,40,58,38,36,24
58,51,44,42,36,34,34,28,23,17,37,22,29,27,25,27,29,31,33,34,35,31,36,35,43,36,46,41,60,38,37,26
54,52,44,42,37,34,36,27,22,21,35,23,28,29,27,31,30,34,36,32,35,34,35,35,45,35,47,44,61,38,37,29
54,53,44,44,34,37,37,27,20,23,34,22,29,31,24,29,27,29,36,34,35,31,33,37,46,33,49,42,63,34,36,26
55,51,47,47,32,42,37,29,21,24,39,23,28,31,25,29,25,28,39,35,38,30,35,39,49,36,53,40,64,33,42,26
59,55,50,45,33,46,37,29,23,27,37,22,28,37,29,32,28,31,42,37,35,31,35,39,47,37,56,39,65,33,43,26
60,55,51,42,31,45,36,26,22,29,36,22,28,37,31,34,31,30,42,35,29,32,34,41,47,37,53,39,64,35,39,27
62,56,53,42,32,46,39,23,20,31,31,22,28,39,33,32,30,26,40,35,30,34,34,43,49,38,56,41,63,35,38,26
62,58,52,45,32,45,40,22,21,31,31,24,28,40,30,32,32,26,40,33,30,37,35,46,49,36,59,44,62,34,34,27
67,60,52,42,32,45,42,21,27,31,31,28,29,39,30,32,33,27,41,31,31,38,34,45,50,37,61,43,61,37,33,27
68,63,51,40,30,47,44,18,27,30,34,31,29,37,31,34,28,22,37,28,30,33,34,40,49,37,60,42,59,36,35,27
61,61,50,38,29,43,40,15,31,35,35,33,35,39,35,35,29,25,35,28,29,31,36,39,47,36,61,40,57,39,35,28
63,60,50,38,26,41,39,15,30,34,35,34,33,35,34,31,27,23,33,27,32,29,38,43,48,38,60,41,56,39,34,30
63,58,51,38,26,40,40,17,33,33,36,37,33,35,39,35,29,29,30,27,28,32,37,47,45,37,56,41,55,41,32,30
62,62,52,34,28,39,42,14,32,31,34,34,33,34,38,34,30,29,28,26,24,32,36,42,43,37,54,40,52,40,28,32
61,60,51,34,26,37,43,11,31,29,33,37,29,33,35,33,29,29,26,25,24,29,33,41,43,37,48,36,50,38,30,32
58,60,49,37,24,39,41,11,30,25,31,38,28,29,32,28,27,29,25,25,27,29,33,39,45,39,47,35,50,37,31,37
52,59,48,37,24,34,36,12,29,22,32,35,27,28,30,27,28,30,26,26,24,28,34,36,41,37,45,32,53,34,34,38
52,56,48,31,22,34,38,12,31,25,33,37,29,29,31,27,29,29,25,25,25,28,31,35,43,41,46,33,52,35,38,40
46,56,49,31,24,35,40,14,28,27,33,33,28,30,28,28,28,28,24,23,22,27,32,35,42,41,44,35,49,33,39,41
44,56,48,31,26,34,36,16,25,30,32,32,25,32,28,30,33,31,27,29,23,31,33,37,43,43,44,37,48,35,39,39
44,54,49,34,27,34,37,17,26,29,31,29,21,31,25,29,33,29,25,27,23,30,32,33,40,44,45,36,47,32,41,36
40,54,50,32,26,33,35,14,28,27,30,31,22,30,23,30,36,32,27,28,22,30,30,30,36,45,48,33,47,28,40,36
37,56,50,30,28,33,37,13,26,27,29,30,19,29,22,30,35,31,29,26,24,29,28,26,39,47,52,32,48,30,42,35
36,52,49,32,26,32,34,15,25,27,26,31,19,29,22,34,37,33,31,26,28,29,26,28,41,45,54,32,46,30,42,35
35,51,49,31,25,32,33,16,26,27,25,31,20,27,25,35,39,35,32,29,30,27,27,33,39,44,59,35,48,33,38,35
36,51,49,31,32,32,32,14,26,32,29,35,22,31,29,39,40,36,34,30,27,28,27,32,35,41,62,32,48,32,38,29
37,52,50,30,30,31,35,12,29,34,31,36,26,33,29,40,39,35,33,29,26,28,24,36,40,42,65,34,46,35,34,26
32,53,51,36,28,31,36,16,30,29,28,34,28,32,25,42,40,37,34,34,24,24,24,36,38,39,61,32,46,34,30,23
37,50,52,38,26,33,31,17,30,28,28,35,28,32,28,38,42,37,36,39,25,23,20,37,39,35,61,27,46,31,26,21
37,47,50,38,28,32,32,21,33,27,28,35,29,30,26,35,39,39,37,38,27,17,22,37,39,36,63,29,48,32,26,19
40,46,49,36,29,31,36,22,31,26,28,36,30,31,27,35,37,41,38,38,24,17,22,42,43,36,61,31,48,31,23,21
41,44,48,35,31,34,37,25,33,27,29,36,31,33,27,37,37,41,38,41,23,17,26,42,48,37,57,33,49,33,27,17
41,43,49,37,27,31,31,29,33,28,29,37,33,34,26,39,35,39,37,44,19,15,28,42,46,36,57,35,47,33,25,19
43,42,48,39,31,29,33,31,35,26,30,39,35,32,25,37,33,35,37,42,17,15,32,43,47,34,54,38,48,36,26,18
43,44,48,41,32,30,35,31,34,29,31,35,34,29,23,33,29,31,38,39,14,18,30,43,49,34,51,39,48,40,28,20
43,45,47,36,31,30,35,31,35,27,28,30,33,27,22,34,28,30,36,38,15,19,28,46,50,32,51,42,48,39,30,24
43,44,47,35,32,33,35,35,34,28,30,32,31,23,24,35,29,31,35,37,18,18,30,47,50,33,49,43,48,38,29,26
50,44,51,35,40,33,33,33,32,32,31,33,29,21,28,34,29,31,36,37,20,22,32,48,48,34,51,42,48,36,32,34
47,46,48,36,40,31,34,34,30,32,31,33,27,19,24,34,24,29,35,30,19,22,33,44,47,39,51,43,52,39,32,36
45,49,47,39,36,32,36,27,26,32,32,33,26,16,26,36,24,30,34,28,18,27,31,42,47,39,49,40,51,39,30,36
44,46,42,37,35,30,34,28,26,32,30,31,25,14,24,33,22,27,32,25,19,27,29,40,47,38,50,44,52,43,28,35
45,45,42,39,35,30,33,27,24,30,30,28,24,12,24,30,20,24,32,22,17,30,27,39,47,37,49,45,51,42,26,38
44,47,41,38,41,33,35,25,23,29,29,24,23,9,24,30,25,23,33,20,19,33,30,38,49,38,48,43,50,39,28,39
40,48,40,36,39,32,32,24,22,33,27,23,21,14,25,29,23,25,31,25,18,32,30,36,46,41,50,39,54,37,27,40
42,47,42,35,41,30,34,22,23,31,30,25,23,17,23,31,26,26,30,28,18,31,30,36,48,39,48,38,53,32,27,39
41,46,41,35,37,28,35,24,24,32,28,24,22,17,21,27,27,25,29,27,17,30,30,31,46,40,44,35,53,31,26,38
43,45,40,34,36,29,35,24,24,31,24,21,20,18,20,28,28,26,30,28,16,32,30,29,44,41,46,35,52,31,26,41
38,42,36,34,29,28,33,22,25,30,23,20,21,19,17,27,29,27,27,25,17,31,29,29,43,39,46,37,55,33,27,37
42,43,33,35,29,29,34,22,28,32,23,21,24,21,21,28,32,28,28,28,18,34,32,30,43,37,44,39,54,33,29,35
42,40,36,33,28,33,36,23,33,35,19,21,25,23,17,27,33,26,28,31,18,33,31,32,45,37,42,39,56,31,30,38
43,46,40,33,26,38,36,20,30,32,20,21,25,22,17,31,37,29,29,35,21,32,31,30,41,37,42,37,55,33,31,36
41,48,41,35,25,37,34,19,29,32,18,20,27,21,17,33,39,31,31,36,25,30,32,32,39,35,44,37,54,34,31,35
41,46,40,37,22,38,34,18,33,32,18,23,28,22,14,30,36,33,31,37,27,30,29,33,37,34,45,35,55,35,30,32
46,47,40,40,25,39,39,18,32,32,21,23,30,19,14,31,41,35,33,37,27,33,27,34,37,30,43,40,54,36,33,34
46,49,37,42,25,42,37,21,34,33,19,22,32,18,18,30,39,33,31,33,30,32,30,32,36,34,45,40,56,39,38,32
48,48,36,45,28,44,38,19,31,29,21,25,30,17,19,32,36,32,30,32,34,30,31,32,38,34,50,42,58,41,39,29
44,50,38,49,28,44,36,18,31,28,22,28,33,18,17,29,33,29,29,32,36,29,27,33,41,34,50,43,59,43,38,26
45,53,39,46,28,46,36,20,29,27,22,27,31,18,18,29,31,27,30,32,34,26,24,31,42,36,48,41,57,41,38,22
45,54,44,42,24,48,36,18,30,26,24,25,32,18,17,29,29,29,30,31,37,26,24,35,42,37,49,41,56,43,38,22
49,56,46,38,28,45,35,22,30,21,28,27,32,20,22,28,28,30,29,32,39,26,24,37,40,40,52,42,55,44,41,22
52,54,48,39,29,45,38,21,33,25,27,30,33,22,24,26,28,30,30,30,37,26,24,41,44,37,51,39,53,40,41,24
55,54,51,37,32,45,41,23,37,27,29,29,33,20,25,22,25,29,29,28,37,27,23,38,42,37,50,39,55,41,41,24
54,55,52,36,29,43,43,24,32,26,31,25,32,25,25,23,24,28,28,26,38,26,24,38,44,38,50,38,55,42,38,22
49,58,56,36,26,44,39,24,34,26,29,27,32,26,25,22,22,27,26,22,41,26,26,36,47,38,51,35,55,40,35,21
48,57,57,32,25,46,37,23,32,25,29,30,30,28,23,26,26,30,28,25,39,26,23,39,47,39,49,34,57,38,30,22
49,59,59,34,27,46,35,25,36,26,27,27,34,28,24,26,28,33,31,28,38,28,20,43,48,38,48,33,55,38,32,26
49,60,62,31,30,46,36,26,37,24,26,24,35,28,27,27,29,35,31,28,36,31,23,41,45,39,47,31,55,38,34,28
52,59,60,31,31,44,39,26,37,23,29,23,36,27,25,25,29,37,32,30,34,36,24,41,48,38,48,34,52,40,32,31
53,58,60,30,34,42,42,24,33,24,28,22,30,28,28,27,31,33,29,27,29,32,20,39,49,37,46,33,52,41,32,30
53,57,58,34,29,41,40,22,28,27,28,22,28,26,24,28,32,32,28,24,30,31,23,40,47,36,46,34,51,42,26,29
52,59,56,35,33,40,36,23,25,24,29,22,27,24,22,28,30,33,27,22,31,35,25,39,46,40,46,36,54,46,30,28
50,57,55,37,30,42,35,23,24,23,27,23,28,25,23,31,33,32,26,22,30,32,24,42,48,42,45,36,53,46,34,29
53,56,56,38,34,42,36,25,29,27,29,30,29,21,27,31,33,33,27,23,29,31,25,40,46,42,44,39,51,45,38,35
59,53,53,37,33,41,40,22,27,27,31,30,29,22,29,30,32,32,26,26,29,30,23,46,45,43,45,41,50,47,39,34
57,49,54,41,36,38,44,23,29,24,35,29,30,24,29,29,29,34,30,23,32,36,24,43,44,42,45,41,47,48,39,38
55,48,56,40,33,39,42,24,28,24,37,29,30,24,28,27,25,32,30,19,33,39,27,41,46,42,45,42,46,48,36,40
61,47,56,44,30,40,43,22,27,29,38,31,27,24,28,28,27,31,29,19,33,35,26,40,46,41,44,43,46,48,34,38
61,44,58,45,27,43,39,21,29,31,37,35,29,25,31,31,27,29,31,17,35,31,28,40,42,39,45,42,48,46,35,37
57,44,55,46,28,43,37,25,32,29,35,37,31,24,28,29,25,31,33,19,37,33,31,37,41,36,47,43,47,41,32,37
54,45,56,46,33,45,38,27,36,30,34,35,34,26,30,30,24,32,34,18,37,32,31,37,41,36,46,42,45,39,34,38
56,45,56,44,27,46,38,32,41,32,34,35,36,29,31,28,24,32,34,20,37,28,28,36,41,36,47,44,42,34,33,41
57,48,56,41,25,45,36,30,40,34,38,34,33,29,30,28,24,30,35,20,37,29,29,34,40,36,47,43,45,33,28,42
55,48,53,39,23,44,36,29,40,31,36,31,32,30,28,29,25,30,32,23,38,28,27,33,44,36,48,39,46,36,26,39
55,47,54,39,23,46,32,32,43,31,35,27,33,31,27,29,27,32,34,21,37,27,31,28,45,35,47,35,44,35,24,39
57,47,55,38,19,46,32,33,40,32,31,22,30,27,26,28,28,30,30,24,32,20,30,28,46,34,48,37,44,34,24,36
55,48,55,38,16,44,36,36,38,33,31,25,30,30,27,31,31,31,29,25,29,16,30,29,45,34,47,39,45,37,28,32
51,44,53,35,15,41,33,34,37,31,31,24,31,30,28,32,31,33,31,26,31,19,32,31,45,35,48,41,49,36,31,31
45,41,48,40,21,40,34,34,36,30,30,21,32,28,26,30,33,34,30,27,32,22,34,29,44,36,46,39,51,37,32,31
45,40,50,39,20,38,32,32,35,28,30,24,35,31,29,33,35,37,33,29,35,25,33,31,45,36,48,39,51,39,34,33
48,41,49,38,17,37,32,30,32,29,32,27,36,32,28,34,38,38,32,30,33,26,32,27,44,36,48,42,52,40,34,32
47,39,46,38,17,37,35,27,30,26,31,23,33,30,28,35,37,35,31,29,32,29,31,27,46,34,48,38,53,40,30,32
50,38,44,38,20,35,39,31,28,21,28,27,35,34,31,35,37,38,30,31,36,33,33,30,47,35,49,40,51,40,31,33
52,36,46,41,20,38,37,31,25,19,27,24,35,31,29,35,35,38,33,32,35,34,32,29,44,32,48,42,53,37,32,34
52,40,43,43,26,39,36,32,23,18,26,26,33,28,28,37,35,37,34,32,35,36,30,26,45,36,49,44,54,37,35,35
51,44,41,41,23,38,34,27,23,20,26,30,34,30,31,37,33,37,33,31,37,38,31,27,45,36,48,42,54,35,37,36
51,44,40,39,23,39,32,25,27,18,24,27,36,29,31,34,36,34,31,33,35,42,33,25,45,39,50,40,54,31,32,39
52,48,42,35,25,45,36,25,29,20,26,28,35,29,28,33,34,32,33,34,33,43,35,25,47,41,52,39,51,29,31,45
54,52,45,32,25,48,36,26,33,20,25,32,32,32,30,34,32,30,31,32,31,43,34,28,48,41,53,40,50,30,31,47
52,55,44,35,26,48,39,25,35,23,26,28,29,29,29,31,29,27,29,31,29,41,34,28,49,42,54,40,49,28,28,45
50,59,43,35,23,47,39,27,38,21,25,28,27,28,29,29,27,25,29,33,31,45,36,32,51,42,54,37,51,28,31,45
49,59,46,36,25,47,37,29,34,22,27,30,29,27,29,29,27,25,31,33,33,45,39,33,51,44,56,40,51,30,33,40
48,56,46,36,24,50,37,26,33,24,28,28,28,24,26,28,24,25,29,32,30,44,38,33,49,40,56,41,49,31,31,37
44,57,44,33,26,49,39,27,34,29,25,30,28,28,27,27,28,27,28,29,28,43,38,34,48,42,58,38,46,28,28,36
41,57,46,32,26,49,42,27,32,28,24,30,32,28,26,25,32,26,26,30,26,40,41,38,46,40,61,38,44,30,29,36
43,55,47,32,27,49,41,28,30,25,23,27,30,25,23,25,35,23,28,30,26,39,42,36,46,39,60,38,46,34,27,34
43,54,46,34,29,48,40,27,28,27,23,26,28,26,21,24,31,26,29,29,27,35,39,37,45,40,58,39,44,36,27,34
42,55,42,37,29,45,41,27,26,30,23,27,28,29,21,22,29,27,28,27,27,32,37,37,42,38,58,39,44,38,23,30
44,56,43,35,25,41,41,27,22,27,22,25,29,27,19,21,29,27,29,28,28,28,37,36,45,38,58,38,43,38,21,27
45,54,45,35,24,40,41,27,20,27,20,26,30,28,18,22,30,28,28,28,28,28,35,35,42,35,58,35,47,39,23,26
44,52,46,37,26,44,43,25,16,27,15,21,27,24,15,21,29,27,28,26,26,26,37,36,44,35,58,36,45,39,21,27
44,51,48,36,24,43,43,22,21,25,13,21,25,25,15,21,29,27,27,25,27,27,34,33,42,34,56,33,45,37,22,26
40,52,51,37,21,42,41,23,23,27,18,20,25,24,14,21,31,25,31,27,26,24,36,34,44,35,57,33,48,39,23,29
39,51,51,37,21,41,36,25,22,24,23,21,24,22,15,21,27,22,32,27,27,26,37,33,43,35,58,33,49,39,25,29
40,49,53,38,18,41,35,27,25,25,25,23,22,24,18,22,24,26,36,28,32,32,33,32,42,37,56,32,52,36,23,28
37,49,55,41,21,42,34,29,27,27,27,25,23,25,19,23,22,27,34,28,33,32,32,36,40,38,59,33,51,35,25,27
38,51,56,42,22,44,36,29,27,30,28,28,21,25,19,23,23,25,33,27,33,31,31,35,41,36,59,32,53,34,28,23
40,48,55,44,23,43,35,33,26,27,29,28,21,25,20,25,27,25,31,30,35,30,30,34,43,34,57,31,53,34,32,22
38,46,52,43,25,43,33,30,26,29,31,27,22,26,21,26,30,26,34,29,35,32,30,33,39,31,59,32,52,32,32,21
38,42,50,42,25,42,29,31,23,27,32,25,21,23,21,25,29,25,31,30,36,31,29,33,39,36,57,34,53,33,32,19
38,41,49,42,25,38,28,30,24,26,34,25,22,23,22,28,32,26,33,31,35,31,26,35,40,34,57,35,53,35,34,20
39,43,47,43,26,41,29,31,23,28,35,23,23,21,22,28,33,27,35,35,31,31,26,39,40,38,56,35,53,35,37,22
38,41,47,43,28,38,31,31,24,27,32,24,26,22,25,29,34,28,33,32,32,34,24,39,40,38,54,33,56,37,38,20
38,46,48,45,27,41,32,28,23,26,30,24,29,23,23,33,32,27,33,30,34,35,24,41,40,40,54,36,56,37,42,24
38,45,45,45,27,41,32,26,22,28,30,22,29,23,23,35,33,27,33,29,30,35,26,43,43,40,54,39,55,39,44,23
39,46,42,42,25,38,34,25,21,27,27,21,29,23,21,33,30,27,31,29,28,35,25,41,41,41,51,38,56,38,43,25
37,41,44,38,23,35,35,27,23,24,28,18,31,22,22,34,31,29,33,30,29,37,27,38,40,40,48,34,55,36,39,28
36,44,45,34,23,36,34,22,25,24,26,21,33,20,21,33,29,31,34,29,30,39,28,37,36,40,47,34,57,37,36,28
34,46,48,36,22,36,34,25,25,24,26,20,32,17,18,34,27,30,32,29,28,39,25,37,41,40,45,34,59,40,35,28
37,51,48,34,21,38,35,24,26,26,26,19,32,17,15,31,25,30,34,28,29,40,28,37,40,39,44,34,57,35,34,30
39,51,47,31,19,40,32,26,28,28,26,23,33,19,16,27,21,29,31,25,29,39,28,35,39,35,42,31,58,31,31,32
39,50,46,29,23,39,30,26,27,30,24,24,32,20,15,27,21,28,27,20,28,34,30,34,38,35,41,35,59,34,31,35
41,54,45,28,26,38,30,26,23,28,24,22,29,20,13,27,21,28,28,26,30,32,30,31,38,34,43,35,56,31,32,35
46,50,48,30,29,33,29,29,24,26,24,20,28,18,16,26,25,31,30,30,29,30,30,34,40,34,41,37,56,35,30,31
48,50,50,29,26,31,29,25,25,24,22,22,30,16,14,22,22,28,28,28,32,30,31,33,39,33,40,36,57,34,29,33
48,47,53,30,26,34,26,23,25,24,22,21,29,14,14,20,24,26,28,28,34,31,32,32,42,30,40,36,56,32,28,29
49,51,51,33,28,37,26,20,22,24,23,23,31,16,15,20,23,28,30,31,36,30,34,37,43,33,43,43,57,35,31,27
50,52,52,34,28,37,27,21,21,22,21,20,29,13,15,21,22,27,29,32,36,29,33,40,49,33,47,44,56,36,30,29
52,52,52,33,28,38,30,19,22,23,22,20,27,16,18,18,21,27,31,31,36,30,35,39,50,36,50,44,53,34,31,30
52,51,55,38,28,38,32,20,23,24,20,20,25,16,18,18,20,25,29,30,35,31,35,40,51,36,49,44,52,38,34,28
49,50,59,43,32,36,35,19,25,26,21,23,28,17,19,19,21,25,31,33,38,30,36,38,50,39,47,48,51,42,33,22
50,50,62,44,30,36,37,20,25,23,23,23,29,19,21,21,23,27,34,37,42,31,39,38,52,35,52,49,49,43,30,21
51,50,58,45,26,39,37,21,28,21,19,25,32,21,22,20,21,28,34,33,43,32,39,41,49,37,52,51,50,42,30,20
51,53,55,45,22,40,40,18,26,21,19,24,30,20,18,16,18,24,31,32,42,28,39,37,49,34,53,50,49,42,29,20
52,54,55,42,26,39,40,20,27,21,20,26,28,24,22,18,20,26,32,34,42,26,40,36,51,35,55,49,50,44,31,18
51,58,53,45,25,41,43,23,27,26,23,30,28,29,29,23,25,29,35,35,41,26,37,33,51,35,57,49,51,47,33,20
52,57,52,46,22,45,45,25,29,24,23,31,29,28,29,26,27,29,35,33,39,29,33,31,51,33,54,47,50,47,32,24
53,56,53,49,18,44,45,25,29,27,25,30,28,30,31,28,30,28,34,32,39,28,34,31,48,36,52,48,50,47,35,21
55,55,53,50,20,47,45,28,31,26,23,31,31,31,30,29,31,27,31,31,39,27,34,32,49,38,49,49,51,47,39,23
54,53,48,45,21,45,43,27,32,24,24,32,34,32,34,31,34,28,34,32,36,26,34,33,49,36,50,47,52,43,40,23
56,56,44,43,20,43,44,29,27,21,25,27,33,34,35,33,36,28,34,32,35,27,34,34,50,35,53,43,54,42,41,25
55,57,43,45,19,40,43,30,28,23,26,30,32,34,36,32,36,26,32,32,35,28,32,33,49,38,52,44,54,40,43,25
55,59,45,48,22,40,45,30,31,27,33,32,29,37,40,36,39,30,31,34,33,29,28,33,51,37,51,40,50,42,45,26
53,59,46,44,26,43,49,32,35,31,34,33,31,37,43,39,41,33,33,34,33,33,24,34,51,39,50,39,49,41,44,27
54,58,47,47,26,46,50,32,35,31,38,31,29,33,40,39,41,31,29,33,31,33,23,35,49,38,50,43,49,42,43,27
56,58,48,47,27,43,49,31,36,24,37,31,32,31,37,37,37,29,28,32,30,32,26,38,48,38,48,44,49,39,45,25
58,56,48,46,30,39,43,29,35,28,37,33,31,32,39,35,39,27,24,34,30,29,30,43,48,38,52,45,50,39,45,25
56,55,48,40,30,37,44,33,34,27,35,33,33,30,37,35,37,31,26,34,28,31,29,40,49,33,51,45,51,41,43,24
55,55,47,38,28,34,44,32,33,26,34,30,34,30,37,36,40,34,28,34,28,32,30,42,46,27,53,46,51,40,43,22
56,56,50,40,27,36,46,35,33,27,35,33,35,31,37,38,39,35,27,33,29,31,31,39,44,32,54,50,54,42,44,28
53,53,50,38,26,38,44,31,35,28,33,33,33,27,35,37,37,35,25,31,27,29,28,40,44,36,57,53,55,39,46,28
54,52,50,37,28,42,44,28,32,29,35,29,34,30,34,36,35,38,28,28,28,32,32,40,48,37,57,51,58,40,48,28
53,51,49,33,26,40,40,27,29,25,31,25,34,28,30,34,33,33,30,26,28,30,36,37,47,38,55,50,62,36,44,27
51,50,52,35,23,40,35,24,26,23,32,24,32,27,28,32,32,32,28,24,26,28,38,35,47,38,55,52,62,36,46,26
47,49,50,37,24,38,34,28,25,25,29,20,34,30,29,30,32,32,30,24,26,26,38,35,48,38,56,50,64,34,45,27
46,48,49,34,24,40,34,29,26,28,31,15,35,32,29,29,31,35,32,26,26,29,36,34,50,36,58,52,66,39,45,28
47,50,48,38,24,41,38,32,25,28,32,14,34,32,28,30,30,36,35,25,27,30,35,31,49,39,59,51,66,38,45,26
44,49,48,39,28,44,38,28,25,26,34,14,33,34,30,30,30,34,34,24,28,30,35,34,47,41,58,50,64,36,45,29
46,51,47,43,30,45,38,25,26,24,35,17,31,33,31,30,25,32,33,24,29,27,34,33,49,44,58,49,64,36,45,31
44,50,46,45,31,44,38,24,24,23,38,16,30,34,32,30,29,32,36,24,30,27,30,36,48,42,59,45,61,38,43,29
47,49,45,46,32,42,40,24,24,20,38,18,32,37,34,32,28,30,37,23,29,28,28,30,43,42,55,41,59,36,40,29
48,52,46,47,31,41,41,23,25,20,34,21,29,34,34,31,28,27,33,23,27,25,21,29,39,39,55,39,57,37,39,27
49,51,46,49,31,43,45,24,25,24,38,24,30,33,38,30,29,26,32,24,28,24,18,28,36,37,57,40,57,38,39,26
50,51,44,47,29,42,45,21,28,24,36,28,32,36,38,29,27,28,33,25,28,24,18,28,34,36,56,39,58,39,38,28
52,50,49,42,24,41,43,19,28,20,34,29,30,34,36,30,26,26,32,24,28,26,18,26,34,34,53,37,56,39,38,31
52,49,48,41,24,40,43,16,26,23,32,31,26,33,35,31,29,26,29,25,29,25,19,27,31,37,54,33,54,33,36,33
52,48,50,36,22,40,44,16,27,23,30,29,26,32,32,28,26,24,27,25,29,23,18,25,33,33,54,34,52,33,40,34
53,51,51,36,20,38,47,17,29,25,28,29,26,30,30,26,26,24,26,26,28,23,15,25,36,33,54,35,53,33,37,35
53,48,53,34,16,36,47,18,27,29,30,31,29,28,31,26,29,27,29,28,28,24,15,24,36,32,51,38,52,34,34,31
55,49,55,29,14,36,48,15,31,29,27,31,29,27,29,27,27,27,27,27,29,26,19,23,38,30,49,39,52,33,30,28
57,53,55,30,14,38,49,17,34,34,29,31,30,27,25,25,28,32,29,32,30,28,24,24,44,27,50,40,50,34,34,30
58,52,55,29,12,38,51,19,34,36,30,30,32,28,25,26,30,34,32,34,30,28,28,24,44,26,48,43,50,30,32,28
58,50,58,27,12,39,52,21,34,33,25,30,31,26,21,25,29,35,33,37,30,29,32,26,48,27,46,43,49,32,32,31
58,48,57,27,18,36,54,25,32,33,26,29,29,25,24,27,29,33,32,38,28,28,34,26,50,26,50,42,48,30,30,28
60,49,54,29,21,40,57,25,33,38,25,30,30,26,21,28,30,34,30,40,28,28,34,26,48,31,50,40,50,32,31,25
57,51,55,29,24,37,59,28,31,35,27,31,33,25,22,28,28,33,33,38,28,29,36,26,48,29,48,41,49,34,31,26
54,52,53,27,26,37,56,27,28,32,28,34,33,26,22,30,28,34,36,37,27,29,35,30,47,31,48,41,48,35,26,24
57,52,52,28,29,35,51,29,29,28,27,33,33,28,22,30,25,32,34,37,26,27,37,28,43,28,50,38,46,32,29,22
57,53,51,28,33,34,47,31,29,27,25,28,30,31,18,30,26,28,34,35,23,29,35,31,43,29,52,37,47,31,31,24
57,50,51,31,36,36,46,33,25,30,27,25,27,31,17,25,25,25,35,33,19,29,35,33,44,28,53,41,47,33,33,25
55,50,53,33,34,38,42,33,20,27,25,23,24,29,19,25,26,22,34,31,20,25,33,35,43,27,53,43,47,33,31,23
54,51,53,29,34,40,38,33,23,28,27,24,26,30,19,26,24,20,32,32,22,28,32,36,44,28,56,44,45,36,30,28
52,53,55,32,36,37,36,31,23,31,29,23,29,33,19,29,25,23,33,29,22,33,30,36,44,29,57,48,46,34,29,29
54,53,55,36,33,42,37,30,22,31,29,22,32,34,17,30,26,24,36,28,22,36,26,38,42,30,54,46,47,33,30,33
52,54,57,33,30,40,35,28,22,30,29,21,30,31,20,27,25,26,39,25,20,37,24,38,42,27,51,48,44,32,31,32
54,53,59,35,27,42,33,26,26,30,26,22,26,28,18,26,24,22,37,23,21,36,23,38,43,28,52,47,43,31,33,27
55,53,60,39,29,45,35,30,29,32,26,20,26,28,20,26,26,22,36,22,20,38,24,33,43,28,52,43,42,29,34,26
52,53,59,39,30,47,35,30,27,34,28,23,28,29,23,28,28,26,38,22,22,40,24,34,43,31,53,46,44,30,34,27
50,54,62,41,31,46,37,27,29,33,27,24,28,27,25,28,26,28,37,22,22,41,24,30,42,31,53,44,44,31,33,28
46,53,58,39,29,46,37,29,30,31,25,28,31,29,27,33,27,29,35,25,25,39,23,27,37,32,52,40,46,31,32,28
45,51,58,39,34,46,38,27,33,29,23,27,33,28,27,31,23,27,31,24,24,42,22,26,34,32,52,36,47,30,34,26
41,50,56,42,35,44,37,24,33,25,20,26,33,27,26,31,22,30,33,26,20,39,21,28,31,30,50,35,47,29,32,23
41,50,50,44,33,46,34,21,33,21,20,25,29,23,25,29,19,25,29,25,18,33,23,30,30,26,48,32,47,30,31,22
40,51,52,42,30,48,36,20,34,22,20,28,28,24,28,26,18,28,28,26,22,32,26,30,34,25,51,36,47,34,32,17
41,50,48,45,31,47,38,20,32,22,18,27,29,23,25,25,15,24,27,27,23,32,25,34,33,22,53,35,49,35,28,18
38,49,41,42,29,50,38,18,32,20,20,26,31,26,26,26,18,28,29,27,19,35,25,32,31,23,49,33,47,33,23,23
35,49,38,39,25,49,39,16,31,22,20,28,30,26,26,26,18,30,28,28,21,34,23,35,31,20,49,34,50,34,21,24
36,49,41,44,18,48,39,17,31,21,21,27,28,23,25,24,19,29,29,30,18,35,23,34,31,21,47,34,50,40,22,27
36,51,43,42,14,49,43,18,31,20,21,24,26,24,25,24,20,28,28,32,22,33,26,34,28,23,45,32,52,41,25,29
39,53,43,43,15,47,43,19,32,24,23,22,23,27,23,23,20,29,25,32,19,33,26,39,30,24,46,37,53,43,24,29
38,57,44,37,9,45,44,22,33,26,26,23,24,27,23,24,22,32,27,30,18,31,30,40,32,22,46,39,52,46,20,34
40,57,45,35,10,46,46,22,32,26,26,24,24,28,24,22,23,30,26,25,19,34,30,39,32,25,45,38,54,44,23,34
43,58,48,33,12,46,49,23,30,26,25,24,25,30,27,22,26,29,25,26,19,35,26,37,33,29,47,38,54,46,24,32
40,58,47,35,15,45,47,23,30,25,25,20,22,29,25,22,26,24,22,26,16,32,27,36,31,31,46,34,53,43,23,36
42,59,50,37,19,45,48,24,33,25,27,22,24,34,31,25,31,29,24,28,18,33,29,36,33,30,46,36,51,42,24,37
44,60,56,37,22,45,50,24,30,25,25,21,25,37,30,24,30,28,24,30,22,28,30,38,38,28,48,40,56,50,28,33
50,63,59,40,25,41,50,20,29,22,24,18,28,36,27,22,30,26,22,28,23,27,30,35,38,32,46,39,57,49,29,33
52,61,58,36,27,43,50,18,26,22,24,19,29,38,27,25,31,26,21,27,24,25,33,36,39,33,45,39,57,47,28,27
55,61,57,40,30,45,47,19,23,24,27,25,30,39,30,23,32,28,20,27,23,22,33,42,44,35,48,43,57,49,27,24
56,63,57,40,34,49,46,18,18,19,24,25,30,36,30,22,31,26,20,25,24,20,35,41,47,36,47,42,57,48,30,24
58,61,57,46,34,49,48,22,19,19,27,26,30,39,33,22,30,25,22,29,25,21,32,41,48,36,45,42,57,50,30,24
59,62,57,46,32,49,49,26,18,21,30,27,28,36,32,22,30,24,24,30,28,18,34,38,52,34,46,45,57,50,30,26
57,61,56,44,32,47,51,28,17,22,30,30,28,35,30,21,32,29,28,32,31,20,37,40,54,33,45,47,58,49,32,26
59,64,54,43,32,49,48,28,14,22,30,33,31,34,30,25,35,33,33,29,32,25,39,39,52,32,43,48,58,53,32,27
57,65,56,42,28,50,45,30,14,22,31,31,31,32,27,25,33,32,33,28,32,24,37,37,52,37,45,47,59,52,35,28
57,66,55,42,27,48,46,31,14,24,31,29,31,30,30,26,32,30,32,25,30,25,34,38,52,39,47,49,58,45,35,32
56,61,54,44,28,54,50,31,13,24,30,28,28,30,31,28,32,30,34,24,26,28,37,38,52,38,48,52,55,46,35,30
52,62,57,44,30,55,49,31,16,23,28,24,29,32,29,27,31,29,34,25,26,30,35,37,56,38,48,51,55,48,36,32
52,60,54,42,30,55,48,33,18,23,26,18,30,30,29,25,28,26,36,21,23,32,34,35,54,33,47,52,52,44,36,34
49,57,55,44,28,50,49,35,20,24,30,17,32,30,28,26,32,32,42,24,28,34,32,36,52,31,48,50,52,44,37,36
48,55,53,42,28,53,46,31,15,24,27,18,29,29,29,27,35,33,42,24,31,35,32,33,50,34,48,50,52,42,38,36
47,53,55,44,29,50,45,27,15,22,25,16,26,29,27,26,34,32,38,22,28,34,30,38,46,36,48,47,53,44,40,34
49,54,55,46,26,49,40,26,17,22,24,13,25,27,27,25,31,29,35,19,25,33,27,36,43,35,47,44,55,42,40,33
49,50,54,41,26,44,44,26,19,26,28,10,24,26,26,22,28,26,32,20,26,30,24,36,45,32,46,41,54,38,36,33
49,49,52,38,25,40,43,24,20,26,28,14,24,27,28,23,29,27,33,20,27,31,23,34,45,30,43,39,55,38,35,30
53,47,51,38,23,38,39,24,22,24,29,19,24,26,25,23,31,27,33,20,27,29,24,32,40,31,41,38,55,42,33,30
52,48,50,36,20,34,33,26,24,24,30,19,22,24,24,20,28,24,32,22,28,27,24,33,39,30,40,36,56,42,33,33
56,49,46,36,22,31,29,26,21,25,29,22,18,20,25,19,28,22,34,22,30,26,25,35,37,29,41,35,59,41,33,34
53,52,43,35,19,32,30,24,21,27,30,26,19,21,24,24,30,21,33,27,35,29,26,34,39,31,40,36,58,44,30,33
57,55,42,37,16,36,27,20,22,26,26,26,18,18,26,22,26,18,30,24,32,30,25,29,41,31,39,35,58,43,27,30
60,55,41,36,19,32,27,18,26,27,25,25,22,18,24,22,26,18,28,22,31,30,24,28,41,32,41,37,58,44,28,29
61,55,43,37,17,33,24,21,27,27,24,22,21,18,22,21,25,19,29,21,31,33,24,25,44,30,43,39,56,46,25,31
59,54,41,33,16,34,25,20,24,31,25,22,22,18,20,20,24,19,31,23,33,33,25,27,47,29,43,41,57,47,25,33
59,55,39,33,15,37,23,18,23,32,26,23,25,18,18,20,26,18,34,24,32,35,30,29,48,34,48,47,57,47,28,33
57,51,38,33,15,38,22,20,22,31,22,23,25,17,17,19,25,19,31,26,29,35,35,34,46,37,51,49,55,46,29,36
55,54,39,32,19,40,20,21,26,35,24,21,28,18,16,20,20,20,32,26,29,40,32,34,50,34,53,52,53,44,32,35
53,56,42,34,19,43,19,21,22,35,24,23,30,20,18,20,20,20,32,26,32,38,31,32,52,31,57,51,56,43,29,34
51,53,43,33,15,44,22,19,25,37,25,23,31,25,19,21,23,23,29,26,33,40,26,27,48,29,58,53,54,45,25,34
53,52,47,30,12,39,23,18,24,34,26,22,26,26,16,17,19,22,26,25,31,38,27,28,48,26,59,52,57,46,23,34
50,51,47,26,15,35,29,23,23,35,27,23,27,27,15,17,19,21,25,27,33,37,28,30,45,27,61,53,60,45,25,35
48,52,50,24,19,38,29,27,23,37,30,26,27,28,16,18,18,21,27,31,36,37,31,34,44,27,63,54,62,46,28,35
47,53,48,24,23,39,35,29,23,40,31,28,31,31,21,21,23,23,29,35,41,37,32,33,44,28,62,51,62,43,28,35
45,53,50,25,27,40,36,29,26,37,31,28,32,32,22,24,26,25,27,33,43,37,34,34,42,31,66,49,59,41,30,37
42,52,53,30,28,41,36,32,27,34,28,27,27,32,22,22,22,26,24,32,47,35,29,35,41,29,63,49,61,45,29,39
45,56,54,36,28,42,38,34,23,32,29,28,23,29,21,21,21,23,23,30,47,33,25,31,39,25,60,49,62,47,24,35
46,56,52,33,26,45,44,33,20,29,30,25,19,27,23,20,24,22,23,30,48,30,25,29,39,27,62,44,60,46,19,37
48,56,48,32,28,41,46,34,21,30,29,27,19,29,25,23,26,23,21,31,43,31,29,33,41,29,59,46,56,50,22,39
48,60,51,33,29,37,48,37,19,30,33,25,23,30,28,25,24,24,24,32,44,30,33,36,45,33,57,47,56,50,25,39
49,59,49,36,32,42,49,36,18,32,32,26,24,28,30,30,26,24,24,32,43,31,30,35,46,34,56,44,56,44,30,42
48,62,52,36,35,39,49,32,16,30,32,26,22,28,30,30,24,22,22,30,42,28,34,34,48,37,54,45,54,47,33,43
47,60,49,37,30,37,46,26,12,27,31,24,18,28,30,32,24,24,18,26,39,24,34,34,52,36,51,45,54,45,36,43
47,58,46,39,28,36,43,24,14,24,31,24,14,26,28,32,22,20,14,24,37,20,34,37,51,36,51,45,51,45,35,42
50,57,44,41,28,36,43,26,13,27,32,26,14,29,29,30,22,22,16,26,34,22,31,35,53,31,51,47,53,47,33,41
57,58,46,40,27,35,45,28,16,26,34,28,18,29,30,34,22,26,20,28,33,22,33,36,55,32,52,43,50,45,34,38
56,58,46,39,29,35,46,25,20,30,34,25,20,30,30,34,22,28,18,27,38,22,32,37,59,37,51,43,52,46,37,39
57,57,45,42,30,30,41,23,20,27,32,26,18,30,26,33,20,25,15,26,35,21,34,37,58,34,49,44,55,47,44,38
57,56,48,42,29,35,41,25,22,27,33,21,18,29,25,32,22,27,19,25,35,19,30,36,54,34,48,41,53,43,43,39
60,54,46,45,28,39,37,27,23,25,32,22,21,28,22,32,23,25,19,23,35,17,30,39,51,34,48,38,54,41,44,42
58,52,49,45,26,37,39,28,23,25,30,20,20,26,22,28,22,26,20,22,35,20,32,41,49,36,51,37,51,41,44,41
59,48,48,47,22,41,40,30,26,28,30,22,24,28,22,32,26,29,25,23,35,25,31,41,49,35,49,34,52,40,40,38
59,48,47,44,21,45,43,35,32,29,29,22,28,28,20,28,24,28,30,23,34,28,27,39,48,36,49,31,49,39,36,37
60,52,50,41,18,45,43,36,30,29,30,23,32,28,18,30,26,32,34,26,36,32,30,40,45,36,46,34,50,41,35,38
57,52,52,39,18,47,44,34,30,28,31,25,31,26,18,31,25,29,33,25,35,29,32,38,38,37,45,32,50,37,34,37
56,51,51,41,20,47,41,33,29,27,30,24,32,28,20,35,28,28,30,23,35,30,32,36,36,38,45,36,50,38,35,38
54,53,50,39,20,45,41,32,28,23,31,26,34,30,22,35,30,28,34,24,30,32,36,36,36,37,48,35,48,35,38,40
51,50,52,41,19,48,43,32,28,25,31,27,36,29,23,35,31,29,35,24,30,35,35,37,36,39,49,37,45,37,35,38
53,48,52,40,22,48,44,29,27,28,31,27,38,31,20,33,29,30,34,24,34,37,37,38,40,42,50,41,48,38,38,33
50,49,54,40,27,49,46,27,29,31,32,28,36,31,19,32,26,30,32,22,36,38,36,32,42,40,50,42,47,36,36,28
54,51,52,39,30,48,46,24,29,27,34,28,36,34,20,34,28,32,32,24,39,36,38,31,43,40,50,44,49,37,35,28
54,55,52,38,30,50,41,20,30,26,35,27,36,35,19,29,26,33,31,23,37,39,34,26,40,38,53,44,48,34,39,30
54,58,55,42,32,45,40,18,28,26,32,25,36,32,18,30,28,34,31,22,36,38,37,24,39,36,54,46,49,34,38,31
52,57,56,46,38,46,42,17,30,27,32,24,36,33,20,29,27,32,30,22,30,38,34,22,42,37,54,43,51,35,42,34
53,59,56,47,37,45,43,17,28,29,35,25,38,35,20,33,30,34,32,22,31,38,31,21,45,41,54,43,54,40,44,33
51,57,58,43,35,46,44,14,25,27,35,25,34,35,19,30,29,31,30,24,28,36,28,24,48,41,53,39,54,42,41,32
54,55,60,46,35,50,44,21,26,27,35,24,32,33,17,29,27,28,28,23,26,34,24,26,46,38,51,43,54,43,41,29
53,57,58,47,39,48,46,27,28,27,36,26,31,32,20,27,26,27,26,23,25,33,24,28,41,38,48,39,56,39,43,30
47,59,60,47,37,47,46,30,24,24,35,25,30,29,20,28,24,26,26,22,22,32,23,26,39,37,48,37,55,36,41,34
47,60,60,45,36,46,44,32,23,21,33,23,28,25,21,28,24,26,26,24,18,32,22,26,38,37,48,39,54,37,43,36
44,61,61,48,36,48,43,33,25,22,36,22,28,20,23,24,21,23,25,21,12,30,17,25,39,37,47,36,55,39,43,34
49,58,59,49,36,47,45,36,24,24,34,23,28,19,24,25,22,24,24,22,12,28,19,29,39,37,46,36,54,41,44,36
49,55,59,50,38,47,43,33,21,23,37,24,24,21,27,23,19,21,26,27,13,24,19,32,38,37,47,32,56,38,43,36
50,52,60,51,35,44,41,32,19,23,37,25,25,21,25,25,19,23,25,29,17,25,19,37,40,38,51,35,56,37,41,33
51,50,63,50,34,46,40,32,23,20,33,23,23,19,26,20,15,21,21,27,16,23,24,39,42,38,50,40,53,36,40,34
46,50,63,56,38,43,39,36,28,22,33,24,26,17,25,16,14,20,21,27,17,23,27,34,39,38,50,38,52,30,44,33
44,51,62,55,37,41,39,33,26,22,32,24,26,18,26,18,16,22,20,26,16,24,28,32,38,36,51,36,53,30,39,33
45,48,61,54,33,40,39,30,28,23,32,26,30,21,27,22,19,24,22,29,16,26,31,27,44,36,54,38,53,29,39,33
47,50,59,60,32,40,39,31,31,23,36,29,30,25,30,26,23,28,21,31,17,28,29,29,42,36,57,38,53,33,38,32
46,50,58,60,31,39,40,32,29,25,37,29,30,30,31,24,24,30,24,32,18,26,29,29,42,34,61,34,55,31,40,32
47,48,60,58,31,40,38,36,29,26,33,32,30,34,28,27,26,34,24,34,21,25,33,32,38,37,61,37,55,27,40,34
45,48,59,60,31,39,39,35,32,28,34,30,27,32,29,27,23,29,23,36,23,22,32,32,43,33,61,39,57,25,35,33
44,49,59,58,29,40,42,38,36,28,36,28,30,34,30,30,25,33,23,33,24,28,28,31,46,36,60,43,54,28,34,35
43,52,55,56,29,40,44,40,35,25,35,28,25,33,31,25,25,29,21,31,21,25,27,23,41,35,57,41,54,25,32,35
42,54,55,58,29,39,45,41,33,23,34,27,27,34,28,25,25,29,23,31,21,28,25,25,39,36,59,36,52,21,36,35
45,58,50,55,27,40,46,39,32,22,32,26,26,34,28,27,26,31,23,29,22,29,23,26,42,36,60,39,53,26,34,37
45,59,51,55,29,41,47,38,33,23,35,27,29,37,31,27,25,31,23,31,24,27,22,25,41,42,60,40,54,26,37,39
45,56,50,53,29,39,47,35,30,21,35,23,29,35,29,26,24,32,23,30,30,25,17,32,41,45,59,42,57,32,31,36
48,53,49,49,31,40,47,33,29,19,33,23,29,31,28,25,25,29,23,27,29,22,19,35,43,43,55,41,59,31,29,35
50,51,46,50,33,42,48,31,28,21,30,28,30,32,28,26,24,28,21,27,30,24,18,38,43,46,55,42,57,34,28,35
51,51,43,47,30,43,51,26,26,19,30,27,30,32,28,30,22,24,22,24,28,25,19,36,43,43,55,42,56,38,24,35
50,50,42,45,31,43,51,25,21,19,31,26,31,32,27,30,24,26,24,22,28,25,23,35,41,48,53,42,56,40,26,35
53,52,41,44,30,41,50,24,20,21,31,28,32,31,29,31,22,22,20,22,29,19,27,39,43,47,52,39,53,39,31,32
54,50,42,45,28,44,47,23,21,26,32,28,37,31,29,32,21,25,21,22,33,17,30,47,46,44,53,42,54,40,32,34
52,50,42,47,26,40,48,24,20,28,32,28,36,30,31,32,22,28,22,20,36,17,32,42,49,41,54,44,56,42,27,36
54,48,46,44,26,42,47,24,16,29,30,26,34,31,32,31,23,30,23,21,37,16,35,44,47,42,53,44,55,42,28,34
55,46,47,43,23,43,46,25,13,28,27,24,29,26,32,33,27,32,24,22,34,15,37,43,47,39,51,43,55,43,26,33
57,51,49,43,24,43,46,24,16,33,24,25,25,29,30,30,25,32,26,25,33,15,37,38,46,38,50,40,53,40,31,35
57,53,50,40,22,41,44,23,14,36,22,24,24,28,28,28,24,32,26,26,34,16,38,36,46,40,52,40,54,40,36,36
54,54,53,39,16,40,44,19,16,36,23,18,22,25,27,29,27,29,24,24,32,15,38,40,48,40,51,42,54,44,34,38
56,56,51,42,19,38,44,22,18,39,21,17,22,25,27,25,29,31,25,25,34,16,35,40,50,39,49,40,54,41,36,41
55,56,52,44,19,41,40,24,20,36,20,18,22,25,27,25,29,31,23,26,32,18,34,40,51,38,52,36,51,42,35,39
51,52,52,43,20,39,41,24,17,33,17,19,22,24,26,23,32,33,23,26,32,22,30,38,50,37,52,39,54,42,33,36
54,54,52,42,23,40,42,23,15,30,16,17,17,25,27,24,34,33,25,24,30,25,29,32,48,37,52,38,56,40,31,31
56,51,50,40,25,41,40,18,14,34,16,20,14,26,27,24,32,30,22,27,28,23,25,30,44,35,51,34,55,36,33,27
55,49,45,41,21,41,43,17,16,37,18,23,14,26,27,24,29,27,21,29,28,24,21,30,44,34,49,37,57,36,33,26
57,50,43,41,24,41,45,16,20,40,21,24,19,28,24,21,25,24,22,26,27,25,20,29,46,35,53,38,57,36,35,26
54,52,42,42,27,44,44,21,19,39,24,23,20,27,24,24,26,22,20,23,26,26,21,30,48,33,52,40,57,36,32,24
51,53,45,44,29,44,47,24,19,39,25,23,20,27,25,25,23,22,20,25,27,26,20,29,48,32,53,39,56,33,31,25
52,52,45,45,32,46,48,26,19,38,24,25,19,26,24,20,18,22,22,26,30,27,24,24,46,29,54,38,54,31,30,24
48,53,45,46,28,44,44,24,17,36,26,27,20,26,22,18,16,20,20,26,28,25,24,23,46,26,56,37,57,28,34,18
49,55,46,42,24,43,46,26,17,38,28,28,22,28,22,20,18,21,21,26,29,27,22,23,44,25,53,41,58,27,37,16
49,56,45,41,25,45,46,27,18,39,28,28,22,28,20,22,20,22,24,23,26,25,21,23,40,25,51,40,57,29,37,18
46,55,44,39,22,41,44,31,19,40,30,29,25,28,24,25,21,23,25,24,24,27,23,24,40,27,53,36,54,30,40,19
48,57,43,38,20,41,43,33,25,39,29,29,27,27,27,26,21,23,29,27,23,29,25,26,42,28,53,40,57,32,40,18
47,57,43,38,21,37,39,35,26,38,30,29,28,29,27,26,24,25,31,25,22,29,29,25,40,26,54,36,56,31,40,19
47,58,42,39,20,37,36,35,25,36,28,28,26,30,27,26,26,26,32,26,26,34,32,29,36,25,54,35,53,31,40,22
48,55,43,38,21,36,36,34,27,34,29,32,29,29,26,27,31,29,35,25,27,37,35,29,33,27,57,34,52,31,40,21
50,53,41,39,23,39,36,31,25,31,31,35,28,31,27,29,31,30,34,25,27,36,36,28,34,30,56,35,52,33,41,24
50,55,41,39,23,41,34,30,23,31,30,33,27,31,26,30,33,29,31,24,30,35,34,28,32,32,54,34,52,30,44,23
51,53,42,36,25,41,38,31,25,33,27,33,24,32,28,32,36,30,34,26,30,35,34,29,36,35,53,35,52,34,41,27
48,52,39,33,29,41,39,27,26,32,26,30,21,30,26,32,34,30,34,26,29,36,34,28,33,37,52,30,50,32,39,32
47,53,41,36,26,41,39,26,26,29,29,30,22,32,28,33,33,29,32,29,32,35,33,27,36,36,53,30,51,33,36,31
48,56,42,39,28,46,42,24,25,32,28,28,19,32,22,29,30,25,28,29,33,32,31,29,35,37,53,30,51,36,36,34
49,55,45,38,31,48,45,24,20,28,30,26,18,32,20,30,28,26,26,25,33,30,30,31,33,39,54,30,48,37,37,37
46,53,47,38,33,51,45,21,18,28,30,24,20,32,22,32,29,27,27,27,33,31,29,33,35,44,51,29,50,35,38,39
47,52,47,42,31,51,47,19,15,25,27,21,17,29,22,31,28,26,24,28,31,28,29,31,38,43,49,28,51,32,37,38
46,55,45,39,29,49,44,17,11,25,25,16,16,29,24,29,25,24,24,29,33,26,30,31,42,40,48,28,52,33,39,42
46,56,43,40,28,46,40,17,16,25,27,11,18,26,22,30,28,22,24,28,32,26,30,31,42,36,47,30,51,33,37,40
50,54,42,40,28,42,39,19,18,26,27,12,20,25,23,31,28,24,26,29,25,26,29,33,41,35,47,31,52,31,35,40
51,57,40,43,27,41,39,17,17,23,31,13,20,23,22,31,27,25,25,29,27,27,30,34,37,35,47,35,48,29,35,39
54,55,42,43,27,39,39,21,17,22,30,18,21,22,24,32,28,26,28,28,32,27,31,36,41,37,51,37,49,33,35,38
53,56,41,46,30,40,40,23,15,24,25,18,20,22,22,30,28,28,28,26,33,30,36,36,42,38,51,37,50,30,38,40
50,53,38,43,31,38,37,27,17,21,25,22,23,21,23,33,33,30,30,28,33,31,35,33,44,35,50,40,50,29,37,37
50,51,36,44,29,35,32,25,18,21,25,23,22,18,20,30,34,28,28,26,34,32,36,34,46,32,48,41,50,28,37,37
52,56,35,45,29,32,34,25,19,21,23,23,18,17,22,30,35,27,27,25,33,30,36,35,45,30,50,45,48,31,33,38
48,55,31,43,34,27,32,26,20,25,25,27,22,20,20,30,35,29,29,27,34,31,37,35,44,30,52,46,49,31,31,37
48,52,35,44,35,27,35,25,20,26,28,31,23,22,22,34,36,31,27,24,29,29,33,34,41,28,49,47,47,31,31,32
48,55,34,42,34,26,36,25,16,26,24,31,24,22,24,33,35,31,29,25,33,31,35,37,41,33,50,49,48,35,33,31
45,54,38,38,35,29,36,23,17,23,25,30,27,27,25,33,35,33,31,27,35,33,35,36,41,33,50,45,50,41,32,31
44,55,42,38,35,30,38,30,19,21,21,27,29,28,26,33,34,34,30,28,35,32,35,33,42,31,49,45,52,41,29,29
43,57,44,40,33,33,38,27,18,23,23,25,29,27,26,30,34,33,27,31,30,32,35,30,40,28,46,45,52,38,25,27
45,58,45,38,31,34,38,22,18,25,25,26,27,23,28,31,34,31,28,30,28,29,36,30,39,31,46,44,53,41,24,23
46,58,47,39,33,33,40,20,19,25,27,26,24,23,30,28,31,31,26,31,29,26,41,29,37,35,47,45,57,43,25,23
46,62,47,40,34,31,44,20,17,26,27,24,27,25,32,29,29,33,29,31,27,29,39,27,35,37,50,46,58,41,24,25
49,61,49,42,37,35,45,20,15,25,29,23,28,28,31,29,27,31,28,31,27,28,40,27,38,39,53,46,59,43,27,24
54,63,53,44,38,39,44,22,14,23,31,20,27,27,33,31,24,28,24,30,26,28,40,28,39,41,52,48,58,47,28,24
53,65,53,45,38,40,44,22,18,23,27,16,26,25,31,27,23,27,26,33,30,30,42,29,41,41,54,48,58,46,29,25
52,64,54,46,38,42,47,23,19,25,28,18,23,27,31,26,22,30,24,33,26,29,41,27,40,36,54,47,59,42,30,26
49,64,52,51,36,42,47,25,20,27,29,20,22,23,29,25,23,29,23,29,25,30,43,29,43,37,52,47,58,38,30,25
49,59,51,54,36,40,42,20,22,29,31,21,22,23,27,25,22,28,22,28,23,30,43,35,41,39,55,47,59,39,33,27
50,60,51,54,36,36,39,21,20,26,28,21,23,25,28,26,22,29,23,27,22,26,41,36,40,38,56,46,61,42,34,26
51,58,49,55,38,34,35,23,28,24,29,18,26,27,28,25,24,28,21,30,26,26,39,40,40,35,55,50,60,42,37,28
48,57,47,53,39,35,34,22,26,22,24,18,28,26,23,25,23,25,20,27,23,30,36,43,41,34,53,45,57,39,36,34
46,54,47,52,42,39,28,26,26,20,21,16,28,26,23,26,26,24,18,28,24,30,38,42,42,34,52,44,54,40,37,34
44,57,45,47,36,41,29,26,28,20,19,17,28,22,20,26,25,26,20,28,26,32,34,42,41,29,51,43,55,39,39,34
41,56,46,43,33,41,33,25,30,21,17,17,29,22,22,26,31,27,23,27,27,29,33,42,42,25,52,42,56,39,40,34
43,53,46,43,31,44,36,28,31,23,20,18,27,24,24,26,32,28,21,24,27,28,33,44,42,29,54,41,57,40,41,34
44,50,46,40,30,44,37,30,31,24,18,20,27,26,26,28,34,27,23,26,26,30,32,47,42,32,52,40,56,40,40,32
51,50,45,35,34,43,35,27,30,21,15,21,28,27,25,27,33,27,23,25,31,30,31,46,43,32,56,43,56,45,40,34
51,55,45,33,37,46,37,26,31,22,16,21,29,29,27,27,33,25,23,25,37,33,30,43,44,34,54,40,56,44,39,36
53,55,47,34,38,48,38,29,33,25,16,22,31,27,26,29,35,27,23,27,38,35,33,46,50,37,52,42,56,44,38,41
54,55,50,31,36,49,41,32,30,27,17,25,29,28,24,30,34,29,21,24,34,34,32,42,52,38,52,41,56,41,38,42
56,57,53,36,32,47,45,32,30,30,20,22,28,30,28,32,36,32,26,26,34,32,29,44,56,39,53,45,56,42,39,36
57,57,53,38,30,50,46,28,33,32,22,24,27,31,29,33,35,33,29,27,37,33,28,46,57,39,53,46,57,43,38,33
59,52,54,38,35,47,46,27,32,31,24,25,28,33,30,35,38,33,27,27,35,34,31,44,59,42,51,45,55,45,37,32
60,50,56,43,35,45,43,28,35,29,23,26,30,32,28,32,35,32,24,24,36,36,30,43,59,44,49,41,55,41,39,33
61,52,59,43,36,44,40,28,32,27,24,27,31,30,27,32,35,31,25,28,34,36,29,40,58,43,46,42,56,41,36,34
62,52,58,46,38,43,36,29,32,27,27,23,32,27,23,29,32,30,24,27,30,35,29,36,58,42,49,40,55,40,34,35
59,51,59,49,37,43,40,30,33,31,30,23,29,27,25,31,33,29,23,29,24,31,26,35,58,43,50,40,54,36,35,31
59,47,55,50,34,42,42,30,30,28,29,22,28,24,24,30,34,30,24,28,17,28,26,36,58,40,50,44,53,36,37,27
54,46,54,47,31,43,43,25,33,29,30,24,27,25,25,29,31,27,23,25,16,27,23,33,51,38,54,43,52,38,40,21
52,44,53,47,31,46,43,23,33,29,31,22,26,23,22,26,31,25,25,24,14,26,25,34,49,39,53,41,51,39,41,21
51,44,52,46,30,48,39,24,32,29,29,23,26,23,21,25,31,24,25,25,12,24,27,33,45,34,51,43,51,40,38,24
49,46,52,42,27,47,41,24,29,30,30,26,27,23,23,23,31,26,23,28,8,23,29,32,44,34,51,43,51,42,40,27
48,49,53,43,22,46,36,29,32,31,31,27,29,26,28,21,30,28,24,30,6,21,31,36,43,35,53,43,52,41,38,23
44,50,51,41,18,49,37,26,31,33,31,27,27,24,26,20,29,29,27,32,7,23,33,34,40,39,51,44,52,44,35,22
41,51,51,44,19,49,37,24,31,35,29,32,30,27,27,19,28,30,28,29,10,23,32,36,38,35,51,40,49,40,33,22
38,54,50,40,16,48,40,22,33,33,29,36,31,29,29,21,30,29,29,29,10,25,34,39,36,35,49,37,51,39,33,23
38,56,51,43,15,51,38,26,31,34,30,37,31,31,29,21,29,29,29,29,10,25,38,36,37,34,46,35,49,38,33,29
38,58,53,40,14,49,38,28,30,36,31,39,32,32,30,22,30,30,30,28,11,26,37,32,35,33,47,29,49,35,33,32
40,58,46,38,14,46,38,32,24,34,32,36,30,32,31,23,33,33,33,29,13,26,39,31,36,31,41,27,49,30,31,35
38,59,42,39,12,40,35,31,20,34,31,38,32,33,36,23,32,32,35,32,17,28,38,33,38,31,42,26,48,32,26,37
39,58,40,39,13,41,37,31,23,34,31,37,33,33,35,24,30,31,31,28,17,29,34,30,34,31,41,19,46,27,23,35
39,61,42,41,17,38,36,31,23,31,29,37,29,31,31,25,31,27,27,23,17,25,30,27,34,30,36,14,45,22,20,32
36,61,43,42,22,37,38,32,18,29,26,34,25,26,24,22,27,21,27,19,21,23,27,20,32,25,32,10,43,16,19,32
39,63,43,43,22,35,35,32,15,29,28,34,23,26,26,22,26,19,25,18,17,19,27,21,31,22,33,9,44,12,22,32
41,57,37,36,18,32,33,32,16,25,25,31,21,22,25,21,25,20,25,19,15,17,28,23,36,23,34,14,46,18,20,31
42,54,36,37,15,36,33,33,14,26,26,28,18,18,28,24,26,20,24,18,20,14,25,22,35,23,36,19,48,21,20,30
45,52,32,32,12,31,32,31,13,25,25,25,17,15,31,25,25,19,25,21,25,13,22,26,33,21,37,19,50,20,19,26
42,51,29,35,14,33,31,30,14,24,24,23,17,15,31,25,25,19,23,23,25,11,25,30,35,27,35,21,50,19,17,25
43,51,31,39,14,32,30,28,17,22,23,25,20,16,30,21,25,19,21,24,24,12,26,31,37,26,36,21,47,20,16,22
44,51,34,36,14,33,36,28,20,19,22,24,18,16,26,22,22,20,19,23,25,12,23,26,33,26,37,20,47,15,20,20
44,52,35,36,15,32,37,30,17,19,23,27,16,13,27,19,22,20,20,24,26,12,24,26,34,28,40,19,50,15,24,24
46,50,33,35,17,31,37,31,19,21,23,25,19,13,27,19,21,23,21,25,27,13,25,27,31,29,47,19,49,15,25,27
51,46,30,36,17,29,42,26,23,22,23,24,25,15,27,21,25,27,21,25,25,19,29,29,27,31,51,19,47,15,25,30
47,44,29,32,20,30,44,25,23,20,21,26,26,17,27,21,25,28,24,26,28,22,30,33,30,30,49,22,48,17,22,32
47,48,29,35,24,30,45,26,20,21,21,26,28,17,25,21,27,27,24,25,30,26,31,32,27,30,50,22,47,16,28,36
46,50,30,37,29,23,41,23,18,19,17,24,29,17,19,15,23,25,23,24,26,25,31,30,28,27,50,22,42,13,29,35
46,49,36,39,31,25,45,21,19,19,17,25,31,20,18,15,25,27,23,21,23,27,31,30,26,27,46,23,42,17,28,34
50,51,40,39,34,25,43,21,18,19,15,25,33,21,19,15,27,29,25,19,23,27,28,25,28,26,46,25,41,18,32,33
49,50,44,39,36,28,45,18,15,19,19,22,30,22,22,18,26,28,26,20,22,30,28,24,26,28,48,30,44,20,34,38
51,55,47,42,38,32,45,18,14,23,23,21,32,22,22,18,28,30,26,20,19,31,31,24,30,30,49,30,46,22,32,40
48,53,47,38,36,31,41,16,12,23,23,20,31,22,20,19,29,31,29,26,20,33,33,26,34,28,49,38,45,25,30,38
51,54,51,39,33,31,42,19,12,22,26,18,32,22,22,20,27,31,27,29,24,35,36,31,39,29,49,42,48,30,29,37
47,58,52,40,31,37,37,25,11,25,29,18,28,23,24,20,26,30,28,30,24,32,32,32,46,33,48,46,50,36,31,35
52,61,53,41,32,37,37,25,10,27,31,16,29,24,27,24,30,33,29,33,23,29,29,30,47,37,50,48,49,39,33,37
50,59,55,41,31,39,39,22,13,25,35,13,27,27,29,29,31,35,28,35,22,27,30,26,46,36,48,47,50,36,31,35
51,61,56,41,30,43,43,25,16,24,38,13,26,31,32,31,32,36,28,34,21,28,28,27,47,39,47,48,52,41,32,37
49,63,53,41,32,42,40,27,16,24,38,13,26,30,32,30,32,36,28,32,20,30,27,24,46,40,50,45,52,41,34,39
45,62,49,35,29,43,40,27,17,24,40,13,23,27,30,29,30,33,26,32,23,32,29,25,41,37,53,44,53,42,31,40
44,65,50,33,30,44,40,31,22,28,34,15,23,27,29,25,27,31,26,30,21,32,28,27,44,40,54,41,55,43,34,39
42,60,48,35,31,43,37,31,20,27,33,17,22,32,30,26,28,28,26,30,23,31,25,30,44,38,55,44,55,44,35,37
44,62,48,37,33,42,41,29,21,24,33,16,26,37,32,28,30,31,27,27,25,31,25,31,43,40,53,39,58,46,35,36
43,61,46,33,34,44,43,24,23,25,31,19,27,37,29,27,30,31,29,25,22,33,22,26,41,39,51,36,56,42,36,33
43,58,47,30,39,42,44,20,23,22,31,21,28,39,31,30,32,32,30,25,24,34,24,26,41,37,50,34,58,40,32,35
41,59,50,31,36,44,44,21,22,22,30,22,27,35,28,27,29,29,27,25,26,36,23,26,35,34,53,31,58,36,32,32
44,59,53,32,33,45,44,23,22,24,30,25,28,36,32,24,28,28,28,26,25,37,19,30,36,35,55,30,57,41,32,34
44,57,52,33,35,45,44,19,23,26,28,28,30,36,30,26,30,30,32,30,30,38,20,32,38,33,55,31,59,37,33,35
44,56,52,31,32,46,46,19,23,28,30,31,29,36,32,28,32,30,33,31,31,35,19,35,41,33,55,34,62,36,32,35
46,55,54,33,31,46,45,18,28,27,30,30,30,37,30,28,33,32,35,31,29,35,16,37,45,35,53,39,63,36,31,33
49,54,53,34,31,44,43,17,25,26,32,30,32,34,31,34,33,33,34,32,32,32,17,35,44,33,52,40,60,33,31,29
52,54,54,31,28,45,47,18,27,23,29,32,33,28,31,33,32,34,32,32,32,30,22,36,44,34,50,39,60,33,28,30
54,53,55,26,28,47,47,17,28,25,29,34,31,25,29,31,35,36,32,30,30,29,21,36,46,35,51,42,60,32,28,30
54,53,53,27,27,46,45,21,27,29,32,33,30,26,32,34,38,34,31,33,33,29,26,39,47,37,53,45,61,33,30,30
56,55,53,28,23,47,49,21,26,31,32,34,28,25,34,32,36,34,30,31,31,31,25,42,45,40,55,50,60,34,36,30
56,51,49,27,26,44,52,24,28,34,32,34,27,25,31,31,35,35,31,31,31,32,27,41,51,40,53,53,59,36,37,28
56,51,50,24,26,41,50,24,27,36,30,33,30,24,28,32,34,36,30,32,34,34,31,40,52,42,56,53,61,33,34,28
53,52,54,23,26,42,51,26,27,37,32,32,26,22,26,32,33,36,28,30,32,32,33,41,51,43,55,49,59,35,33,25
52,49,56,29,27,42,52,24,29,36,30,28,25,22,26,30,34,36,27,33,35,33,37,41,47,45,53,52,58,38,34,24
52,50,60,32,28,41,52,25,26,40,28,29,24,21,28,30,34,35,26,36,36,34,41,40,45,47,53,52,56,42,35,26
51,49,62,29,27,42,56,28,30,38,30,28,24,24,24,27,35,36,27,36,40,36,42,41,45,48,57,49,57,45,31,31
50,50,63,27,30,39,55,28,31,39,31,22,26,28,26,28,36,36,28,38,36,38,36,42,44,50,58,51,59,45,36,30
48,52,64,33,28,37,54,34,31,39,31,25,26,31,29,29,33,36,30,39,36,41,37,41,39,48,58,50,56,44,37,30
47,53,64,36,29,35,51,34,34,34,29,24,25,31,27,29,33,39,33,39,33,41,37,42,39,48,59,52,54,48,38,32
44,50,62,39,29,35,46,36,37,31,25,23,27,29,25,29,33,37,33,41,32,38,40,39,40,46,59,49,52,45,36,33
42,51,61,41,25,37,47,32,34,29,23,23,26,30,26,30,34,36,32,36,28,34,40,36,38,46,58,45,53,41,34,34
39,55,58,44,30,38,48,36,34,26,22,22,21,29,27,29,36,36,33,35,28,32,41,39,40,46,56,44,52,42,40,33
41,57,52,44,28,35,48,39,33,28,21,25,25,31,30,27,33,37,35,36,27,34,40,35,41,45,53,46,54,40,39,36
43,59,51,40,30,35,45,39,29,27,17,25,27,29,27,27,29,37,37,35,27,31,40,37,42,44,55,43,51,35,41,38
43,60,49,35,29,35,46,39,27,24,21,23,27,29,25,25,27,35,39,35,29,31,40,39,43,39,56,41,53,34,41,38
39,57,44,39,31,35,44,38,21,25,19,24,25,28,28,26,27,34,41,35,27,29,39,40,45,39,53,41,55,37,46,37
41,57,42,46,30,36,44,35,18,28,21,27,28,27,29,26,26,34,43,32,31,31,43,38,49,35,55,41,53,39,46,40
42,57,41,45,33,38,42,29,18,31,23,26,29,29,27,25,27,31,41,31,30,30,41,37,53,38,53,41,55,39,46,40
43,58,41,47,31,41,48,28,16,32,24,27,28,31,28,25,26,28,40,28,32,29,38,34,50,35,56,41,58,39,44,38
46,59,43,47,29,40,53,28,14,32,28,29,30,32,28,26,26,30,40,28,32,28,35,34,50,34,55,42,61,44,44,37
47,60,48,45,34,38,50,30,16,35,29,27,33,31,29,25,27,31,41,33,37,33,32,37,51,35,54,43,63,49,44,35
46,57,45,42,30,40,49,25,14,35,29,25,34,30,26,24,24,27,40,32,37,33,28,34,47,32,56,43,64,45,40,32
45,55,45,39,30,44,46,21,11,34,29,23,32,29,25,22,23,24,38,31,38,34,25,33,49,32,58,39,62,43,42,31
43,54,44,37,28,47,45,23,13,31,30,25,31,27,23,19,21,21,37,31,37,35,26,33,49,36,55,40,62,45,43,28
42,52,44,40,29,42,40,24,12,32,30,28,30,26,24,20,22,22,34,28,34,32,26,34,50,37,52,40,60,45,43,25
42,52,46,36,24,40,38,19,15,33,31,27,31,27,22,18,20,20,31,26,31,34,23,32,45,36,52,38,57,42,41,25
40,55,50,32,27,41,37,22,19,32,30,26,29,26,20,19,21,21,30,27,30,36,23,33,44,37,49,41,57,41,39,28
39,57,51,33,23,39,36,26,20,27,27,24,28,20,18,20,18,21,30,25,32,38,27,33,43,39,51,39,56,41,36,29
39,56,52,28,23,37,30,23,21,27,23,22,31,18,19,19,17,23,29,25,29,37,27,33,43,39,50,36,54,35,36,32
40,53,51,23,25,37,26,21,20,30,20,21,28,18,20,18,17,21,30,28,36,36,28,37,44,38,50,37,54,32,34,32
41,55,48,23,23,38,25,20,19,24,20,23,28,20,20,20,16,20,31,27,37,35,32,37,43,37,51,37,52,33,37,33
42,56,52,26,26,35,24,22,23,26,20,24,28,22,22,20,16,20,30,28,36,34,33,37,46,41,49,36,53,36,39,35
41,57,54,28,21,31,25,24,28,23,21,24,33,24,23,24,20,22,30,28,34,32,36,37,45,42,51,40,52,38,34,34
45,59,55,33,22,31,26,23,29,23,22,21,31,25,25,25,21,23,27,25,31,33,35,33,42,40,54,37,53,36,30,39
46,62,50,32,22,33,30,23,32,22,22,20,32,24,26,26,22,24,28,26,32,34,36,31,42,42,53,36,54,36,28,43
48,64,52,34,24,36,33,27,34,20,21,21,32,24,25,30,23,23,29,26,31,33,37,32,42,39,49,36,54,36,26,41
46,63,47,33,23,34,32,26,33,16,18,21,30,20,24,28,22,22,28,24,30,28,35,28,41,40,49,31,54,33,26,38
48,63,48,33,23,36,36,24,34,16,20,20,32,21,26,26,23,22,30,26,29,27,34,30,42,36,47,32,52,34,25,38
49,64,51,37,27,38,40,29,32,15,19,23,29,23,27,23,21,21,27,25,29,27,33,31,43,39,44,32,54,37,27,37
47,66,53,41,25,39,42,28,33,17,17,26,31,24,25,21,20,20,27,21,23,29,33,26,41,40,45,31,55,39,26,37
50,65,56,42,27,39,43,26,37,18,17,26,33,21,25,19,21,23,28,22,22,31,31,28,43,39,48,34,55,40,24,37
53,66,55,43,28,41,42,24,38,19,19,29,34,21,25,19,23,25,29,21,21,31,33,30,39,35,48,35,51,37,25,37
56,66,55,42,30,44,41,20,38,21,19,31,31,22,25,18,22,25,29,22,23,33,30,30,37,35,48,34,55,39,29,34
52,62,56,41,27,40,45,24,38,24,17,34,32,24,26,17,23,27,31,25,25,34,29,33,43,33,47,37,56,41,27,30
56,61,59,43,29,42,45,23,37,23,15,32,33,25,25,17,23,27,31,25,25,35,27,32,44,31,51,40,56,41,29,28
57,59,58,45,30,41,41,20,36,24,13,30,32,27,25,13,22,28,30,26,26,38,30,31,45,36,55,43,57,39,31,33
62,58,57,46,30,42,42,19,38,24,14,29,32,28,24,14,22,28,30,26,30,42,32,32,44,35,56,45,60,40,33,30
62,54,54,44,30,40,42,22,35,22,15,31,30,28,23,15,22,30,30,28,32,42,32,34,42,35,60,44,63,38,37,31
58,53,47,39,27,40,40,19,33,25,18,30,31,25,21,17,23,29,33,29,37,43,35,34,43,35,62,46,62,40,33,31
58,53,44,38,31,37,40,19,33,20,22,28,30,24,22,18,24,31,33,30,39,43,31,37,44,38,58,48,58,38,35,33
55,51,43,40,30,37,39,20,31,20,23,27,30,28,21,20,24,28,31,27,39,38,30,37,42,38,57,47,60,35,33,32
54,46,42,40,25,34,41,21,29,16,20,24,28,26,18,20,22,26,28,24,36,38,30,34,44,40,59,49,63,36,31,30
53,47,39,39,25,32,40,23,24,16,18,23,28,24,18,18,20,26,27,22,34,34,31,33,42,38,58,48,57,34,29,30
52,49,38,40,28,31,36,18,22,18,21,20,28,22,18,21,19,25,27,19,31,32,31,33,41,37,58,44,54,31,33,28
51,46,37,42,26,32,38,16,23,20,24,25,29,26,22,24,22,27,30,22,35,33,32,35,42,34,60,42,52,31,30,30
52,46,35,42,25,33,41,17,22,20,27,27,30,25,23,25,22,28,30,24,34,30,30,36,40,34,60,39,53,31,32,29
51,47,37,40,24,36,40,21,20,22,26,26,28,27,29,24,22,28,28,22,30,24,28,36,40,34,60,42,52,32,33,28
51,49,39,37,24,37,38,18,18,22,22,24,26,26,28,24,22,26,24,23,29,21,28,35,41,36,61,43,50,35,33,28
51,52,42,40,24,37,39,18,19,24,24,21,25,29,31,27,25,29,23,24,27,19,29,38,41,32,58,42,50,36,34,26
51,51,44,41,22,39,35,22,19,23,21,23,25,29,29,27,24,27,19,20,23,17,31,37,40,31,57,42,52,38,32,25
49,53,43,36,22,37,33,23,17,23,21,22,22,26,29,26,22,28,17,19,19,20,29,37,41,29,53,39,51,35,31,25
50,57,43,37,25,38,32,22,17,24,24,26,24,30,32,26,24,30,20,20,20,20,28,36,41,30,52,37,49,36,31,28
50,54,46,35,26,36,34,21,20,22,24,26,20,31,32,29,25,29,20,20,21,21,27,37,41,29,51,37,51,37,28,27
51,55,47,36,24,41,35,25,24,20,22,28,24,30,32,28,26,28,20,20,24,26,28,36,41,33,50,42,52,42,28,30
53,55,48,35,25,40,32,25,24,17,21,28,26,28,30,25,24,26,21,20,23,29,26,37,38,36,46,41,52,39,29,31
51,56,50,37,26,38,34,25,25,17,22,30,28,27,28,24,25,25,22,16,22,32,24,36,38,32,46,40,52,38,26,26
52,57,50,39,28,35,36,23,24,17,26,32,33,25,27,29,29,29,27,19,23,37,25,35,39,33,46,38,50,35,22,31
52,59,45,40,29,35,38,24,28,20,30,34,36,26,28,28,28,28,30,19,23,43,25,33,38,31,45,32,50,33,23,28
55,55,45,39,29,38,39,26,32,19,28,36,34,22,25,25,24,24,28,19,22,42,21,29,37,34,48,31,51,31,25,30
56,56,44,38,25,36,42,22,31,21,33,33,33,27,27,26,28,25,31,21,25,42,25,29,37,31,49,30,51,31,27,30
59,56,42,38,25,36,45,22,32,19,34,34,33,28,28,26,29,25,33,23,25,42,28,26,35,35,52,34,54,35,31,32
56,53,42,36,25,40,44,22,32,22,34,32,36,27,27,28,30,26,34,26,26,44,28,28,36,36,55,37,52,36,34,34
56,56,41,37,27,43,46,21,32,24,36,32,36,26,26,29,31,27,37,30,29,47,32,30,38,41,55,38,52,38,38,39
57,56,40,36,27,43,50,15,29,22,36,33,35,25,25,31,33,29,37,33,29,45,30,29,36,40,58,39,53,35,38,39
55,58,41,37,29,44,52,18,27,25,37,29,35,22,23,32,36,30,35,31,29,44,35,29,39,37,59,43,55,37,40,39
56,58,40,36,30,45,46,19,24,23,34,26,31,22,24,32,34,30,32,34,33,38,38,30,44,42,58,45,54,41,40,42
53,57,42,38,32,45,45,18,25,22,31,27,30,21,22,28,32,28,32,36,34,36,39,34,44,42,59,46,53,42,41,44
52,55,44,40,29,45,41,18,22,20,28,24,30,24,24,30,32,28,30,36,36,34,35,37,44,44,57,50,51,44,40,47
52,59,46,39,31,45,42,18,19,23,28,23,32,26,26,31,34,30,30,37,36,36,35,37,45,44,55,51,51,47,41,51
52,58,46,36,32,46,42,18,25,19,25,27,34,24,24,29,31,31,30,36,36,37,32,36,44,44,56,52,52,47,38,51
51,58,49,38,33,46,41,17,23,19,25,26,35,24,25,31,32,32,28,36,39,36,30,37,45,43,54,49,51,46,37,49
55,60,48,39,31,44,44,20,25,18,23,27,34,25,25,30,32,32,26,36,41,35,29,37,47,41,51,48,54,45,33,48
55,60,49,43,31,44,46,24,27,17,21,25,37,25,27,27,33,35,21,33,37,35,27,34,45,40,52,47,56,43,31,44
53,59,51,41,34,42,41,26,26,18,22,25,36,26,28,26,32,34,21,33,35,34,28,35,41,39,49,43,55,43,29,45
50,58,48,39,34,39,37,25,25,17,22,24,33,27,28,24,30,33,21,33,34,32,25,33,40,41,49,37,55,43,28,43
44,59,46,36,32,37,36,25,24,17,20,22,32,26,26,22,28,32,21,31,32,33,26,33,39,42,50,36,53,47,32,39
43,56,45,39,30,37,38,28,24,18,22,22,28,26,26,22,26,28,18,28,32,30,25,32,37,41,49,33,53,47,32,33
44,55,43,37,30,34,42,30,26,19,23,26,27,25,27,26,32,31,23,27,31,31,27,31,39,40,47,31,55,43,31,30
42,52,39,40,27,30,41,31,24,14,23,27,25,23,25,23,31,33,26,28,30,29,30,32,37,38,46,30,54,40,30,26
41,54,41,45,28,34,44,32,19,18,24,27,26,21,27,26,30,32,25,29,29,31,29,31,39,40,45,28,52,38,33,29
42,52,41,47,29,36,45,32,20,21,23,28,24,19,29,25,30,32,26,32,29,35,33,32,40,42,47,26,50,36,35,31
39,52,41,47,31,37,42,30,18,20,24,30,25,16,29,26,31,33,27,30,28,34,34,33,38,43,48,27,49,39,35,29
41,51,39,43,28,35,41,29,17,23,27,32,23,19,29,25,29,29,29,31,28,31,36,35,41,43,47,28,47,43,35,30
42,48,36,45,26,32,40,28,18,23,25,34,22,18,28,24,28,28,27,29,27,30,35,33,45,45,47,31,48,43,35,29
42,49,39,46,25,30,44,28,20,22,24,34,23,18,28,24,26,27,25,27,25,27,38,31,45,48,48,35,47,41,37,32
49,53,41,45,23,29,45,28,22,24,26,38,26,19,31,29,29,29,27,29,27,29,36,31,46,46,47,35,51,37,35,33
49,51,41,41,21,30,44,26,20,26,24,36,28,22,34,32,32,30,26,31,27,32,37,30,45,44,46,37,51,37,34,35
53,54,45,39,23,34,44,24,19,30,22,33,28,20,30,26,26,26,22,28,24,28,37,30,44,42,49,39,50,39,33,36
54,54,48,39,28,32,45,18,22,32,20,34,30,22,32,25,26,24,22,25,26,28,34,31,47,42,49,37,51,39,34,35
54,54,50,36,30,28,39,19,25,32,19,34,29,23,31,22,28,25,23,26,27,29,36,30,48,41,50,41,50,41,32,31
54,58,50,34,28,31,38,23,25,35,24,30,30,26,31,20,28,24,23,22,25,27,36,30,48,39,48,43,50,43,30,32
55,57,51,31,26,29,39,24,26,35,25,26,29,25,32,17,26,23,25,24,27,27,35,33,47,39,48,43,52,42,33,34
53,57,53,33,29,32,40,22,26,34,24,26,28,24,32,16,28,24,26,24,30,28,34,34,47,39,51,44,52,40,35,34
54,63,55,36,28,38,44,21,29,36,28,24,31,26,36,18,30,26,28,26,32,31,35,37,47,35,53,43,52,41,35,34
57,61,54,36,27,41,45,23,29,39,30,23,29,27,37,21,31,27,29,27,33,31,31,39,48,31,52,40,51,44,31,30
53,57,52,39,32,44,48,22,28,39,27,19,29,26,37,19,31,27,29,27,31,31,29,39,47,29,52,42,49,42,35,31
54,59,54,41,35,42,49,23,31,37,28,17,28,24,34,16,28,28,30,26,29,30,27,38,46,29,54,40,49,42,32,29
51,61,53,43,36,43,45,25,30,35,32,15,26,24,34,18,32,30,32,28,32,32,28,36,45,30,53,41,51,43,31,31
51,57,53,44,35,46,41,28,29,37,33,12,23,24,34,21,30,28,31,28,29,32,33,34,41,27,54,42,51,42,27,31
53,57,48,43,35,49,43,28,26,36,32,9,23,24,36,22,30,28,33,26,27,27,31,36,41,24,51,40,49,40,27,31
54,54,48,44,35,47,44,24,28,29,31,9,26,26,36,26,32,30,32,27,26,30,29,38,41,23,52,41,49,41,27,32
55,56,49,47,36,49,47,24,26,29,33,8,23,29,34,28,30,25,29,25,21,27,25,35,39,21,52,39,47,39,29,31
54,57,49,46,36,48,47,25,25,25,29,5,25,29,31,31,31,23,27,25,22,27,28,34,40,23,47,38,48,41,28,31
56,55,48,43,37,44,47,26,21,24,26,2,26,26,26,30,30,22,26,24,20,30,26,34,40,24,46,36,48,40,30,31
57,55,47,40,37,44,48,28,21,24,26,2,26,28,27,29,31,22,25,23,19,33,28,33,37,27,46,38,51,41,29,36
62,57,52,40,35,45,50,33,22,24,29,2,26,30,27,30,32,22,26,24,20,34,28,34,36,28,49,38,52,40,27,38
65,58,54,40,35,49,48,32,25,22,32,2,28,32,30,32,34,24,28,26,20,34,30,36,38,28,51,43,52,40,29,39
67,57,55,40,37,51,51,34,27,20,33,2,31,31,29,31,33,27,27,25,19,35,30,39,38,29,51,43,50,40,33,41
67,61,55,37,34,51,54,33,25,15,32,2,33,28,26,28,34,28,26,26,22,34,24,38,41,35,52,42,50,40,35,42
65,57,60,38,32,52,53,35,27,15,32,4,32,30,25,30,36,30,26,28,28,36,28,40,42,37,54,45,52,45,38,42
65,59,60,37,30,51,55,37,27,18,32,6,29,29,23,25,33,27,27,27,29,33,30,39,45,36,56,43,51,40,35,42
63,57,59,35,27,49,51,35,28,19,29,7,31,29,26,26,36,30,29,30,32,33,35,38,48,36,53,42,50,40,31,43
67,57,61,35,22,46,52,34,26,20,30,7,28,26,28,24,35,33,31,31,31,32,32,37,47,32,52,42,52,39,30,44
62,55,60,35,23,43,51,33,29,19,31,7,28,27,28,22,34,32,32,32,34,31,35,38,49,31,55,43,52,41,31,43
59,55,61,37,25,41,51,28,30,18,30,7,27,26,27,21,33,33,33,33,37,31,38,37,50,30,57,43,51,39,32,38
55,54,57,36,25,39,49,27,31,22,31,10,23,29,28,19,30,31,32,30,40,28,40,38,50,32,55,46,50,42,30,38
51,52,54,35,23,36,44,25,31,27,27,12,20,28,27,18,28,28,30,28,40,28,38,38,49,32,51,44,51,44,30,41
48,48,53,33,19,33,43,21,28,26,24,14,18,28,28,20,28,26,30,28,38,28,40,34,50,33,53,43,52,45,33,38
44,46,50,34,20,33,42,18,30,28,24,15,16,28,28,22,28,24,28,27,35,28,40,35,50,31,54,45,49,43,32,35
45,51,51,33,21,32,42,14,32,28,23,15,19,25,26,19,25,21,26,27,32,25,34,34,45,35,56,41,49,39,33,35
41,52,50,33,24,33,39,17,31,27,18,17,19,27,27,23,25,23,27,27,33,25,34,32,44,36,55,39,51,41,36,36
42,54,48,39,26,32,39,17,29,29,21,16,18,24,25,23,21,21,24,25,31,24,28,30,43,36,55,37,52,44,35,35
43,51,45,39,28,33,36,16,28,31,25,17,18,24,23,23,18,18,21,22,28,22,30,30,42,38,56,33,51,41,36,36
44,54,47,42,29,35,32,19,26,31,27,19,14,25,26,24,18,18,18,20,28,20,30,28,38,40,52,30,50,38,36,36
43,55,46,43,28,37,30,20,28,29,25,22,17,24,25,25,17,19,17,21,29,17,28,29,38,41,49,31,51,39,37,39
44,56,46,40,29,41,33,22,27,27,25,23,19,22,23,27,18,21,16,22,25,19,27,26,41,39,49,28,53,39,41,39
46,57,48,41,28,43,39,20,25,27,28,26,21,21,23,25,19,21,17,23,25,19,26,25,40,42,51,29,54,37,42,40
45,60,47,46,30,43,37,21,24,27,27,27,23,23,21,25,19,21,17,23,27,19,21,25,37,37,51,26,54,33,35,39
49,60,50,47,27,38,38,24,28,28,30,27,26,24,22,24,20,24,18,23,31,22,24,23,36,38,50,23,58,33,38,39
49,56,47,47,28,39,37,26,25,30,32,28,23,26,23,24,21,25,19,26,29,25,27,24,38,33,48,22,60,34,34,40
51,57,45,47,29,41,35,23,26,31,35,27,25,22,23,20,21,25,19,29,27,29,26,24,37,32,49,27,59,37,32,39
52,56,45,45,30,44,35,24,26,27,31,28,24,22,22,18,22,26,20,28,28,30,28,29,37,31,51,29,58,34,33,37
50,57,45,47,29,43,36,27,29,28,30,31,24,26,24,20,25,29,23,30,29,34,29,31,37,30,50,32,57,37,31,36
51,54,47,45,27,45,36,25,28,29,27,30,27,27,21,19,27,29,23,29,25,35,24,29,38,28,51,35,56,35,32,34
53,55,52,46,26,45,37,25,22,32,28,31,26,29,24,20,30,28,26,30,24,36,22,30,38,26,52,35,54,35,32,36
52,55,52,49,25,43,33,21,23,31,27,27,25,27,25,17,29,27,25,31,22,34,20,29,34,24,47,33,56,35,28,34
46,52,46,50,25,37,27,19,20,27,22,24,25,26,21,19,27,27,25,31,25,35,24,29,37,24,46,31,54,33,26,31
46,50,43,46,22,36,27,17,26,27,21,25,25,27,21,17,25,25,25,29,26,34,31,30,41,28,45,32,52,35,31,34
47,50,42,47,23,42,28,14,24,30,23,29,26,31,25,20,28,27,27,31,23,34,31,33,43,26,42,37,49,39,28,33
49,52,44,46,23,42,26,15,25,28,22,30,25,28,25,20,27,27,27,27,27,33,31,36,43,27,43,39,47,42,31,31
49,50,43,45,19,39,29,13,25,26,22,33,22,28,24,23,26,26,28,25,28,33,32,36,44,28,41,34,47,40,32,29
47,51,41,43,15,39,30,10,23,28,24,34,21,29,27,27,27,27,29,27,29,33,31,35,44,30,43,35,49,42,32,32
46,48,45,42,14,42,27,11,23,27,23,31,22,26,25,28,26,24,29,25,31,30,29,31,43,32,42,34,51,43,30,28
44,51,46,42,16,43,33,13,26,28,23,32,18,28,27,26,22,22,30,26,33,29,33,35,47,33,43,34,51,46,27,27
45,50,43,43,16,44,32,15,28,26,22,33,18,27,26,25,21,23,30,26,32,28,34,37,46,35,45,31,52,47,29,23
47,49,44,42,16,42,34,19,27,25,22,34,22,30,26,26,22,24,30,24,33,27,36,41,48,38,49,33,52,48,29,20
52,50,47,39,16,44,37,20,30,26,23,35,20,29,29,24,22,22,30,22,30,28,33,42,47,34,50,34,53,47,29,22
56,52,49,38,20,46,40,24,25,25,25,34,19,29,33,25,23,23,29,23,28,31,32,42,46,35,49,35,53,47,29,19
55,55,49,39,25,43,37,26,24,21,21,31,19,28,31,25,21,21,29,23,29,30,33,41,45,39,51,33,52,45,29,20
53,53,46,41,27,42,41,25,24,22,22,30,20,28,30,24,21,22,30,25,25,30,33,36,45,39,50,33,52,43,25,19
53,51,47,43,31,43,39,25,22,26,23,30,21,29,31,23,23,21,27,25,27,27,33,35,42,36,51,33,55,41,25,20
