Fp1,AF3,F7,F3,FC1,FC5,T7,C3,CP1,CP5,P7,P3,Pz,PO3,O1,Oz,O2,PO4,P4,P8,CP6,CP2,C4,T8,FC6,FC2,F4,F8,AF4,Fp2,Fz,Cz
1.3067404861708434,1.3225519438597688,1.3453192217975083,1.2612428884029077,1.2338278868277448,1.2335618636008,1.3044927018747763,1.2183468603275904,1.216339229058095,1.1612377879504416,1.1679590363791976,1.167566060173964,1.2007258482460619,1.1762345767609594,1.1907605469580358,1.1981289262307087,1.2149433899463793,1.2169959707666307,1.2069360349477993,1.212750856476482,1.2197754269801926,1.2072761578037232,1.2015426577937836,1.2152159006707124,1.2556315151334219,1.2199353022786674,1.2996466458356242,1.2487044110202783,1.3033614962956805,1.218502524564281,1.2166436670174128,1.211767562444748
1.30497915611685,1.3149639839825513,1.3110228533365977,1.2358094510666553,1.2116813858515707,1.2487698630004527,1.2641051289916236,1.2140949776985608,1.1636778042329456,1.2097010398198298,1.156202494317346,1.1822793611964655,1.145868447869416,1.160808704667679,1.1453631594891067,1.1477674205485988,1.1706877668828928,1.169015210789249,1.1897589292504696,1.1931344903042211,1.2351570737130593,1.216105611579668,1.256499676515228,1.2664917788727592,1.2818241429218737,1.2710211231410502,1.296183514489656,1.2755208167547987,1.272884605204487,1.2538363858643926,1.272298023304954,1.2506148110447355
1.2959916751297706,1.2859167070382664,1.293319700647687,1.2371317108311894,1.2085127209299928,1.269789805830248,1.2245182666429901,1.2051448499472706,1.1623336100011605,1.1851044094267529,1.1873111482509904,1.1918374258789282,1.1739709337288817,1.1913405571274136,1.169366310398906,1.1718839671853445,1.1768237734621694,1.1757303079273822,1.1836778357781177,1.18359233169285,1.1865421971810923,1.178068184720252,1.20249357920277,1.229361023905121,1.2682881172558038,1.2344670274559402,1.2814537732954228,1.2319421065004612,1.257649862513734,1.2413436310348998,1.2364050925661276,1.222923854229576
1.265363863038419,1.2596008945187651,1.2961695572772163,1.2773711744329705,1.18403099489936,1.2979241128474153,1.2495111637239569,1.1672781100495768,1.1616645854009469,1.1486420230761254,1.1539479421708552,1.1706754064132303,1.166930339572927,1.1731218425374685,1.1701924457123147,1.1785361647482795,1.181125851712978,1.1669659787085813,1.1797894700208273,1.176613140074153,1.177064448326458,1.1636983587805614,1.1818545451647406,1.1812544322970782,1.2514801305846153,1.2086634129776677,1.304153025592599,1.1990520675527587,1.2335540342943596,1.2283120457435202,1.1798337658315292,1.1637404050869269
1.281682268156063,1.3111164325569908,1.339020538854059,1.2953245988409179,1.159800468662163,1.2910863961475814,1.2353390657007504,1.1767267342386305,1.1774052569992695,1.160504309171115,1.1646550422350952,1.1690682426894194,1.1831830311160156,1.1997491217231724,1.2115160016532895,1.218689207606965,1.2145531196034678,1.1891151408177179,1.1763401071459103,1.1869703785278634,1.1856023818072676,1.171759396957782,1.1794081951943851,1.2146181491579595,1.2533817596760417,1.2310292591734338,1.3053058854489632,1.2546410908815946,1.278524306989448,1.2820946823686334,1.208368011217454,1.1713824047078882
1.2988534996039764,1.3463546655133856,1.332966872586733,1.2906210164585932,1.1956624056435659,1.2710669168187136,1.2794358811170483,1.2209571967230521,1.219190446823977,1.1915750066140423,1.1929116376114146,1.194153124310537,1.2046587658460568,1.2188779929372435,1.2437851371957231,1.2531377234480703,1.2334156249179393,1.2096083572771792,1.1861152254200888,1.1996722660875292,1.2019612745700587,1.2039499883953362,1.1994961851315917,1.2173859015719624,1.2712648369112773,1.2558918973023672,1.2936030011497193,1.2789784141257259,1.3325643992743037,1.3092372665211278,1.231024089360928,1.2084859803614012
1.3258703345548084,1.2851125443018876,1.3132586135259419,1.3020223731195635,1.1964969087951873,1.2464709055438639,1.2883293685891244,1.1898414241410915,1.2139395573057312,1.1694181628402947,1.1955358384368866,1.1972491923206319,1.2049281058726342,1.1914933901981217,1.2125951833170578,1.2106178703210195,1.2082139654526096,1.1831576607575358,1.1826295810183438,1.1892341915825797,1.18831148289362,1.1846746472907825,1.2051784373498693,1.2198553356848525,1.26723051617249,1.2555464890434347,1.278116418985515,1.2986966135728535,1.3454730952532994,1.287239425434779,1.2112747133472028,1.1896460937233257
1.3257265490974488,1.270409776173963,1.308031849618475,1.3175520894972823,1.2041343658215677,1.2511962049738583,1.263800349467943,1.1714404656599504,1.2235216725025782,1.1771655230260873,1.209878563751982,1.2063750325856788,1.2189555688280818,1.2200958301893354,1.2085256252532068,1.1963309146597327,1.2030706190365086,1.1920700509897395,1.1880502688445165,1.2153401428125818,1.2130312961261533,1.188962412662495,1.2344887294229112,1.265670928344659,1.2884043975772148,1.2162325668446068,1.2574673158866532,1.3110359740199986,1.2858058724301396,1.286436946222375,1.2128913666078367,1.191968449523809
1.2971460453443984,1.3005809007079725,1.2987237316046876,1.3051156917793425,1.2565313001053156,1.2667840749596806,1.3004482675236035,1.2410331229135703,1.2185092355669493,1.1869406287912616,1.1747593932348095,1.2083201909982721,1.2061473008387023,1.208916542369676,1.1995263646335614,1.1831175321641836,1.2075027552643207,1.20429061807667,1.1904004147357101,1.2274755187735753,1.2134207654210167,1.21928578911245,1.2497920478234112,1.2494947722337757,1.268946993011981,1.240271109899544,1.3055888916041083,1.27584568813457,1.3066634982820031,1.2450665492073636,1.2286833590936643,1.2112135477019186
1.2808082421150375,1.3089985041191923,1.307360332329567,1.244012254472916,1.2776858103438888,1.284611489910085,1.2882192655791485,1.2686024715300188,1.2444888286138118,1.1745662181384249,1.161539390212925,1.179155001587901,1.1993961236282242,1.193001810012525,1.1967997273433815,1.2094754106292995,1.2011459212295932,1.1882355722943243,1.180056802697696,1.191432860063421,1.1760419233080102,1.1869191141758975,1.2080679544645276,1.2569372514064139,1.2591176077998067,1.2500344784770532,1.335771736581329,1.26673619569594,1.3447877376281627,1.238408254116466,1.2425420852035112,1.221651819573458
1.2541583883625191,1.2713981176366365,1.2903015753466196,1.3173256446114472,1.224625760227233,1.2457063374415607,1.2785461484362566,1.205620575843011,1.200127978282108,1.1660768526440695,1.161350108013015,1.1632274099094153,1.1756586495700707,1.1638915674768806,1.1652178704277276,1.1798261211022139,1.1678331403866795,1.1766704916126782,1.1821659763372059,1.1732253493365747,1.1943522599448082,1.185075568623012,1.2283244510260174,1.2644809423220194,1.27764055109701,1.2336603810537343,1.2966763122578109,1.2495491143849389,1.304463643120009,1.2213209571830739,1.205594004982909,1.21262536319114
1.2428548636583927,1.2474150903752013,1.2987647882108933,1.311307050405345,1.1771175134694354,1.2516213064099329,1.3112008757625706,1.1908186066049853,1.188378681597993,1.1678313998053116,1.1784859790420086,1.1457129456983413,1.1760964503354439,1.1418115251229406,1.1467514906772733,1.1578143586382288,1.1644047207807329,1.171264703844216,1.1661573110985457,1.170745966272283,1.1719551692301364,1.1717934005448671,1.2061179390998622,1.2361144686487433,1.294139070022403,1.230183831746733,1.2898446254343052,1.250052098672762,1.2916266267859349,1.2193079033931278,1.2112757775166492,1.17929537934323
1.2109004041654237,1.2781775406321652,1.2767507181997866,1.2197147222636875,1.178338671404122,1.2335637032150324,1.2716767150812307,1.1950558590092595,1.1912935568296903,1.1451497666769255,1.1539781786348755,1.124655699941341,1.1599301207241655,1.1151311488788325,1.1423600801692932,1.1317481199081423,1.1539888552777127,1.1501437526833642,1.162324800634582,1.1779310075965725,1.1766654091884672,1.174516409461324,1.1891018155451443,1.2381052690379721,1.2855290005994047,1.1856170600858829,1.30911027601481,1.264179420944661,1.268813731933723,1.2660863159225488,1.1932693756003403,1.1746827642928344
1.228689800371998,1.2751424729505823,1.3114301339782681,1.2348010187862628,1.2151813247688426,1.254629420296693,1.2877316981073503,1.2004585844570639,1.2021271422664648,1.1450715249623038,1.1365050339267126,1.1391776253846235,1.1977920726886682,1.1204026054677518,1.1237509050279588,1.1474783952410132,1.1746264095402303,1.179983230148852,1.1725100909239037,1.1774918920387334,1.16557369813225,1.1929298293364394,1.1851654526570319,1.2440809430329267,1.2683295909457661,1.2016062468327273,1.3004441816043264,1.244071017764974,1.251249783951622,1.2559254344696962,1.1844248827835142,1.178968943180055
1.2738922787246463,1.3129883749300946,1.2989986959045685,1.2683415820862545,1.2354980165222444,1.2351493364681305,1.261043224867563,1.1927938422298048,1.18092261040951,1.167004123803734,1.1430799674160939,1.1445979259248356,1.1869134310348122,1.1345057686592896,1.1131083812392875,1.1568594616744872,1.1694591781342136,1.1762282541881643,1.1699547826984433,1.1839984964375898,1.1791917150467437,1.1915139799785641,1.2080904313460943,1.2265371547584045,1.278564362204118,1.2251852757358572,1.2729734472508205,1.2737693839377038,1.2975513623936241,1.2182309796474675,1.2299153258941715,1.183472454692428
1.297897864862852,1.3120018694555493,1.334253227689118,1.2965174141631204,1.2607398001518353,1.2313283544083318,1.2604529321416678,1.1771451392443286,1.2201488552630708,1.1920816572580386,1.1978114921762943,1.2497784318291756,1.2144189274557682,1.2111817266553622,1.202751702778546,1.2064297743323769,1.1911455355611684,1.173291554710894,1.1851944200097442,1.1891390817844185,1.1887353415159634,1.2122989486300482,1.1946558037671684,1.2607562274298778,1.2707036462558372,1.2258141779960454,1.2612301496979064,1.2700210085183812,1.272361777816722,1.2665210414079193,1.237208865843077,1.2213699549118855
1.3102345075605832,1.2921601143303094,1.3148589317871537,1.3050967900807526,1.2551086127431894,1.25074908693114,1.2403104113383514,1.1790284845942802,1.2368143660513924,1.183975928162605,1.1959489023896348,1.228001593245238,1.2363798803450423,1.213614505204193,1.2220503332876302,1.21384775826878,1.1922710150844114,1.1733066728385153,1.1868383760494892,1.176801324141221,1.2126566983308027,1.2495990439178815,1.205218943997091,1.2853110557253076,1.2961056588521325,1.226069258432004,1.283001568283127,1.2444975975124992,1.2461655437486188,1.2693165160778739,1.2255090858202244,1.2405993664713935
1.308154354807949,1.3072444966619303,1.2949431476827988,1.2565940124362063,1.2150601257961813,1.2689355585381639,1.2977645903580861,1.2173327127985907,1.2230093695280495,1.1633554611195749,1.1514595518928834,1.1624502617938064,1.2174945518673594,1.1765127491734817,1.19590664288688,1.1994037707023881,1.2198948287822484,1.2053655991064574,1.2040063933444718,1.172288427233246,1.2441777557552454,1.2469641507735019,1.215282721949316,1.2596978308321005,1.2838414851243143,1.2300052804630361,1.3076678942783901,1.3350211048024343,1.3137234312308572,1.2643070405017058,1.195642580066446,1.2152636701534913
1.2771685979783645,1.3139394467233687,1.3260621927013145,1.2901012125219617,1.2137652809156736,1.3098150744823196,1.3225346623378258,1.2430315682739363,1.1889488469422007,1.2095564665589105,1.1554236434356482,1.1949113811660417,1.1925405913153,1.188296123435093,1.176276790542911,1.1931733742680373,1.2045401835139202,1.1978505271643467,1.1853904665105839,1.1907306667034914,1.246479307151101,1.2324508770376863,1.233719745007891,1.230552934489006,1.269482163176429,1.2231634109715575,1.281260862271868,1.3376438390104224,1.366094778979876,1.2489431895025187,1.2099187968845884,1.2234606090687106
1.2631169845037276,1.311222307747136,1.3182254067008292,1.3050153752365867,1.230644129567156,1.2680630324469984,1.2878762557010435,1.229013329721532,1.1921479513874245,1.2119396484785094,1.1786615349457883,1.1870937911581714,1.1891225697134493,1.1862704263435677,1.1816778944971682,1.2180252873660016,1.1962465806026374,1.1803210842498857,1.1655925324522138,1.1753404968949617,1.1779912881824153,1.2320643914930465,1.2493476092341707,1.2301590745568924,1.310715961505478,1.2445642063537583,1.2483248749784315,1.2916248679794364,1.3017015568986747,1.2378836052598523,1.2633577509251592,1.2236171986043405
1.3017342983006068,1.3137101722289137,1.3361230981011,1.2537647800566092,1.2420816348711603,1.2697304466421633,1.2977371133895474,1.226077169050904,1.200513358991414,1.1973709646667332,1.195584442199194,1.1669280223867755,1.1776207681076667,1.1635431582174498,1.1630534509210715,1.1721400705407048,1.164926633473095,1.1506969793221298,1.1685200993116531,1.1546327941036147,1.1724320074138979,1.193500410619358,1.2337092673223045,1.2216927296555724,1.3107974645784177,1.270082981705174,1.3193624976131026,1.2803695449324655,1.2658520837722327,1.2360290440047812,1.2626335878449437,1.236199041186056
1.3162644212360803,1.3369391375579842,1.339889186556397,1.2342842163126617,1.2083065175442376,1.2943168513572838,1.247595256671755,1.2222411289642907,1.1987526196834752,1.1497263952794785,1.1960353075457069,1.1567587514007953,1.1875736113200495,1.1653037572650007,1.1625177712732977,1.1684270289470824,1.1505197226886263,1.1578023085369393,1.1763205983038874,1.1687401124471801,1.1956690905337473,1.16981325488411,1.2203829573353888,1.2276681152824631,1.2792075078694558,1.2833555199831788,1.318988896641701,1.2529805276096322,1.328537440883514,1.2004531343601264,1.2722498418900214,1.2336880600121471
1.3174591300955907,1.3080666971200843,1.3504325145540852,1.280263071083637,1.1677627730007643,1.2634706308982777,1.2456298270886472,1.2102859751384605,1.2541133980010941,1.1746755571980758,1.2080034274551608,1.2100005038291024,1.23051449403523,1.1941442904093762,1.2026204673429501,1.1973132942256466,1.1815032968892936,1.2125560062659024,1.2066934261742281,1.1960504812302923,1.2223510989773576,1.1971052013693566,1.2336067771630934,1.2676909299055856,1.281291905953012,1.255519663462593,1.2807852409266423,1.2413506373872536,1.3180785271681577,1.258452939015835,1.230330368054179,1.2412427803401276
1.2905360587324977,1.2887316942810283,1.3532491040117522,1.3121998860311603,1.2028976400774452,1.29120982720978,1.2485511525757502,1.196269020610041,1.2515626719861872,1.227320918310146,1.2056405557436698,1.2165902195482035,1.2608837014901353,1.2246505823179181,1.1995453322589222,1.2090627685516993,1.2055641203765277,1.2341517047622494,1.2498394559939203,1.2338674768282536,1.2271637194989569,1.2398015922249093,1.2408354466720612,1.2623483396875652,1.2883154829055918,1.229268408452243,1.3282801548406709,1.2754102904409526,1.3015863707284634,1.265226373424495,1.2294572733627878,1.2572016868407685
1.2861798766472299,1.2774687423686617,1.3239596775363898,1.3323576617682173,1.1811807403240062,1.3097099351524193,1.2399150672798203,1.1821075134261745,1.2294208634948052,1.1984299895027244,1.1830076595346894,1.1620817232877731,1.1997636399407765,1.1854327582758781,1.1813091270694902,1.2082969049448629,1.1966986037607965,1.1947244869185067,1.2092512349623816,1.181216579886144,1.1927666368352585,1.2193105191692653,1.204315620706383,1.2180375715847263,1.2534505726403675,1.1864949887169294,1.2782372788382783,1.2363264509097893,1.2768811574825405,1.2241558778594217,1.2067470004231622,1.1974773963299306
1.2799288335028143,1.3029646877750887,1.2751691893357904,1.252342367231235,1.1740153437280043,1.294947573408555,1.2539058896255004,1.1980475644793651,1.2375670573524418,1.1859490758914424,1.2180265514953463,1.1956688313073145,1.1993863107399163,1.2009531369135675,1.1975726716163095,1.1944789832934974,1.2033184222190476,1.211517777629573,1.2070145186320196,1.1900628819702772,1.2099600218173112,1.2259133291085187,1.2470223478691755,1.2044355789689183,1.2756907720488917,1.1960346107865953,1.270318127519776,1.2354157345492391,1.2370616845981899,1.2450368622314356,1.2087250157600615,1.1899222470419295
1.263793096053606,1.3534267400124893,1.3196817466837683,1.2809286998298541,1.1780345054595405,1.3244716971185553,1.2672069502458143,1.2350968318900621,1.2374797398713364,1.2012389798761336,1.2140070983346352,1.2247548072495862,1.2225579790644803,1.2295657645757911,1.2208360705726,1.228981012775324,1.2088722860636651,1.2261911268646806,1.2155059244606647,1.2357354284462807,1.2347896515190104,1.2458512001379396,1.256784271629863,1.2246631638446581,1.2949927691573673,1.2043521789438645,1.2782091699830598,1.2854262346612337,1.271063524177202,1.2517078648970144,1.2319581793364849,1.1904802903051441
1.294126001054939,1.330960391735923,1.319208008660327,1.3253826231847072,1.2098016326025305,1.2868125752718433,1.2853650991586438,1.2152511316696049,1.2627046953328815,1.2424757821838437,1.2026107251634852,1.2401179779660534,1.2135275773251686,1.2239984232023824,1.20480785754526,1.2070767114104606,1.1890777666512207,1.2037660930091163,1.2103894423514787,1.2252484176181524,1.2554626278116612,1.2125806795587715,1.2332354229536169,1.2508397009801588,1.299148412341555,1.205318729842936,1.269628113750143,1.310309032915498,1.298541567377379,1.3038289140829231,1.246980138171074,1.190669493401096
1.3142467936115974,1.2827111781318568,1.3346388932531275,1.3124457402660763,1.2265018541467034,1.2462435935986953,1.3011557473253696,1.2155055058463031,1.238232039159185,1.2679227268562043,1.201533431815553,1.2215577209307227,1.2209940528186796,1.2004797736273716,1.1951419915571706,1.2033631066718513,1.1890643017221545,1.2051809757010086,1.2051100404518935,1.218886078338789,1.224642340258743,1.198996076914454,1.2439556471107094,1.270503791285492,1.3139459999246357,1.278426955732268,1.2770914910972433,1.3214165880083026,1.289776116527678,1.3060422502365907,1.272003273966112,1.214935439594
1.3128046455250593,1.3021311152962391,1.3510709742346596,1.2816918097504442,1.266106135213063,1.2737227267864044,1.2996501746330096,1.2233694568060176,1.1977513355848806,1.2094251380363799,1.1767028978682021,1.2018910710636836,1.2153654790563724,1.1682244181853718,1.1813577601352023,1.195933499344946,1.1633767942869977,1.1809183106606609,1.1741429262851746,1.1936196432559787,1.1505469897439,1.1791222167136326,1.2126113620157146,1.2203425632588212,1.2827666174580643,1.304230160223472,1.3032893550017108,1.3413130441473766,1.2849166998139416,1.2697083432671203,1.331594202376306,1.2319117113929479
1.2954989405364827,1.3049939839637932,1.329424135204313,1.2563169284093838,1.2699228013010606,1.2705759435087747,1.2641311245189968,1.1945060544950372,1.1776023358389678,1.1659416213651785,1.1784236818129372,1.1951696539495809,1.1918234177089515,1.1794713285122638,1.1922648294644869,1.199969858363368,1.1716619436353397,1.1771237145189255,1.1666003902758315,1.1911680493212615,1.1771466495584004,1.193489428216523,1.2646422346137416,1.2335178528000772,1.258918907111352,1.2771907500716837,1.2988388314661496,1.2861423112665882,1.2739140970629055,1.238765343062943,1.2800272118166578,1.1980481170414374
1.2860694401665052,1.3036137432223176,1.3212452336306557,1.2472988029318635,1.2485357503864543,1.2552060349525058,1.276359614019849,1.1858866396602288,1.2108207046604786,1.1754208477199497,1.1955972407566782,1.1840460684620988,1.1829587994229442,1.1791364852658075,1.1916772148354864,1.1782729638044922,1.17432622209864,1.1542813628547555,1.1571320576294961,1.1702485946010583,1.1742431234382653,1.1916816137040465,1.2432105716410982,1.2235846232941128,1.2899454694313017,1.2635607655473573,1.2841010295132114,1.2824140159869484,1.2669178938960337,1.2612727154577774,1.2522126478037952,1.2093785682487708
1.2570670840081166,1.3010065753200217,1.3346463046238077,1.2607555292202466,1.2324328425807785,1.2825976489017052,1.2972507683380718,1.1992221403335597,1.241133755313875,1.185193714301569,1.2183524595039659,1.1703585612330114,1.1906106563861152,1.168188242460256,1.1672083865704228,1.1577874417125615,1.1726317606310093,1.1640603944353485,1.171927522137716,1.1839953513685937,1.2066955538339688,1.2105259006289992,1.249464269227974,1.2791190784421762,1.3174400374844608,1.2364055237853488,1.3053137620891069,1.26713135451584,1.319180725110574,1.2433619475641817,1.2438679614747814,1.2533118867569417
1.2533511409338605,1.2699613279884894,1.3217053835302979,1.2435355440738265,1.234082699548125,1.3029411817887246,1.2892050140119156,1.186318962245609,1.2155724140881192,1.195788963189879,1.2306183847696457,1.1801800409759187,1.1974350234135929,1.1986758045521901,1.188538196426713,1.2123443525689641,1.2147162385148709,1.2222684632943472,1.2282900801462076,1.253233738068005,1.3223587709612834,1.2229497661041078,1.2243814392063443,1.336098117916902,1.2821376334400412,1.1834909081539493,1.2993299833003278,1.2594732639375255,1.3169538836079357,1.2677605789195436,1.1987519045145947,1.2395223108191507
1.271891133637167,1.2612212778262752,1.2864875142633412,1.2382905645894355,1.2112551352529641,1.2833852262000642,1.2525653768955287,1.1535692160404867,1.187719550343878,1.1769997968700887,1.179009781255868,1.1763390310290531,1.1941014085282384,1.171880762946356,1.1665085497741385,1.212374777182585,1.1972399897953554,1.202493661640326,1.2195064474157153,1.1727398891431924,1.2534814058636687,1.2388140710813138,1.2054683761353764,1.2301078216959742,1.274106782841821,1.176763775214774,1.2835767660973294,1.2550110986627645,1.30712555474219,1.2911682560501883,1.1816660236173622,1.1813241350812238
1.2835677963445793,1.2772010206324327,1.2938620827270788,1.2348956654610366,1.202017807320741,1.2601046636756033,1.2135534944952482,1.1692008012606276,1.161657090643263,1.1562738451682242,1.174133141787785,1.1445869795176093,1.1591397880225345,1.162930736757403,1.1637146301961285,1.166039156820784,1.1578137315754764,1.162454313754573,1.190734899711124,1.1513520844467946,1.206846728883012,1.192173280321118,1.2338805280678653,1.2492128975099297,1.3081424563632225,1.2017043364127658,1.2713545378852178,1.2485035332030043,1.3165612898970787,1.276046373863584,1.2117301368620326,1.2107620048971615
1.3352387355157291,1.3006293996507674,1.3362320546172783,1.3014937494622787,1.2068459418854394,1.254692220834607,1.2537428902132715,1.2371520045068891,1.1609524851454966,1.1688492499338723,1.192688558247875,1.218380687472738,1.1409885455510538,1.1872285490016061,1.174224015444489,1.1635019106985962,1.1554176171083246,1.1567955170846635,1.1647734868137292,1.1518711125847376,1.20045578769634,1.1735942486533117,1.2353104394328815,1.2662605626053338,1.3325752507575381,1.2067260861430154,1.257913271453536,1.2795215991259326,1.2889170703834996,1.276608900912116,1.2303703389837841,1.2631231690550662
1.3599556410747569,1.2975661944556813,1.3058018016205528,1.3222965652580367,1.225459860340622,1.2451082977994106,1.2769924443817673,1.2388413195242898,1.2112171044543067,1.1861107394640298,1.2137143495850375,1.2375153459999964,1.1863223855095322,1.2138851743688654,1.215131376600009,1.1727692450796008,1.1625354603743443,1.185356079491852,1.1787334033938472,1.15935002106884,1.1853414395240074,1.2193437923847599,1.2412333533339914,1.2390804945954708,1.3839639407842517,1.2738618006030602,1.2691319421483493,1.2908520235627376,1.2685294152602469,1.30053843541179,1.2838912286457018,1.2361405165314754
1.2844022490385514,1.3027696502312063,1.2914998273714964,1.2500447727231412,1.2379654233780961,1.252924886168573,1.256247640468446,1.1798540101834118,1.2088354915080144,1.1717467144771798,1.1697895545869264,1.1634681413450607,1.1688691056185834,1.1597133605790226,1.1524297381859667,1.1138371657818764,1.116616092820364,1.134545442267042,1.1548457368948426,1.1335929890553025,1.1950624097752258,1.1980843203756564,1.2404819431210845,1.2250571318808,1.3285382430436294,1.2992672821850646,1.2663407986348134,1.2520828086347298,1.246692579356103,1.2543094378559105,1.2786836355915352,1.2446134418961845
1.2867612042844376,1.3031927341120966,1.2815699706494255,1.2451237741168322,1.213384727728759,1.2790295711966664,1.2963107686325923,1.1867925450978052,1.2062643395929336,1.173784559928158,1.1813623866346958,1.181901517543566,1.1816426395047874,1.1613664248715532,1.1322446865112061,1.1369839275890072,1.1375396271096796,1.1516433743853143,1.1754834928202214,1.1803574078736507,1.2338268972180988,1.1996935443263845,1.236576825959993,1.2598492927462726,1.3020314901076135,1.2478298265527934,1.2713296531229668,1.2582694947876212,1.2789458564862664,1.2335249527067078,1.2530547959814466,1.242931663746203
1.2931011277318727,1.3356532284811666,1.3177819977541885,1.2476986036642677,1.206314691064084,1.3075100893453173,1.3056488867439906,1.200096364071404,1.2108014985470201,1.2212325224677458,1.2259497248965412,1.2490832509310994,1.1936868558312428,1.1999250979663796,1.179083102266027,1.1802289223447078,1.176602032847807,1.17180287072955,1.1793645200258478,1.18386849220206,1.2015200221929643,1.2131297191838428,1.2272873880607011,1.259716175221748,1.2919667964881107,1.2186972497775628,1.2698983015489627,1.2238054224351058,1.2715036421942596,1.2412654138573196,1.2170904987816142,1.2272262019182731
1.2769301842085168,1.3059359447952532,1.2807078837545405,1.2774970908246144,1.214334008595473,1.249180837733285,1.2508452360462878,1.1900491235556887,1.2280118499918367,1.164262682027368,1.186530036505765,1.2451476309630019,1.2255720035027362,1.211013026397629,1.1941968290071578,1.1631616110146532,1.1779188062812316,1.1707033185235414,1.187900046968343,1.1586178062628536,1.2196625307721516,1.2413994757967255,1.244591234666296,1.278823563236276,1.2753808655759746,1.2000745799524815,1.2517120577335317,1.2129331219293822,1.3018644498599241,1.2372403264886187,1.1887347239870667,1.205108607703572
1.2646899427783027,1.3028203306629602,1.2709017548037203,1.2855781047284922,1.2305517462229523,1.2239361121662748,1.2477670440775073,1.1690263463083497,1.2007235884570768,1.140593522972261,1.152226020367129,1.1931611966280349,1.1815601608093629,1.1870926919646192,1.1736461076630553,1.1641664831425766,1.1750890317778977,1.1835710829717299,1.1954435828517678,1.1744179887362582,1.2421466921807638,1.2235318669925048,1.225019425869271,1.29108937232747,1.2623189440402791,1.2213241755640156,1.250636810631562,1.2657027875241649,1.3120410116881323,1.229489167251597,1.2003109708031583,1.1843770770222488
1.293937765779537,1.2741091204408321,1.3006944582787896,1.2568000511338955,1.2288222285078172,1.270588020833608,1.3048810920395588,1.2054483101125675,1.1793209039082546,1.1445113108958163,1.1514204006284152,1.1302701441356218,1.2081590850933064,1.1666829934579177,1.1869015108803507,1.1944019546671665,1.2007765924872382,1.2183226756172612,1.2122250601375466,1.1818960690308573,1.2698023284073718,1.2589849565733144,1.2057124363098704,1.2899443127170582,1.2555873437729523,1.2175532655920533,1.2837361771982976,1.2963133762103838,1.2623718175464418,1.2581784450022113,1.258637059475333,1.2135582155652545
1.3084013934952938,1.253349083462618,1.3050024786206895,1.24817222720799,1.207671843100173,1.2417764763606476,1.251046419811339,1.19478890634238,1.2153398768800465,1.1888018676301786,1.1910181950039564,1.1648510732256399,1.2250881271475245,1.188496627624133,1.1816612538494338,1.1909881462539413,1.1960074840921908,1.1988293836029098,1.2061856146787733,1.18111783109848,1.2496640957034122,1.246912757139223,1.2126642019296254,1.2879313826750176,1.2850252462576388,1.2332368348482265,1.3011792513814922,1.2856481066358423,1.2274129337292603,1.2608899687075736,1.2375953894046123,1.2221301597365328
1.2814188541621678,1.2975833235281122,1.2757960700615918,1.2062428468073076,1.2239559072875246,1.2446519076411002,1.2509284779575314,1.199893428325161,1.2033313931281502,1.2071242697866182,1.1531519269610115,1.2032961204570694,1.2022607306481072,1.1612020380389683,1.1855789695519858,1.1831671256353677,1.1946443835588574,1.1952783120169204,1.1904084449051369,1.1994505533685795,1.2086189404119838,1.2126293393426435,1.2153809900343167,1.2835123692929742,1.2741797300331275,1.2443521246149474,1.3111914420863802,1.2865676514657387,1.2382714383370284,1.2835041245615524,1.1932486362823806,1.2136321993706594
1.2787957394708915,1.3285679841370461,1.329148868083285,1.2601961494962535,1.2703144990596673,1.2698948805049664,1.2422492923407773,1.2133325827029093,1.2044730534247061,1.1764810345246999,1.1586771748322542,1.2089119689397971,1.2094685248732309,1.187458388215069,1.207342082197664,1.176463174310091,1.1957470653827058,1.1994858333028382,1.1856879651639656,1.1936847976734855,1.2197582646013727,1.2136672148519643,1.2334931526472381,1.2604223591412596,1.2912509563628591,1.270841290237793,1.2773813707275778,1.2424663043161432,1.2857010932517876,1.2581741427351971,1.2305076888201967,1.236155344096082
1.2683240594553482,1.3063384753996043,1.284540720782333,1.260748719944769,1.2528943774342702,1.2400938846153504,1.2409593932834104,1.2079614575296522,1.2262335414788266,1.1668838627710143,1.1945005419193113,1.217557799977869,1.187144932798159,1.2123469676256835,1.192398819720274,1.2116685686832604,1.207836225900726,1.2008399607457898,1.1808737625955046,1.1826110888522177,1.208158334184715,1.2071490867036911,1.2616843338157584,1.2361584523457423,1.3209161189038696,1.3001908627469079,1.2764864549729786,1.2035283207746494,1.2527443628067696,1.2384791874485375,1.2772641406758116,1.2568398989735656
1.275785236142861,1.2746826780299199,1.2858453385581412,1.255646066270807,1.2000513707998606,1.2375514778269125,1.234469924737305,1.1969597487722168,1.2231577289134452,1.1591740155313168,1.1839097576424178,1.1821668407131822,1.177610277410066,1.2051996760704031,1.1882505921232722,1.228807145032081,1.2135114474052668,1.2008169295132398,1.1767897718655176,1.1981041531684284,1.1874531068861027,1.1713429000298055,1.226463014269637,1.2357976849013335,1.3019322731007927,1.28074740944092,1.2843657889331928,1.2550799122888456,1.2519429018142487,1.2420213156307491,1.2275736490868916,1.2275780833807926
1.2690882163073627,1.2819907955584047,1.2951501882370997,1.258966842398543,1.2027406381823365,1.2652964058594218,1.230434115495537,1.243780063532237,1.2076633866361313,1.2140992837969349,1.1987221299519994,1.2132115278129494,1.2182543292781072,1.2076026448218469,1.2132747262447852,1.1938376114120781,1.1962392193779445,1.204838779339685,1.177521825881554,1.20974853541306,1.2081976953538958,1.206517184674638,1.174988968235015,1.2908496215259266,1.2604245657967987,1.208338723333487,1.2915241872716257,1.2746081447998119,1.266290078266826,1.259923501689765,1.191827316468346,1.2225619376179382
1.2607801429324657,1.3160100603007814,1.2849409562505916,1.2669955329247407,1.2446256970068206,1.2807649211760321,1.2702062817201185,1.2125811524029473,1.1722872654566014,1.1932040853564272,1.1818997151623123,1.172778868745806,1.1873579178209026,1.1615058623173795,1.1556254212541535,1.1482437817229845,1.1611517538316736,1.1607602526662717,1.1387071350345364,1.204397581585877,1.1546089906813757,1.1800273201257614,1.1689519633257688,1.3209746286142623,1.2979914595014752,1.195901809538891,1.298845470548982,1.2654379444793646,1.2444204046556553,1.2541615177767205,1.2749418240624995,1.2198146040219633
1.2827863611871644,1.3176584347936635,1.285808605838058,1.2390446976385032,1.2100313082883527,1.2687707551301541,1.3048782771266667,1.1931895490094067,1.1625082126072055,1.170255517684917,1.1510797663239762,1.152608751144675,1.1492215598564957,1.1213776301661007,1.1213548037373733,1.1405011399442277,1.1424387142872214,1.1345777655575184,1.1384132412804693,1.1634410382826161,1.1454507276504853,1.1795471903043353,1.1723161843596965,1.2399723476939644,1.242797222092328,1.2158200714034841,1.3129795288386248,1.2575443212316118,1.2587786914429708,1.2418441523035322,1.265780054964619,1.2412930840188041
1.3144992699209441,1.253931576695371,1.317138708519136,1.2698211909544677,1.2151156985254554,1.2420182943379914,1.2808715209198769,1.2141989788998326,1.1899212269356538,1.175351624024331,1.1679492989394467,1.188071988380923,1.1424863618394654,1.15039129248122,1.1335888881579281,1.1566100244214512,1.153329216679244,1.153786837729043,1.168957872245191,1.1619538398830804,1.17809052577947,1.1922887305652925,1.1662469040300507,1.1951020610801102,1.2839312549640083,1.2134386425366717,1.297251334684189,1.306557861854445,1.2770981003894593,1.2772921717920713,1.2123503397689703,1.2247504889190572
1.3332999214175438,1.2325013586812983,1.3111787429638042,1.2691348233434991,1.2135527943015307,1.2095318444247716,1.2413954207778237,1.2231084386224682,1.1957689778765324,1.1740456881626025,1.1936992355562972,1.19340451950578,1.1552280863005313,1.2181750356729297,1.1818703539840267,1.1731549374896018,1.1545491491407058,1.160754613516486,1.1564082764057728,1.160565164304091,1.1636841125300226,1.1831008313908826,1.1346796174903981,1.2118843925829188,1.291174708807754,1.1969594561878918,1.2786018997352928,1.3029569894588087,1.2625771065484745,1.2863415012115063,1.1881601658978427,1.1900442737851387
1.2922331985393947,1.2402899041059845,1.2658160612010012,1.279141110536749,1.2051228492678043,1.2372882501074252,1.233992270424698,1.1783463710523852,1.1732322252754497,1.1769281049011726,1.1935431407874175,1.1572036965635766,1.1610595967255317,1.1939477885801912,1.1916952122184292,1.155448039695139,1.1574214432728829,1.147744932205761,1.1550281742778803,1.1381524638996898,1.1463349868925918,1.1734515029513461,1.1628465140304514,1.179623114770234,1.2883180531864087,1.225785664322551,1.2820209282074317,1.2185545599221197,1.263141012433509,1.2337100254496605,1.1950916515660561,1.202750585253547
1.2480318527008374,1.2743296909651283,1.2783773686847275,1.3038514514509782,1.2171002316487145,1.2396077282506481,1.2286522732405947,1.2073184025799115,1.2067190681796858,1.1973541003791164,1.1866434554558147,1.1820145142201761,1.1886509433883423,1.2162035870907253,1.2067784933117405,1.1829975784505125,1.1977510856591003,1.1908807624877666,1.2318621151514615,1.208575212790352,1.2419230437200683,1.2142688878968277,1.2531048815440455,1.2132806803804683,1.2902269555027115,1.2558501248554683,1.334148587252778,1.2554548439778317,1.3172364972360986,1.2513095911779466,1.2320953644338315,1.246829025230973
1.2742876549237059,1.3065871724990112,1.2627100344447808,1.293541734100853,1.221607696389649,1.256192192763749,1.2749531779382532,1.2302833662777302,1.2037714324320845,1.22205635162066,1.1826680161269543,1.1813594983109892,1.1969300045811138,1.2094471370519506,1.209404205216775,1.2393323843250394,1.223273520146561,1.2266789826372648,1.225108678766299,1.207079098076055,1.2413244522445357,1.2048777233731074,1.2584327736515324,1.2377153800448666,1.2638512053250226,1.2333059505722612,1.3432803466615013,1.2668722542406812,1.305956360271206,1.2587845734441727,1.2273280467991319,1.2377069486391563
1.2724785143507302,1.3055197960050486,1.285772457400524,1.3069444526071232,1.2755207520604088,1.258901990251178,1.2842422098709745,1.221363592235074,1.2098339561906901,1.2157179196764856,1.18045041379398,1.1938674841497374,1.1861140208027812,1.196788527654068,1.1906894570265945,1.2174712102446112,1.1941344892755277,1.1942329508913525,1.203884764595826,1.1737740613184646,1.226924849455111,1.1837284525905274,1.2562011090684342,1.2292266338259465,1.2887077303850332,1.2004684926577582,1.300034972884514,1.2603893501565364,1.2873208855733116,1.2624983253096358,1.240151264742569,1.2261780772357826
1.2912272070419066,1.31737918778699,1.2795708304674112,1.2779241622685917,1.2665938933319576,1.2337059890707498,1.2701319989713145,1.1813679345574735,1.192809003704014,1.1860326230176361,1.1642526181697925,1.1941368557354177,1.187065650392966,1.1734365055435536,1.1643708272167788,1.1608250052536238,1.1551598281772733,1.1592139149312293,1.175313057850811,1.1637551179597367,1.1889916064920532,1.1729689546367936,1.2252485621074303,1.226328406567822,1.3111537802935798,1.2143361152437104,1.2842611318038086,1.2813282083493873,1.2761369162147234,1.2611357342000988,1.229659797203207,1.2183339587555897
1.3058270569843713,1.2983016147295818,1.3092081850561121,1.2579365130882691,1.2352295134167537,1.269452038021291,1.2811854682720465,1.2040796523362636,1.2134970006840948,1.1773595711418403,1.1679881939599845,1.1826124713749882,1.2065613148171102,1.173760885213205,1.167760278938302,1.1735169753734467,1.1722936773127588,1.1724801992876934,1.1685244309737943,1.1794209239473552,1.1858014219823396,1.167566364463723,1.2092578210939477,1.228104998592254,1.3283713062822653,1.2278148796496815,1.2610171580077039,1.2884568929536921,1.313980377971933,1.2660099176132447,1.1927414095911884,1.215314510362006
1.2547997712841519,1.2827162611027003,1.297062304000513,1.3064914365819784,1.2451290530434478,1.282070582737056,1.2553712606341476,1.2400858692996588,1.2131583249909506,1.221415788806182,1.1756282899883657,1.181931659264514,1.2138944746625075,1.1824235627374307,1.1883987389063428,1.1947803820245844,1.2003417460392207,1.195536258508896,1.1992725503863468,1.1877309412633172,1.2026959957459662,1.1833687727743023,1.20936906607695,1.220630835428316,1.2971544507265744,1.1991352057730418,1.2549965591982442,1.2830661733017295,1.3038826356588467,1.3145232607453576,1.1877858571532152,1.1992104065636637
1.25395113862535,1.2881174470565997,1.2837448628922836,1.2964366946140289,1.2298702636559273,1.268800277991905,1.2194661573907906,1.2108720950529759,1.212736604989581,1.2381275269549046,1.1698952139279761,1.167826857634934,1.1984689054029183,1.1767687640403,1.2008400423346055,1.2256575807045766,1.2149239531430953,1.2073690669268233,1.2091917231140612,1.1997656143788615,1.2485568121575272,1.2064254686608717,1.2393930911141133,1.2659673652818844,1.289060106335991,1.221797284855618,1.2588291767086481,1.2923211522545734,1.2691401683316055,1.3064298184362524,1.2225850088920507,1.213979114119323
1.2870829230460925,1.2723123136012056,1.291224838689709,1.2917106217476235,1.223335887907181,1.261793507562901,1.2465756162714403,1.189757408992294,1.2175939180984328,1.197357468449424,1.1899509221415565,1.1852167497519739,1.1710348520676452,1.1768648510991508,1.1914168990463605,1.1992709541106432,1.1995103485282848,1.1790944710939524,1.1713410286336061,1.2004639191313942,1.2461645980296447,1.1931829072974474,1.2732937099606128,1.2328844521015598,1.2795246273915526,1.2494882187826517,1.2755820871488244,1.2535912834110314,1.2777598208526102,1.2699424339025505,1.2447981199903637,1.1880190935322101
1.2855960795043344,1.2695217262948368,1.301971215364901,1.2579991310922456,1.2006897769008757,1.2492500972239353,1.3022582344560973,1.1905270520708224,1.1988782960241717,1.2335165728464812,1.2205429697319627,1.2265823229421318,1.1804923865256838,1.2083892292314415,1.2152304845975224,1.1910171115979158,1.1687607746772446,1.1586907651703848,1.1671763010902367,1.1884732737339714,1.1799440902790217,1.186635730999956,1.2824170934611216,1.2169443816234315,1.2855832666890032,1.231856205733398,1.2662802675397338,1.2815196348556617,1.2888836409985647,1.2838794716900108,1.216352892268551,1.1750055185988597
1.2929566446763847,1.2580552082672791,1.2968207735539228,1.2352401904078887,1.1922855965619608,1.239128292009946,1.284458700067494,1.1988330198717003,1.1672870377478466,1.2211979697681787,1.1848409219377172,1.210295074082638,1.1745535469990862,1.1892768907897189,1.187632826712607,1.1748131023093875,1.1783381620541102,1.162922417415214,1.1686889723800429,1.168364902375036,1.1714310846191942,1.154777752540208,1.215330001059281,1.2621918103453482,1.2645816187075158,1.2292281147743995,1.2996732853093427,1.2917222156022605,1.2769624092809784,1.2650859551654383,1.1952443114882427,1.1981512049625207
1.281300103356208,1.2705461501304738,1.3078513425293732,1.2361328992779113,1.2223419621628528,1.2454948897906246,1.2705137149309529,1.1880800192977714,1.184420604024164,1.1814767503840815,1.1995630422584793,1.1609798154503204,1.1695677774143505,1.1622340184328235,1.150685800666319,1.166365504366391,1.1795489238123404,1.168600919129432,1.1555722613183308,1.1758446605909894,1.1542364228135096,1.1762502658037188,1.1847511746161055,1.2389351445865757,1.218104539571679,1.1927419259442804,1.343501588267853,1.2210473268662323,1.2812722871729363,1.2576026902664268,1.209568663473107,1.1933813528404702
1.3101466124622902,1.2551878754222163,1.3220777162261736,1.27591318449291,1.2210237130149344,1.2358324281182942,1.2434889249070087,1.173535706723725,1.189811487283312,1.1569977121530863,1.1944250397076592,1.1568498470191362,1.1738111977580434,1.1709170525056538,1.1614085427104275,1.1634340210213505,1.1620357087920563,1.1696189766876603,1.1462123574680996,1.1553218790254585,1.1624480464208176,1.1817461022758031,1.175408908665362,1.1937899094996118,1.2627738088783649,1.1732911153363057,1.2894777734302307,1.2369045121084488,1.2896451496606276,1.2444394047209064,1.2080327806826299,1.2170366540683948
1.321073685424628,1.2629163362521987,1.3389204182982197,1.2573442571078781,1.1741230296779772,1.263118039862333,1.251634053474532,1.1868189745245876,1.173378203447636,1.1485655216634267,1.1583176240270308,1.1563323911577992,1.1512427486569479,1.1296789139494783,1.1328659200057525,1.1433725604914935,1.1366603950726237,1.132927141645858,1.15294746500228,1.1304899519487397,1.2418988759103147,1.1824122162678872,1.2147744941369587,1.2513728409262006,1.3306733665345358,1.2174795552804303,1.2940007508425322,1.2696900755562623,1.2594143183369375,1.267833604287083,1.207166294318435,1.2330932345442127
1.304721727002454,1.260496415158927,1.3308739934949754,1.2253837354048094,1.2093933991464625,1.2964698041567204,1.271803759015076,1.2185904450675247,1.2352179108552976,1.1912752208910617,1.1850814584283258,1.205049520316787,1.180655134948973,1.1837771627231368,1.1735294034447823,1.1846335641826984,1.1857985076167243,1.1472688365086992,1.1628612161181326,1.169125877551864,1.2275613610744915,1.1901017693488862,1.22272023731597,1.2637262496788688,1.2786480623382437,1.2473186049605691,1.2665610251207926,1.2491147537675051,1.2562442131746727,1.2403134364573065,1.2556030685815829,1.2168271137736417
1.2675534781781397,1.2917958851530442,1.3232319749017911,1.273935993416658,1.2248681186357282,1.275704902149201,1.2688351959655244,1.2078750559478475,1.2007061446465697,1.1961439213826714,1.1994232997263903,1.21366804065081,1.1887443001417004,1.2083170218354424,1.170423269553705,1.1640921414001668,1.1744045369523182,1.1583183734915998,1.1820245346956468,1.1731705263648886,1.2192486541988872,1.1829725852069208,1.1925488276465337,1.2747197773667729,1.2139738011961738,1.2029835243944234,1.265205327409949,1.2367287915922076,1.2629205595484838,1.2001046313060457,1.220807773168182,1.2399502153124333
1.2656126358319282,1.2938569058211056,1.3226038270265894,1.2715230310261671,1.1926914842182315,1.2464016960398203,1.2485688195338454,1.1636229707998997,1.1153616251435603,1.1274537412274865,1.138365808232929,1.134402918114053,1.134199484385768,1.1019412990069413,1.1023754872753897,1.1231528097631702,1.1451628355304138,1.1432874872130974,1.1833900437022145,1.1616197547474112,1.2356448839039187,1.2112589184513267,1.2132909323410406,1.2455364826184863,1.2880101282868333,1.1987765697600072,1.308732327728325,1.2716905268491716,1.284796284103771,1.2682824486767512,1.221385671751499,1.248706667391405
1.2742679288579264,1.2886331994984006,1.3051647167075684,1.2224971634420063,1.1922365211712616,1.27300013786765,1.2513462462511364,1.1617586416075876,1.1515079978421479,1.1489149215241399,1.172269854276397,1.1418244469678906,1.113037062730987,1.1139304377035373,1.1183609556964444,1.1252219529533931,1.1367894554921976,1.1344883047004726,1.1394571653451622,1.1699569112141506,1.195484533141817,1.1907934297238332,1.212332553306247,1.2270862005415117,1.2968634663899887,1.2125561538551235,1.2799052801470652,1.3078814135619259,1.2965957751631123,1.2926654628296406,1.2600977835546963,1.2267578849715053
1.2688327021704848,1.2947199878864208,1.2851140340451108,1.2499107358606762,1.2272810191302244,1.278987128354683,1.2489833072674676,1.196450651224217,1.179140932031818,1.200651236663428,1.1807121610528277,1.1517751166367378,1.1325468704176287,1.1697138965238902,1.147918317548611,1.1233988036840068,1.1237618766806232,1.1448892687594368,1.1446951546350412,1.1592518068978217,1.183407943885551,1.1896679486640138,1.1992051187952086,1.2032459679894207,1.2532400312471965,1.235581247474084,1.2900661443125134,1.2622118343895403,1.2700184414503923,1.2430827705765641,1.2526994787557417,1.2359282102756197
1.2656870488214493,1.2786908298362654,1.3202336573806728,1.2301477967265293,1.2403588523293918,1.294007151396606,1.2815841230104938,1.2048966777173813,1.1563206675672413,1.1813873036290095,1.1551080760533103,1.149076812397935,1.1507546951367846,1.167256313160438,1.1701885619319998,1.1330046998045182,1.1484276237864794,1.1598815996326688,1.184536964413156,1.1548739693215186,1.1964455534342058,1.199017967105215,1.1804179813273963,1.1995079119040541,1.2552676036807175,1.2197935216728717,1.311626077986671,1.254180669941639,1.2433260589994046,1.221714323909787,1.2007912682501898,1.1902403434786188
1.2264469958997102,1.267995016460882,1.3148569520609683,1.231582259461182,1.2010942937071376,1.26244719264901,1.3119199880749293,1.2342337305467679,1.2015703098471269,1.1734303284114114,1.1461995707510373,1.1714833310924841,1.1994790475163304,1.1516045856645098,1.1782701142369736,1.1706380141395794,1.1997228794017418,1.192315188967503,1.2027296396054288,1.206798743408787,1.2107616172977338,1.214828986839722,1.1948591566042301,1.2289350942744273,1.280559262064491,1.1998132145669065,1.2923661865296476,1.3269131256994524,1.279093197799725,1.2653134395074186,1.1811895463058506,1.1876344634267029
1.2315343435902588,1.3157588986691822,1.3542601560505783,1.2241583495021204,1.1802019789488285,1.2549201082836252,1.3074835824255493,1.2283101696608074,1.2455664612582407,1.1818118498268955,1.1671487920990429,1.1712490767758392,1.2122488429707226,1.1721757604438268,1.1775134272466072,1.2046869418888733,1.2040238629150308,1.1939155519904463,1.1755681742344584,1.2014775453936317,1.1893556607553855,1.208997962420658,1.1850347742619685,1.2396545186277201,1.3114684079531962,1.1709024475010597,1.2414049219282837,1.3583931651732641,1.3033525171679758,1.3244569899686232,1.1980179159249296,1.1888752847900437
1.2511748970548124,1.3537692245614366,1.3317186519722921,1.2689122115902793,1.2045690606829,1.2447694724106988,1.3027134915235574,1.2023263741791668,1.233198363092934,1.1697322627330637,1.1632187336934514,1.20689165655933,1.2064743709730634,1.1968999685849007,1.1815129544833585,1.190509071343352,1.1808978918391864,1.1871359942793795,1.1766865203426795,1.1805793409415488,1.1744063579894644,1.1751937370318701,1.1922613381063518,1.2431238766668329,1.292411396635157,1.1910940425487881,1.2362586954130765,1.3022030929548787,1.2804908447331558,1.3068158713001303,1.2060643080542621,1.2218759858389598
1.2574197559316551,1.3209502047344828,1.298810418575768,1.3060820614711657,1.2651634612943279,1.2868137805554203,1.2925106919890965,1.2058695092582739,1.2023012311659127,1.155535772538161,1.1521729428204714,1.1939108645280292,1.185293383402852,1.174008752424923,1.1714390211859724,1.1574378390681181,1.1743059810494927,1.189513106995705,1.1752316715600426,1.1773227721097559,1.1816958572184038,1.158380703435742,1.195943126396534,1.2399269616972592,1.235655294758029,1.2413622178690111,1.2828485513082493,1.2040706048157421,1.288734030935035,1.2401474630303966,1.2701194979460353,1.2326475148820912
1.2680537380544452,1.2394540697666254,1.3322531351081923,1.2708011997386663,1.2671471644386552,1.351988762409334,1.2930791661324006,1.2319057925466304,1.2163852352067914,1.1853349304159975,1.1694758363512425,1.1994929950731574,1.1928254596937862,1.18157062643203,1.1881302319476992,1.1689118951185595,1.1664739822821002,1.1720568083838012,1.1732808487708442,1.1762178251764552,1.1841281402102763,1.1925293425517958,1.2045353198061888,1.2599331487759788,1.2803056542585374,1.2758565388090481,1.3339847037392154,1.2712727562472368,1.2532008666626873,1.2417238079970276,1.3252224891546096,1.2550479381790127
1.293345280740459,1.242950624965594,1.3391993253250365,1.2415167218947372,1.2460350844682748,1.2939851358110832,1.2965620156215423,1.233534134693178,1.2318858648906743,1.1934713482424313,1.1571122417153754,1.1791294048164018,1.2225656527031405,1.1531008086334376,1.1498826837777427,1.163068136434884,1.1611603199292388,1.1693269895665406,1.1960348887559362,1.1546395410582644,1.2210993172292022,1.2238886713879376,1.2234536888880165,1.2884362522127601,1.2756104144523899,1.2441274127846849,1.34027628738142,1.3116209915411108,1.2484836653500968,1.2855019089154238,1.258187062642463,1.2735091388743522
1.2794135323349887,1.2224047303200765,1.2745386438820574,1.251355925865018,1.260016756051544,1.2323820677152486,1.2767905686821008,1.219132487417095,1.1998592929069614,1.1586605827073715,1.1573141703547887,1.1988465696510264,1.1944133400768358,1.1568778472063068,1.13427692532227,1.164907001914171,1.130181063803423,1.1548987311764043,1.1780797265121261,1.128615059026947,1.2219312071952677,1.1801936194356792,1.2464201132283892,1.2391197979959885,1.265626732843136,1.2257738756928507,1.3360806390855475,1.2372849303383657,1.2698998011106022,1.2749951515729696,1.2217717440765323,1.2040710178747502
1.2953563524783478,1.2245383119424207,1.2683425321280646,1.2482672869948221,1.2494135777493207,1.253659899926506,1.2716216050303912,1.1974761765735793,1.1884199986880306,1.1596103674669727,1.1775394314907621,1.1693052400994328,1.2045092297226576,1.199472598874925,1.1792506019800522,1.1784574289269234,1.1704584777198068,1.194536311090991,1.2064139526077318,1.1675522746476725,1.1996960201288387,1.1753118781754845,1.2049761545793698,1.2217070937230152,1.2380249602862947,1.221501346269665,1.3024494142418308,1.2472513162799435,1.2862821079630051,1.257557757702214,1.2302666761113419,1.212241537892055
1.3081636848472304,1.2528426016559298,1.2970207864101835,1.2364933360352688,1.2381107068165338,1.2942767603175098,1.2586747778680818,1.196119520311694,1.2094569320853643,1.1899787415356955,1.1684706753635397,1.1421384806974744,1.1896690653742619,1.1824178657124538,1.1600797040223434,1.1490648520609328,1.1515570606567482,1.147871050544563,1.1668290065100677,1.1671587228202032,1.174853367113408,1.207822688338006,1.203920772537987,1.2204670089715255,1.2610535758748938,1.2408665305398459,1.2908081682318222,1.2779536407862881,1.2805463362528355,1.2519544200089983,1.2263959850209256,1.2476603118057974
1.2936312095878486,1.2968828290547934,1.297537053213364,1.2624750475794044,1.2043495646484557,1.3102101222752414,1.248855481864227,1.209645096743302,1.1991099329206911,1.1860659622555827,1.1962513692398529,1.1720716087977179,1.1969844578277975,1.2054295092165226,1.17929949802784,1.1771032504256573,1.1611123291858854,1.151144624381716,1.1827449753538146,1.171286401366011,1.19712244750173,1.2151283259644736,1.2144933258272024,1.182097871617924,1.250092409009797,1.2230719456983552,1.2792139463058558,1.273189552470024,1.2682909235224875,1.23910648755161,1.2223810904027685,1.2122365384524039
1.3209873763454456,1.318273564869756,1.297868084006072,1.2630895543025826,1.1950747859517128,1.2938618859399258,1.242017815895911,1.2063302920675838,1.2055228546991252,1.1934118559488314,1.1837604476534864,1.1799457695699125,1.1688143735173655,1.1909426061742443,1.1825027177310605,1.1830625982608336,1.1767739086944913,1.1628777776532249,1.1824838002027185,1.1881122686990848,1.2148071560224745,1.1973859648273701,1.187725398702754,1.2310530638148796,1.2368239411709783,1.2079123126335753,1.2624932884371571,1.317344125176335,1.2684063979911249,1.2508641893154502,1.2205972496778112,1.183752585102081
1.3300235527329587,1.2658662640940024,1.2900551189454947,1.234226045765146,1.21594368624235,1.288692702761029,1.278813055041558,1.2062062695450326,1.2236576873877816,1.1989221792164968,1.166195997464967,1.1763616069470577,1.168532886095847,1.1683118492860776,1.1863990475122757,1.1798249272542976,1.194874581034406,1.1782491035851173,1.1652109812661053,1.1810570909545888,1.1990229186778363,1.200057438604978,1.203845437680921,1.225219094068711,1.2798469801919203,1.2373902414560338,1.2472282751650852,1.3242792535386285,1.2819250098086603,1.2411098633274567,1.2148512092670403,1.1972651922773951
1.3683522761235902,1.2466631892456594,1.2982473653226885,1.243567226740238,1.2443780364642916,1.2988586981618433,1.3112887952785035,1.2270095032855075,1.2120977037891791,1.1699580932910805,1.1674667019604676,1.2059451970938013,1.1773998700688015,1.1679526305847556,1.1645175233633311,1.1840043036953027,1.213971471867869,1.1932073363976123,1.175188562549909,1.1715774317253946,1.1859626033161246,1.2156690505702625,1.2288886885985129,1.175003928223206,1.2487740817541035,1.2628761869212728,1.2449691940524017,1.278418502017239,1.292525565370888,1.1959924414981722,1.2473932091768165,1.2139146670055845
1.3268979600643407,1.2628892715319697,1.2791806010271025,1.28463949202185,1.220406713431861,1.273669678766044,1.2710190562507695,1.2173671204451189,1.2226317688406074,1.17172773592252,1.1859699780952841,1.2054608318079165,1.1961889607485174,1.2009395363632898,1.1857961825550694,1.2023740246872119,1.1986927641962204,1.197017937893504,1.1847856931790448,1.1848052103941313,1.1921090032255748,1.2145728823256763,1.2083410371244852,1.17804584260512,1.2633159887637553,1.2711777126507124,1.2495104200307972,1.2855699734463115,1.2856360210606521,1.2002623499408165,1.2551514162403277,1.2194861916471202
1.285371429064471,1.3308812733570217,1.2816041924393737,1.259263711149058,1.196371147817691,1.2453667111845168,1.2680369440699324,1.1918210120948827,1.2365055801602316,1.1768583845124598,1.1985503967793665,1.2093679200722354,1.2135326713175267,1.2139319128696981,1.2171426800641767,1.2177952091236715,1.192595209868704,1.1877317729854162,1.1918281261168964,1.1888442455412824,1.197757973033669,1.202468732371457,1.2061178915656565,1.2123380683246745,1.3002276716514929,1.2650855043447327,1.2696590779191965,1.2915274263579477,1.2844199270270384,1.2527080299982318,1.2711116278201455,1.2279636123858877
1.3194337371454836,1.3333238062403445,1.3376953770447064,1.1980870672383357,1.2168015902027831,1.2517410763294978,1.3103409911776602,1.1520025542675103,1.2102115772575386,1.2039601815137515,1.2171351948134546,1.2269680436809405,1.1977815387427326,1.1980280091423312,1.207772753427545,1.219807647027538,1.2088936600130056,1.2032479611605074,1.2334700798647364,1.154187804529967,1.237050655688166,1.240282550397848,1.2243292698190218,1.2694567039589078,1.28456477889074,1.2329261129226112,1.3225598378614312,1.2824667483417567,1.2647421042102809,1.2738814683799684,1.2322618777917513,1.216121021558599
1.3017664105637243,1.3039945515430178,1.2963557435502098,1.2145289134390198,1.2090309221125344,1.220380007934581,1.3146009118931323,1.1898554695875148,1.159221600040132,1.192745023061309,1.1677893430057833,1.177479305379611,1.1472665528148354,1.1447514493580608,1.1391886157442608,1.1657364137244475,1.1654517613406237,1.1660082153208713,1.1947812348771603,1.171466800156229,1.2341324760100472,1.2101092296484262,1.244758966321363,1.2778067447124535,1.2750255723950967,1.226687946443977,1.3009469363727357,1.3194719908182224,1.2960426867247477,1.2517767056048525,1.2166924615433314,1.2142077933945385
1.2743463235306127,1.3077758001538748,1.2398205219171883,1.2513799071444278,1.2213215104935693,1.2196924496355495,1.2897969958949114,1.1808857626428437,1.1737563436799645,1.1569942945523566,1.1587456563906748,1.1408232202517785,1.1374830559581692,1.1367434022695613,1.127747595663062,1.1274737310434746,1.1220143280353174,1.114791461556959,1.1264914989767334,1.1443920555819116,1.152360807741826,1.1631769760157686,1.2166584136568679,1.2571480528934145,1.2938700867855466,1.2327879855400454,1.2936382229608112,1.2989924165370355,1.279985955529439,1.2338242899868512,1.2368862608945947,1.2198987900526903
1.3441970716254534,1.2865110738823706,1.2771866241228003,1.3053960390086867,1.2175611552992736,1.2394666191746058,1.31999696115315,1.145741685867329,1.2341479994729416,1.1598787044893448,1.204511320293491,1.2041004856122317,1.1420340466933965,1.1867808537166757,1.1813845709815085,1.1601864838750604,1.1437046530813786,1.1211530129040563,1.1176657481712486,1.140179590944207,1.158807732907506,1.1492168386024482,1.2111201328031023,1.2190641987158102,1.2958680049356983,1.2425994263845528,1.294763460200734,1.2484213673412652,1.270230152183293,1.2165052582478453,1.2428665198235278,1.2180390960497265
1.335938069141191,1.28380201087304,1.3031231906503233,1.2749364169569357,1.2122844645103246,1.288521411737612,1.301392781416816,1.183441291266245,1.231968840218474,1.1906389967402868,1.2039545531526628,1.2353689028372274,1.1504415872430496,1.2139983028525312,1.2200886874529782,1.1865841935713963,1.176130473103807,1.1721726654771247,1.1521065517055837,1.1865582498491716,1.1888152055727266,1.1550292875151982,1.2280627121947976,1.201139119598419,1.3014625334804835,1.2648520328669255,1.2916224815456676,1.3127418550477448,1.3185380512791662,1.2752952788474112,1.244312360034557,1.232480258693448
1.2875951665188903,1.265298194744365,1.3367734197505623,1.2367322042175941,1.2350586293211698,1.3433197144938998,1.29213174476154,1.2052945642736652,1.1852959733948552,1.2024063672795384,1.1739046417605803,1.2093846976193532,1.2326973513519321,1.2092985697593095,1.2131521980222018,1.1926505616837266,1.209623985679895,1.204729693256027,1.2075695094002052,1.2195136639509525,1.2423503696613336,1.222193800735078,1.2651841080722956,1.24877520247617,1.2919065857640262,1.2769179446921308,1.3014289153794127,1.3053612337772373,1.2749400365762624,1.2956466441305974,1.2337399351175797,1.295992037107496
1.2896034119910997,1.3012960169475756,1.3203122052756824,1.2837666736151176,1.233280887558977,1.2810716762499592,1.2754467570431756,1.196351667435881,1.2057461889591898,1.1960048129788314,1.1684976998106904,1.1948724961191395,1.2382506628114613,1.2073678685708211,1.20671051991675,1.1977272206841523,1.19623702549351,1.1942529778439517,1.2064171553670027,1.2054018623792202,1.2311842018501127,1.23731939618682,1.2902055590718262,1.2796550787074212,1.3417517976174453,1.2678618327997984,1.3101053353398142,1.3212849756830147,1.2614256753530464,1.2822973149211423,1.2083986124229333,1.2798974718679448
1.2460061945083585,1.2931894302362867,1.2990506374065824,1.2662132873993996,1.2076726367990196,1.2512324291961308,1.2633670700788637,1.1781875696163155,1.211737927235602,1.1758554578278266,1.155068765924526,1.1918413476538803,1.1825070253803138,1.1632599066934102,1.1558346192954383,1.1572341403979138,1.1580905315953953,1.1711268750133872,1.1444598438801092,1.1534954354242175,1.148311855730592,1.1954287556583332,1.1914574344164406,1.2115145200958115,1.3070933789260424,1.2209020960413794,1.2764863645328022,1.301295897768644,1.2423381398000808,1.280391616454418,1.193492736950047,1.1825666387761422
1.247869896488524,1.2704720692762714,1.3202329644865436,1.2899318354860205,1.1817392337937531,1.271979658934444,1.2639232018494795,1.1748227568047365,1.201082894005181,1.1544517208089033,1.1570327059630743,1.143383611983459,1.1945935447614522,1.164314906106825,1.1502241686762529,1.1593612225229446,1.1447655643586947,1.16540961467162,1.1301605029241444,1.149769778024623,1.1486546248879779,1.1843087318398104,1.1659666036347434,1.1695693185236755,1.2581525066634764,1.1721496694319073,1.2811112972430123,1.2488979499953092,1.2487105376682297,1.231797075740855,1.1889896301876566,1.1659901679338307
1.281064477266874,1.2512465443191987,1.2729138641821607,1.2923894010757027,1.2021017362503579,1.3040662180016354,1.2882954074882593,1.2044642408754285,1.2175913542565497,1.1715226877139382,1.171352379207941,1.1295812757262838,1.2146723463413551,1.1837523088515758,1.1689487691813125,1.1875644008691721,1.1782672043273437,1.188723613137804,1.170313435910118,1.1409478909023785,1.1736970964115363,1.1818789467122754,1.200143292212576,1.1435154485615804,1.2469786593587904,1.1900275772054363,1.2729374142729437,1.2495235684881123,1.2798191720106817,1.2375013737506309,1.2015843035362095,1.1881623038596
1.2463961317643644,1.2406857571073633,1.24566039040282,1.2287057716287533,1.1987177778306675,1.2742681486906722,1.2746352203114177,1.2083195214236184,1.2365775506160406,1.1672315585690407,1.1421324319679624,1.1624541502377699,1.1989262394655449,1.1582780376194692,1.1569483317092297,1.1851637808028614,1.1704209816474542,1.1520571428871196,1.1570750872463351,1.1319981008419677,1.1580827561612275,1.1668908420406752,1.1923586578250884,1.1645807481156605,1.2245272623641652,1.2111723508721164,1.2456421617062348,1.2013605223910515,1.2739334753216074,1.2121845017848916,1.1832003071359418,1.1961237026677767
1.2631569920064882,1.2789881860623495,1.2788098420465603,1.217574190829296,1.225795485989864,1.251413385244437,1.2530642628994049,1.2056055352100021,1.1908201209881293,1.1526190476789502,1.1177084547316847,1.1757806956934471,1.2033233975372093,1.132196486803955,1.1254350888323315,1.1473973491599851,1.1761681645081898,1.1639128490475892,1.1628781722587798,1.146721652908427,1.1589660524060486,1.1901570904364833,1.168857021855902,1.1688643709052233,1.2198815019616263,1.1936201988353041,1.2787457223318355,1.1876358040979593,1.2828606079164322,1.2097493966854445,1.1864102023668912,1.2053698127312285
1.2806370586355127,1.296354731929699,1.3061848159836766,1.2556611430686464,1.273530396308949,1.2747714415190263,1.2328088042016832,1.2181856475316721,1.1857250299827975,1.1493811804182963,1.1615142466460842,1.2091376894731403,1.2171388910581729,1.171715937979543,1.1695934808089237,1.1622649806820498,1.1837163774017039,1.196542851588511,1.158528199933004,1.1322299476879605,1.1655203053168322,1.1744929407347062,1.1742231274547485,1.1933273647967666,1.2697462629400953,1.1894709720976782,1.2723059404791754,1.2557037830764681,1.267597033648505,1.258091778661861,1.2302918770141367,1.1724088696892794
1.2734065866529014,1.3325919294672157,1.285476554848189,1.2385802098564982,1.259838743872436,1.252390103930095,1.2164685005384717,1.2155586657497683,1.2245914963221285,1.1892395058225256,1.2205433607287959,1.2264713786985535,1.2395802321185383,1.245022242566194,1.22462521703153,1.2258327366256825,1.2088402903846285,1.2081028901536055,1.175708005800316,1.1518361137639832,1.21869610639685,1.1892008608239002,1.2002183577768266,1.2632925727603865,1.2575166000009563,1.206216054200021,1.2433057076926348,1.2823485681492783,1.2499745842119963,1.2934810635747827,1.221930511174273,1.1784648305339116
1.2719023393859301,1.3495425442772535,1.2613558305114208,1.2476431310274207,1.2349333302081804,1.2521032194114416,1.2790813457673336,1.216385269778408,1.212943144046495,1.1988052926305457,1.2047191183151134,1.221852681058995,1.2132793037069451,1.238167758766116,1.211853178107162,1.224054476819843,1.1836723634251325,1.1789828323624199,1.1699710711191817,1.1472879512172014,1.1733835031849986,1.196713813639415,1.2163921392539327,1.223603676109888,1.2546171307740606,1.223280432604526,1.3323643096085678,1.28204017149418,1.2704817092241256,1.2485116172695856,1.2099074072022744,1.2462199709671418
1.2804860211359996,1.309130454157806,1.244528526521124,1.2685529137307692,1.2623420711422904,1.263917746015418,1.248929620313451,1.2260006083515196,1.193892748367526,1.161256652667071,1.1806591562294306,1.1937809751262332,1.1716478711587328,1.1877084209911402,1.2073504028600115,1.2095525304937584,1.1793954348910431,1.168161076705492,1.1624291495941272,1.1765904340369724,1.1485340313842796,1.1791919188969295,1.2250279985029981,1.2180097056930468,1.3071101620413685,1.2625444396308934,1.3473509298076956,1.2675961015330748,1.3063562478250785,1.2525624809898641,1.2546299590859953,1.230188406709803
1.269613857171201,1.3034864065052014,1.3017891911973933,1.2407037190344228,1.2586059889683163,1.2744284605387843,1.2500748905632832,1.1916427620168797,1.2044311924032043,1.1772516191777045,1.1458062172604764,1.1802707969791664,1.205291748893469,1.1530011748140205,1.1885420383479157,1.199320699372927,1.2101003993858057,1.2055765006837507,1.2184728829753493,1.1928463038834574,1.193894535767208,1.1915512871685119,1.2830534918287495,1.2586703283594531,1.3454835517031647,1.3026456410909384,1.3152869441329669,1.2699113530419386,1.3025191640379048,1.2649117702709918,1.2380428796736562,1.2376644720211476
1.2670876100205781,1.2853983967644047,1.3353260513459722,1.2293437976578663,1.2332273752648708,1.2522185131127332,1.294920221635484,1.238736553876308,1.191906146750231,1.1690963219299053,1.1271228583569133,1.1713565133189008,1.1800926598118635,1.1405830277152407,1.1574019989808113,1.172455893865528,1.1842371528765987,1.1730965859561924,1.176265129161086,1.1664395526398048,1.1778081583465094,1.1575424283889748,1.2705650142706377,1.246486764849414,1.3076116838556504,1.2639163106895248,1.2737374584347245,1.240515362133175,1.2616544880607616,1.2126534752532576,1.2459503253223574,1.210946627894205
1.2543112595745456,1.2889420719530806,1.2775445030812398,1.250767653699688,1.176835272049355,1.2450375338104354,1.2587999515791346,1.2285480569386975,1.1569055328779076,1.1766233374178712,1.1559627293932726,1.159265980081617,1.1660030264202017,1.1868777849718322,1.1946027489916378,1.2050412487557876,1.2047945465467498,1.1657555724498971,1.1443295869324595,1.186384955977051,1.161986630703735,1.1522934600606642,1.2334129302834644,1.2360456566146016,1.2608467706125912,1.253982278863956,1.2722799038957997,1.25311860474169,1.240515721939604,1.2460519320671635,1.2123813928079732,1.1856378249170938
1.2573178379847583,1.327484292277099,1.2879498984754827,1.3068200629430986,1.2372645548761878,1.2666997712568784,1.2787100430288836,1.1970968189588334,1.1916918635478582,1.2050963166732136,1.1665054559545087,1.1841697737071097,1.2073920434494518,1.2493246072072148,1.21165102211177,1.1965138600382959,1.1935947463477565,1.1968151814902526,1.1890096586301249,1.1824817568487351,1.209007200501298,1.2094537539070351,1.2407228167075681,1.2531122547319988,1.3037676874967148,1.2437838344256236,1.2759857035932523,1.3221483615560872,1.27505902665537,1.2546817071628713,1.210216601236596,1.2196266004006966
1.262082440397274,1.2694048134924472,1.3066220338509744,1.2758873473481802,1.2564903826278613,1.2552659688454118,1.3084919157410695,1.1989653753401912,1.2363329012738435,1.2513243531829152,1.1770314315140344,1.2034512544686857,1.2308398602860182,1.2370915689214022,1.2005811156242674,1.1888834415996419,1.2145817307155222,1.2062425690841467,1.1953347538860521,1.1828547204111428,1.2149233958049457,1.2226602914094336,1.243069853500385,1.2939624532429084,1.3153138046943056,1.2397363620039463,1.2727966522435852,1.2819195490244477,1.2507006867524377,1.2354773712755447,1.2369489119791532,1.2265649814313688
1.2549365803306871,1.2832396251746345,1.2971700704691786,1.229527921362536,1.2068812327206875,1.300812013804895,1.2741966862775616,1.2204932739110357,1.193610192991885,1.1950202016648557,1.1277064055605581,1.164294851490582,1.1974428885256485,1.1774779533328295,1.1706371381075844,1.1626081299838391,1.177402296935532,1.167972269524543,1.156882162619862,1.1487801819806691,1.160685379721017,1.2057640322946208,1.1880652045296263,1.204923012652175,1.2394905256552808,1.2280165201861357,1.2348394504389448,1.2137771358938936,1.2337845948026402,1.1999113192294684,1.1985785216517264,1.1988808159208375
1.2987164230670354,1.300006600120515,1.2789549515809397,1.2713522987085133,1.1737136350770934,1.2958410427595273,1.268408154586987,1.2332325305525536,1.1768628398693952,1.1938836907772317,1.1580114180801186,1.1791043125331422,1.191969913098373,1.1680427565395137,1.1852587473175982,1.1650824548166694,1.146868612655789,1.1530868131967398,1.1429657438953262,1.1378349355918644,1.1448658125968623,1.162263104250038,1.202039083372215,1.1956169552512355,1.2808165102041507,1.2324186024637276,1.265804136723901,1.2542160844897268,1.2599464984355886,1.2546468134210635,1.1666004048621252,1.19749624228862
1.3104848664393758,1.2900850968597377,1.3012052968683665,1.2939557535407342,1.215568965629485,1.2523578971665166,1.2764068508847897,1.2194779866763634,1.1890487441441806,1.1677427026002634,1.181220882032285,1.1817483624336136,1.1893637453174533,1.1726194055811954,1.186942259084008,1.1664357440536297,1.1644471109134924,1.1739396411401544,1.1721633675035386,1.1843494273315265,1.194883159761388,1.157637557729425,1.2255881821089987,1.2339688037215577,1.2688126216636737,1.2215203991579555,1.3108690137089274,1.2776744421514596,1.2438583971659392,1.2862478224223406,1.210455195964169,1.1947426145868005
1.2577867572509802,1.327698850078452,1.3046636368613056,1.2798767271361218,1.248894310166164,1.2421055715990503,1.2824027450847102,1.1744758038592966,1.2192422772340248,1.1491483702711898,1.1745264533847979,1.209135068224819,1.1932723895479214,1.1754724293216121,1.1633090035483837,1.1776358099076645,1.1570554789587308,1.1792483712851354,1.1850115110327548,1.1832916331415775,1.1953821566025917,1.178315098065415,1.2134980453259354,1.2726582626715355,1.270641658603088,1.2334377254797297,1.3087127831030154,1.2822231897036225,1.2045642918410464,1.2435586106684078,1.234424938736655,1.2096407250826569
1.276661344690666,1.3055526879483355,1.2718630194730476,1.3162091901278439,1.26268423764398,1.2341935293652133,1.325153946980209,1.191117628877124,1.2488469687837198,1.2103506598317455,1.2089786102584947,1.2200349631348926,1.1879721266615044,1.2018480392627886,1.1872192021009755,1.2111453925974605,1.1974676288018,1.210797767859067,1.2086073477722514,1.2182860324887834,1.243168048234086,1.2036458124728404,1.2483285948941532,1.333788863704528,1.3075201047097422,1.240033022465635,1.2930657543307384,1.292865157150045,1.2296790305193335,1.2760012393588565,1.2766294835392233,1.231468010594363
1.2856038456362135,1.2676156701920258,1.2820022027185356,1.29794454120425,1.25715100752821,1.2459252477638445,1.3063928027767322,1.2523891158247007,1.2466656844669015,1.2186082871205897,1.202333856730847,1.2122245707391839,1.1865954230424494,1.1756811650333097,1.1981019461248286,1.1994135182450123,1.2156804210141674,1.2003952835923863,1.2028448205141897,1.2084425199231354,1.226907823504656,1.2279426141083538,1.2709068950975646,1.2928996504503705,1.2894609804386237,1.2570941367795099,1.2937302200918055,1.2788369510116362,1.263660630796541,1.3079051998247895,1.2732851922860382,1.2521083315547552
1.285598642808095,1.27766540108,1.2796431813785283,1.298845673615886,1.232181053856594,1.2255042928677897,1.2858995837741678,1.2282568200706903,1.220377298196086,1.1956508960511574,1.228367660419115,1.2235353196478311,1.2064966513617232,1.1858197582402326,1.2014856073332851,1.2078592717154464,1.2147418889529495,1.2109867435418384,1.196933103596755,1.2177326749703818,1.2030414885192782,1.1909709539525026,1.2135870592580968,1.2329303531800124,1.2477115420551295,1.2461533165013623,1.3301792189259243,1.2696702295159596,1.2654213119746316,1.279818394088998,1.2339464675978402,1.2063482166645825
1.2909102037721432,1.3043319476733302,1.284032052510783,1.3013488139492104,1.21603063946484,1.243602558000022,1.2880906279569184,1.2061674518511742,1.1919972565796082,1.1960137092506824,1.2149384539496195,1.1979069301814544,1.1888851154150621,1.155949452327493,1.1633222461470623,1.1716383150282492,1.1613379111141369,1.1766100730126858,1.179917443817762,1.1894160197526438,1.2217472412418926,1.1853554903746317,1.2199864263143463,1.1974740521110663,1.2732900331318047,1.2309523424886506,1.303411856939614,1.2664597735112062,1.239894913310762,1.2795115413762486,1.2132650374920484,1.199759649747665
1.2944480601422372,1.3026918857569256,1.2741341723507817,1.298446489374124,1.2684070795294153,1.2940111664181322,1.2678321644556287,1.2200085042655988,1.2337038656168184,1.1911087527961997,1.2108766046788864,1.2039842687613869,1.2038396410045757,1.186980297392813,1.1836176206975086,1.1876220784117804,1.185015931625428,1.1937756000167739,1.202826398786094,1.1967658956389928,1.2319436586540904,1.1956077468190636,1.245456900739008,1.2234041166529768,1.3021780857753846,1.295612052987209,1.2865307731737665,1.2805548875671453,1.2644255505722581,1.2917365212769698,1.275340465105422,1.2409804164283276
1.2976618587065811,1.3042463069007901,1.2728773734796108,1.2738108607935987,1.2444504984982372,1.272951627208414,1.281348685570634,1.2445965919433921,1.2008175906479095,1.1633326516001403,1.1881002041659638,1.1843577045555784,1.157172616783046,1.1692544019112925,1.1793494995543279,1.1685987194995089,1.189479844507916,1.1911251764871298,1.1777754950439459,1.2071313692593175,1.1879941129152518,1.1739044514579073,1.2326368652889406,1.210681245667937,1.286842353029127,1.292602314420117,1.2857530457830224,1.291210590032785,1.3174671409275562,1.2718981865604277,1.265430828618968,1.2217144745327597
1.2856648677559184,1.3097497362301775,1.316415534746802,1.29965350130424,1.2206711668562342,1.2932620474127963,1.2956695498059205,1.281392780540429,1.1707944014600877,1.1396822956497112,1.1898253088616102,1.14963966276519,1.1525024790730451,1.1639338213071089,1.1903405230068542,1.1646033327095415,1.1729004993630814,1.158687672557596,1.147656266217193,1.171056911022912,1.1751504568876183,1.1560488868330676,1.2074558184233355,1.2418874365179942,1.2832285332672544,1.244771546437769,1.2752488138393543,1.2902288185116806,1.3233351706204037,1.274581422116027,1.2208782008601926,1.1662698605813067
1.3160623608312458,1.3519725639639173,1.3152656966566594,1.2837485878538375,1.1835132457510464,1.2524737218493125,1.27524578497163,1.227346000507045,1.2070244026301002,1.18375944869239,1.183838063354203,1.1705890100706933,1.1471588957277583,1.16728316634925,1.1864058315589028,1.1432504391603517,1.130367270428111,1.1226298608732816,1.1293112382864183,1.1503913574177604,1.185058280498885,1.1517341604363796,1.1831849438232747,1.2634342652713149,1.256295969785761,1.209097577918765,1.2926170541970463,1.3095650844566518,1.3060784495077604,1.2815668683986274,1.212294473717917,1.1594049319571496
1.2740644072628238,1.288710139975098,1.2745258503959267,1.2607109554681697,1.1543034515459618,1.2020766877143239,1.2232566112124015,1.1682336843453764,1.1985304620965203,1.154710575402566,1.1385076091766664,1.1659800245630032,1.160015821254457,1.1433849045623343,1.1376873409452524,1.1560401166664065,1.1429326949843326,1.1461888192054763,1.1606350901638172,1.1784743098824582,1.1899733741654306,1.1675929637367004,1.1947058015189387,1.200228163477975,1.255172240210716,1.2219133764167853,1.2928479450206376,1.2526002240471332,1.224083971361235,1.269732159770367,1.1942595986997213,1.1838948782417769
1.2559051353695165,1.2744257990411856,1.2440628284562525,1.265259386647869,1.201113191443823,1.2167475060908883,1.2519642379217406,1.1672561520756166,1.1716271835470715,1.1302506816415243,1.1441818901763696,1.1782797344807128,1.1523025062468135,1.1369274529810935,1.141965260266123,1.1445216642968654,1.1532314410611462,1.1630398542371914,1.1786168139341973,1.189777528163646,1.204533392338083,1.1679594696454334,1.1919123335363968,1.215168342239262,1.2761542508085988,1.2394494731990648,1.2880234851713483,1.2367580520961465,1.2343331199970935,1.2549393645585214,1.2019859107708142,1.2071894053395065
1.2769723890395663,1.2662944245075454,1.259272791523677,1.2546914662658708,1.240397301050423,1.2204558871764515,1.2366514502884407,1.1779579043391368,1.2206909652971314,1.1482703900627673,1.1540836018974383,1.1939808704318655,1.1631168420454998,1.1530175786938894,1.1465966964814687,1.1135502565200939,1.1387884441910547,1.1486801630931731,1.158087596251457,1.1388357051764506,1.1874827407513604,1.1787754321658852,1.191903285782912,1.1917580922751858,1.2349035047146417,1.2273782152137946,1.2930171179102612,1.2089800424460735,1.2733909773319458,1.2082572905863795,1.2322174332894886,1.1939324549884038
1.2990276969292418,1.2685564559980176,1.326499453144232,1.2354967461435695,1.2563133943575628,1.2453918676030176,1.2029117444439525,1.1665598108486412,1.221037713352457,1.1471675269301218,1.1812627570916099,1.1857211514671258,1.182693212313671,1.1723852984328362,1.1455165645019227,1.1543607545531251,1.1807392260125742,1.1844118061310767,1.1742086943906218,1.144405501049587,1.17694967079914,1.1941067093731452,1.225274126588485,1.1881104507712854,1.2503436413020697,1.26667298039109,1.277838247931903,1.2170357762761321,1.2752371769347264,1.219872790900581,1.2450562835737788,1.224936993343528
1.2882876552483589,1.3133657368058442,1.3717776279322047,1.2644001802587557,1.2139612930251296,1.276549676636484,1.2168042512611896,1.196938269633339,1.2353409172140737,1.1504148257300537,1.183002021468864,1.1941725077715601,1.2240276723630081,1.2069703429452066,1.202108055966075,1.2036701923216329,1.206093653079356,1.2124221357836282,1.2313576517807916,1.1749261261367063,1.1972190781159036,1.234464531879122,1.2615393854275352,1.1910218771453656,1.2829015345018697,1.3075796686496335,1.2776376977163646,1.222476286396705,1.2527314688466487,1.2157741067673842,1.2408907510070426,1.2801201788211647
1.3043586780717285,1.282793450023927,1.3211952784411427,1.2738386981794019,1.2279318161038866,1.2346941844079293,1.222555726265472,1.1804297451376058,1.236170091578715,1.1474128843674467,1.181559898617702,1.1975146341185083,1.2233967759075608,1.2035494152059283,1.2235709525104725,1.1903696713810616,1.1957602037910677,1.2092129961749691,1.225974560601335,1.1755436967741792,1.2000939782352584,1.2155031533019616,1.2019343794535453,1.1945999123695983,1.210843890999497,1.234666456302514,1.2344285404387139,1.2365482079665306,1.23830362858,1.204827710028446,1.2460308147184576,1.2127652874634323
1.3423866847842758,1.268383098733418,1.3150040855991418,1.2471478413190655,1.21158063337786,1.1930565844283998,1.224104571214798,1.193781676241874,1.260209930051706,1.1630457721662781,1.179014965331242,1.183542639754603,1.202771823996795,1.202825178704009,1.1864525164263553,1.1770233683856417,1.19524169852336,1.1908679548946688,1.1941726035397737,1.1822931537888601,1.2002775540935342,1.2140719665585153,1.2251616088827917,1.2095578265373348,1.2813492729806837,1.2458770815450115,1.2393191364061051,1.2715473246412647,1.2524458598873822,1.236237328463859,1.2396869754831545,1.1944057834399568
1.3482252455755166,1.3203001723557537,1.3037120471705395,1.2571524958069775,1.2318740250513658,1.248912680400735,1.262652392010313,1.2333892727296125,1.255306661867377,1.1722094994560508,1.174522013769687,1.1733965423396489,1.2215698497050296,1.2337425772720376,1.214954208458428,1.2218381671006733,1.2252104532603811,1.221255140357484,1.2130790269091374,1.2201293396369242,1.2254600601275423,1.2759133860554728,1.2618681017781201,1.250442417129786,1.3329139274205073,1.289424192955287,1.289776431509447,1.2764410160530486,1.3264686050416792,1.2834522245945716,1.2733229304072051,1.2620439356703723
1.3540737075603793,1.3134208509226528,1.289163714680419,1.229793345083858,1.2626525731687992,1.2918015721439344,1.3226924701780223,1.213702356241276,1.2217116819204459,1.2096863576149635,1.2119613502966646,1.223905315129075,1.231561738872768,1.2359939020185091,1.2227634865619434,1.2218639632816066,1.2074886666167637,1.2015358060345778,1.1737237594042123,1.1961854206774238,1.1865492126781128,1.2058049092850194,1.2225817056836807,1.2340195845520923,1.2844810954357837,1.2486774768976119,1.313479048439812,1.3014956609258064,1.2760028093614133,1.278846743897093,1.260125143055983,1.2339960539724208
1.3483278135214658,1.2695919206561646,1.2532237894905682,1.2402137263086626,1.2257962566481397,1.2662675822800513,1.3289032951943385,1.1908670492645526,1.2304818175875873,1.2489547224623139,1.2378887895003103,1.2416820573022598,1.2152733094552561,1.2384656047296123,1.2074994591936712,1.2050133575346444,1.2010926806322615,1.1925277619045005,1.1834224798966393,1.2100302088444126,1.1998804505839298,1.193133492225393,1.2379852833734797,1.2460201827363295,1.2704767660139844,1.229662004373012,1.2976842145887046,1.2713676233386553,1.2134462349147188,1.2790943347388994,1.2215813693142645,1.2108360126427649
1.3421333801435684,1.2755193147585213,1.2422070887925167,1.250375986796235,1.2153566048722364,1.2469908409313208,1.2565065039362446,1.187626423358784,1.2260360325756259,1.2081111265780093,1.188783762825105,1.2167240305295979,1.1866606737641856,1.2063457907308526,1.1738334563416635,1.1873358709499764,1.164972964156745,1.163283934233001,1.1588284414689223,1.1652282590280847,1.1760184456013347,1.183645005361332,1.25314424966659,1.2211410408564076,1.2939091090469494,1.265543823203055,1.2450227661285722,1.2288233262300394,1.213635017560587,1.2377553504052752,1.244242236167855,1.2538724248594357
1.272837680566294,1.293924543438381,1.2781010117897031,1.1972920027117038,1.233963104535017,1.2184232398575243,1.2558054948799422,1.1903700973371538,1.1867108801683752,1.1806893604005897,1.168758842371849,1.188756276023913,1.1923056676463153,1.177399571900019,1.1891235315048998,1.1961478729612312,1.1818739551076598,1.1739544740988062,1.1630512318895831,1.1691729298861853,1.166756786484727,1.185648395070119,1.2069442619950153,1.180757921583807,1.2772281724908219,1.2194511681026596,1.2680146647932178,1.2336834798938066,1.227865449895369,1.2026336754051483,1.2409504393275004,1.271848556000247
1.2159341117609308,1.273255541747761,1.3181135656141705,1.232352553036375,1.2345115633598631,1.2444104658583903,1.298845468302161,1.212288735891642,1.1962076332004388,1.181844201670783,1.20956901036546,1.197880160266018,1.2320477565089758,1.1985618716892108,1.1888823197433342,1.2036920667278868,1.2192913476970473,1.2141809128362728,1.1990038238094287,1.2078656761236133,1.2047069483551194,1.2174587594461102,1.2124034299972626,1.2242970479944542,1.2599897592793114,1.2474504528333263,1.3029591890689232,1.2265576341461142,1.2467500009080652,1.2208770648413851,1.2272841758950537,1.2525732126453273
1.2474086927680514,1.2101424839218642,1.2866561250868602,1.243019474404959,1.242575243202153,1.2679015311713961,1.2996186208126428,1.2346903674657908,1.2222255613002992,1.2186105762719728,1.2230098130041849,1.2094556847621838,1.2023150630335235,1.188309257287124,1.1625678069382142,1.187653044745515,1.1981061220110207,1.192064966031213,1.1871733341632593,1.2080953488120898,1.21220736970344,1.195139609401256,1.2317428151207601,1.257921970989088,1.304791777107895,1.29004613573205,1.3078492425694093,1.2532869544270884,1.2623928126680062,1.2736778096160473,1.2274958622417318,1.2326125637704768
1.2765707850877237,1.2479018348878774,1.2662054072023194,1.2101332952789514,1.2176705961205134,1.2417055469200153,1.2648073808291962,1.2446062702074094,1.205105608357622,1.2062000945767113,1.1809090534244617,1.1886836526396558,1.1733289185076783,1.1617788057917646,1.1563796285393704,1.1650970066831348,1.1754571619814598,1.1736492091175332,1.167314578813072,1.1882906315149462,1.2009774271647786,1.1826929987437214,1.2099299323300219,1.286802579736713,1.301414893958323,1.206984573213731,1.272697819645627,1.2482646659226855,1.2501765774748639,1.29406546672277,1.188483509883749,1.24409403446452
1.2747561777715675,1.309070109376464,1.2858836837185263,1.278215960150908,1.2372444614585072,1.255861550727899,1.2721973757982972,1.1986301883622605,1.1628135382166078,1.1772150474018128,1.1531453108858944,1.1708513716433953,1.1812361386309602,1.1371592615290953,1.1541645385885932,1.1625773028184592,1.1934419202546735,1.1812504111800728,1.1782129104380934,1.1877825771566783,1.1952434489233414,1.2253687838160823,1.224232616720177,1.2713535410388648,1.2772742296222002,1.2398546433545319,1.2589415904065757,1.3078432099371664,1.269263083483003,1.273786665367492,1.2241916135317423,1.2319866581834324
1.2757561805592121,1.299837528742064,1.277382807547421,1.285729629254085,1.2052263052437318,1.2492005319454285,1.2784130222577472,1.2329160835637563,1.1797760075077803,1.2182117161992256,1.197149846532519,1.186890713320389,1.1814368350395383,1.1676572146346218,1.1775110895514966,1.1913183991339458,1.2031511717984238,1.19072451684996,1.1777151814776925,1.1619528464634439,1.1717354705472272,1.2181830669689901,1.1955695291842827,1.2032270247085404,1.2354183249804254,1.245502467682107,1.2815635817047146,1.2584035433176666,1.2897303346433062,1.2150555536329593,1.2047395134430958,1.184922649288118
1.289927222729187,1.2826538493547586,1.3020812487150504,1.2442066514741867,1.1710659076439258,1.271084878580238,1.2734536958508273,1.232384896433433,1.2145173521833386,1.1701291807016334,1.2121279168685997,1.1644820526405373,1.1663388465517748,1.1697334329127647,1.1806759464407113,1.1905831779588285,1.1849404605787577,1.1703899688047492,1.1741611268762768,1.1647489877259258,1.142367431734264,1.1747345131531477,1.1666167437754,1.2023776556803714,1.2176467786762117,1.1998268528844818,1.2472705237843926,1.260177696159851,1.2923933542287773,1.2127097064445882,1.1816530807878312,1.1965651448841943
1.2842914716118128,1.3373583781412755,1.326089780842281,1.2401996326301075,1.1971524045479536,1.285562998300832,1.262995482639764,1.1679735280793933,1.212621668529202,1.153876067403527,1.1774348008256514,1.177691295094031,1.1808638960096607,1.1708647789153432,1.183837055519304,1.1681303151147533,1.189284028790575,1.1804930684855348,1.1877941994989725,1.2016133344541247,1.186086980464266,1.1809457462227695,1.2116339312419029,1.2366621663956041,1.2635246497563566,1.2334797069981214,1.231931906223487,1.2994957545029853,1.2836012135261248,1.2553967116688014,1.2259526891835595,1.218870593421636
1.3278292167407733,1.3335040778755236,1.2892611003964296,1.2515668507197577,1.2391669135852619,1.2445149868559036,1.2727957363831963,1.2114888902261738,1.1980870208047252,1.1738922734646278,1.154411271610295,1.1997655210449192,1.1895199129038403,1.176961113076801,1.1844890366689076,1.1672770207997432,1.1769501347366527,1.1782270886842006,1.1751121422520217,1.1918888200923616,1.199686623226123,1.1844074881902116,1.2173393739014422,1.2663677985799606,1.321899957917735,1.2161773164909837,1.2401685855066888,1.270759602726901,1.2741835837705429,1.258895691322285,1.2256913296578908,1.204024518090714
1.3419628981436484,1.3225109120365774,1.3315544298786417,1.2490768337476006,1.2652669848187186,1.278211615529234,1.2915903759406993,1.2632547561482312,1.196673793764904,1.2052319006843528,1.2140838662610738,1.192924897084842,1.1888456004941015,1.1992713883366186,1.2234997073575102,1.2007392474052456,1.1812690281422702,1.160697799068551,1.186429516716808,1.176990602849267,1.2207727239030843,1.2135429266166855,1.2079749171050096,1.2742162765127547,1.3121237452841674,1.2128474547955845,1.2606017528249929,1.2339332036629118,1.2764961032499207,1.2514286376519959,1.25873744109233,1.2250702613471933
1.3195567547157634,1.302827423011386,1.3240024542516826,1.2235942958472465,1.2092147165476894,1.3006062570920045,1.26028350275592,1.204365092027173,1.2319533337123747,1.2065553667739721,1.2276277852191633,1.2144657280650262,1.2278200895342175,1.1987752513806635,1.1999203061336854,1.2098538169499469,1.1892826992667327,1.183143321572738,1.2165699873256717,1.200747908487216,1.22802634709566,1.2177714470289998,1.2080726200217196,1.2891001282924557,1.2698483010208017,1.2041487105776534,1.2197710098505194,1.2719699386315142,1.2466543876184777,1.2611610052979463,1.2789572987070124,1.230275768026993
1.3115054060821552,1.2881003213548354,1.2788441795724839,1.2561551833435818,1.2145194797023928,1.240515683733716,1.2265390462209946,1.1826769499710497,1.2407387591639236,1.1829625831544452,1.2101652519421495,1.1945665167200703,1.2308318502578581,1.2019052277542082,1.2110644301093916,1.2195873427200277,1.2203016796193054,1.2100878330942508,1.2102880123862259,1.2246624977927072,1.2264829124452323,1.2157800703633872,1.2221251535252928,1.2577694287406695,1.2207214034633525,1.2226475530534775,1.2333884667853567,1.2334527939903597,1.24468447962617,1.258465244440312,1.2340392301990917,1.2254677045772953
1.2832478191468544,1.294354702068556,1.2753244177858043,1.2516350905997882,1.2161793210069964,1.2288132779623882,1.2498834648536394,1.1818068686071463,1.2219642221298135,1.1437099526200256,1.1693809255406962,1.1693429262099133,1.1819880812444927,1.1658694982415967,1.1927013959988964,1.1562998258624089,1.1558179995540567,1.1509655657193614,1.1646027816299376,1.158498807903387,1.1922676511908232,1.1849100588286863,1.2114700920464125,1.197445156275869,1.2179643534878217,1.236717823795752,1.2627947700425568,1.2226488136961773,1.2139162206018674,1.2629869972112069,1.2065600726321515,1.1899594119693677
1.241688467988687,1.285036477508505,1.2656900912551876,1.249377247729544,1.2094917622867989,1.2448022917324386,1.257127882614097,1.1700222022440494,1.2171701540674875,1.1308467384780927,1.1292482159060009,1.1481176665600168,1.171222319903557,1.1427315005830392,1.1643285387740332,1.156210261051564,1.1556922069172157,1.1513714499431045,1.1545305668497368,1.1605210861004247,1.1717728483267627,1.1730817224615806,1.1826614321112978,1.2185075782967498,1.2189731007377351,1.2100470099585166,1.264175435441453,1.2647479493187805,1.2742414256810688,1.2607938356074326,1.2343185682092277,1.16843679903654
1.2764020552131705,1.2900479355352101,1.2462531352613604,1.2871474426396479,1.2162912918295101,1.2551153870467744,1.297529677607558,1.1929391834161704,1.1813834412824358,1.1781036819996014,1.150897206907322,1.1421939277093185,1.1560340627318795,1.1564559007587045,1.1573901230713473,1.1576235275830995,1.155049747063528,1.1425283451420898,1.1355580155396658,1.1715998221775596,1.1775100891271573,1.1712021060539886,1.1623684522391187,1.2350064697953977,1.2454785477561638,1.162026825589435,1.2296502626830206,1.2629286505527297,1.2836813728143142,1.2416869861868578,1.200766424456766,1.1595567747066409
1.2910720031648317,1.296244095835493,1.2274726215404363,1.254877638656355,1.211704543096695,1.3037164088567401,1.2997529255068905,1.2061472774270767,1.2259188451720322,1.177379128420113,1.1783698497580506,1.1570153642066814,1.184548319056803,1.1781479857350954,1.166196953742792,1.178732707631859,1.1630160543093742,1.1631794380708753,1.1694438265736362,1.1821586964311745,1.2049106626758728,1.2091369427993588,1.2022912587322507,1.2506506000055662,1.2930930020453397,1.1875832183836348,1.234337788593336,1.2665203990153917,1.257572854050702,1.2539789736928695,1.1680604937859917,1.2161451697235788
1.241331789304403,1.3045663932078009,1.2507717910285443,1.2493720734702494,1.2239689558111677,1.3063237104884808,1.2727739809914391,1.2107511910792808,1.2257735300757073,1.178608852622254,1.1999022613876014,1.199644356705684,1.2054488622637567,1.1802123283005153,1.1612124059122932,1.1934292375210738,1.1834921013575677,1.1941115521623604,1.1969462884271844,1.2024344392627426,1.2099043914991228,1.2180951684327719,1.2440087568810039,1.2603466013060807,1.2902348527170373,1.2243404151089992,1.2983779831727358,1.2514961402282863,1.2386544301271203,1.258578340243394,1.2069405688443722,1.2465768041969354
1.2823462601732187,1.3059567461618036,1.2730976046393239,1.2271868072767875,1.22140508426095,1.2311086298641085,1.2948993741869825,1.210468465442123,1.1594527116528843,1.1907498553349953,1.1815139355384712,1.1986455282443493,1.159953318174897,1.1539127321844205,1.158647346946069,1.1599788599202483,1.1525195637884402,1.154472312190562,1.154861246526717,1.167662645768702,1.2032683184147916,1.1902085955195971,1.2217717645853552,1.2279068999709892,1.2890658525134147,1.2347411502805195,1.2956655699997022,1.230092266175829,1.252084608530303,1.2472465283631662,1.2144233951425567,1.203672657723869
1.2764627823774946,1.300564389074705,1.3162635418148612,1.2353338840003723,1.1787285705291248,1.254279098308676,1.2987948140170102,1.1947721904075144,1.1878330488120272,1.1967043987568933,1.1654048435148967,1.1898324186351745,1.1484599803777593,1.1203381379561521,1.128834695908734,1.1201089171546679,1.123030213303079,1.1298009301445704,1.1482542441643584,1.1445937948311338,1.203961175281935,1.158336014189798,1.1893961466189424,1.2115267362737785,1.2847976880779142,1.2061368023830579,1.287698827758417,1.2097949848335716,1.253348683098245,1.226162271142447,1.183382545394849,1.184566585023177
1.2706300714523013,1.307026245857316,1.3460806213842602,1.2643712702178493,1.1746174260806246,1.2728696317333525,1.2872030281639684,1.1769198278390545,1.1887758352921067,1.1740230749372185,1.1578263736162995,1.1532277845517078,1.1430235558933184,1.1352203220915162,1.1170249344950656,1.1281904637610392,1.1276863298445035,1.1244142773727461,1.1298629979955304,1.1413379512033281,1.169188383187894,1.1405666876613962,1.1643647994143544,1.2043790790245072,1.2611527385952395,1.1829620047243543,1.342882697403908,1.1927908533503442,1.2801937714358496,1.1849334276473038,1.192730074504533,1.1468232735298463
1.2601628982303827,1.3078106737195383,1.303813757976011,1.266108360270364,1.19254828845515,1.2722673698227196,1.2836469889813706,1.1736626680511928,1.2018310061072506,1.1820826704818577,1.1537621020045723,1.1680900502329326,1.1756106907393462,1.1679877794845397,1.1798290614039388,1.2058860395064346,1.2002461766842618,1.1847834270291284,1.158120508336001,1.1956529446546815,1.2001593984018608,1.166491562013482,1.19222384985137,1.2668035017354042,1.2454410876186266,1.2307664691038218,1.2895501318122735,1.2430584579484791,1.2778455490834966,1.2380753022833773,1.2334989025713947,1.190459192889567
1.1984079322612249,1.274267592410026,1.2993414014527427,1.2767128286054303,1.1799678155857323,1.245619351507169,1.2562283561129157,1.1674551110958604,1.2236640689674367,1.1987621202503984,1.1841488199121584,1.201591896758953,1.2118173524565292,1.1941754288084427,1.2126241161092495,1.223868878686045,1.2262941437804318,1.2385142586252311,1.1912343445185556,1.2229126096211627,1.184160845517331,1.1950859276437822,1.1954390436748288,1.252510962889428,1.268040320148178,1.2355335494778963,1.263089754114681,1.230576537396787,1.2835792396697712,1.2652540180908536,1.2425753219808287,1.2344832287545229
1.2447006224160735,1.2669508652307873,1.2747142189743605,1.2502126195356353,1.2252053270027563,1.261106609642612,1.2425977920695686,1.1950879187403114,1.2197024997187378,1.2197821299695393,1.2030914620795308,1.2158410221684077,1.2010254531187055,1.1858893382338098,1.1694242172006002,1.1750667940187915,1.1733482079765771,1.1893088528114686,1.1883115797915282,1.2150215879422208,1.1896625863208352,1.209752389972105,1.2249745568293324,1.2583049401062545,1.2839403795259199,1.2791071219331442,1.3016836676865111,1.232036843889299,1.2935805278438681,1.273083490119023,1.2308890320062613,1.2790085042829284
1.282613189002558,1.3029700341977144,1.2767638912984518,1.2749189246743746,1.2529261725799852,1.2578997512309085,1.2621095670959992,1.2237839941401703,1.1843421082511927,1.1802562320283503,1.191962945547692,1.2195455276150873,1.2032426341385112,1.1976425002133362,1.1823654821909881,1.1887827948123184,1.1855068262538488,1.184964189186906,1.193515530157097,1.2208388423649608,1.2020190514345634,1.2297910606658793,1.225649522510984,1.269536238735629,1.3107225551864237,1.2600598038215094,1.2890567406978344,1.2359688416661965,1.277187177965837,1.2663107285171784,1.2565186484916546,1.2181362059534748
1.318785761192732,1.2796682771296637,1.286021231303007,1.2477784802295555,1.218106668143215,1.224013830315189,1.2642254941953783,1.1908886423057197,1.1578695884140964,1.1866473221727032,1.2092569674212232,1.2087303994258878,1.1770163809959289,1.2268365815932871,1.2315404247622892,1.239508784717777,1.2645867156180186,1.219571899265002,1.192190205294235,1.1999218343701783,1.2581220251611103,1.1951735831356192,1.2209833745659326,1.2591630005607473,1.2975596284985949,1.2349091956831408,1.3011139939342302,1.2914743169076275,1.2647964163427166,1.2919949106133184,1.2287493934534028,1.1994945059097935
1.3258309991952364,1.247845595713396,1.2766852041146517,1.2609628314290495,1.2214901486386218,1.2773182804678003,1.2639178195061438,1.1994304445857191,1.2209313511454336,1.184473928447649,1.1959940589662608,1.205591985558583,1.1988019663004286,1.1975103326821561,1.1997988939737563,1.1927183736398286,1.2329018747027933,1.2020237221003325,1.1877394071887601,1.1994223152285985,1.2179146690245388,1.190051313365122,1.2067047504795398,1.2365666427066495,1.2566348184090295,1.2433554163969731,1.2851973730133892,1.3006480819056079,1.2556282202981062,1.2854051564910947,1.2332045036938224,1.2512042791086495
1.2963811068850388,1.274211891525298,1.2771081118269794,1.2559064245428853,1.2205061650174782,1.279761476182248,1.2799432239235689,1.2624038748362683,1.2181629125659303,1.197384048783434,1.2040058763090447,1.2101318414373676,1.1751954382844025,1.1759804609922473,1.1854242288464163,1.1918572007567183,1.205586241248035,1.164841816299626,1.1499097948852604,1.1742065612332464,1.1440131466811347,1.1582438659542191,1.198019223365298,1.2284733482741894,1.2630567077316932,1.2635865938435284,1.2466823426209408,1.277365514403759,1.2379545889677057,1.240791138057502,1.2486634043053886,1.2350816035881806
1.2886723382970453,1.2957047716387156,1.30278909005755,1.255217492870701,1.2054790041511472,1.2306340824667898,1.280139900554352,1.2569492600593617,1.2005145265064991,1.184232905014958,1.1767740013423276,1.200740116710196,1.1632824774500365,1.1723778643770337,1.1775473531040055,1.19758519738823,1.2041041401247528,1.177337743720423,1.147222848712415,1.1405711145219903,1.1365776848532938,1.1420511776849445,1.1907283481234858,1.225744886015304,1.2602870545122444,1.2300832161302497,1.2736476755748636,1.3278653576039428,1.3134827959979722,1.2445342928349807,1.232945675929954,1.210941152042336
1.2953150507564475,1.2862171715719648,1.3040985858076537,1.3006723085051313,1.236798633330749,1.2620894661891409,1.2489471365748122,1.2092582177015307,1.1893813398819058,1.1861638030227268,1.1494064255521055,1.1487125966445964,1.1761911034211432,1.1693077687085125,1.1648432543139586,1.1695614584362046,1.1645755089174132,1.1745079602373558,1.1643767507501128,1.125437762655373,1.142103005334089,1.172964160478383,1.2051783908068063,1.2015488507825063,1.312289719804714,1.244953411338174,1.292729745863111,1.2635157942366517,1.3326868404827594,1.2341292411651832,1.2264847244601835,1.2471541015350642
1.2447236549853367,1.286076243281422,1.2874535038625368,1.2837513681321373,1.2031007158543474,1.2901762406906134,1.2620752110579774,1.2004912231997402,1.1715636181321558,1.2166405905733317,1.1924079745667606,1.1577467624295983,1.1481106036486812,1.179933422089183,1.1665829638288034,1.1575201458344255,1.1460027166362208,1.1414430681892855,1.1359689635719323,1.1479375643961465,1.1388164536473666,1.1463931178794748,1.1619618074514257,1.1908878350864895,1.264928878877085,1.216563854468496,1.2932330381726909,1.2192760200020607,1.2888231871728124,1.2277443319363275,1.2082115391250547,1.1582384414608633
1.2347957011040047,1.289474180863576,1.3056124466387138,1.2775803626464026,1.2152120756406115,1.2952723500646441,1.2835756586946785,1.2081797196455044,1.1683223297044318,1.208981880670331,1.1947628934097336,1.207782957445483,1.1566571379036164,1.193584894068799,1.175833851607817,1.1739469694876639,1.1582102029294739,1.150949408286785,1.161894249247673,1.1558919676450532,1.1623127556153563,1.1706241228893102,1.1745643229936102,1.204695556672263,1.1983422775740389,1.1808631693321572,1.2818359400224535,1.2482691516153326,1.2287609050552026,1.2381621185795944,1.2280303950150901,1.1507622744343173
1.2930236781708422,1.2374753804188765,1.3180984008449839,1.2584295415193645,1.2453921841436304,1.2758612511537482,1.2971652841057677,1.2095792570838027,1.2316398050964412,1.2229086735554182,1.2123633907610007,1.2158023903268227,1.2004287619858092,1.1764009657147572,1.1919658493319962,1.1958596031131936,1.1978227769530254,1.1857248844320338,1.1941943474747028,1.183363073193979,1.1719362455090638,1.2085607857510365,1.1996119056839574,1.2284420503333706,1.2442362616269573,1.1963541190201068,1.3011516831511847,1.2892065269152149,1.2484509317885037,1.2556933928630654,1.2327383436709074,1.2111505302059307
1.335448645159653,1.2362862449538594,1.306769965966721,1.2484095166630775,1.2269720484439743,1.2723902220642325,1.3170414971040505,1.259776592294455,1.248883709375658,1.2411781362355363,1.221348537459957,1.1925353715612115,1.2065065343426886,1.1808015597475376,1.204547691019999,1.2329861994287592,1.2380316701007834,1.2217207422477818,1.2114497573200655,1.2243881029492727,1.1849760739389668,1.1836532814052818,1.1952387488223768,1.2248156235159064,1.2744872024081741,1.2166110023068664,1.3035194870831708,1.2862869670181933,1.241742140175368,1.250963444945662,1.2309037430172922,1.2141109768165892
1.3592300013704857,1.2821673053949356,1.3180350799023444,1.2557961595928404,1.2422757044393107,1.2584643803373157,1.2982479236861157,1.2209667856040909,1.2175202357255772,1.192843934467926,1.2008643958657068,1.1988867070911082,1.1716352930940244,1.1680243097478633,1.1719704966566848,1.1874371714588758,1.2062613409116494,1.1997646815810115,1.1958041009674178,1.2153073331895277,1.2105369438816007,1.1797156859076443,1.2094743492381859,1.2319446239917762,1.2769777290402786,1.2240782752452233,1.26464061238677,1.2793792060042397,1.2409750666870274,1.2619878861077003,1.2287545038514944,1.1885977590283865
1.3229353120074252,1.2965297913081062,1.3049744722036634,1.2493541354936335,1.217156306038861,1.26645929035924,1.2576279315762247,1.1748556416121412,1.1961618561857097,1.1627076092922153,1.1664023385766675,1.207251153431722,1.1818506629835122,1.1496978260316142,1.1535261606671845,1.152278920623908,1.1689511810197075,1.184003873283037,1.185422697847083,1.1870422680827304,1.22010587065563,1.2150824639373579,1.213193557706337,1.2559671458389765,1.281583382641848,1.223034429817283,1.2799031326476156,1.2964491597555445,1.2404691629739242,1.2356181530126054,1.2518694046609258,1.2262220537019286
1.2453878380849543,1.2719538747633612,1.283358510261999,1.231002243699993,1.1802443166540286,1.2469274136638595,1.2097532905496797,1.160587168092669,1.1912463781725906,1.1368706649498832,1.1098269550603843,1.187485556572865,1.1533911034237851,1.1504812343265245,1.1473752704063849,1.132455396478198,1.1285588813758922,1.1424276501763428,1.1478888327931929,1.1122746754658928,1.1504784145081808,1.1780574473182897,1.1473946239098456,1.161196703968806,1.2252322378186324,1.1701727851214612,1.2905732771023395,1.2287323900918385,1.2232533995510895,1.1769910952066702,1.176644393514062,1.193882775550477
1.2089353084841512,1.2504934804055403,1.2757127342767225,1.2675514655498847,1.1881042813831568,1.2458396671808245,1.24201102201798,1.1920068345316066,1.1935186042656816,1.1594872728194425,1.1320296707832862,1.1490295785686877,1.1648049889222212,1.14887159479607,1.1834644027689192,1.1586149916749995,1.1640606811748082,1.1763436010759423,1.1498202592551607,1.1322414616700456,1.1355516530731506,1.1537325499874282,1.1411704646290592,1.1707030744225826,1.20154579019896,1.1590078247739624,1.2712933156555666,1.20196340691801,1.2221159436408942,1.2264979859355216,1.1629765362147182,1.1777751404990662
1.2445108498398467,1.2767943036348843,1.2987322711730338,1.3024320994435667,1.2092154102802666,1.2423184303713004,1.2873475286995397,1.2135999520057301,1.2108773774738297,1.2287394187697886,1.198165234631927,1.1746538558783552,1.190856092947376,1.1648558376771914,1.2075368134860707,1.181713686919419,1.192303635475555,1.1916805985968955,1.147360488448131,1.1862476623730258,1.1603057991765817,1.1736002025030472,1.1841844768646836,1.2348215110186833,1.2502670800149591,1.2245959782465696,1.2594245548408478,1.2659125664953967,1.264313844540229,1.322658906346378,1.2397723880435048,1.2158710251669218
1.3104474901853018,1.3225444005616016,1.31771067955108,1.278086754615531,1.2221804728300396,1.2980614771304555,1.2743517561537017,1.2098820093399971,1.2049697645100752,1.211522445420153,1.1696942777730126,1.170427703520607,1.1871421673427458,1.1579351597424898,1.1730110564046303,1.1762979863546013,1.1810378838048836,1.1795763137971202,1.1749510401072925,1.1884378222732646,1.190223134403759,1.2196770994891752,1.28112922540069,1.2456386919024551,1.3222675393875805,1.2672868635138153,1.263075618614863,1.2690979486861134,1.2713268365861348,1.2721191011716053,1.2979938190760123,1.2417616349122669
1.3684213915380699,1.3050216177475367,1.3661115960503416,1.3037897304461668,1.245322830148231,1.3014448997670711,1.2423058618834217,1.2194825799949487,1.214504693192261,1.1669765338927864,1.1994705300442188,1.198470925243807,1.2130606951776297,1.2164184053559228,1.2053464646427792,1.2163851784581072,1.233766943490759,1.2254614217831117,1.2388990729862857,1.2437272882588948,1.2118161360792419,1.2089751768104233,1.2630604313214113,1.2490254946979598,1.3772524257252812,1.2630147505388525,1.2633742804552608,1.3093541513060327,1.3027020604724695,1.3161671714299608,1.2677319085116538,1.2366415283139984
1.3029084484176567,1.3308956930173454,1.3319828483056264,1.305204111569807,1.2494500528775982,1.2671389708233138,1.2608754693470885,1.2243765378589733,1.2389786637890197,1.1561507216447175,1.2070577662441702,1.2126362167035973,1.2368485908650821,1.2193014080642963,1.200198982385542,1.2051757732865094,1.2113456011919939,1.2174150511367192,1.2181600137988622,1.218490985766297,1.2184498559065935,1.223139674969903,1.238993617117886,1.2371955800257413,1.2815946205403501,1.241064290605571,1.2491911598524004,1.2877888612037682,1.3170788977315444,1.3082248557169767,1.2341845968053267,1.2476462927323535
1.268749258351949,1.3056595666380646,1.3042092699961687,1.258661926623994,1.227294123710216,1.2819484182413603,1.290209649950343,1.226242760213227,1.2347079320526138,1.1764993317470116,1.1810296631345287,1.184366394325567,1.222021829002213,1.22373671407915,1.2067589734456075,1.20062517044734,1.2060873615097925,1.2128130775671806,1.227421662834065,1.2302235337519014,1.220435355753122,1.2412535337996242,1.232030321540769,1.2559041930799295,1.24433747501088,1.2218253123395295,1.2579412009348536,1.2951780296775028,1.2574624311125817,1.3075320319996202,1.2284669977819556,1.241365975493672
1.3138264179858685,1.28345388361564,1.3017392719650993,1.2743306070531015,1.1875687082288386,1.2852640582415047,1.2563890933875783,1.189137233321148,1.1906811157719346,1.1499832821592604,1.1604073607868293,1.1591998905568446,1.1819991803663967,1.1936029105313015,1.1844679992267524,1.1715393118530881,1.1600761783072697,1.1713653320931772,1.190181816854697,1.1943297390493832,1.2320068400727522,1.2011443853435029,1.2287264436447731,1.269991446393648,1.2487095417293608,1.2320291367743512,1.2677623494699979,1.285140116888268,1.2514053919682342,1.2797711547222264,1.2631872447703203,1.2349710919831987
1.339355270321376,1.2951159885308137,1.257484989010439,1.282443877030312,1.1649524206707267,1.2740919514975646,1.2275740531461277,1.1566407131036138,1.1442126905909689,1.154372778502033,1.150843772160488,1.1541595075156077,1.1418109297681163,1.1436799307245826,1.1503360191354823,1.1397051530386488,1.1363606751070938,1.1357559327300382,1.1444693418106084,1.1860744644819161,1.1903147723663594,1.169232834961304,1.2009761962934697,1.2226051633429182,1.2518342637936937,1.2209046175491634,1.260158078674295,1.2743022504982031,1.3306232952183115,1.253005601430369,1.256896319490278,1.252961153323682
1.3480022230697657,1.2996033750492642,1.2636700161212073,1.2348373153229248,1.207843763420845,1.2848001897030006,1.2979638274011065,1.1826584071558937,1.2085753712474387,1.2294996074393447,1.2050840310154602,1.223063174988353,1.1999415926999504,1.204875432080792,1.1784705363785402,1.167357147639029,1.1890096931463923,1.200087096814025,1.1914815755875414,1.2402865333114947,1.1943746909460922,1.2079554325310538,1.2271095230084987,1.2457201655151293,1.2643333820001763,1.2329097955947614,1.2878691587216695,1.310992216045442,1.3247331502047306,1.3139117068950286,1.2266620970997464,1.2252756051958795
1.2799731807443333,1.292410194144634,1.303696813668805,1.2420473476504452,1.2407241421029833,1.2724378569361066,1.3174466207644078,1.2212772567740542,1.2601645664104675,1.2203021328972645,1.1769452891756027,1.213889626107605,1.2489350765861031,1.2107336188623536,1.2116794787554614,1.2127702579039912,1.2185374360340115,1.2197760229995511,1.198407276573815,1.2264480299705127,1.1977679552150746,1.2386768697828454,1.2420227732629896,1.2479006830947657,1.3088898287752482,1.2471237628358034,1.3271289421179213,1.3012144168946773,1.3147205266896316,1.2823807830995941,1.2347046417867187,1.207166952171828
1.2686790597182118,1.3096521862563553,1.311125704263557,1.2251460003707286,1.2236886133448535,1.2540246179303705,1.2775896413498005,1.2094875296399048,1.226884812992466,1.1984853990263493,1.1861277623350697,1.2103134199290446,1.2123885562148284,1.1882633235458373,1.1834090268657755,1.1849551271527425,1.187997893149684,1.1748071458631604,1.1668326872500954,1.1760712199758958,1.2157956812436004,1.211536692920352,1.2174171018675362,1.2351039354783155,1.3129734828600859,1.232580382443661,1.3165737954789238,1.2369054546050737,1.2903151306105658,1.2628790311247389,1.2073623144318844,1.2067082247403678
1.2856870896941963,1.3068946772542593,1.3327380824964155,1.249182129593217,1.2289262931587182,1.2525162921933535,1.2545348498588642,1.1931798227961488,1.165565772737537,1.182791578696419,1.1890872924323481,1.2292652394949324,1.1839082597205586,1.1779597113466602,1.171763945100908,1.1808137774055376,1.184752696488272,1.1748234146218415,1.1893395785009722,1.1691025623479139,1.2562373062831904,1.2025109446104472,1.2330839485355467,1.2413021860925506,1.320436396132551,1.279245881980613,1.3071613616164803,1.2418943984304949,1.25788239191115,1.2750891269993019,1.2271671145835368,1.257390581315154
1.3171045688786898,1.3271976828144472,1.304478602038204,1.2575318838357148,1.2143051262931048,1.2697954874655628,1.2544925171917856,1.1731989810852972,1.1726503678390776,1.1532287878834386,1.1404064101390452,1.2016172838321946,1.2038954269443258,1.1535838496797857,1.1449060257377184,1.1674435287232858,1.1845187419097571,1.1954455199454372,1.220476823769453,1.1457240533585151,1.2521958775239033,1.2109948467023337,1.2479820749446964,1.234020533984393,1.313024254972588,1.2733601670169314,1.2861919658637675,1.2466290476219313,1.2834537497033245,1.2577845703514068,1.2537471292553306,1.286659989206909
1.3110039579876973,1.279970561015911,1.3190643865259966,1.2960014897209942,1.197115559958335,1.2573123688219527,1.251880191046363,1.1907385765994754,1.187783775906021,1.1552697449716325,1.1162616570966046,1.166816419122787,1.2071429708156525,1.1301440712275377,1.1328510878639864,1.148905595360279,1.1524509819676512,1.1754554566777922,1.199445437811663,1.1412035600099375,1.2346408922822611,1.2175017945910973,1.265474845836954,1.2372294655048688,1.278881390736058,1.2455156312182454,1.2392559441574318,1.2145874156047631,1.2888566903424181,1.2084353934766645,1.2574962569209593,1.2611701236345723
1.2745322359020257,1.2456554505436215,1.306297896420554,1.2551660642590285,1.1642132309615572,1.2354468783413637,1.2598557140272044,1.211985165958887,1.1804094002359264,1.146317184519556,1.1267257738659149,1.1439381257438674,1.1680528757600583,1.1391066755260726,1.1329947507792895,1.158830755898388,1.1483969795114923,1.1479130424863337,1.1620511430706078,1.1412159567601834,1.1891327739245312,1.1991492069826724,1.2447783715181595,1.2252198143247854,1.233914436038087,1.2433813287487392,1.2488885045645135,1.2107830643920083,1.2564437224729532,1.1968951827848795,1.2280017436409414,1.2084142047448252
1.2861516075431128,1.2596557368957166,1.306444819985139,1.2677589605021018,1.1616217705914,1.2590753174017686,1.2689264289728301,1.1989057520553403,1.165081516787286,1.1804884475802035,1.1548634122315262,1.1582588286631557,1.1658469802016698,1.1646400741099963,1.1586417721135345,1.1617030587978345,1.1616757467075436,1.1604477652096434,1.1659767488990305,1.168602063053364,1.1922974014184873,1.1704283770381703,1.19718880303507,1.2483805259511553,1.2342489443033928,1.2027635055967278,1.2872763256651942,1.2055012195378132,1.2687434122456915,1.202256952213386,1.210467107146317,1.1933271089093387
1.3117660849340576,1.2922031979608162,1.3309321700706642,1.2937265122233321,1.2014875937929608,1.3040404350524202,1.2593999866946262,1.2295476673163401,1.1943079987293774,1.18914227404149,1.1851188684870544,1.1734389114481918,1.1801999884879977,1.1644917582897452,1.1779761138266285,1.153900049123761,1.143736511505263,1.1523504997915526,1.1649603555565702,1.1591730049838866,1.1869608415309865,1.1791557899982947,1.1934099758259906,1.2693325990725668,1.2784309424413065,1.2316085787108078,1.276171117826642,1.228610402636141,1.2817424455898196,1.2441312413307322,1.2413996294914122,1.2257503677792592
1.2846467269120148,1.3176364744942028,1.3408264050496828,1.254431811813567,1.218767033934017,1.276600190229366,1.2584934315994354,1.2352673438933774,1.1739058489924394,1.1742681781904682,1.2244275283782209,1.1841676329615234,1.1662167332964555,1.1853994098294103,1.200279327545061,1.169625975613196,1.1261609845740737,1.156553344155375,1.151355856719507,1.1569119801108882,1.1787383051403846,1.1621183817209988,1.185069617055361,1.2962844094507577,1.3036241056812667,1.2251465558629022,1.2399135577359786,1.2547402522771882,1.234949159879923,1.2650985516710134,1.2539424476759877,1.182668494895046
1.2732792770352916,1.2715787279837458,1.3551542089939927,1.2645745934079806,1.1930485341609205,1.2550949528986466,1.2784441268363473,1.2259168146744204,1.162378944067904,1.1698875121455556,1.1759067771325367,1.1674545401676515,1.1969930320715474,1.1568314857963833,1.1703289682609435,1.1668161785746978,1.1428495963395915,1.184821623767684,1.1869344676697724,1.1836815203278022,1.203795213863888,1.2068431253597127,1.1942127688491029,1.320940261335468,1.2909531147114508,1.214136300670993,1.2529904881423555,1.2864640626942039,1.2261023316185593,1.253406535673059,1.2537507710471172,1.1839490853704424
1.2477727947655137,1.2519499196136745,1.3466994674988628,1.2638818874755045,1.214808490672474,1.3142234696411863,1.2921157861240313,1.2195970472309323,1.1701698853045017,1.1746914680211953,1.1914306145400502,1.1781150983634343,1.1898106786760863,1.1811445186038987,1.1881837088248808,1.1936845220852295,1.1947945562484725,1.2037279052634917,1.209570737027372,1.2058542700757708,1.2428446604893313,1.2378682231929172,1.239305209553671,1.2503193142201916,1.262243388218732,1.2632725245237646,1.3124065379130379,1.2731417758472257,1.245059082049469,1.2322261100378622,1.2811715026884425,1.2094774825249583
1.2641016154933393,1.3052365950029878,1.3246662348959324,1.2325982189990443,1.2318648134381356,1.265396062128355,1.2810332347228581,1.232810554749399,1.173980085827442,1.1836614922179372,1.212665854511539,1.2115441859765541,1.1501660641581288,1.1885196632476902,1.1820817613923806,1.1787714647117262,1.162831840819353,1.1725982520711478,1.1876462989324457,1.1763976671105114,1.2162993930406936,1.2040819461527903,1.2317635140644223,1.2119940313144095,1.305216543384984,1.2992780898366765,1.3285376331416159,1.227530258088541,1.2579600487688585,1.2021087506266925,1.297404732032277,1.2068520468589004
1.3455081143447696,1.2668200997450325,1.2849290683987005,1.2459633314052276,1.2050107610748246,1.243335368380742,1.2821006213373587,1.1934008171376638,1.206432935670863,1.1729778939836017,1.1874556433943921,1.2294708146578628,1.1790501556336808,1.180997926368928,1.1779538229626116,1.1797093634719904,1.162073143100026,1.1765966447309413,1.1862913016437175,1.1736575567029204,1.2302341809197757,1.1799308203961747,1.241741225521731,1.2983851982120433,1.284102558782274,1.2674208112570193,1.2919600799582007,1.2432528046108535,1.2832418897176974,1.2142121663978447,1.2553308689908687,1.1933390731823765
1.3493825652707132,1.2587056287666225,1.2629143059536643,1.2740635294894669,1.2122237609444744,1.2430713404237919,1.2845851826024255,1.2234341597440677,1.2247913770804306,1.214876166312038,1.1749108779234652,1.207695325956726,1.206850488561204,1.1826634882961968,1.1791913648461168,1.1854213060613166,1.193660672135791,1.1924339299931594,1.1842507953767656,1.2019854620823285,1.2430760313617812,1.169076372601462,1.2443170951505576,1.3534325747170943,1.2743942603839775,1.2443953862088095,1.2923995118651732,1.248099303509518,1.2987703767008256,1.2393626327344582,1.23895871077806,1.2124779029361747
1.3084440022895316,1.2880065918285708,1.3010058862980076,1.2742811865896349,1.2482084374894278,1.2744343523189499,1.2712206480385788,1.2268807564812083,1.1900657214978605,1.2025786005925945,1.1762001291850295,1.1777869590361845,1.1650383478586803,1.1495164571271155,1.1188523455566586,1.1317714037003477,1.1371652279922522,1.150797284292549,1.1469301876322402,1.1537360824927805,1.187253822290441,1.1619290757454335,1.214868534494241,1.3100316121334157,1.2885987326269819,1.246300145088562,1.2766047373045415,1.2743469558132805,1.2970252552086585,1.2483458558332816,1.228502595902574,1.2073012944171386
1.3318481132172806,1.2689614752767666,1.2613228607307294,1.300620539067274,1.2582339427258071,1.266227434946057,1.2844111122688313,1.2182103319637319,1.1758346084609839,1.206100718546734,1.1720009560188878,1.1739753648312348,1.1348735201861389,1.1344277984964588,1.117509491364809,1.1219952668492055,1.1386183528160485,1.134826009232031,1.151159218643869,1.1615373947843395,1.1803968049515423,1.1819336645102507,1.2154026856969984,1.2616790901952937,1.284246658962622,1.2464724477854174,1.250619372903444,1.3194743024980267,1.3054760582025173,1.2265890897715563,1.218957499301644,1.1884630949453259
1.3086491587226388,1.278741243338577,1.2787657202332892,1.2351468337428297,1.2088908103717115,1.228286584796584,1.2951683962339515,1.1934214916564971,1.1944303199228936,1.1912589277992036,1.162851516216153,1.2193288225104706,1.1695265920811158,1.1664046244846373,1.1578999517656343,1.1443404616067685,1.1566819631942937,1.1444060500312798,1.1519764416707396,1.1257341443132693,1.1476824999951771,1.1814813931616457,1.193973888716997,1.1982919745613305,1.3047637164624373,1.2313770234362047,1.2909444451979408,1.261706187577139,1.2587287963373994,1.2085810709379525,1.2460579278009256,1.2047934205886315
1.2894850901438248,1.2858568452512265,1.3105952243596577,1.250573408116276,1.1979100893363723,1.200292813413157,1.229935964924148,1.1623099243990884,1.1875125492581962,1.1387973397284845,1.1413556860803344,1.1763715559779098,1.1741139156309741,1.159297198605241,1.1602789074528237,1.1746593929451203,1.1701099501933905,1.1482388666662797,1.1350944530382212,1.1220834014969503,1.1446972227253127,1.1743231777554233,1.1850420955030574,1.1722608184806294,1.2902540668669737,1.1920531428279684,1.2952599657171286,1.1827195470969596,1.2455335672155943,1.2152855315750013,1.1998251057248006,1.2024333583623885
1.2723211121761577,1.2789035429222233,1.2830074580216333,1.2511887750205954,1.1949110523591862,1.2193112623507643,1.2353890784348163,1.1798826614188491,1.1702189544334862,1.1398606319799767,1.1426261156482156,1.1820700955128418,1.2071360118714265,1.1809176821179697,1.1678464443041867,1.187260021921703,1.1910461935411252,1.1795201771312311,1.1794808603033167,1.1629718100684547,1.188141717903874,1.2090229183512373,1.196500491120149,1.1841939226935407,1.2802991189955129,1.199946467214349,1.2702008797276083,1.1890154657078116,1.278333195502858,1.2249658199131377,1.1700918894590198,1.2033595560486303
1.2701318104808306,1.2966532087194709,1.2862098969801143,1.2395891403783248,1.181367894903266,1.291436797636903,1.2668876017371138,1.2066086759463612,1.162106942672147,1.1506318145649403,1.1399004040851795,1.1504253174524899,1.1694318865737905,1.1313938486776922,1.1385493242015734,1.1438791404203934,1.1455740562312118,1.1507942718069788,1.1634805501853693,1.1479582600149845,1.1966940953059748,1.1741056161221561,1.2334376629665664,1.2110817092619055,1.2927516616507442,1.239030792032233,1.2391165284709627,1.2943499425613112,1.2734829052309327,1.2590738791926601,1.211687390415639,1.2086431146214116
1.2519119487703936,1.3126795971054563,1.276141340772381,1.26457417656093,1.2058080372275337,1.2685732382132837,1.1985962523975409,1.1588421615805267,1.1987488721535209,1.1177677778388089,1.1213626090358861,1.1617443964234526,1.15916159272934,1.152629568673468,1.1532716680565924,1.1593502497187365,1.1685670670944788,1.1551844796955746,1.1659747179574398,1.1587784264662944,1.1959017923732151,1.1567904986313668,1.2126713356046361,1.2268591843905248,1.283171922955378,1.2169877717122952,1.249893659332658,1.2911138732859386,1.2296959214164944,1.2501394311976903,1.2201107956990744,1.1918131479318936
