Fp1,AF3,F7,F3,FC1,FC5,T7,C3,CP1,CP5,P7,P3,Pz,PO3,O1,Oz,O2,PO4,P4,P8,CP6,CP2,C4,T8,FC6,FC2,F4,F8,AF4,Fp2,Fz,Cz
35,33,44,27,29,22,45,36,31,43,33,41,43,27,33,43,47,43,51,49,43,55,27,56,27,55,37,39,53,31,21,46
39,38,46,33,30,22,44,39,32,42,29,39,40,24,35,41,41,38,46,43,40,53,27,58,30,52,34,37,48,32,24,47
44,45,48,40,27,27,42,39,26,40,27,33,35,24,35,35,35,33,42,39,42,49,25,52,33,52,32,33,48,36,28,46
46,46,46,43,22,27,38,39,22,37,27,29,36,25,39,33,31,29,41,36,43,48,25,46,33,52,30,32,44,36,28,46
48,48,48,45,19,27,36,35,18,33,23,27,37,20,37,27,25,23,35,32,37,42,22,41,35,52,24,27,44,40,32,45
52,54,52,43,14,25,32,32,16,32,22,22,36,17,38,20,18,22,32,32,34,38,18,42,31,52,19,27,48,46,38,44
50,54,46,42,17,20,32,29,17,29,21,20,32,13,34,16,14,20,29,28,36,35,15,41,22,53,17,25,44,42,42,42
48,49,42,39,19,17,30,27,17,22,12,18,36,12,28,12,10,18,26,26,34,28,17,40,14,54,20,24,38,37,35,40
46,47,38,40,20,16,26,22,22,22,11,15,37,15,31,15,13,19,25,27,29,24,18,38,13,54,20,18,34,34,30,42
46,49,37,39,21,16,19,20,24,25,14,16,40,18,34,20,16,20,32,34,30,17,18,34,16,53,19,12,32,31,31,44
43,43,36,33,23,18,19,24,20,33,16,20,40,18,36,22,18,18,34,34,32,13,18,37,15,55,22,15,29,29,33,42
42,40,36,27,20,18,26,23,21,34,19,22,41,17,38,23,21,19,35,35,32,14,20,34,12,54,26,16,32,33,34,43
37,35,35,23,25,17,28,29,21,30,21,21,45,15,41,23,21,21,37,37,27,18,25,39,14,52,31,19,33,29,35,46
39,37,38,24,27,20,30,34,20,31,23,23,47,13,43,29,23,24,39,45,27,18,32,45,16,50,31,23,37,33,38,48
37,36,39,28,32,28,34,34,21,35,28,28,46,13,46,34,26,26,44,46,30,16,37,50,20,49,37,27,38,31,39,51
36,32,40,32,34,32,35,32,19,35,30,27,41,17,39,33,25,26,42,40,28,16,46,47,22,52,44,26,35,30,34,54
35,32,44,30,34,38,34,33,16,37,34,27,38,24,36,32,26,25,40,40,26,15,46,47,27,51,44,26,37,32,32,52
38,35,46,30,32,40,37,32,18,44,36,27,37,26,39,32,29,27,40,40,27,19,41,46,30,47,41,28,41,36,37,51
39,36,47,27,32,43,43,38,18,45,37,31,37,24,37,29,25,27,41,39,33,25,41,47,34,42,44,33,40,38,38,48
38,37,46,23,29,45,46,40,21,46,36,33,34,23,32,26,22,26,36,32,32,29,43,49,36,40,45,37,37,37,33,44
43,40,46,24,25,50,46,41,26,46,38,32,32,27,32,28,24,32,40,36,32,31,46,49,40,37,42,37,39,42,29,47
48,40,50,31,28,54,44,44,24,46,40,36,30,28,29,28,21,29,40,38,34,30,50,53,46,40,41,35,40,44,28,50
51,38,53,29,23,56,48,42,25,50,44,42,28,34,32,28,30,30,39,38,35,30,48,51,46,41,42,35,37,45,23,45
50,33,52,25,21,58,50,45,24,52,46,47,26,34,33,26,35,34,42,34,37,34,45,53,48,42,42,32,37,45,18,40
51,35,51,23,18,56,52,51,29,53,49,48,27,34,35,29,35,39,43,37,41,38,43,50,47,41,41,33,37,43,21,34
50,38,49,25,15,56,57,56,29,55,55,53,31,38,37,35,37,46,47,45,39,42,37,49,51,36,36,38,36,43,24,28
49,38,50,25,14,58,58,55,31,53,50,52,31,33,38,37,36,48,45,46,39,46,44,51,52,40,37,40,35,42,22,27
47,35,51,31,14,59,55,57,35,51,53,52,29,33,40,38,34,49,45,45,41,46,51,50,57,35,37,40,31,40,21,25
46,36,55,31,13,57,52,53,33,49,51,51,25,34,39,33,35,43,39,41,39,43,51,52,57,36,35,39,32,40,23,23
44,33,57,38,16,55,54,54,29,45,48,49,28,35,48,34,40,44,38,42,42,44,52,52,54,41,37,41,36,43,29,20
45,33,56,43,22,57,55,57,27,42,48,50,34,34,52,34,40,44,39,40,48,50,57,53,52,44,41,39,35,40,33,23
41,36,55,42,22,52,53,54,28,40,46,44,32,32,50,35,39,45,41,38,47,49,53,51,47,41,37,40,32,35,34,21
38,40,56,46,27,47,46,53,28,34,41,36,33,26,45,35,31,43,41,37,46,48,51,46,42,40,31,39,32,36,37,23
40,48,58,49,30,47,46,47,33,32,38,31,35,28,38,31,29,41,35,41,47,47,55,48,38,36,33,41,35,35,38,27
37,50,58,50,31,47,44,46,32,31,36,29,35,31,33,25,30,35,34,38,44,45,58,49,35,34,29,41,37,39,35,29
37,48,58,50,37,48,37,47,36,30,30,28,34,26,33,20,30,30,28,32,45,39,61,52,35,32,29,43,36,38,32,33
41,49,58,52,37,42,35,46,35,30,33,27,37,27,35,21,30,31,33,33,47,35,57,52,35,25,28,43,38,40,35,37
45,51,60,48,37,40,35,43,30,31,32,28,37,30,31,23,28,29,33,33,45,35,54,52,35,28,31,41,43,46,31,39
49,52,59,51,37,40,40,46,36,33,35,31,44,35,31,29,33,36,38,39,46,38,54,50,31,30,31,46,48,44,33,44
49,50,58,48,36,41,37,48,42,38,37,36,46,36,28,30,31,41,45,45,47,35,51,49,31,25,27,46,47,37,30,50
43,44,60,44,30,39,35,45,42,35,35,37,43,37,28,30,29,40,44,47,46,35,49,44,37,18,25,48,46,38,25,44
41,43,59,44,27,44,38,48,41,39,35,39,49,39,33,29,29,39,47,47,49,37,49,41,44,17,28,51,50,40,24,39
44,42,58,45,27,51,42,52,45,41,37,39,49,41,39,28,28,41,49,48,53,39,55,46,52,17,32,51,53,40,23,42
40,36,56,46,31,54,42,57,44,44,42,40,49,39,43,33,29,41,51,46,51,38,52,44,55,22,30,55,52,38,22,43
37,35,55,46,31,51,42,56,43,45,40,38,50,34,45,37,28,45,52,44,53,42,50,40,57,24,29,53,49,31,21,45
33,34,55,46,24,51,43,50,44,45,43,38,51,35,47,41,27,43,53,45,52,46,48,36,53,22,25,49,47,27,18,42
28,34,56,46,26,57,44,50,44,46,45,37,52,34,48,42,28,40,48,42,50,46,46,36,50,24,26,46,44,27,18,38
26,36,56,53,29,62,44,51,50,45,48,38,54,30,53,42,32,42,50,44,52,48,48,37,47,25,26,49,44,25,22,38
25,34,57,53,31,63,40,52,43,46,47,37,50,23,51,43,31,39,46,41,52,46,46,40,50,24,26,42,42,28,20,36
26,38,57,56,35,64,42,53,41,44,50,35,50,25,47,45,34,36,44,42,50,50,46,42,50,30,30,44,44,34,22,38
33,41,56,60,37,64,43,54,43,49,53,33,49,26,48,42,35,37,44,37,47,51,49,45,46,37,33,42,46,34,25,43
39,45,58,58,42,63,45,53,43,48,55,33,49,27,47,39,39,42,43,41,47,49,54,49,41,42,37,43,48,38,26,48
37,45,58,59,41,59,45,49,37,53,56,35,48,26,42,39,40,44,43,42,43,44,54,50,36,44,37,43,46,39,25,46
40,46,58,61,39,57,46,50,33,53,53,34,49,25,43,34,41,43,41,43,42,44,55,48,38,42,40,41,44,41,28,46
43,48,60,63,40,58,47,53,30,55,54,32,46,32,43,29,39,39,38,41,42,40,55,50,39,41,43,43,47,45,33,43
49,51,61,65,43,60,51,57,25,56,48,27,46,34,44,24,40,42,40,43,43,42,54,53,44,45,51,43,53,53,38,49
54,52,62,62,41,56,50,62,22,55,45,30,44,34,42,20,39,43,39,44,43,41,57,55,45,48,52,43,53,51,39,47
54,53,60,60,44,53,50,57,20,56,44,30,44,37,40,17,40,46,40,46,46,44,53,56,43,48,51,47,56,50,38,50
51,57,60,58,41,50,55,56,24,56,43,29,41,37,41,15,37,47,41,45,45,43,55,57,41,51,51,47,56,51,38,51
48,56,58,57,37,46,55,54,22,55,39,30,38,36,42,12,34,44,35,40,44,42,58,51,39,48,50,42,54,49,38,43
46,59,56,57,38,41,54,52,20,52,38,30,37,32,36,12,34,40,31,40,42,36,53,54,37,43,46,40,51,50,41,38
43,54,51,57,36,38,50,52,20,47,36,26,34,28,34,16,32,37,28,38,42,32,51,53,37,43,42,40,47,47,38,38
42,55,52,57,37,38,49,55,21,44,35,26,37,29,34,18,32,37,28,36,44,36,48,54,38,38,38,42,46,44,40,38
42,52,50,54,32,32,50,51,23,41,32,24,32,32,30,19,28,34,26,32,41,34,47,53,33,38,36,45,47,44,38,36
39,47,49,55,26,28,47,43,24,38,31,24,30,26,28,22,28,36,28,34,40,32,50,53,32,41,40,47,45,44,35,32
33,45,48,53,26,23,45,40,24,39,37,24,27,21,27,23,27,33,25,31,39,29,53,53,30,39,36,49,39,39,28,31
32,43,47,55,28,25,40,39,28,38,34,24,30,20,24,23,28,36,30,34,42,34,50,51,32,40,36,52,38,42,28,35
32,40,49,54,24,23,41,45,27,35,31,19,28,19,22,26,26,31,28,29,40,30,56,47,37,42,37,51,35,39,28,30
29,37,48,53,24,23,39,38,24,33,27,19,31,23,23,25,27,33,29,31,39,33,57,45,37,43,37,53,36,41,26,31
33,38,51,52,26,27,37,38,25,37,31,20,35,24,28,26,29,36,34,35,40,32,54,51,39,42,34,55,36,42,25,34
33,39,52,51,28,30,39,37,22,37,31,20,35,25,29,27,30,39,37,37,40,30,59,50,41,44,35,59,36,40,22,40
34,41,56,52,28,33,44,38,20,43,32,20,32,31,30,28,30,40,42,39,41,32,55,49,41,42,36,53,38,40,26,39
38,42,57,52,28,38,47,37,21,43,34,23,33,33,33,33,31,40,45,45,43,29,57,50,38,43,42,50,36,41,27,41
38,48,62,54,32,46,46,43,21,46,35,27,33,33,35,37,33,43,43,47,47,33,60,52,45,48,45,49,39,43,32,43
41,51,58,52,35,48,49,47,24,48,35,32,39,36,36,38,38,45,44,47,49,38,60,55,46,46,43,47,39,44,35,47
47,52,58,49,36,53,47,51,29,46,36,37,43,42,37,44,41,49,47,51,51,39,59,56,47,51,45,46,45,45,39,48
49,51,55,47,37,53,51,53,30,49,41,39,43,46,43,46,45,49,45,51,51,41,63,57,44,48,44,45,47,44,39,45
51,51,53,46,42,51,53,51,30,53,45,44,41,44,45,45,46,48,47,52,50,42,58,60,37,48,41,41,45,43,37,44
54,51,52,47,41,47,49,54,29,51,49,41,37,39,42,45,43,48,41,47,47,37,51,63,33,45,39,41,45,39,39,41
51,49,52,48,42,40,47,48,26,47,49,39,35,35,37,47,40,45,38,45,45,38,52,57,34,42,45,38,46,40,39,41
50,48,53,47,41,38,41,46,26,43,48,37,31,34,35,48,39,45,34,41,42,39,43,55,38,40,43,33,50,41,38,36
51,49,53,47,41,40,39,45,29,42,47,39,31,30,37,47,39,45,29,38,40,41,41,55,38,39,41,33,54,39,37,35
48,48,47,45,41,33,38,41,28,43,45,34,29,30,33,41,37,44,27,35,37,39,36,52,36,37,41,34,56,40,32,29
48,47,45,44,40,25,37,37,30,40,45,33,33,27,33,37,35,45,33,35,35,35,32,51,33,33,40,29,54,37,30,29
50,47,49,45,39,22,37,40,29,42,49,36,34,26,37,40,34,44,33,40,36,34,33,51,30,32,37,30,53,37,30,32
49,48,47,51,35,15,37,37,25,40,42,30,29,22,33,36,29,39,34,39,36,34,36,51,29,29,33,28,53,37,31,32
48,48,48,53,31,11,37,35,24,39,41,27,25,20,29,39,23,37,36,39,35,30,28,51,34,29,33,24,52,39,33,33
41,51,49,54,32,17,35,37,25,36,40,27,29,18,28,38,22,37,34,37,36,30,27,49,39,28,33,21,53,43,35,35
44,51,50,54,33,24,40,37,28,40,40,28,34,22,29,39,24,36,36,40,40,32,29,45,47,27,37,25,53,45,37,38
45,50,49,55,30,28,45,41,33,43,41,27,35,25,31,35,29,33,39,41,42,31,27,45,46,28,32,29,50,42,34,40
44,49,47,57,30,30,51,47,36,50,40,30,37,27,33,36,28,32,45,45,49,35,33,46,42,28,31,34,46,41,37,44
45,47,47,57,30,31,51,51,36,48,40,31,43,30,34,39,33,29,49,49,47,37,36,48,45,28,29,41,38,41,42,47
47,47,52,58,30,38,53,50,38,50,46,37,45,30,38,42,38,27,51,47,51,43,40,51,53,31,26,47,40,46,47,50
48,49,54,60,30,41,54,53,37,52,48,36,41,34,39,44,39,23,50,45,50,46,40,51,53,32,28,47,41,48,51,52
44,47,53,55,31,45,55,51,37,47,47,33,38,34,41,40,39,22,48,44,45,44,34,47,55,33,27,46,40,47,51,49
43,47,55,51,34,54,59,53,43,49,53,35,43,35,47,43,45,27,49,45,44,44,32,48,57,33,31,48,39,49,51,49
44,47,57,50,38,57,59,52,38,51,52,33,45,38,50,45,50,25,48,45,46,41,37,47,55,36,29,52,42,50,50,47
48,46,56,50,34,57,63,46,38,51,52,29,41,41,51,45,49,25,47,49,46,40,40,52,52,36,28,58,44,48,50,46
46,48,56,49,37,56,61,44,37,46,49,30,39,41,49,44,52,24,47,51,44,43,42,54,48,33,24,53,41,45,48,44
45,51,56,49,38,56,61,41,35,41,43,28,40,43,47,42,45,26,43,47,40,43,43,56,47,31,23,47,41,43,53,43
42,52,59,47,36,58,60,41,35,37,44,30,40,44,48,43,48,29,38,48,37,42,41,57,46,30,24,44,42,43,52,40
41,54,59,46,40,59,60,39,35,40,45,27,34,41,47,39,51,28,32,43,34,38,44,57,43,37,26,43,44,46,47,39
41,54,60,44,40,56,57,41,33,38,40,26,35,42,47,39,50,30,28,44,28,36,45,56,41,38,28,35,41,46,46,36
39,52,61,40,41,59,55,39,31,37,35,24,33,42,46,38,51,31,24,45,28,34,46,57,39,38,22,39,38,41,41,35
38,54,62,44,44,61,54,36,29,39,33,21,30,38,45,38,46,27,21,38,28,38,49,59,39,38,22,36,37,38,44,37
37,53,65,44,45,57,51,33,29,36,31,23,31,37,43,37,43,27,18,35,29,39,49,57,36,36,20,34,37,34,41,39
38,54,66,45,43,58,54,31,34,33,33,28,30,35,40,36,41,32,19,34,28,42,46,55,33,34,23,32,34,33,42,43
40,53,68,42,43,58,52,37,33,35,31,29,32,37,37,36,42,32,22,32,30,43,48,53,36,36,26,30,32,33,44,45
38,50,67,44,41,58,51,41,30,41,32,28,33,35,36,39,41,33,24,32,34,40,51,52,42,41,30,33,35,36,46,47
39,51,67,43,41,59,47,41,26,46,34,31,31,33,37,44,45,36,28,36,36,44,55,54,45,48,36,38,38,40,48,50
42,50,67,42,45,58,48,40,31,47,37,31,34,34,36,42,42,34,32,36,34,44,55,54,48,53,40,37,41,41,49,50
37,46,69,43,42,56,48,36,29,44,33,34,35,34,31,39,35,35,31,41,35,43,55,57,48,54,44,32,40,36,50,49
37,48,67,45,41,59,49,36,30,45,32,35,38,34,31,43,38,34,37,42,42,43,54,57,49,56,47,36,44,35,53,51
38,46,65,46,40,60,48,39,34,47,37,40,39,34,30,46,39,35,39,45,43,44,54,59,53,54,55,31,48,43,56,46
38,47,61,43,40,54,47,39,32,49,39,42,44,35,28,45,43,39,45,49,47,39,54,61,54,53,56,34,48,47,52,43
39,43,59,43,38,54,49,38,30,49,40,44,38,36,28,40,43,34,46,49,44,37,56,62,56,58,56,36,48,48,55,41
37,43,55,43,42,53,45,41,31,52,42,43,40,35,32,38,45,29,47,48,44,34,62,65,60,57,53,37,49,47,53,36
37,44,53,46,39,53,46,38,32,52,44,46,41,37,36,39,45,31,47,47,43,34,59,66,57,53,53,35,50,48,47,31
37,46,53,46,42,50,44,34,38,47,45,46,39,37,35,35,41,33,43,45,41,29,57,68,49,51,51,31,47,45,44,29
33,48,52,47,43,45,44,35,42,44,43,43,37,33,35,31,37,31,43,43,43,25,55,69,41,46,46,30,44,45,44,26
31,49,49,47,39,40,42,36,38,42,39,42,32,27,36,28,36,28,44,42,44,27,57,70,37,47,44,34,42,46,44,29
35,52,49,48,38,35,42,38,38,40,38,39,30,25,38,28,36,28,46,38,46,28,54,67,37,42,41,36,44,52,44,28
35,49,49,47,36,28,39,39,38,39,37,38,23,28,39,23,30,30,42,38,42,26,51,66,30,37,38,34,41,48,38,25
36,50,51,48,32,25,40,33,35,35,33,34,22,23,42,20,26,32,42,34,42,23,52,61,29,33,36,34,38,44,37,25
36,50,50,51,33,26,41,32,37,33,31,32,19,24,39,19,25,31,40,33,40,27,49,58,28,37,36,37,42,41,35,25
34,55,48,52,31,22,36,33,35,36,27,29,23,24,36,21,26,33,38,35,41,25,45,58,22,33,37,34,44,43,31,25
34,58,50,52,28,20,38,32,32,34,24,27,22,24,31,22,21,36,33,35,39,27,40,54,19,32,35,34,43,41,30,26
32,57,50,53,30,17,39,35,32,34,24,28,20,24,30,24,22,40,30,36,41,26,41,52,21,36,34,36,43,37,32,29
32,57,47,53,26,15,44,33,30,36,26,28,20,23,36,26,26,36,34,36,41,31,41,52,25,37,31,39,43,37,35,30
38,55,49,54,28,20,46,38,26,38,26,31,19,25,35,27,27,37,31,38,39,34,40,51,30,40,34,42,45,40,35,28
41,53,50,55,30,27,45,32,23,39,23,28,19,26,31,27,27,38,26,34,37,33,41,50,34,41,38,39,42,33,32,23
41,52,50,56,30,32,45,29,22,40,27,32,21,30,31,33,27,37,29,37,33,32,43,50,34,39,38,41,43,31,31,26
42,53,49,55,30,39,48,29,22,37,26,32,23,28,30,35,25,38,30,32,34,33,44,51,36,41,36,40,45,28,34,24
39,54,47,52,31,40,51,27,21,37,29,36,26,30,25,33,25,34,27,31,35,33,45,52,39,45,34,43,46,29,34,24
38,53,48,52,31,41,52,28,24,38,28,38,25,32,24,32,24,36,26,30,39,34,50,53,41,46,37,37,45,30,39,24
37,52,48,50,31,48,52,27,26,36,26,36,27,28,24,30,20,39,24,26,38,36,53,50,45,41,34,36,43,29,41,25
38,52,51,48,31,51,49,24,25,33,23,40,32,25,28,28,22,40,28,22,36,38,55,51,50,43,40,36,44,30,44,29
36,52,52,49,27,55,48,25,26,31,23,37,30,19,27,25,20,36,30,23,33,41,53,52,48,42,40,36,43,34,47,30
39,49,55,48,29,57,44,31,24,31,21,39,33,23,25,25,17,39,31,21,36,38,56,50,51,43,44,35,41,37,42,30
36,46,54,44,30,58,44,28,22,30,22,36,35,24,28,26,17,41,34,20,36,40,56,49,48,42,46,31,42,36,40,32
31,41,50,44,27,58,41,28,23,30,22,38,40,27,30,26,19,45,35,21,38,40,55,50,47,39,43,32,45,36,39,36
28,37,49,42,29,56,41,28,28,27,21,38,41,26,32,24,16,45,33,16,41,44,55,51,47,43,45,31,42,32,40,34
29,37,49,43,31,52,41,29,28,27,23,37,41,22,31,21,17,47,33,17,41,45,59,52,49,44,49,35,39,33,41,40
26,39,50,42,32,51,38,35,32,30,22,35,41,20,32,26,20,49,34,18,38,46,57,54,48,43,47,36,35,30,41,45
26,34,48,40,29,51,37,35,30,28,22,37,40,17,32,28,21,45,35,16,35,42,58,54,45,45,45,38,31,29,37,46
28,31,50,45,35,52,38,37,32,28,26,41,40,21,38,36,26,43,42,24,38,40,58,59,43,50,47,40,30,28,35,43
29,30,48,45,37,52,41,39,31,31,31,39,37,23,37,39,25,39,41,27,43,39,59,61,45,51,47,38,30,33,32,41
26,30,48,44,40,51,37,32,31,30,25,38,38,23,36,36,22,36,43,23,42,38,58,62,43,52,48,38,34,31,32,41
26,33,51,42,41,52,38,29,30,28,26,37,36,18,32,34,24,32,38,24,40,40,55,60,42,50,43,39,32,29,34,40
28,35,51,45,41,53,36,31,34,28,26,36,33,16,28,32,22,27,34,26,38,34,57,62,44,50,43,41,29,27,35,40
35,40,55,47,45,53,42,37,36,31,29,39,35,14,28,39,25,28,40,29,43,36,59,62,47,53,47,45,27,29,39,43
39,44,55,48,44,53,45,43,33,37,31,36,39,14,24,40,30,33,43,34,47,33,61,61,51,55,47,44,31,36,40,47
38,46,57,46,42,57,46,41,34,41,34,38,39,15,24,40,30,30,39,33,43,29,58,60,51,59,41,41,32,37,39,44
41,42,57,49,42,59,49,42,32,40,34,40,39,21,24,38,32,33,43,38,45,31,58,60,51,59,43,41,39,41,37,44
41,43,60,51,38,60,51,44,33,42,37,39,40,24,24,39,32,36,44,42,45,35,55,63,50,54,42,42,40,42,38,46
45,45,57,50,32,61,53,49,32,43,41,40,40,26,25,39,34,40,43,40,45,36,52,61,55,50,42,46,44,45,43,49
45,43,57,50,32,59,57,52,35,44,40,40,37,28,21,40,33,41,41,39,41,33,49,62,48,50,37,47,41,42,47,50
50,43,56,49,31,61,60,56,32,45,45,40,39,33,22,45,41,43,34,42,40,31,50,64,53,51,35,46,39,45,48,48
49,42,51,51,28,61,64,57,36,45,44,37,39,37,25,47,43,45,36,45,39,31,51,65,54,49,37,47,41,44,47,48
44,41,49,50,26,61,63,52,34,47,47,38,42,43,28,48,49,44,42,44,40,34,51,64,54,52,36,45,45,43,46,49
44,36,48,46,21,57,64,51,32,45,49,37,37,46,28,43,45,37,36,39,39,27,46,62,52,48,34,41,48,45,43,47
44,33,48,41,19,56,58,46,32,43,50,39,36,45,30,42,45,36,36,40,38,28,45,63,50,43,34,45,49,41,41,45
44,31,46,37,20,55,59,43,31,40,50,36,36,43,30,46,46,39,36,43,41,32,47,64,53,40,38,44,49,44,40,49
41,34,49,35,23,54,60,42,29,43,52,35,35,41,28,48,46,38,34,44,39,34,48,64,50,42,34,41,46,38,40,50
41,36,50,33,25,54,63,43,30,46,54,38,42,44,29,45,47,35,39,44,37,36,51,63,53,49,39,40,50,42,43,54
40,37,53,33,26,52,65,38,25,43,49,37,39,39,25,37,41,29,38,38,33,34,54,59,49,51,39,35,50,35,39,52
36,32,51,28,22,49,62,35,20,39,48,37,40,35,29,38,43,30,42,41,33,34,54,59,52,50,42,36,50,32,34,49
33,29,50,23,22,51,60,37,20,37,48,41,38,32,30,36,40,31,45,41,34,35,54,59,49,45,45,34,49,27,29,48
34,29,51,17,23,52,60,38,17,39,51,43,39,30,33,36,40,29,45,38,32,34,58,60,47,47,47,35,51,31,31,48
39,29,53,17,24,52,62,42,14,36,50,45,41,26,31,36,37,35,43,39,35,33,54,59,47,42,43,37,48,34,28,45
38,34,54,20,27,55,62,41,15,37,51,45,43,26,33,37,41,39,43,45,36,41,58,63,47,43,40,39,47,35,28,43
33,32,52,22,31,57,65,42,19,37,49,46,42,24,35,39,43,38,43,44,35,42,59,63,49,45,39,35,46,37,27,42
33,32,54,26,31,56,62,47,18,37,47,45,44,24,38,37,43,37,46,45,37,40,56,59,47,44,38,38,48,38,28,40
37,28,49,31,30,57,56,47,18,35,43,44,44,20,39,35,41,33,46,41,39,38,55,61,48,43,41,36,49,43,29,35
39,28,48,31,34,56,57,46,15,34,41,41,40,16,45,39,45,36,43,45,44,35,52,61,48,37,37,38,46,40,29,29
37,27,47,35,37,56,52,48,17,33,41,41,41,16,46,42,49,39,42,48,50,39,53,62,52,31,34,40,43,41,31,30
40,34,50,36,40,58,50,51,22,34,42,39,44,16,45,41,47,38,40,47,50,42,53,61,50,30,34,42,44,44,32,33
39,36,50,39,39,58,52,52,26,36,42,36,46,15,46,42,48,40,42,50,54,40,54,59,49,35,33,44,45,44,35,38
39,38,48,43,39,58,52,53,26,37,42,37,45,18,44,42,46,43,44,50,58,42,49,59,50,33,35,47,45,45,35,37
39,36,49,42,37,58,51,53,32,37,43,37,45,21,46,46,49,44,45,50,59,45,50,60,51,35,38,46,47,44,37,40
40,31,50,41,36,59,48,54,30,40,41,37,45,22,44,51,49,43,51,49,59,39,48,57,51,35,42,45,49,45,42,39
43,33,54,44,36,59,48,56,24,40,42,39,44,24,43,49,47,42,49,48,57,34,45,58,48,30,40,45,46,40,40,38
44,34,54,46,36,61,49,56,28,44,43,43,46,30,46,52,50,42,52,50,58,36,47,60,49,28,43,46,45,41,41,40
42,36,56,45,36,63,52,55,36,41,45,39,46,36,48,52,52,45,51,52,58,36,47,58,52,27,43,48,48,41,41,43
46,35,58,45,37,64,51,56,38,38,41,35,43,37,44,48,46,43,50,45,55,38,49,56,52,31,45,46,50,38,45,49
47,36,57,40,36,63,54,51,38,35,42,30,43,36,40,44,41,45,43,44,55,38,49,55,48,36,49,47,52,41,44,47
47,31,58,45,37,63,52,49,37,35,42,32,43,39,37,40,40,42,41,40,55,39,52,57,51,37,49,45,53,41,44,46
48,31,58,48,37,63,48,48,36,37,41,32,41,40,32,37,38,41,36,36,52,41,48,58,51,31,50,46,50,44,43,40
47,31,59,48,36,60,45,44,38,32,37,31,40,34,32,32,40,36,32,38,46,36,45,58,46,32,49,38,53,39,43,42
47,34,57,49,33,59,44,41,34,30,32,28,38,28,29,30,34,32,26,38,40,30,45,53,43,28,49,36,52,41,39,41
48,42,54,50,30,59,43,40,36,23,28,24,36,25,29,22,30,28,19,36,38,33,46,52,42,31,47,35,50,39,37,41
48,43,54,52,27,57,43,42,40,19,26,19,32,28,28,20,30,26,20,34,37,39,48,52,45,33,47,37,48,45,39,42
45,42,51,49,30,57,42,44,35,15,24,16,31,23,23,17,27,25,18,33,31,37,48,51,40,37,46,33,48,44,40,42
47,39,49,47,30,55,41,47,33,20,24,22,33,21,23,17,26,28,20,33,31,40,49,53,39,37,45,34,50,46,41,44
43,42,47,50,28,53,39,47,33,22,27,23,37,21,24,20,26,27,24,36,31,40,47,52,37,35,41,30,47,46,37,41
44,44,48,49,27,53,39,50,33,24,27,25,37,22,26,24,30,24,28,38,28,40,48,52,39,34,41,26,49,47,39,42
43,48,46,50,27,53,45,49,32,25,27,25,34,23,32,28,32,24,28,40,29,37,47,50,37,33,43,26,48,49,41,43
46,48,48,49,26,53,47,47,33,24,29,25,38,23,37,30,35,24,31,39,32,41,51,49,38,36,45,25,50,47,41,48
45,48,50,52,28,52,49,47,32,30,30,24,36,27,39,33,31,27,35,37,33,43,57,49,39,37,39,29,51,49,38,47
42,45,51,52,31,53,49,49,36,33,31,29,36,31,38,33,33,27,38,34,36,46,56,55,40,39,38,31,52,45,41,45
40,39,56,51,34,51,55,51,37,36,35,34,38,29,40,38,36,30,41,34,37,45,54,55,43,36,40,32,53,44,40,50
39,40,53,48,33,52,55,49,33,38,37,33,42,24,40,41,37,30,38,32,33,39,52,55,38,38,38,28,53,39,38,49
42,40,54,51,28,53,56,48,37,38,40,34,42,24,44,40,38,27,37,29,38,44,52,58,42,37,35,32,49,35,35,45
40,40,52,50,25,54,58,44,34,36,38,32,42,24,40,40,38,22,34,30,38,42,53,58,38,35,35,32,43,34,33,39
39,39,52,51,21,57,60,48,32,39,38,33,38,23,40,38,38,25,34,27,36,40,55,60,39,36,38,38,44,38,33,39
39,39,49,53,23,54,58,47,34,38,39,33,38,25,41,39,36,27,32,27,34,39,50,59,37,34,36,41,39,35,31,38
40,38,50,50,21,56,58,45,36,43,39,35,43,24,43,41,37,29,37,29,37,40,51,59,35,31,31,40,36,31,29,37
38,38,51,48,25,56,61,42,35,43,39,37,38,23,39,41,31,27,36,33,33,36,48,61,33,30,27,43,34,28,27,35
37,37,52,45,23,60,60,46,34,41,39,40,41,20,39,39,35,26,34,34,34,39,46,60,36,30,30,44,27,30,28,36
42,41,53,47,25,59,62,47,32,41,42,37,40,22,41,39,38,30,34,38,36,38,47,59,38,33,32,44,30,33,30,37
41,44,48,48,25,59,61,44,32,42,42,36,42,22,40,38,36,32,34,40,34,38,48,61,39,35,29,42,29,34,29,35
42,45,45,48,29,58,60,49,34,44,42,35,40,26,44,35,34,32,34,42,36,40,46,62,41,36,33,48,34,38,32,37
39,45,46,46,31,56,62,43,33,44,38,35,40,31,40,34,33,35,39,43,38,41,44,61,40,35,37,46,39,39,35,41
39,48,49,47,31,55,59,43,30,41,37,31,39,27,39,30,29,32,39,37,36,38,43,58,45,34,39,43,40,39,38,45
40,48,50,42,36,55,57,39,32,39,36,33,41,25,41,31,34,29,41,42,36,41,43,57,44,32,40,42,37,35,36,41
35,44,51,43,35,59,58,38,31,41,34,35,40,22,43,29,35,29,40,40,40,43,46,57,42,29,38,42,35,35,31,44
31,40,47,44,34,55,54,40,27,35,33,31,36,22,39,27,36,31,35,37,39,47,44,57,39,30,38,41,36,35,29,44
31,35,45,46,34,55,51,43,25,33,33,30,39,21,41,27,40,32,34,32,35,47,47,55,43,32,39,38,37,35,29,43
35,34,45,44,35,53,52,38,24,29,31,29,39,21,39,28,42,31,35,29,35,47,47,57,42,33,42,37,40,32,31,42
31,33,43,43,33,53,51,39,23,31,28,27,39,18,41,24,38,26,32,24,35,48,49,55,39,28,38,35,39,30,28,41
33,30,45,40,31,54,46,39,21,30,26,25,37,22,39,20,38,23,28,21,33,48,50,51,33,25,35,35,38,25,25,38
31,31,49,40,29,55,46,35,25,29,25,28,39,18,37,21,41,25,29,21,35,51,52,53,33,22,29,29,33,21,20,36
28,28,47,36,28,54,39,40,26,32,24,30,37,18,38,22,40,26,26,20,32,46,55,51,32,22,24,26,28,16,14,33
27,24,45,33,27,53,39,37,26,34,25,35,37,19,38,24,41,28,25,19,32,47,53,54,29,22,21,27,26,13,10,35
26,25,48,35,28,51,39,36,22,32,25,33,33,19,35,24,40,28,18,19,34,45,51,55,30,24,19,25,28,14,10,38
32,29,50,31,25,50,38,36,19,31,25,30,30,19,33,21,35,25,16,21,28,40,51,57,36,28,22,27,35,15,14,34
38,33,52,29,26,54,39,39,22,35,28,29,27,18,33,20,35,24,16,23,26,34,50,56,41,32,28,31,38,19,19,36
37,36,50,27,26,53,41,42,21,33,28,28,29,21,32,20,32,26,17,25,26,36,52,55,41,29,28,30,40,22,21,38
36,37,50,25,26,51,43,44,23,34,30,24,29,23,37,23,29,29,19,27,27,33,55,56,43,28,26,33,38,23,18,39
39,37,51,23,29,50,45,44,20,36,31,26,28,26,37,28,32,30,24,32,27,33,55,61,45,31,25,32,37,25,19,39
35,36,51,24,30,47,51,44,22,39,32,28,28,23,38,33,33,28,31,32,30,33,55,62,47,34,26,33,36,26,22,42
35,31,50,21,30,50,53,47,19,43,33,27,27,24,40,36,30,31,37,31,28,29,54,59,45,35,29,35,39,27,27,41
35,31,54,22,30,50,60,46,15,39,33,29,24,20,37,34,36,28,34,29,27,27,54,61,45,33,29,37,39,27,29,38
40,31,54,23,32,55,61,53,17,38,34,28,28,19,41,36,38,30,36,30,30,32,57,57,48,39,31,35,41,29,31,40
41,32,55,24,30,54,64,55,21,41,38,31,31,19,43,39,40,31,43,27,31,32,60,54,43,40,27,37,39,27,31,41
39,31,55,25,29,52,66,57,25,38,36,38,39,19,46,46,44,38,50,26,38,39,60,52,41,42,25,34,37,26,32,46
37,30,56,28,29,52,66,54,22,39,33,42,42,21,49,47,40,40,55,29,39,41,61,55,41,42,21,31,35,25,31,40
38,32,58,29,30,49,65,51,24,39,34,44,36,17,47,44,40,39,56,29,40,36,60,56,42,46,22,32,36,26,32,38
38,30,54,33,28,50,64,57,25,38,37,47,38,14,46,42,40,38,58,29,46,42,62,55,44,50,25,28,39,28,36,42
37,32,54,36,31,51,62,57,28,36,37,48,40,11,46,41,37,43,57,29,47,45,61,54,45,51,31,33,40,29,38,45
41,36,53,38,31,53,60,59,26,33,41,50,38,9,48,42,38,48,56,32,48,46,56,54,49,50,31,34,44,33,42,46
41,39,52,41,32,51,59,61,27,31,42,51,40,12,49,43,43,46,50,36,48,45,56,56,52,49,34,41,47,40,43,49
47,46,54,48,33,51,59,57,29,32,46,47,47,18,55,49,43,53,53,43,51,47,55,55,53,51,35,43,49,43,47,53
45,52,55,51,34,48,60,55,27,37,47,46,44,17,53,49,42,50,53,49,50,43,52,57,52,47,37,48,51,45,47,48
41,49,50,49,31,50,60,52,23,36,46,48,43,19,56,48,43,51,53,50,48,42,49,57,55,44,42,50,53,47,51,50
40,45,46,47,33,52,61,47,25,41,43,45,41,21,51,43,40,45,51,49,45,39,49,59,53,42,42,51,53,49,50,48
39,44,44,45,37,51,64,43,30,39,43,44,40,19,47,42,41,43,50,47,44,36,48,60,52,42,41,53,51,47,49,50
35,45,46,46,31,52,62,42,29,43,40,41,42,22,46,42,45,42,51,45,47,38,43,59,49,39,37,55,45,43,45,49
32,44,48,43,30,53,65,37,30,43,38,42,38,23,42,44,45,41,51,45,43,33,37,60,45,36,30,52,44,38,42,48
33,43,49,42,25,52,63,30,27,42,37,41,33,23,41,43,45,35,49,43,39,29,34,56,41,31,29,49,45,37,42,43
29,41,51,46,22,49,62,24,25,38,36,37,32,29,40,42,44,34,48,41,40,28,38,56,41,33,30,50,43,37,37,40
28,42,52,44,19,49,61,17,25,38,36,37,32,25,39,37,40,30,51,42,45,31,37,57,41,36,26,41,38,34,32,39
25,38,50,44,19,51,61,19,25,34,34,38,29,19,39,35,37,27,49,41,41,31,31,57,41,37,23,37,39,35,27,41
21,37,49,45,19,50,62,18,25,28,30,40,28,19,41,35,39,30,46,36,43,32,31,58,42,35,18,38,37,35,27,42
23,37,51,46,20,48,59,20,29,24,28,36,27,19,35,33,35,29,41,33,41,32,31,60,39,35,14,33,35,35,24,35
25,39,53,51,20,48,55,22,25,23,29,31,25,17,37,35,34,29,39,35,41,34,33,61,41,35,18,33,38,35,21,37
22,40,54,51,14,45,52,22,20,20,28,27,22,17,34,33,34,28,38,32,41,36,36,61,40,33,16,34,38,32,18,35
24,37,54,50,16,42,54,20,16,16,27,28,20,17,36,34,29,26,33,31,37,34,40,59,36,32,16,33,40,37,20,33
24,37,58,54,20,40,52,17,12,16,26,25,22,22,34,33,31,26,31,33,38,31,40,60,39,32,18,39,38,42,20,29
21,35,59,54,20,40,51,17,16,19,25,22,24,22,35,32,36,26,30,32,37,32,40,61,41,34,14,41,33,39,16,30
20,37,60,51,18,46,50,19,19,24,23,20,26,15,31,27,31,21,27,29,37,29,39,61,39,31,19,41,35,41,18,28
23,36,59,54,22,47,47,24,18,24,20,17,22,16,29,27,30,20,22,27,33,30,40,59,41,31,23,46,37,41,19,28
26,38,62,54,27,46,42,19,18,28,22,16,18,19,22,22,28,18,22,22,32,30,42,57,42,30,26,50,38,40,19,24
28,31,60,49,22,47,43,15,20,32,26,12,18,24,21,19,28,17,22,26,32,30,40,54,38,33,28,46,39,39,20,25
31,32,61,48,23,48,47,13,16,35,28,12,20,23,24,22,30,15,26,30,37,32,40,54,45,37,31,53,45,39,21,31
32,34,61,48,22,48,51,14,17,35,33,15,22,27,25,23,35,16,29,32,39,32,39,55,48,37,29,55,42,39,24,29
36,34,62,50,26,51,53,21,20,39,36,16,28,31,30,26,38,16,30,36,42,36,39,52,52,42,36,54,46,46,30,34
38,33,62,51,30,55,51,26,22,40,37,15,34,33,27,27,42,15,33,37,43,41,42,55,57,44,41,52,48,46,32,39
41,36,57,47,30,57,52,26,24,42,37,13,34,31,33,27,41,13,34,35,44,44,42,56,57,40,43,47,53,44,33,40
42,38,55,48,31,58,53,26,24,41,41,13,36,32,33,28,40,19,37,36,46,47,45,58,58,37,45,47,55,46,36,45
48,38,54,47,34,56,58,32,28,43,44,15,39,32,38,32,42,22,40,39,49,51,48,59,58,39,42,45,53,45,38,50
49,37,53,47,33,54,59,27,25,45,44,17,41,33,40,36,44,26,47,42,49,49,45,60,55,39,37,44,50,44,41,47
51,33,51,43,29,53,64,27,27,47,43,17,43,33,43,39,45,27,47,43,53,49,45,61,55,41,38,42,51,45,47,49
53,36,54,44,31,50,62,30,27,47,43,19,43,31,41,43,43,27,49,41,55,46,46,63,59,40,38,43,53,42,43,48
50,38,54,46,33,50,57,32,30,45,41,17,40,34,36,40,42,28,45,39,52,42,46,63,58,36,34,38,48,42,40,44
49,40,55,46,35,51,57,29,32,44,41,14,39,30,34,41,41,29,45,40,52,38,46,61,59,36,34,38,50,39,42,44
44,42,57,44,31,53,55,24,31,43,40,13,36,25,33,42,39,31,43,41,51,37,43,63,55,33,29,33,43,35,37,45
47,48,54,43,26,52,57,22,29,42,45,13,35,21,39,45,39,35,41,45,51,35,40,61,55,31,27,34,41,36,35,40
47,47,59,45,26,51,56,27,31,40,45,13,33,18,36,46,40,35,40,45,48,35,41,61,56,35,26,35,40,37,37,40
48,46,59,42,25,52,54,35,32,40,44,13,30,18,38,48,38,29,39,45,45,33,42,61,56,42,28,39,41,41,36,40
45,44,59,44,26,55,49,33,28,36,42,14,28,21,35,47,36,29,37,43,42,30,42,59,56,38,30,38,39,38,32,36
48,44,61,44,26,57,51,39,33,37,43,16,26,23,33,49,39,29,33,40,44,34,46,58,57,36,35,38,41,38,31,37
47,48,61,47,27,60,50,44,32,34,44,18,26,24,34,53,38,28,38,40,42,34,50,59,60,35,38,41,39,40,30,40
46,48,62,48,27,62,51,45,31,34,45,16,29,24,37,53,40,31,40,42,38,37,51,62,60,37,43,42,40,43,33,40
45,43,62,41,27,62,50,45,29,34,44,14,29,20,38,52,41,30,38,41,39,37,51,61,57,41,47,43,38,41,35,37
45,43,61,35,22,60,46,43,25,33,40,15,27,26,39,51,38,31,34,35,37,39,49,60,52,41,47,40,35,44,35,37
48,36,58,34,25,56,46,46,25,31,36,17,24,26,37,46,35,27,31,31,31,33,47,57,51,41,45,39,35,41,33,33
42,29,58,32,26,56,50,47,25,35,31,19,19,25,35,41,31,23,29,29,31,33,46,57,51,41,43,39,35,39,33,35
37,28,53,30,26,54,51,42,27,35,31,22,21,24,33,39,27,26,28,28,34,36,45,57,48,38,40,38,30,34,29,32
33,29,52,29,28,51,51,36,26,33,29,25,25,25,29,36,26,29,27,29,35,38,43,57,47,33,37,33,25,28,28,28
33,29,53,25,25,50,55,38,28,33,31,23,23,23,29,35,24,29,27,31,36,40,41,59,50,36,32,32,27,28,29,27
29,29,53,23,24,47,55,37,26,27,30,24,24,22,28,30,22,30,30,33,34,38,43,61,49,33,31,31,24,29,29,27
24,27,51,18,22,43,52,38,27,25,26,21,25,19,25,26,25,29,27,35,34,38,42,62,48,31,23,30,23,25,23,23
25,30,51,19,22,45,50,38,30,26,22,19,21,15,22,22,19,22,27,31,37,37,43,59,47,29,20,27,17,22,21,21
25,30,51,19,22,45,53,37,29,25,23,19,19,17,25,25,17,23,29,35,37,39,46,61,48,26,19,27,20,24,23,23
27,25,52,25,22,47,55,44,31,27,25,19,19,12,25,25,16,23,29,39,37,37,49,62,50,27,21,28,23,26,20,23
25,29,51,28,23,48,55,41,33,31,27,19,23,17,25,29,20,27,36,39,42,41,54,62,55,28,24,30,29,28,26,25
29,35,51,35,26,50,54,42,38,29,31,24,25,21,27,35,23,33,41,42,46,41,53,62,54,32,23,27,33,26,29,27
34,32,52,38,26,51,53,44,38,30,33,23,22,23,28,34,26,31,42,42,44,36,58,60,56,36,28,28,36,28,33,30
38,32,56,43,26,53,53,44,36,32,38,21,20,22,28,34,26,32,43,43,43,37,58,55,58,40,30,30,42,29,35,31
36,30,52,47,27,53,52,39,31,30,36,20,24,24,31,36,30,30,40,44,40,33,56,54,52,41,29,26,42,32,34,33
40,31,52,46,26,55,52,38,35,32,36,20,22,27,32,40,30,26,38,44,40,34,55,52,51,42,25,28,45,30,30,33
41,30,50,51,27,56,55,32,33,31,35,22,19,29,31,37,25,28,34,39,39,34,54,52,48,43,25,24,45,31,31,35
41,28,47,50,31,55,55,31,30,30,36,22,22,30,32,36,28,32,34,37,38,34,54,53,48,41,27,26,50,37,34,36
45,33,47,56,31,59,55,32,31,30,40,24,27,31,33,35,31,31,35,35,35,33,53,51,49,40,27,26,52,37,34,38
42,36,47,53,35,57,55,27,33,27,37,25,25,34,32,34,36,33,36,37,37,31,50,54,51,38,27,25,51,35,35,36
44,36,52,49,35,56,59,26,29,27,40,27,23,34,34,32,37,32,31,38,31,28,46,55,47,33,25,23,48,37,31,34
43,34,53,42,34,56,57,21,24,25,38,22,25,31,31,29,35,26,26,35,29,24,50,53,47,29,29,25,48,39,28,32
38,33,54,41,32,59,57,23,21,22,39,20,26,31,33,32,32,28,26,36,28,26,48,55,46,24,30,30,48,42,29,34
36,29,53,36,28,58,60,24,21,20,31,25,29,29,32,29,32,29,26,34,30,24,44,58,45,20,26,30,42,41,25,35
34,29,53,30,28,58,62,26,23,18,28,24,25,26,28,24,30,33,29,30,35,27,47,58,49,19,29,31,41,37,23,36
28,30,54,33,31,57,64,21,20,17,26,19,25,20,29,21,28,32,28,28,36,26,45,61,52,21,33,33,42,38,26,38
29,28,56,29,29,60,65,23,20,17,30,17,29,19,30,24,34,33,31,34,39,30,46,61,56,21,37,39,43,37,29,37
26,26,57,27,23,57,64,23,24,17,29,19,29,22,31,27,35,33,29,40,39,33,45,60,53,18,31,40,37,31,25,35
21,20,56,23,20,54,66,22,28,15,23,17,24,18,26,24,31,32,26,36,40,36,46,63,49,20,30,39,31,29,22,33
22,22,54,24,19,54,63,21,27,16,24,16,24,14,27,25,26,29,23,35,40,42,47,62,47,19,29,41,29,31,19,36
22,23,54,25,18,58,60,23,31,16,23,15,25,10,29,23,23,26,22,32,40,42,48,65,48,20,30,45,27,33,20,38
22,24,56,30,19,57,63,26,34,16,20,14,20,10,28,20,24,28,25,31,39,45,48,68,47,23,30,48,26,33,24,39
24,29,54,29,22,57,63,29,35,15,17,14,19,12,26,15,25,26,25,29,39,43,49,68,48,27,27,43,25,29,21,37
24,32,52,32,24,57,62,31,35,17,21,13,19,15,28,19,27,24,28,31,42,46,52,67,47,26,30,44,30,34,24,38
32,32,52,37,25,57,61,33,33,21,27,13,21,20,32,24,28,23,27,32,39,45,55,66,46,23,29,47,31,33,28,41
37,31,51,37,24,57,58,37,33,21,30,19,22,25,32,27,29,27,25,33,34,43,58,60,47,24,29,44,29,31,28,42
39,37,49,41,25,54,57,35,30,26,32,23,25,26,35,25,26,26,26,34,32,40,55,59,47,27,34,46,32,38,29,40
40,41,50,45,29,57,58,37,29,27,36,24,26,30,38,23,28,30,28,37,32,40,54,61,46,32,36,46,38,38,34,44
42,42,51,47,32,59,56,39,26,31,38,25,27,33,39,25,29,32,32,38,34,37,51,62,50,32,36,46,40,38,37,44
41,41,53,45,32,57,58,43,26,35,41,29,31,37,37,25,33,33,37,39,35,35,53,60,52,34,36,42,42,36,40,43
38,38,49,45,28,55,58,45,23,38,43,32,33,38,36,28,37,33,41,43,39,37,55,59,57,37,33,38,42,34,37,41
38,34,48,44,23,58,58,46,21,40,45,33,38,41,39,31,36,34,44,45,44,38,54,57,60,38,34,34,47,39,33,45
41,30,50,42,19,57,56,47,22,44,44,39,37,39,40,34,36,36,43,47,46,41,55,53,59,38,35,35,43,41,30,46
41,29,53,41,19,57,51,49,22,45,43,39,35,39,38,32,34,34,39,48,44,37,56,54,60,41,36,34,41,41,31,45
38,32,56,41,21,57,50,51,23,45,42,44,37,36,40,33,37,33,43,50,48,39,53,54,59,47,38,34,42,46,32,45
36,32,57,40,21,58,52,53,23,47,41,40,37,31,40,34,36,30,44,46,56,40,51,57,58,48,38,32,44,46,35,43
36,29,60,37,24,61,54,57,24,47,37,39,35,31,40,34,40,29,43,40,55,43,55,55,51,47,32,23,39,40,34,45
41,29,61,37,26,63,53,57,27,50,39,41,39,30,39,37,38,28,38,32,58,45,59,53,56,46,36,26,36,40,34,47
43,29,59,34,25,62,54,54,29,52,43,39,38,30,40,38,37,26,34,30,57,47,63,50,55,45,37,27,37,38,33,53
42,29,59,36,25,64,54,52,29,50,40,35,36,27,41,38,36,27,32,29,59,46,61,50,53,44,39,33,39,39,32,51
46,29,60,36,27,66,54,48,34,45,40,34,37,27,43,33,31,32,32,27,58,48,60,51,50,46,44,34,40,39,34,54
47,32,59,33,27,66,52,49,37,44,42,34,35,27,42,32,33,35,32,24,58,48,58,52,51,42,43,41,37,36,36,51
46,36,61,33,29,67,52,48,36,44,42,31,39,30,44,34,34,37,35,23,59,48,59,55,53,43,45,43,41,39,40,51
48,36,58,35,29,68,55,44,36,44,44,32,40,26,47,38,36,40,37,24,57,49,57,57,51,41,42,44,43,35,39,53
48,35,56,33,27,68,55,38,37,46,42,33,37,29,45,35,35,39,33,22,54,45,54,56,52,35,42,44,42,30,34,50
47,34,56,34,26,68,54,34,36,46,44,34,41,31,42,35,33,44,37,27,49,44,53,58,51,29,42,46,43,32,31,52
46,36,56,35,26,67,53,32,41,47,48,38,40,36,42,40,33,46,38,30,48,42,52,58,56,29,44,52,48,34,34,54
41,36,52,34,23,63,54,29,37,45,47,36,35,29,40,42,36,42,39,34,41,37,50,61,56,29,42,48,46,36,32,53
43,37,55,34,27,62,53,32,35,44,46,42,39,30,43,41,39,44,42,40,43,35,49,63,55,34,43,47,47,40,33,50
42,37,54,34,27,61,55,32,33,41,49,41,41,30,42,39,39,43,42,38,44,34,48,63,57,32,42,47,45,39,34,50
39,38,53,33,27,59,55,33,29,40,47,38,39,28,38,44,44,39,39,42,45,31,47,62,55,28,37,47,43,37,33,49
39,36,53,34,28,57,58,32,28,42,46,38,37,27,36,44,44,35,35,42,43,30,50,61,49,32,37,43,40,34,31,50
39,35,49,38,29,57,60,26,30,39,47,39,34,26,35,41,43,31,30,43,43,27,44,60,48,30,35,39,39,31,32,49
39,33,51,34,30,58,61,21,31,40,48,35,31,26,33,37,42,27,25,39,43,25,43,60,50,29,37,39,39,35,31,45
38,32,51,33,27,60,65,19,29,36,50,30,33,23,35,36,41,31,29,41,45,27,46,64,48,32,38,40,36,36,36,47
38,33,49,30,27,61,66,18,32,40,50,28,33,24,36,32,42,29,28,38,47,29,50,63,47,35,37,42,32,35,36,46
36,35,48,26,25,59,67,16,27,36,47,23,34,19,35,30,37,29,25,34,47,30,50,63,45,39,39,41,30,37,32,47
37,34,51,28,24,57,69,14,29,38,42,25,35,21,36,27,35,31,28,32,48,31,48,62,44,39,37,41,29,35,29,43
34,34,51,32,18,56,69,9,29,37,39,25,34,19,35,32,35,34,29,29,46,31,43,61,47,32,33,37,26,31,27,38
34,32,54,32,18,59,66,7,31,40,38,24,33,22,37,34,33,35,26,31,44,28,42,62,48,30,34,31,24,31,28,38
33,29,52,31,16,61,67,7,33,44,43,25,34,27,37,29,34,35,31,29,42,30,40,64,49,29,35,32,23,35,27,36
29,33,53,27,17,62,64,4,32,46,44,26,34,26,35,27,33,33,31,33,42,30,36,66,47,26,33,30,21,39,27,31
27,35,53,22,16,57,64,9,27,49,43,26,36,27,33,27,31,37,32,34,40,30,39,66,43,24,31,33,21,39,24,28
25,41,49,19,13,57,64,14,25,49,45,25,36,32,35,30,31,41,33,37,39,33,43,64,43,23,32,30,23,40,28,31
24,44,50,18,14,54,62,19,29,56,43,27,35,34,33,34,31,37,29,35,37,35,42,63,46,23,33,28,24,42,27,30
23,39,55,16,14,54,59,20,27,53,39,29,36,37,35,35,31,33,32,37,39,36,41,64,46,24,35,24,29,47,28,30
22,33,56,16,12,57,59,25,29,57,37,31,36,37,33,30,31,33,31,41,41,36,39,64,44,18,34,20,28,45,28,27
22,37,56,13,10,59,54,29,26,54,37,31,35,35,29,27,26,31,30,45,46,40,42,63,45,13,32,17,32,50,30,30
22,34,57,14,10,56,53,33,27,55,38,28,35,37,26,22,24,29,28,44,46,41,45,65,46,16,33,17,32,53,29,32
23,36,59,14,12,51,57,38,27,56,40,32,37,38,26,21,26,29,34,44,49,46,50,62,46,20,32,20,36,52,26,36
28,44,57,16,14,44,56,43,30,57,38,32,38,33,28,26,21,28,32,44,47,45,52,59,48,26,36,22,41,51,32,39
30,41,52,19,14,44,57,47,36,58,40,35,40,31,35,34,21,36,38,45,51,46,55,56,54,31,41,24,49,49,35,41
34,40,50,24,18,49,56,51,42,60,42,37,42,26,42,38,28,36,43,46,55,53,57,56,60,37,45,25,52,50,40,48
38,42,54,29,21,50,56,51,49,60,41,41,46,25,43,37,31,37,49,47,61,55,59,54,59,45,48,30,51,50,38,51
40,42,54,30,24,52,54,51,49,57,43,43,48,25,45,36,32,40,52,48,62,54,59,52,56,48,48,33,54,50,40,51
44,49,54,35,22,49,58,57,49,58,48,42,45,22,46,40,34,46,51,52,62,55,59,50,54,49,46,33,54,46,41,53
43,52,47,36,23,43,56,54,50,54,48,38,42,22,49,42,32,47,50,50,56,56,60,51,51,51,42,31,57,42,39,51
41,47,43,37,27,39,52,52,48,49,46,36,42,22,52,42,32,48,46,44,48,50,58,50,45,53,49,33,54,38,42,50
41,53,39,34,26,38,48,54,45,45,43,33,41,18,55,40,30,44,46,44,45,52,57,46,40,54,50,40,57,37,43,50
41,56,38,36,26,40,47,53,43,42,42,31,38,16,51,41,29,43,41,43,44,47,53,48,32,53,46,37,52,41,43,46
39,50,41,34,26,40,47,51,40,38,41,30,35,19,49,37,30,45,36,40,42,45,54,48,26,51,41,33,49,39,41,41
37,49,43,34,24,34,45,53,34,37,39,26,33,21,44,32,28,40,31,35,36,47,55,48,22,46,33,29,43,37,39,43
32,46,47,32,20,26,42,51,29,35,39,23,31,21,41,31,27,35,29,34,32,43,54,51,18,40,29,25,39,35,35,39
29,41,48,27,23,21,42,52,23,31,37,21,27,20,37,29,23,31,23,32,29,39,51,56,19,38,27,22,38,30,34,36
27,37,49,27,21,19,43,56,21,32,36,20,24,19,36,28,22,30,22,32,26,38,50,57,23,37,27,20,35,27,31,33
23,34,45,25,23,21,43,52,21,31,38,19,21,19,35,29,23,29,21,29,25,34,49,58,26,32,24,23,31,25,27,28
26,32,51,26,24,26,42,53,18,32,39,25,21,21,34,29,29,28,25,30,31,31,49,59,31,34,26,26,27,28,27,29
25,34,55,26,19,32,48,54,19,35,40,27,21,21,35,29,36,29,27,34,35,31,47,59,38,37,22,28,30,26,30,27
24,28,57,26,21,35,50,51,21,36,44,29,23,23,33,31,39,31,29,36,41,31,48,59,40,37,24,26,28,26,28,29
23,23,54,25,23,35,51,54,22,34,43,28,24,22,34,30,41,32,32,35,41,34,52,58,48,34,29,30,31,25,30,32
23,25,51,29,22,41,51,51,20,35,42,29,25,22,36,32,41,34,33,35,43,34,51,59,56,34,30,33,31,25,29,40
23,27,51,28,26,47,52,49,23,37,43,31,26,22,40,30,46,38,34,38,46,33,49,62,59,35,35,40,35,27,29,41
23,28,50,26,30,51,51,43,24,36,38,28,28,24,36,24,40,36,30,34,41,30,49,60,59,35,35,39,33,25,28,36
20,28,45,27,25,48,46,36,22,34,34,26,30,22,34,22,40,38,28,30,36,28,46,55,52,29,30,35,29,23,27,31
17,30,41,30,24,43,41,28,20,34,32,27,32,20,33,21,41,37,29,29,39,25,43,54,46,26,26,35,28,22,28,30
19,28,39,31,24,39,40,23,17,31,26,29,34,18,35,14,38,37,28,26,41,24,41,54,47,28,26,34,31,25,31,32
18,29,36,33,27,37,43,23,21,32,27,30,37,17,35,14,39,37,27,27,38,24,43,57,45,26,28,36,32,26,35,32
23,27,35,35,32,33,43,25,22,31,31,28,38,20,36,14,38,38,30,25,36,26,44,59,43,23,27,37,31,27,31,28
28,28,38,34,34,35,46,22,26,33,31,28,36,21,37,15,38,43,28,28,34,29,44,61,42,27,26,38,37,26,34,28
29,29,39,31,31,35,42,19,26,33,28,28,34,20,36,12,34,40,26,29,32,26,43,61,36,29,23,36,37,23,33,26
29,27,41,30,31,33,42,21,29,35,29,27,34,19,35,11,33,37,31,33,33,29,42,59,32,32,22,37,39,27,35,22
32,30,41,32,30,29,41,22,26,29,26,25,35,22,31,15,31,35,34,33,36,30,44,58,30,30,22,37,40,28,34,22
33,33,42,35,24,26,43,21,25,25,31,27,31,20,30,16,32,36,34,34,38,32,40,56,34,29,26,42,42,29,34,23
39,34,45,37,23,31,49,23,27,29,37,28,28,20,30,16,30,32,34,34,41,35,41,57,39,31,31,45,43,33,35,25
47,37,51,37,24,36,53,28,33,27,39,30,29,21,29,15,27,34,31,33,42,38,48,57,46,38,38,50,50,34,34,29
46,37,56,34,26,43,54,35,36,29,44,29,28,22,25,18,29,31,34,35,42,41,52,59,45,42,42,53,52,36,36,29
50,40,58,31,25,47,54,38,38,31,47,28,30,19,29,23,27,36,39,36,47,45,52,56,48,43,42,54,54,38,35,33
45,41,56,30,23,49,54,34,39,31,48,31,31,18,28,25,25,33,39,37,49,45,49,51,45,41,41,54,51,35,33,33
40,45,54,34,22,49,54,37,38,32,48,31,33,15,27,28,28,27,41,34,49,41,48,50,47,37,41,49,47,38,32,35
41,49,54,38,21,51,56,40,40,34,50,32,36,14,26,28,26,28,44,35,53,43,49,52,51,39,45,51,47,41,33,38
43,50,57,40,24,51,60,42,40,33,47,33,39,12,25,29,27,29,41,34,52,43,48,53,54,38,50,51,47,37,33,38
42,49,57,37,25,53,61,40,42,35,49,35,35,10,27,29,27,29,38,33,46,40,48,54,55,40,48,46,42,36,32,40
44,47,55,39,26,54,62,45,45,39,43,37,35,10,28,30,28,30,40,34,46,40,52,55,54,41,47,45,42,38,34,43
43,49,53,42,32,53,59,44,46,35,39,38,34,10,30,32,30,32,44,38,47,38,53,55,53,43,47,47,43,39,31,43
37,45,51,38,34,52,60,44,42,34,42,33,35,8,33,35,33,30,46,38,46,36,52,56,51,37,39,39,35,39,33,41
38,46,48,38,34,48,58,42,38,31,37,29,33,5,36,37,37,28,42,38,44,32,46,55,51,34,37,37,34,36,32,43
37,44,47,39,32,47,56,40,33,28,32,26,31,8,30,34,35,25,40,39,40,25,45,55,49,33,35,36,33,35,28,40
38,43,47,39,33,47,55,41,35,27,29,27,31,10,27,33,33,23,35,37,35,22,50,59,47,36,36,32,31,35,29,46
42,38,47,32,31,47,55,43,36,26,28,29,31,10,24,33,33,28,33,37,33,28,51,58,44,37,38,34,29,34,28,43
42,35,47,26,30,48,57,39,37,28,32,30,33,10,29,37,39,27,33,40,32,28,48,60,38,34,32,38,30,32,28,43
41,40,45,28,30,48,55,40,33,25,33,33,35,13,31,39,41,29,35,43,35,28,50,61,35,32,31,39,31,35,31,43
43,38,45,30,28,46,57,43,33,24,31,31,41,15,31,41,43,31,37,45,39,30,47,59,36,33,33,43,35,35,33,43
47,39,49,31,28,47,60,44,34,26,36,30,45,21,37,47,49,37,38,46,40,28,47,61,36,39,34,42,39,39,37,45
45,40,50,30,25,52,63,49,32,34,40,34,48,22,40,49,51,36,35,47,36,27,50,62,38,43,33,41,38,38,40,45
43,42,48,34,26,50,62,47,32,37,39,37,44,24,38,48,48,35,35,47,39,26,46,60,35,44,35,44,42,41,41,45
41,42,51,38,27,50,65,47,32,38,40,38,48,27,39,50,43,39,37,49,37,30,50,60,30,43,34,48,41,44,37,43
38,43,50,41,30,48,64,43,30,39,44,38,44,24,42,52,43,34,34,47,36,32,49,59,26,40,34,47,42,43,40,42
42,42,54,41,30,49,67,43,26,43,48,38,48,24,48,56,48,40,42,54,43,36,45,58,30,38,31,49,48,46,44,41
42,42,54,46,34,48,67,43,25,47,50,38,51,26,53,58,48,43,47,56,48,30,45,59,30,34,28,50,52,48,46,41
47,46,55,48,37,47,66,46,22,45,49,35,46,31,53,53,42,46,48,54,50,32,49,56,35,31,29,46,53,49,49,42
50,46,55,48,39,49,66,42,21,47,49,32,42,33,52,51,39,46,51,54,46,33,53,54,37,32,30,43,54,51,48,39
47,44,55,51,40,48,62,44,20,50,52,32,40,31,55,50,40,46,48,52,46,33,52,54,37,29,28,43,53,51,48,38
45,42,54,48,44,49,61,41,19,49,51,33,37,26,49,42,32,43,48,52,48,34,54,55,36,26,27,46,51,48,47,35
45,41,51,49,47,49,58,37,22,47,50,31,39,27,45,42,28,45,52,52,53,37,52,56,36,18,26,47,52,48,47,39
52,40,53,48,49,51,58,37,28,48,51,30,46,33,44,40,28,49,54,54,48,44,56,57,39,18,30,51,56,51,50,44
54,41,52,49,50,52,57,40,35,51,49,31,48,36,39,35,28,45,53,52,48,45,57,57,45,21,33,44,57,49,50,46
55,43,57,48,50,55,61,46,41,50,48,31,49,39,35,35,29,45,53,51,50,47,60,59,52,26,37,41,57,51,51,52
51,49,54,52,50,54,61,49,41,48,46,28,45,35,34,35,26,44,49,49,48,49,62,61,54,31,42,39,54,52,50,48
48,52,54,51,46,53,60,49,38,46,44,28,44,36,32,32,24,40,46,50,44,52,61,61,59,35,42,38,52,50,48,48
42,44,53,51,41,50,58,44,38,48,40,30,45,32,32,34,28,36,44,46,38,52,60,62,55,37,41,36,47,48,41,44
39,35,57,46,37,45,57,47,42,50,40,33,47,30,34,32,30,35,41,44,39,53,56,61,55,35,39,40,43,46,37,48
38,33,57,38,37,45,59,40,40,47,38,31,42,27,29,29,27,30,38,42,37,50,54,61,55,35,41,37,41,45,36,46
34,34,56,38,34,46,57,41,36,45,35,32,43,30,27,29,29,28,38,45,36,50,48,62,56,33,40,33,42,42,35,46
34,30,58,34,30,43,59,41,35,41,35,33,37,33,25,25,31,28,35,41,33,45,46,63,58,37,42,28,42,42,33,41
31,29,55,31,25,43,57,40,32,37,34,31,29,28,24,24,29,23,31,37,33,37,41,63,54,37,38,25,38,37,27,37
30,24,53,28,22,44,58,33,28,35,34,31,25,25,24,24,30,26,32,36,35,36,41,61,53,36,35,30,32,33,26,33
27,20,51,25,20,39,51,31,23,31,29,30,24,25,23,19,25,25,32,33,32,34,41,60,49,31,34,32,27,29,22,33
27,13,51,21,20,37,47,29,24,32,31,31,23,29,24,16,26,24,32,32,36,32,41,58,46,31,36,37,26,28,23,37
26,14,51,19,25,37,48,26,28,32,30,32,23,30,24,16,26,25,32,28,38,30,46,56,43,32,36,41,26,31,24,40
24,16,46,16,26,40,50,27,30,28,32,34,18,29,22,17,26,26,30,29,40,31,45,56,48,34,42,44,26,32,29,42
23,18,45,21,26,44,50,24,31,27,32,36,14,28,21,19,29,27,31,27,43,25,42,55,48,40,47,42,30,30,32,41
26,24,43,27,25,45,52,25,31,27,35,39,15,29,24,22,31,28,33,27,44,26,42,57,50,38,46,46,32,32,31,40
26,26,44,26,28,45,52,25,33,32,36,35,18,25,28,28,32,30,34,28,44,25,47,53,51,42,45,45,33,33,32,39
25,29,42,29,29,46,53,25,33,33,35,33,24,22,33,30,35,33,39,32,47,31,48,54,45,43,45,47,33,33,33,43
26,36,44,31,31,46,54,28,29,32,35,36,28,19,40,31,43,36,42,36,50,34,51,56,50,43,47,50,38,37,38,45
27,40,46,35,33,49,51,34,30,33,34,37,31,16,40,29,46,33,43,35,51,37,53,58,48,46,48,49,44,42,42,47
32,40,46,36,33,50,56,34,30,37,40,41,37,18,46,32,52,40,47,41,56,40,49,57,50,49,45,50,46,46,44,42
32,42,47,39,28,52,56,34,31,35,36,42,37,18,44,34,53,40,47,39,51,41,48,55,52,48,46,47,46,48,45,39
36,41,46,41,25,55,56,37,29,33,38,40,39,17,46,37,56,41,48,42,52,42,44,57,51,50,46,46,50,48,46,40
41,39,49,44,25,55,55,40,25,35,39,39,38,16,49,35,59,39,49,42,51,40,44,57,50,51,42,48,51,47,47,40
42,41,48,45,27,53,54,45,21,34,41,36,42,17,46,32,56,37,47,41,47,42,47,59,51,50,43,51,53,51,45,43
40,43,50,46,30,55,54,50,22,32,38,34,41,16,46,29,55,38,47,40,47,46,50,57,51,56,44,52,53,47,52,44
41,41,48,49,27,56,55,50,24,27,41,35,40,22,45,29,57,36,50,37,50,49,49,59,51,52,44,54,50,48,47,45
42,42,52,50,26,56,54,53,24,30,40,36,40,21,44,31,56,37,48,35,52,48,52,56,56,51,47,56,51,49,48,46
42,36,52,48,22,54,54,52,26,34,42,38,37,23,38,30,51,35,46,36,52,49,51,54,55,48,47,55,48,47,41,46
39,35,51,46,20,54,57,53,27,36,43,37,36,25,37,32,49,39,44,37,53,46,54,55,57,42,46,54,42,44,37,45
37,33,54,46,20,54,57,51,30,40,45,38,30,25,39,34,45,35,40,34,49,46,56,57,57,42,48,53,43,43,36,46
38,33,56,46,22,55,58,50,30,45,47,37,29,26,39,31,44,36,38,34,48,46,55,59,56,42,46,52,42,40,36,46
35,32,56,47,20,52,59,50,31,49,48,36,27,25,38,28,46,38,35,35,45,43,53,58,55,35,41,49,35,35,29,41
34,36,56,47,21,47,58,47,28,48,48,32,30,27,36,28,42,38,34,32,43,39,51,56,53,32,41,44,32,36,28,41
32,33,54,43,19,49,60,44,29,46,43,28,29,26,38,30,44,38,33,33,39,36,51,56,48,30,34,36,24,29,24,34
32,27,56,41,19,45,58,45,29,50,44,29,34,29,40,30,45,38,38,34,39,37,52,57,45,25,32,37,22,34,19,34
31,24,57,38,20,45,60,48,28,55,39,29,34,24,39,29,43,40,32,31,34,38,50,55,42,29,29,31,23,35,25,36
27,24,57,37,20,40,60,51,30,49,39,25,29,23,35,27,43,33,27,27,29,33,45,58,39,28,24,31,23,33,24,35
26,24,58,42,22,38,61,54,28,48,39,23,29,24,39,34,47,37,30,24,30,35,42,58,35,28,22,29,18,32,26,30
27,23,59,39,25,32,60,53,23,44,40,22,25,24,42,34,46,38,27,23,27,35,39,56,34,31,23,31,17,33,27,29
28,24,56,39,27,30,58,53,19,36,34,17,24,21,34,32,44,34,24,24,22,30,39,55,31,29,19,26,14,34,27,27
27,22,55,39,30,31,60,55,17,33,33,17,25,16,33,35,43,33,23,25,23,27,40,54,29,27,15,25,11,35,23,25
28,21,55,38,32,34,60,54,17,31,33,18,24,15,31,37,39,30,23,21,23,27,42,55,32,28,20,26,14,40,23,25
26,23,53,36,32,38,61,56,19,29,28,19,23,14,29,35,37,29,23,23,25,29,40,57,30,27,21,31,17,39,25,23
26,27,55,36,32,34,59,57,21,31,31,23,25,13,26,36,35,29,26,23,28,30,36,60,34,24,24,31,20,41,28,24
25,31,53,33,30,36,57,51,24,27,27,22,22,10,23,37,32,30,23,26,27,27,35,62,32,22,23,28,17,37,25,23
25,32,53,31,26,36,55,43,23,24,30,22,20,8,24,34,30,31,24,26,28,22,36,62,30,21,21,32,19,40,21,23
29,27,53,29,29,39,56,35,21,27,33,24,24,10,26,34,30,33,28,29,29,25,38,56,35,19,23,35,21,46,21,22
27,25,53,24,30,44,54,33,21,28,28,24,25,9,24,29,27,29,29,28,26,22,38,57,38,20,24,34,22,46,22,26
27,23,53,28,27,46,53,34,24,30,30,26,30,12,20,30,25,25,34,30,28,24,39,55,40,19,24,31,25,45,23,27
30,26,55,30,26,52,53,36,29,32,31,26,32,12,21,29,28,30,36,30,32,28,38,56,44,22,26,34,28,42,24,29
30,30,55,29,23,50,52,37,29,34,34,26,32,12,18,24,28,29,37,32,30,31,37,58,45,22,28,34,30,40,24,32
32,31,56,29,26,45,55,39,29,36,32,26,31,14,19,23,27,32,38,32,30,34,39,57,43,26,25,34,31,37,24,34
32,26,59,33,27,43,57,41,29,40,36,27,33,15,19,23,29,30,41,31,31,35,42,57,46,26,24,31,29,37,24,37
30,27,57,34,26,46,59,39,28,39,36,29,35,21,23,24,29,32,39,34,33,39,40,54,42,28,24,33,30,39,24,43
29,24,57,39,25,47,59,40,25,39,41,31,39,22,25,26,32,31,39,34,33,39,37,50,41,33,27,34,33,43,27,47
30,24,57,37,23,48,61,45,26,37,41,31,39,25,25,26,34,29,40,39,34,42,35,50,47,32,30,35,33,41,30,44
29,29,53,39,20,46,61,49,27,36,43,35,43,28,30,30,34,33,44,39,37,47,34,54,46,37,28,33,30,38,30,46
29,30,54,37,17,40,62,51,29,36,46,33,42,26,29,27,31,31,38,41,41,47,37,54,45,39,25,35,31,37,27,47
26,30,56,35,17,40,65,51,34,36,46,31,42,21,35,31,34,38,37,43,43,48,36,56,45,38,22,36,28,34,24,48
22,29,55,34,16,36,65,52,33,39,48,35,43,22,36,34,37,39,41,43,43,45,38,56,46,37,20,35,26,36,24,48
22,28,56,33,16,35,65,50,35,38,46,38,42,28,40,38,38,40,44,42,46,46,38,50,42,40,22,36,30,38,26,48
18,28,53,34,11,36,63,48,36,35,46,39,44,26,37,37,38,35,43,45,49,49,34,51,43,38,22,37,28,38,26,44
21,32,51,30,10,39,62,46,37,36,44,38,41,27,40,40,38,38,41,50,51,47,37,51,45,38,22,33,28,37,22,41
27,34,50,31,13,39,62,47,38,34,43,35,39,24,37,35,37,36,41,47,49,45,41,51,49,37,21,37,25,37,23,39
28,34,51,26,15,39,64,49,38,37,41,35,36,25,36,32,34,36,40,45,48,46,44,54,55,38,16,36,26,36,22,38
29,36,50,25,16,39,66,46,42,39,43,34,37,23,36,37,33,34,41,45,51,47,48,55,51,37,17,34,23,33,19,37
31,35,55,21,18,41,65,49,39,41,41,32,35,18,35,35,31,28,39,45,50,45,49,55,48,37,20,34,21,31,16,37
36,37,52,25,21,47,64,48,35,39,41,34,36,18,37,38,36,30,44,43,47,46,48,57,50,38,20,34,26,34,24,36
37,43,51,29,26,49,61,44,28,41,39,33,37,18,36,37,35,29,45,44,47,46,48,56,49,41,20,38,34,40,26,39
38,45,50,28,26,52,61,39,24,40,35,31,37,17,33,33,29,31,43,45,52,46,43,59,47,42,26,41,39,41,29,42
41,43,50,31,26,54,62,39,23,38,36,30,38,14,32,31,25,30,41,46,53,43,45,62,49,42,26,46,36,42,30,42
41,45,52,30,29,58,62,38,23,41,37,29,37,18,35,32,23,33,40,44,50,36,45,59,50,43,29,45,37,45,37,47
40,42,54,34,30,59,59,34,22,39,39,27,39,17,34,33,22,32,40,41,47,39,44,60,46,45,28,49,42,48,40,49
38,41,55,36,28,60,57,30,21,39,43,27,35,15,33,35,21,31,41,39,47,37,44,59,44,48,26,46,44,47,40,46
42,39,56,39,27,61,57,29,18,39,43,28,35,17,33,33,19,31,40,39,45,34,44,59,43,46,28,46,44,46,42,45
41,37,56,44,32,61,54,32,16,37,42,26,32,22,32,28,20,29,40,38,42,34,43,60,45,42,24,47,44,46,42,45
40,35,54,49,31,58,56,29,19,36,40,23,29,24,26,26,18,34,36,40,39,34,42,60,45,43,22,47,47,48,44,44
39,35,53,45,31,58,56,26,23,34,40,19,28,26,27,28,17,36,35,43,42,36,43,60,41,39,25,44,43,45,39,45
44,32,53,45,27,52,56,26,27,31,40,19,24,27,23,27,15,31,29,39,37,32,38,58,42,40,26,43,40,42,39,40
43,27,54,44,26,49,60,26,28,29,43,17,21,27,27,27,19,25,27,35,31,32,40,55,40,38,22,41,38,38,37,34
40,28,55,41,26,51,59,24,26,34,44,17,23,26,30,31,23,26,30,36,31,34,40,55,42,37,17,37,37,35,39,34
40,27,54,42,25,49,60,25,28,30,41,14,22,28,32,29,24,25,29,33,32,35,40,57,40,33,16,36,38,34,36,33
40,29,54,39,27,47,62,27,28,30,38,14,19,28,32,26,24,24,28,33,33,33,39,56,42,33,19,34,37,31,34,33
41,29,57,37,29,47,65,33,31,31,35,12,24,28,32,26,22,24,26,34,34,36,39,56,43,31,23,33,35,31,33,39
39,32,55,36,30,44,68,32,36,31,35,7,25,27,28,27,27,23,28,37,39,36,41,57,41,31,23,31,35,31,33,40
41,32,55,35,27,42,67,32,32,27,33,7,24,23,29,27,29,25,25,37,35,33,38,55,42,32,26,31,36,34,32,41
39,33,51,34,28,42,69,31,31,27,34,12,23,20,36,32,34,21,26,36,33,30,36,54,39,30,25,27,33,31,31,41
36,34,53,36,27,42,68,29,30,31,31,14,21,19,33,29,32,20,23,33,30,29,33,55,42,31,26,29,34,31,28,38
32,34,53,34,29,47,69,31,29,30,32,14,21,20,34,28,30,20,22,32,31,31,35,55,39,28,27,27,31,31,28,40
32,38,54,36,34,45,67,31,28,29,28,14,22,18,32,30,28,22,24,36,34,30,34,54,40,26,29,25,31,32,28,42
33,37,52,42,36,47,66,37,26,23,24,9,17,18,28,28,26,18,19,32,32,27,32,56,42,25,30,23,32,35,25,39
31,36,53,42,36,46,65,37,24,24,24,14,18,17,28,30,26,19,22,32,31,28,32,56,44,30,31,21,33,37,27,37
28,36,50,37,32,47,63,38,28,23,24,16,21,19,27,33,29,23,25,37,29,29,33,56,41,29,29,21,31,37,28,37
28,34,49,37,34,44,64,40,26,24,28,21,19,21,29,35,33,23,27,39,29,29,32,57,40,29,30,22,32,36,24,36
30,32,51,41,34,44,61,41,23,25,29,23,17,22,30,35,29,23,25,35,29,31,32,59,40,27,34,26,36,40,25,36
30,33,52,42,37,47,64,40,26,29,33,27,20,23,30,36,28,27,27,36,33,33,33,58,39,33,31,23,39,39,31,39
33,32,57,41,35,47,63,39,28,30,33,25,21,24,31,33,27,30,27,36,33,34,37,60,43,33,29,23,37,41,31,40
34,32,57,42,33,46,61,42,30,29,35,29,25,27,33,37,31,30,31,39,33,33,39,56,42,33,28,22,36,43,36,42
37,31,56,42,33,45,62,44,32,32,40,32,30,25,32,40,31,36,38,42,38,31,38,56,46,35,30,27,43,45,39,41
40,31,55,43,32,48,62,46,38,37,44,32,32,29,35,40,31,36,39,40,37,33,39,57,49,41,32,30,47,45,39,44
42,37,57,39,35,45,63,42,43,39,47,35,35,29,37,39,31,39,41,41,35,33,42,54,47,43,34,32,47,42,41,45
47,41,59,39,37,48,63,46,40,42,47,31,40,29,37,41,35,43,43,45,37,31,44,56,44,41,29,35,43,37,39,44
53,43,60,43,38,47,64,48,38,40,49,29,40,33,38,39,34,42,42,45,40,34,46,57,47,39,30,39,43,40,38,44
54,46,60,41,36,46,60,45,34,36,42,25,41,31,34,36,30,42,41,47,39,35,45,59,47,41,29,41,43,40,41,42
53,48,60,42,37,50,58,47,38,36,42,27,43,32,35,37,32,45,45,49,39,38,47,57,49,44,29,43,41,37,42,41
55,49,60,41,33,53,55,50,40,39,42,27,42,32,36,40,32,43,45,48,41,41,47,60,49,41,33,47,37,37,38,42
52,54,58,43,32,54,52,52,39,39,41,24,40,33,31,39,33,45,44,47,41,44,49,57,48,44,36,49,43,36,39,41
51,55,57,42,34,54,51,52,37,36,42,20,38,32,29,40,29,43,42,45,43,45,47,59,47,43,33,49,45,35,39,41
49,57,58,40,31,53,52,50,35,35,42,17,37,33,31,39,34,43,39,47,42,50,50,59,47,43,29,49,41,30,39,43
49,57,55,34,26,54,49,48,31,31,41,15,39,33,28,39,38,41,38,48,42,51,49,61,47,41,25,51,37,31,38,43
51,54,53,36,21,57,47,45,28,34,42,16,42,34,28,42,42,42,38,50,42,54,48,61,49,39,29,52,41,37,38,43
49,51,49,37,19,54,47,40,30,35,46,16,39,33,25,40,41,39,37,51,41,61,51,61,51,40,32,54,43,39,37,47
45,49,50,38,21,57,46,37,30,36,45,18,39,30,29,40,41,39,35,48,42,61,49,60,48,43,28,56,44,36,35,47
42,44,52,40,17,62,46,36,30,38,47,18,35,29,31,38,42,38,33,41,41,57,51,58,49,41,27,55,42,35,34,48
40,44,48,37,16,60,50,31,26,36,46,15,33,26,31,39,42,37,29,39,35,54,47,57,50,40,26,49,38,32,30,48
36,41,46,38,16,58,46,27,24,35,41,14,34,25,30,36,40,38,26,37,31,52,50,58,52,42,28,49,42,32,32,44
39,40,45,36,17,59,47,25,21,33,39,16,39,25,31,38,39,37,26,36,34,50,50,57,54,41,29,50,36,31,31,45
42,40,46,36,16,62,47,28,20,34,41,15,41,22,31,33,42,35,24,34,31,45,52,58,56,44,32,52,36,34,28,46
44,36,43,41,17,64,42,28,22,30,36,16,38,21,32,30,40,32,22,28,26,38,53,59,55,43,37,50,39,38,25,46
40,32,48,46,19,61,40,29,22,28,32,16,36,17,30,28,36,31,20,26,24,34,55,58,54,46,41,49,41,41,25,43
37,38,47,40,22,57,43,32,25,25,31,12,33,14,29,26,33,31,19,21,23,33,53,59,50,50,40,49,38,36,28,46
37,40,48,37,21,58,45,28,26,19,30,11,32,11,31,24,31,29,18,18,21,29,48,57,49,50,39,46,41,37,29,45
39,34,48,35,23,59,47,30,27,23,31,10,34,8,27,24,31,29,22,14,20,26,50,56,53,51,45,43,43,39,33,48
39,32,46,35,26,56,48,31,29,26,34,10,36,6,29,26,34,30,24,18,22,30,50,58,53,52,45,42,44,40,34,47
42,37,47,37,26,57,46,33,32,29,36,10,36,8,30,26,36,30,28,20,26,32,53,60,53,50,44,39,46,38,36,42
49,43,48,33,25,60,51,35,33,29,39,7,35,9,33,25,35,29,27,21,26,36,50,58,53,52,42,39,46,36,38,44
46,40,50,36,25,59,52,36,33,32,42,5,33,10,34,24,33,32,28,22,23,33,47,59,50,53,40,34,46,34,38,44
45,38,47,35,24,58,53,37,32,34,40,8,31,15,34,26,31,37,32,25,25,36,49,60,49,51,41,35,45,31,39,44
43,41,48,36,24,55,57,37,30,40,40,8,28,16,34,26,30,34,32,28,26,42,50,62,47,54,38,34,42,30,42,43
45,45,45,34,22,56,61,38,33,47,43,9,27,20,35,27,31,36,31,31,29,46,50,61,48,52,35,31,39,27,41,44
46,37,48,36,21,55,58,36,33,48,41,10,25,23,34,24,29,33,29,32,31,47,52,60,52,48,32,29,36,26,40,43
44,33,48,39,21,53,55,41,35,51,42,14,26,24,31,26,30,36,32,33,33,49,51,60,52,47,34,30,32,26,38,41
41,36,44,42,18,50,53,41,32,47,42,15,22,28,32,25,30,34,30,38,33,51,47,60,51,46,30,28,30,24,36,37
39,38,44,42,17,51,49,40,33,45,43,17,21,31,29,27,29,34,27,36,33,47,46,57,49,47,29,26,29,23,37,37
36,31,45,39,17,49,49,41,28,42,40,17,20,28,26,24,24,30,22,32,33,44,42,58,48,46,29,29,29,27,34,42
31,27,44,44,17,45,46,40,26,42,39,18,20,29,23,25,23,29,27,31,37,40,40,55,48,42,26,30,24,26,30,42
32,27,42,43,20,42,45,42,29,41,37,18,22,29,23,23,22,25,26,30,43,45,42,56,52,40,30,34,28,30,32,42
32,29,43,46,23,41,46,40,27,38,38,18,22,29,22,20,20,22,24,26,41,44,36,56,48,40,28,28,26,26,32,39
32,26,42,42,22,42,44,41,27,37,37,19,25,31,23,23,21,23,23,25,39,39,30,55,49,37,29,27,27,23,31,35
29,27,43,43,25,42,45,41,23,33,35,19,24,28,21,23,19,24,23,21,37,35,31,55,45,35,25,27,25,21,29,37
29,32,44,46,24,42,45,46,22,34,35,20,24,29,24,26,18,24,26,21,38,32,33,54,43,35,27,29,25,23,27,34
29,34,43,47,24,44,44,45,19,33,34,18,24,30,26,25,20,24,28,24,38,30,35,56,42,38,27,26,25,23,26,36
32,34,47,45,24,45,46,45,24,35,33,18,29,28,28,25,19,24,29,22,37,28,38,55,40,42,30,30,26,22,28,36
34,38,49,45,24,46,50,47,25,34,30,17,32,26,30,26,20,24,29,22,35,31,38,57,40,41,28,31,26,24,28,37
34,41,48,46,24,48,51,48,29,36,33,18,33,27,31,29,21,25,31,23,36,32,38,57,44,37,24,31,22,22,29,36
32,40,48,43,28,51,52,48,31,37,34,21,35,26,32,28,26,24,28,26,34,29,40,58,43,36,28,30,24,24,30,34
28,39,50,41,24,53,49,47,30,35,33,25,33,25,29,29,29,23,30,23,31,26,39,57,41,37,25,27,23,25,34,34
26,39,54,42,23,54,44,46,34,36,31,24,32,23,30,30,33,26,32,26,32,29,40,57,46,38,26,30,28,28,32,36
28,42,54,42,23,54,46,41,34,34,32,22,32,20,30,28,32,25,38,26,34,30,44,59,47,37,27,30,27,31,31,38
30,41,54,41,23,52,44,41,35,33,32,25,34,19,34,28,33,26,40,28,34,34,45,60,48,39,30,28,28,32,35,35
28,37,52,37,22,55,44,37,33,30,31,25,33,19,33,25,41,26,40,30,34,34,40,61,46,40,30,28,28,32,32,36
30,36,52,35,22,55,47,37,34,27,33,23,33,19,31,24,43,25,39,26,34,30,42,59,49,36,26,29,30,34,35,33
29,39,51,33,23,53,44,35,28,25,34,23,28,19,30,22,44,25,36,26,34,30,38,60,50,30,23,24,28,36,32,31
27,36,49,32,23,53,44,36,27,27,35,26,26,19,30,17,39,23,36,26,34,28,38,61,50,32,26,23,28,34,31,32
29,37,49,29,23,53,43,33,25,27,32,25,25,18,30,16,40,23,35,25,31,26,39,61,43,33,29,22,29,33,31,31
32,38,50,30,24,52,45,36,23,25,32,22,23,18,28,18,38,25,37,25,32,30,38,61,39,32,30,22,30,34,32,33
33,38,49,34,25,51,51,34,22,26,34,20,22,18,30,18,40,26,34,29,31,30,42,61,38,27,30,25,29,32,26,29
31,36,48,31,26,49,57,34,20,27,36,20,23,17,31,21,40,25,33,33,31,28,45,62,37,22,29,24,22,33,25,31
30,34,47,30,27,45,57,41,21,27,37,21,21,19,29,19,39,24,27,33,31,29,45,60,37,21,29,23,21,33,25,34
31,34,50,31,29,47,58,40,21,30,37,19,21,21,26,16,37,22,27,31,33,30,46,58,39,22,31,25,21,35,24,36
33,39,50,36,29,48,59,40,21,33,35,19,21,17,23,15,31,22,24,31,31,33,47,61,43,21,33,27,23,35,25,36
33,37,51,39,31,50,58,37,21,35,33,21,21,19,25,19,28,20,25,31,32,36,44,60,39,22,37,27,19,33,25,44
32,32,50,42,29,51,57,41,25,37,36,23,23,22,27,26,29,20,27,34,31,35,47,60,41,22,38,31,18,35,24,45
35,32,52,38,27,50,57,41,25,35,36,21,23,21,25,29,33,21,27,33,31,34,47,59,43,20,38,34,19,39,25,44
37,33,54,44,28,49,59,43,26,36,37,22,24,25,27,27,33,23,27,38,33,35,50,58,45,25,39,33,25,43,29,45
36,32,54,47,24,50,59,38,27,33,34,22,25,24,26,26,32,26,29,35,30,37,48,59,46,26,36,34,24,42,28,39
39,35,53,45,28,50,57,38,32,36,36,26,26,24,26,28,30,26,30,32,30,36,43,60,46,29,36,33,27,43,29,40
42,36,52,44,29,52,56,37,32,35,33,26,26,24,27,26,29,25,32,27,30,38,42,60,46,34,40,37,30,42,32,37
41,39,52,45,29,50,55,35,29,38,34,28,27,24,28,26,30,25,33,26,29,38,39,59,44,36,40,38,32,42,30,33
40,40,51,48,28,53,56,37,31,38,37,28,29,24,31,29,33,29,32,31,30,34,38,62,42,34,38,40,32,40,30,34
41,37,52,48,29,53,57,37,34,38,42,34,30,26,36,32,37,31,35,27,29,31,38,60,39,32,33,35,29,37,29,33
43,39,51,47,27,51,56,39,33,39,43,39,31,28,39,31,41,34,34,30,32,31,39,59,45,32,33,36,33,38,31,28
45,44,53,48,28,51,59,38,33,38,39,39,28,27,37,26,37,35,31,30,35,33,39,60,47,35,35,36,40,41,34,28
44,45,52,49,31,50,61,35,35,39,38,41,28,29,39,24,34,34,31,31,37,34,39,62,47,37,39,38,43,39,34,30
38,44,51,43,33,50,61,32,38,38,38,41,28,24,36,26,34,31,33,28,37,33,37,64,48,36,38,42,42,40,32,27
39,48,53,37,35,47,59,32,34,40,39,42,27,25,37,25,33,29,29,29,37,27,37,64,49,35,37,43,41,39,33,29
38,46,54,35,36,49,57,35,30,35,33,39,26,23,33,21,29,26,28,29,36,26,36,62,51,35,37,46,40,42,33,28
38,48,56,35,35,46,58,40,30,35,35,41,26,22,32,19,25,26,26,27,36,24,35,59,51,34,33,44,40,39,29,26
43,49,59,34,36,51,60,40,31,33,35,41,26,23,35,19,23,26,26,30,38,24,36,60,51,33,33,47,43,44,31,28
43,45,59,33,34,50,59,44,29,34,31,39,27,24,34,19,25,23,29,25,37,27,37,61,56,35,36,48,45,45,32,29
44,44,60,29,31,47,57,47,26,32,28,36,26,22,34,18,22,23,27,26,38,27,35,61,58,35,41,53,48,50,32,31
42,44,58,28,30,48,58,50,26,30,23,31,22,17,30,16,18,21,25,23,37,25,37,64,55,37,38,53,46,49,28,31
41,41,55,25,29,49,57,46,26,28,21,27,23,13,27,14,15,21,25,20,33,22,40,62,51,36,37,52,43,45,29,28
40,40,54,27,28,53,58,50,24,27,19,26,23,9,24,12,14,23,26,22,32,24,38,58,51,36,33,49,39,43,27,26
41,40,52,28,26,52,56,50,21,24,16,26,23,10,22,10,12,26,24,22,34,24,40,56,52,35,30,44,40,41,27,31
41,35,53,29,22,55,59,52,21,27,16,25,21,8,24,12,14,24,24,22,35,24,43,56,53,36,33,42,42,42,30,32
40,36,54,33,21,55,61,49,19,28,18,25,26,8,28,14,16,25,25,22,39,28,46,56,50,38,32,38,43,42,34,36
42,36,53,32,23,59,58,46,22,30,16,23,28,8,27,14,20,27,25,22,39,30,48,56,48,38,32,38,43,45,39,37
38,32,52,33,18,61,58,43,24,30,14,21,29,6,24,14,26,32,25,22,38,29,50,55,48,37,30,34,38,40,38,35
41,35,52,31,17,61,57,38,22,27,15,21,26,5,22,15,25,30,20,26,38,28,49,54,44,39,31,34,39,39,39,32
39,39,51,33,20,63,56,35,22,29,17,18,30,9,21,17,27,29,20,31,40,30,52,53,42,41,31,30,41,37,43,31
39,37,51,31,20,62,57,37,24,31,21,19,32,13,25,21,29,33,19,35,39,30,51,53,41,37,31,29,43,35,45,32
37,39,53,31,21,61,55,40,20,33,25,23,32,17,31,27,33,33,23,39,43,36,50,55,44,35,31,27,45,35,43,38
43,38,55,30,19,57,57,41,18,35,28,22,32,21,35,32,33,37,22,37,44,38,54,56,39,31,35,32,43,41,47,42
44,38,57,32,16,58,56,44,21,41,33,20,32,21,37,35,34,38,22,42,39,37,54,58,34,30,39,35,37,44,46,38
42,35,56,29,23,57,54,46,27,38,35,23,36,23,37,33,35,41,23,45,38,37,54,58,31,29,38,34,37,45,43,40
42,32,56,23,18,56,52,45,31,39,38,22,33,27,37,35,37,42,22,44,38,35,55,59,33,24,38,35,32,39,38,41
39,32,56,25,14,56,53,45,30,41,41,19,33,31,41,38,39,43,24,49,40,37,53,59,33,24,39,39,33,37,37,45
40,32,57,24,18,53,53,49,32,42,44,21,35,30,44,44,38,42,27,50,43,41,57,59,39,26,42,43,38,42,38,51
40,33,57,26,24,55,53,54,34,46,48,25,36,34,47,44,35,44,30,48,42,40,58,59,42,24,41,44,38,44,38,50
41,33,57,28,22,58,55,56,40,45,47,26,36,35,45,45,37,47,34,49,42,42,58,59,40,19,35,45,33,43,37,52
41,37,60,33,24,60,53,54,42,48,48,30,37,34,41,43,37,45,37,47,41,45,59,55,41,23,37,45,33,45,37,53
44,39,58,35,23,64,56,53,46,44,48,30,40,34,40,42,38,48,36,46,40,42,57,56,40,27,35,48,31,45,37,49
40,42,59,35,25,66,54,48,46,46,50,29,41,33,41,40,43,46,41,46,40,40,58,56,44,30,32,46,37,43,36,46
42,45,59,35,25,65,54,48,41,43,50,33,43,36,41,40,45,47,43,43,44,44,58,53,48,32,29,47,42,42,36,48
43,49,57,39,21,66,57,48,41,46,50,32,41,40,40,42,43,47,45,41,48,46,56,52,48,33,25,47,39,41,36,46
44,54,59,41,25,67,56,47,42,43,48,34,40,40,42,42,46,48,52,44,46,48,52,54,46,35,27,47,41,43,33,44
45,54,59,44,27,68,57,46,44,44,49,40,40,41,40,42,43,47,52,43,46,46,50,52,47,35,26,43,41,45,33,41
46,55,58,47,25,66,56,44,41,41,47,39,39,41,35,35,39,43,51,41,45,46,48,53,43,36,26,43,40,44,36,39
44,57,58,47,21,63,58,43,40,40,46,39,42,36,30,32,41,43,52,40,44,50,45,54,40,33,24,42,38,42,34,38
43,57,57,45,22,63,59,43,34,38,47,37,41,30,33,31,39,41,51,37,45,49,47,54,42,35,26,43,39,41,35,39
43,51,56,43,22,59,61,41,33,37,45,35,40,28,35,33,41,41,50,37,44,47,46,56,40,33,24,42,38,40,32,39
39,53,57,43,23,55,59,41,33,40,42,34,37,27,32,30,41,37,53,37,43,47,44,55,35,32,22,42,34,38,30,38
40,51,57,48,27,53,58,41,32,36,35,35,38,25,29,27,40,32,49,37,43,45,39,55,33,31,22,41,34,37,28,34
40,46,58,47,30,55,59,39,36,33,32,32,40,21,26,23,40,30,47,35,41,43,39,57,37,28,23,39,30,34,29,31
42,47,60,48,31,54,58,38,34,31,29,29,41,15,24,20,42,28,46,36,40,44,43,58,41,29,26,43,28,33,31,29
39,45,59,49,31,55,60,39,35,33,29,29,40,14,19,17,38,30,44,37,42,44,48,57,44,29,24,41,27,33,35,28
39,43,61,50,29,55,59,40,33,30,27,25,39,15,19,15,37,29,43,35,41,43,51,58,44,29,26,43,25,33,33,27
38,42,61,50,27,54,57,39,31,30,26,22,39,17,20,16,42,30,42,36,41,43,50,58,48,32,22,44,25,32,32,27
36,36,61,50,27,55,57,37,31,27,23,21,38,23,21,16,46,32,43,37,41,37,48,59,50,33,19,42,26,35,35,29
33,31,60,47,28,52,59,35,31,28,23,24,38,27,21,11,45,34,46,36,42,34,42,59,51,34,17,40,30,34,34,28
34,33,60,42,27,56,60,36,30,27,25,22,38,31,21,11,43,36,46,37,45,37,41,58,53,40,19,44,33,35,35,27
37,32,61,38,24,58,63,34,29,29,28,23,41,32,24,16,46,39,43,40,48,37,46,59,58,40,20,46,34,33,36,30
36,34,61,31,20,58,63,37,30,30,32,26,44,31,30,22,45,43,48,44,52,40,47,59,57,41,18,48,34,33,35,34
32,38,60,32,18,58,61,40,28,30,32,27,38,31,31,25,46,44,49,47,51,43,46,59,54,40,14,52,34,32,33,37
28,33,58,31,15,60,60,37,28,30,34,28,35,34,34,28,44,44,50,46,53,43,46,58,54,37,11,49,36,33,31,39
28,34,60,34,14,59,59,41,27,27,32,27,37,33,34,28,43,41,49,44,51,41,44,58,52,42,11,49,38,36,30,41
29,36,61,28,14,60,60,42,24,25,33,25,41,30,35,29,45,44,50,47,53,43,44,58,52,42,13,47,40,39,30,42
31,35,61,24,17,58,63,43,26,29,35,28,40,30,37,31,45,45,49,47,54,42,44,57,49,38,14,46,38,38,28,40
34,41,61,25,17,56,61,44,25,29,39,25,41,28,43,34,41,44,47,49,55,46,48,55,48,39,18,49,39,36,26,38
36,44,63,27,20,56,55,46,24,24,38,21,40,27,43,36,38,43,39,47,53,46,52,56,48,40,23,49,37,37,28,38
38,50,64,33,21,54,55,45,26,29,39,20,39,28,43,38,39,44,41,44,50,46,52,56,50,38,24,49,36,40,28,38
38,46,64,37,22,54,55,47,24,28,41,18,36,26,43,33,36,43,40,38,48,42,47,57,45,37,23,47,39,44,31,39
40,44,64,43,22,55,52,50,23,29,40,18,34,29,38,32,36,43,37,37,45,40,51,57,45,38,25,46,39,44,32,37
44,44,64,43,26,53,54,49,27,34,42,21,37,29,42,36,38,44,38,36,44,38,50,56,40,42,30,40,44,48,36,38
48,48,66,47,29,53,53,53,25,33,41,20,37,27,43,37,39,45,36,36,46,37,51,58,37,48,35,42,48,51,37,42
51,47,65,44,27,52,55,54,25,39,46,20,42,30,45,39,45,50,35,35,47,41,54,58,41,47,39,44,51,52,38,45
49,46,65,50,31,53,54,53,26,41,45,20,37,33,43,39,43,46,34,35,46,37,54,57,38,48,36,43,50,50,40,46
46,48,63,51,32,59,51,55,28,39,43,18,35,33,43,37,39,45,33,35,41,37,53,59,37,48,37,43,51,49,40,48
43,46,65,53,30,60,52,54,30,42,44,24,37,33,40,38,40,45,34,36,43,35,53,60,41,47,35,45,51,49,36,51
41,46,65,50,24,56,55,55,30,43,40,24,36,30,39,38,43,43,36,36,40,33,51,59,39,45,34,46,48,50,31,53
38,39,64,48,23,52,53,52,28,41,42,27,36,31,38,38,43,40,34,37,40,28,48,58,34,42,30,44,44,46,30,52
36,36,64,48,23,50,55,51,30,41,39,27,39,33,36,38,44,37,36,39,44,34,50,56,40,46,34,45,42,46,26,50
31,34,65,45,23,44,56,46,32,38,39,23,34,33,35,33,41,34,32,32,42,34,48,55,43,43,36,45,41,46,25,48
26,33,64,42,19,44,54,43,27,34,38,20,31,35,32,28,37,31,31,31,43,33,48,55,50,39,35,45,39,41,23,46
24,32,64,40,15,43,56,47,29,37,41,23,32,39,33,32,39,33,34,32,42,36,48,53,52,36,36,42,38,41,23,44
24,28,62,42,19,41,56,46,25,32,37,24,28,38,32,30,36,26,30,30,40,34,46,54,48,36,36,42,36,40,23,40
27,27,59,41,20,36,56,42,26,33,37,29,28,38,35,33,37,28,30,27,42,36,46,57,50,34,38,45,36,40,22,40
26,26,58,44,18,34,56,39,24,35,40,32,28,36,38,33,38,28,30,25,44,34,45,55,52,34,39,41,35,39,21,38
27,25,56,40,18,34,56,41,20,33,36,26,23,32,38,33,39,27,31,21,45,35,45,55,49,34,41,35,33,39,27,38
29,24,57,39,24,39,56,39,21,37,40,30,23,36,39,38,42,29,34,24,48,40,48,55,50,37,41,36,36,42,29,37
32,27,58,37,25,43,50,44,22,34,34,29,22,35,38,37,39,28,32,23,46,40,50,55,52,38,46,36,40,42,32,38
32,31,59,38,24,44,47,41,20,34,33,26,21,30,39,37,36,28,28,21,40,38,52,53,54,36,46,35,42,40,34,40
33,31,56,38,22,48,43,41,18,37,33,27,24,27,43,42,39,31,31,23,42,39,51,57,52,36,46,39,42,42,34,44
38,29,56,37,22,48,42,39,19,40,34,30,28,26,44,42,41,35,35,25,41,43,54,59,54,39,50,42,45,47,33,45
42,25,56,34,26,50,43,35,23,41,31,30,32,26,45,37,41,34,33,27,40,42,53,60,54,40,48,46,46,47,34,42
45,32,55,36,22,50,41,33,27,44,31,28,35,22,45,39,43,37,39,33,41,43,51,63,55,37,47,45,47,49,33,43
45,32,57,36,16,54,42,36,30,41,31,28,37,19,45,37,43,34,42,35,41,42,52,62,59,38,48,45,49,50,32,42
46,34,61,36,14,55,41,36,32,41,31,27,36,20,42,38,43,34,42,38,41,44,53,62,58,37,43,48,50,52,35,43
46,34,64,38,15,57,42,36,32,41,32,29,39,22,41,41,43,39,43,41,35,44,50,62,61,38,40,51,52,53,32,44
46,35,61,41,9,56,44,35,30,42,30,26,36,18,36,37,40,34,40,40,34,40,47,61,62,39,37,49,51,52,32,41
42,35,60,44,6,55,49,29,29,43,31,23,37,13,35,41,43,35,41,43,35,41,49,61,64,40,35,48,49,55,28,42
44,35,57,45,9,57,49,30,33,43,35,27,37,15,37,40,47,35,40,45,39,39,47,62,61,38,34,46,49,57,28,41
45,36,55,45,12,57,52,30,33,39,35,27,35,17,35,43,46,32,38,47,37,36,49,59,61,42,36,41,49,53,29,38
45,39,54,50,15,56,54,29,34,36,32,24,34,18,36,44,44,27,35,47,37,33,46,58,58,41,33,39,45,49,26,40
41,42,51,50,13,54,53,28,28,34,34,22,32,16,37,46,43,24,33,45,38,30,43,57,57,39,32,35,41,46,25,42
38,39,52,46,16,57,54,30,27,36,37,22,28,16,37,47,44,26,31,43,37,27,45,52,56,40,31,32,40,44,25,41
34,39,50,45,17,56,52,32,26,39,39,19,27,16,35,47,43,25,27,41,35,27,43,52,50,38,29,29,39,41,24,39
34,35,47,42,19,52,51,33,23,35,35,17,27,13,35,47,43,25,29,38,34,27,45,52,49,40,30,30,39,39,21,38
31,33,44,44,19,49,49,33,25,33,34,19,26,14,32,42,38,19,26,34,38,26,50,53,48,38,34,25,35,37,21,36
30,32,42,43,21,50,51,30,30,33,36,20,28,20,36,43,40,22,26,34,38,26,50,53,47,32,36,25,34,36,22,38
32,28,42,38,25,52,51,34,30,35,37,23,28,25,39,40,39,23,27,35,39,28,49,54,47,32,35,26,33,33,26,38
33,30,43,32,25,50,52,35,26,32,32,22,27,26,34,37,35,24,27,33,37,30,52,55,50,34,40,30,32,31,25,36
33,31,45,33,29,53,53,38,30,35,32,22,27,28,30,33,37,26,28,31,36,33,52,55,53,32,40,35,33,35,27,38
35,28,47,34,27,53,53,41,31,36,32,23,28,26,30,31,37,28,28,30,38,31,51,55,54,32,40,35,37,39,28,35
35,28,47,37,28,55,56,40,30,34,29,22,29,26,24,27,33,26,26,29,33,32,54,55,53,31,42,35,41,39,26,35
38,28,48,39,31,53,57,39,26,33,29,20,28,28,27,26,33,26,26,27,30,28,51,55,56,31,41,36,40,38,29,38
38,26,46,36,34,52,60,38,22,32,25,21,26,31,26,23,31,25,26,27,31,28,50,53,61,33,41,37,41,39,30,42
38,24,48,36,36,53,64,34,23,33,26,22,26,33,28,22,30,24,24,27,32,26,49,53,60,32,45,37,42,42,31,43
39,27,50,34,36,53,67,33,27,35,31,22,27,31,28,22,35,25,23,28,28,25,43,52,56,34,44,41,43,43,33,42
40,26,53,32,37,54,66,37,26,34,30,24,26,26,28,20,34,28,24,26,30,26,42,52,56,35,43,44,44,45,35,40
40,26,54,34,36,53,65,36,24,36,34,23,29,29,30,24,33,30,31,25,33,28,41,52,56,33,46,46,46,48,33,39
39,23,55,40,35,55,67,36,22,39,35,23,31,27,31,25,35,29,33,27,33,27,42,53,53,34,43,43,46,51,37,37
41,19,55,40,29,54,66,37,22,40,38,26,34,24,34,28,32,32,33,26,36,29,40,54,50,34,42,43,49,48,32,38
40,20,54,38,28,56,66,35,22,40,41,26,33,27,37,32,33,30,35,27,37,32,41,53,49,32,40,42,46,44,33,38
39,24,55,36,28,55,61,39,28,45,46,32,35,30,42,38,36,36,40,30,42,34,42,52,47,36,40,44,43,46,37,36
33,24,55,38,26,54,62,40,28,45,47,34,38,33,43,41,35,39,43,32,44,38,45,53,47,35,39,49,42,48,35,32
35,27,57,41,27,55,58,38,32,45,49,33,40,31,42,43,35,39,44,35,45,38,46,53,44,34,39,49,41,47,37,30
39,30,57,43,27,55,57,38,29,47,53,35,40,30,46,44,38,43,47,38,41,40,46,54,43,33,36,46,38,44,37,31
41,30,58,45,31,54,57,38,26,47,55,36,40,31,49,44,39,42,47,41,44,43,45,55,45,34,37,50,40,44,36,30
42,31,59,48,33,53,58,39,24,50,58,40,40,32,50,46,40,40,48,44,42,45,47,56,46,36,41,48,41,44,38,32
42,38,59,50,36,52,59,42,30,48,57,44,41,31,47,47,45,43,47,47,41,46,49,56,47,37,37,48,38,40,37,34
43,40,58,48,37,52,57,43,30,48,59,49,40,32,49,49,45,45,47,50,41,49,49,56,46,37,32,48,40,38,35,35
45,43,59,48,39,48,56,38,26,44,54,48,34,34,48,47,49,44,47,51,38,45,48,58,47,38,33,46,36,35,39,34
46,46,61,50,42,44,57,40,24,43,53,48,35,33,43,42,47,44,46,50,36,47,48,59,49,40,34,46,36,35,39,37
48,42,60,53,42,44,55,36,21,40,49,45,29,31,39,41,45,39,42,45,33,43,48,59,52,37,32,44,34,29,39,39
52,41,60,53,41,47,53,35,22,41,48,48,31,27,34,42,45,36,40,41,32,45,46,59,51,39,32,41,33,27,43,42
51,41,59,50,39,47,53,36,22,38,46,52,30,24,36,42,46,38,39,40,32,46,45,60,52,37,35,38,36,26,41,41
46,44,58,49,38,46,48,38,23,36,40,51,30,24,30,39,43,35,38,37,34,46,46,59,54,40,38,38,36,24,43,40
44,47,57,49,39,47,46,36,23,37,33,48,28,24,27,42,39,36,41,35,31,43,49,60,56,38,39,32,34,23,42,41
44,45,55,48,36,50,45,34,24,37,29,42,28,26,26,44,40,36,40,32,28,41,48,57,54,40,36,30,33,20,36,40
42,39,52,48,34,50,43,31,20,40,28,38,26,22,26,36,37,30,34,30,28,37,48,57,57,36,36,27,32,18,34,38
40,37,52,47,32,50,47,34,24,40,27,33,25,20,25,35,38,27,31,28,27,35,45,58,58,34,39,26,28,19,33,39
35,34,53,48,34,52,46,40,29,40,27,29,27,22,26,37,33,26,31,30,26,37,48,54,54,30,35,23,27,19,31,41
33,32,52,47,33,55,44,39,27,39,26,28,26,20,24,36,38,27,27,29,29,34,47,53,52,27,33,23,27,22,30,43
32,34,53,46,34,55,47,43,25,39,25,27,27,19,25,33,41,31,26,32,28,36,46,54,50,28,34,23,26,26,26,39
30,32,54,44,34,53,45,44,26,38,22,24,24,18,26,28,40,32,28,34,30,34,43,56,49,23,35,27,26,28,20,34
32,34,51,47,35,54,45,43,26,40,25,20,24,23,25,28,42,32,27,35,34,37,42,56,47,24,32,31,26,29,20,34
33,37,51,51,35,53,51,44,25,43,28,17,23,23,28,28,43,35,27,37,35,34,40,56,46,24,29,32,25,31,16,33
36,34,51,47,32,54,50,42,23,41,29,15,21,21,27,23,43,31,21,36,34,34,40,55,44,23,28,31,26,30,14,30
36,34,49,46,31,52,50,41,19,35,28,16,19,19,28,19,39,29,19,33,35,33,38,56,42,23,30,33,24,30,17,31
36,38,49,48,29,54,50,40,17,34,24,20,17,19,24,19,36,27,19,30,36,35,36,55,40,25,34,38,26,32,20,34
35,40,49,47,30,51,49,37,16,37,25,21,19,21,23,21,33,29,21,29,37,31,39,53,39,27,35,40,28,35,21,31
37,44,49,47,31,51,49,34,14,35,27,23,18,18,24,19,32,28,21,25,39,30,39,53,43,30,36,42,28,36,23,30
40,44,46,46,33,52,52,34,14,37,28,23,16,24,26,20,28,30,26,24,36,30,39,54,42,34,42,42,32,38,24,26
42,45,47,46,31,52,50,33,16,38,31,24,18,23,28,19,23,27,27,24,39,30,42,56,43,34,41,46,33,37,24,29
43,50,45,47,30,51,53,34,18,36,36,24,20,25,28,20,24,26,24,26,40,33,47,56,47,38,41,47,35,38,25,29
45,47,50,45,31,49,53,33,16,34,33,26,21,20,29,22,23,25,25,25,35,29,48,55,47,39,43,45,33,39,25,29
47,41,51,43,32,53,51,36,18,29,30,26,23,22,32,24,23,24,25,25,37,33,51,55,49,37,46,45,36,41,29,31
48,39,49,45,31,55,50,39,19,28,30,28,24,24,32,26,22,26,29,27,37,35,51,55,53,39,47,48,39,43,33,33
50,43,52,47,34,53,48,43,23,31,32,27,24,27,30,27,20,27,30,31,36,37,54,53,54,40,44,47,40,44,34,30
52,42,52,45,38,53,49,43,27,31,33,25,24,30,31,34,20,32,32,34,34,38,52,53,55,42,40,46,43,43,32,27
57,42,52,47,38,59,49,45,27,29,33,25,23,31,33,31,21,31,32,33,31,41,52,54,56,40,44,44,42,42,34,29
57,40,52,41,35,59,49,48,24,30,31,24,24,32,32,31,23,32,30,34,30,42,48,54,53,43,47,45,44,44,32,30
54,38,54,43,33,60,48,46,26,30,30,24,25,28,30,30,22,28,27,34,30,43,48,55,55,42,44,44,42,42,31,30
49,34,56,41,32,60,51,45,25,30,28,23,23,30,27,30,24,28,26,34,30,41,41,53,57,41,43,39,42,42,33,30
48,32,56,39,33,61,53,42,24,29,27,25,21,31,29,31,23,28,25,33,29,37,39,49,55,39,43,35,41,41,33,33
44,34,53,42,29,62,53,45,26,31,26,23,18,32,29,29,23,27,24,33,30,37,40,50,58,42,41,35,40,40,32,35
44,34,53,41,27,63,52,40,27,35,30,27,18,33,27,31,24,27,26,34,26,34,39,49,60,45,39,35,39,43,31,35
41,35,53,36,27,60,53,39,28,35,31,27,19,32,26,30,24,27,24,33,26,32,38,49,55,44,39,32,37,39,28,36
37,32,52,32,26,56,52,36,26,31,30,27,19,32,26,29,27,26,23,33,27,31,37,50,51,41,35,30,35,37,25,39
36,31,52,31,23,56,54,35,24,32,34,26,18,28,28,26,26,22,20,32,28,26,39,50,49,42,36,32,32,38,26,40
37,33,53,30,25,55,56,34,25,34,33,30,21,25,25,27,27,23,23,35,32,27,41,52,50,41,32,31,33,38,29,41
38,33,54,32,25,56,57,33,29,37,35,33,22,25,26,27,25,21,25,35,34,26,46,53,53,37,34,29,34,38,32,42
34,32,53,29,24,54,54,34,26,36,34,34,23,22,28,26,28,21,23,34,36,23,45,52,51,37,36,30,33,38,33,44
36,33,50,30,26,54,52,31,25,33,34,37,23,21,29,25,29,21,23,31,34,23,50,51,50,35,34,32,30,38,32,43
34,31,48,31,28,56,54,29,29,34,34,34,23,23,26,24,27,21,25,28,35,27,48,51,47,32,29,33,32,38,28,42
33,31,50,28,26,56,55,32,29,39,37,34,21,24,24,24,24,22,23,27,35,27,47,51,44,26,27,32,31,34,26,42
32,32,51,30,28,54,54,35,25,36,35,34,20,22,22,22,22,20,20,26,37,26,46,54,43,24,26,35,34,36,26,38
32,31,50,31,28,54,54,38,23,38,36,34,22,24,23,23,23,20,20,28,40,28,48,55,45,26,27,37,34,40,29,38
33,35,51,29,27,58,54,41,21,43,34,35,23,19,24,22,23,22,21,29,43,28,47,56,49,27,33,43,35,41,29,39
32,34,52,30,25,56,50,41,19,40,32,35,25,20,24,20,24,22,23,30,45,27,51,57,53,25,37,41,34,42,29,42
27,31,50,32,25,55,50,38,18,40,35,32,23,21,27,19,25,22,20,30,43,25,48,55,51,24,37,46,33,42,27,40
24,32,48,33,26,51,49,36,18,37,33,31,24,21,26,19,25,24,22,34,42,22,44,53,50,24,34,44,30,41,26,38
27,33,48,32,29,51,53,38,22,39,33,28,25,22,24,20,22,25,25,34,43,23,45,54,51,24,33,46,31,38,25,37
28,33,48,30,28,50,55,39,25,39,33,26,28,28,28,26,26,30,28,36,44,24,40,54,52,30,38,44,36,42,30,38
30,38,50,32,29,50,51,44,22,37,31,27,28,26,29,26,30,32,27,38,40,21,42,53,52,35,43,45,37,44,37,37
33,38,50,31,29,53,50,41,19,34,28,26,32,22,28,24,28,30,29,40,41,18,46,54,56,40,47,44,41,47,39,33
33,37,47,30,28,53,51,37,20,36,30,28,35,20,28,24,30,32,31,40,41,21,49,51,56,42,50,42,37,44,38,38
34,36,48,33,28,53,48,35,21,36,28,28,35,19,28,24,30,30,31,38,38,19,45,50,54,41,49,40,36,42,37,37
31,35,48,37,29,51,48,32,21,35,28,28,34,18,26,26,28,28,32,36,36,19,43,50,53,43,45,33,37,42,37,33
31,36,47,38,27,51,48,33,24,32,26,27,33,20,24,26,30,30,31,36,33,22,39,47,48,44,41,33,40,42,36,30
33,36,50,38,24,52,48,31,24,32,25,29,33,20,24,28,31,31,31,37,31,21,38,47,49,47,36,33,40,40,36,29
35,36,51,40,24,54,46,31,21,32,26,28,31,22,24,28,32,33,26,35,30,23,41,49,50,49,33,34,41,40,37,27
34,39,49,44,19,57,45,32,23,30,29,29,32,25,27,33,38,34,28,37,25,23,41,49,52,49,35,31,41,40,35,25
33,42,50,46,20,56,46,32,23,30,30,28,29,20,22,29,35,29,25,35,23,23,43,49,53,45,31,31,37,35,33,24
32,40,53,44,18,54,47,30,22,32,29,28,31,18,21,30,34,28,26,34,25,24,43,51,53,44,28,29,36,31,30,21
32,40,51,48,18,50,46,29,22,28,28,29,31,20,24,32,38,30,28,34,24,26,38,51,51,43,28,32,36,32,31,22
31,43,55,52,18,52,47,32,23,26,26,24,29,22,24,32,37,30,27,32,25,27,33,51,48,40,26,33,37,30,32,20
33,46,58,50,19,50,51,34,24,28,30,24,27,25,26,34,40,33,29,37,26,27,34,54,51,41,29,39,41,33,33,23
37,47,58,49,21,52,53,34,28,30,31,23,27,29,27,33,43,38,30,40,30,32,35,54,51,43,27,43,37,32,33,25
38,45,60,47,21,51,48,33,26,31,33,22,28,27,29,35,45,34,30,42,30,33,35,57,51,42,28,43,35,30,36,23
41,45,59,49,22,50,43,40,23,29,29,20,31,27,29,35,43,33,29,39,34,34,36,57,51,40,34,43,38,30,36,23
41,45,60,49,22,49,45,37,25,29,29,19,30,27,27,35,41,30,30,37,35,34,32,58,49,38,36,45,39,31,36,22
37,44,61,50,22,46,45,31,21,27,29,20,28,26,23,35,38,30,30,38,36,32,28,55,45,34,31,43,36,30,34,20
34,37,62,47,17,43,40,31,17,27,31,24,30,24,25,36,36,30,30,40,38,30,28,56,40,34,28,42,34,32,30,18
36,36,60,47,18,46,40,32,19,30,34,24,29,25,27,35,35,29,30,42,38,32,28,55,40,34,28,44,34,34,30,20
36,36,60,44,21,47,41,32,19,33,35,24,29,27,28,35,36,27,29,41,39,32,31,54,38,36,28,41,35,33,30,22
34,36,58,40,20,44,42,30,19,34,36,27,29,29,27,37,36,25,29,41,37,29,32,54,40,36,28,41,32,36,28,24
31,37,55,41,19,45,40,31,19,30,33,26,29,28,25,35,31,25,29,36,35,29,32,51,38,35,22,33,30,33,25,19
26,36,57,41,20,44,41,30,17,27,33,30,29,27,24,33,27,22,28,30,32,28,30,51,42,30,22,28,32,30,22,18
21,38,56,42,24,43,47,33,19,26,34,33,27,26,22,34,26,23,31,26,32,29,26,53,45,29,22,25,34,32,17,22
19,38,53,42,26,44,48,31,19,26,36,32,24,25,20,30,24,20,34,25,28,30,26,54,45,32,18,25,32,32,18,22
19,39,53,41,27,44,51,34,18,28,37,32,24,24,22,32,26,22,36,26,26,32,28,53,44,33,19,22,33,31,15,22
23,39,55,41,31,46,49,38,22,33,37,33,24,23,27,33,26,24,38,28,28,34,32,59,50,36,22,24,34,34,20,26
24,42,52,40,32,46,49,38,23,34,34,33,23,24,28,35,26,26,38,28,28,37,30,58,54,38,26,26,38,32,22,29
22,40,51,40,30,43,48,35,22,30,34,32,22,24,26,38,26,26,35,27,27,33,27,61,54,38,24,26,36,28,18,28
21,41,51,39,29,43,45,33,24,29,33,36,20,24,26,38,26,28,36,25,25,34,23,60,54,33,21,27,36,27,17,31
20,38,50,37,28,44,43,34,25,32,35,36,21,22,28,36,26,29,39,26,26,35,25,61,53,33,19,24,36,23,16,27
22,38,50,37,29,46,43,33,24,33,34,35,23,21,28,35,29,27,38,26,32,38,28,62,55,32,24,28,38,22,20,30
29,37,50,36,29,46,42,38,26,36,38,35,24,22,32,40,32,24,38,26,30,36,32,62,54,31,28,30,41,24,24,34
32,39,49,34,26,49,41,36,23,33,36,31,23,21,29,37,27,23,35,26,28,33,38,61,52,33,28,34,40,22,28,34
28,39,54,33,25,48,42,32,24,36,38,35,26,23,32,44,34,26,35,29,31,31,33,58,48,33,25,35,41,25,23,31
28,37,54,35,23,49,38,31,23,35,39,39,27,23,33,43,31,25,33,29,33,29,34,56,50,31,23,39,41,26,25,32
29,37,51,34,20,47,41,33,19,33,39,36,29,24,34,40,31,22,29,25,31,27,33,52,43,30,24,39,42,23,24,34
34,39,54,37,22,53,44,37,23,35,43,31,31,29,34,37,35,24,34,27,36,29,38,51,42,30,26,42,44,23,25,35
38,42,54,36,25,56,44,43,23,38,46,34,31,30,35,39,41,29,39,29,39,32,41,49,44,34,32,41,48,26,32,39
42,43,56,37,26,55,47,47,23,41,48,34,33,33,37,39,41,29,39,32,38,32,44,50,45,38,34,42,48,30,36,37
43,45,57,40,29,57,49,49,24,44,50,36,34,34,35,44,44,29,37,35,37,32,44,53,46,39,36,46,45,34,40,35
43,45,59,41,26,55,51,47,25,47,51,37,35,35,39,46,47,34,35,39,35,33,47,52,44,43,37,47,43,33,41,35
40,48,57,44,22,56,54,44,21,50,45,37,33,34,37,47,43,35,31,39,37,29,50,51,44,46,39,47,44,31,41,29
42,45,58,44,20,54,53,45,21,56,46,44,37,38,42,50,48,42,32,40,40,29,48,50,45,47,41,44,45,31,37,25
49,49,56,43,19,52,55,50,26,55,44,44,40,42,43,47,48,44,31,38,39,29,53,52,49,47,47,44,43,27,37,25
47,50,55,38,20,47,58,51,31,52,42,39,41,42,45,49,53,45,31,39,38,31,51,54,49,46,46,39,40,25,36,26
43,48,55,36,22,43,54,47,30,50,39,38,39,42,42,48,51,45,33,41,35,34,51,56,53,46,45,37,40,26,35,23
41,46,54,36,20,40,54,41,25,50,36,41,37,38,39,51,50,39,27,36,31,33,49,58,54,45,43,34,38,28,38,23
38,43,52,40,14,37,53,35,23,48,32,38,37,34,39,45,41,34,22,32,28,29,48,60,51,37,37,30,35,25,32,17
36,40,49,36,11,35,50,31,21,46,31,35,34,29,38,46,42,35,19,29,29,30,48,58,52,33,35,29,33,21,25,13
40,38,50,31,9,37,50,28,22,42,28,30,35,31,41,44,38,35,21,31,32,29,49,58,53,29,36,28,37,19,22,13
39,31,49,26,9,35,49,29,22,39,27,31,34,28,39,45,38,32,20,28,28,26,43,58,52,25,34,23,33,17,17,11
42,29,52,23,13,32,48,28,27,34,33,31,35,25,41,43,41,31,22,33,30,30,44,60,50,27,32,21,31,23,15,15
42,28,52,25,17,34,53,29,29,34,32,27,33,23,38,42,40,28,22,35,32,32,43,61,51,25,34,20,30,26,20,21
39,28,52,28,19,34,50,27,25,35,33,22,28,17,35,42,34,27,21,35,33,31,43,59,49,23,33,17,31,27,25,25
44,30,53,33,18,42,48,30,23,37,36,21,25,14,34,44,28,29,23,36,35,33,47,60,50,28,37,18,33,28,27,29
49,34,53,35,19,50,50,35,23,40,36,22,24,14,32,42,28,28,20,34,41,34,49,60,49,31,40,20,35,28,30,32
51,35,57,34,23,52,49,40,29,39,33,23,23,19,33,37,25,29,23,37,41,33,51,58,51,34,42,21,37,30,27,34
53,37,59,31,27,54,50,42,35,40,33,24,25,25,35,39,28,31,26,42,46,37,53,59,52,38,46,27,38,35,33,36
53,37,63,35,30,57,56,42,39,42,31,22,29,28,35,39,31,32,30,46,46,38,53,59,53,44,49,27,39,37,33,44
51,40,59,38,30,55,59,44,37,43,32,24,28,29,36,38,32,36,30,46,45,40,53,56,53,48,51,24,42,40,35,48
53,46,61,42,32,60,60,46,35,40,32,25,26,29,35,36,31,40,32,45,49,40,57,56,56,49,50,28,47,47,37,51
50,45,58,42,31,63,59,48,32,41,30,25,27,31,38,38,31,43,32,46,44,38,52,55,54,45,48,32,47,43,39,51
51,47,57,44,32,61,58,43,34,39,36,27,29,29,38,39,31,41,33,46,41,41,52,54,52,48,42,37,48,38,36,49
48,43,57,43,30,64,57,42,34,38,33,31,32,31,39,38,33,42,32,48,42,42,52,57,50,48,40,38,44,38,34,50
43,41,59,41,32,65,59,42,35,38,30,35,36,36,40,38,39,40,32,45,42,42,49,55,50,44,38,37,42,37,30,47
43,37,61,42,31,62,62,40,36,36,34,40,38,39,43,42,44,43,35,46,43,42,48,54,52,44,34,43,36,34,24,46
39,34,60,43,30,61,64,40,32,34,34,40,41,35,42,44,48,41,34,46,41,41,43,55,51,38,28,46,33,34,21,45
43,34,60,44,28,62,66,36,28,32,33,38,40,30,40,44,50,40,32,47,39,40,42,54,53,39,28,41,33,35,17,43
46,36,56,41,32,61,63,35,23,29,34,41,34,25,34,40,42,36,26,42,36,34,41,55,51,37,29,39,33,33,19,41
45,34,57,43,31,61,60,35,24,26,30,40,32,22,30,38,40,34,24,40,32,30,35,53,47,33,23,42,30,31,16,36
44,31,56,42,30,58,59,31,25,27,29,40,32,26,31,37,39,30,25,39,30,31,32,53,46,32,24,39,28,27,14,35
44,33,59,42,32,61,60,26,23,32,30,42,28,29,29,35,38,30,28,38,32,32,36,52,50,34,26,39,30,30,10,36
42,32,57,39,30,62,60,28,19,31,25,39,26,31,29,35,38,32,28,36,34,30,38,50,50,34,26,36,30,34,8,39
45,31,58,39,31,60,59,24,17,26,23,41,21,29,25,35,37,27,29,33,29,27,35,47,47,39,23,33,29,31,5,39
50,32,56,39,35,59,60,22,15,29,23,42,15,23,21,31,31,23,25,31,25,21,33,47,42,41,19,31,32,30,12,45
46,35,55,38,38,58,54,23,18,31,22,42,16,24,20,28,26,20,26,29,23,22,35,45,41,39,20,25,34,34,14,47
47,36,52,38,36,58,53,20,24,34,27,41,16,26,20,29,25,24,29,29,22,24,36,44,41,43,25,24,37,34,17,46
45,34,53,39,37,58,52,20,26,36,30,44,20,28,23,32,24,26,30,27,23,24,38,45,39,40,26,29,40,33,17,48
43,37,56,45,30,57,54,18,24,38,33,46,23,31,27,39,31,27,37,31,24,26,41,47,42,43,24,32,42,32,23,47
43,41,57,42,32,60,56,16,20,41,35,43,26,34,27,35,30,24,38,30,28,30,42,51,46,44,27,34,45,33,27,54
47,41,56,42,32,62,54,17,19,43,37,44,30,32,27,36,31,23,41,31,31,28,44,51,45,44,25,37,43,33,31,52
47,40,54,44,29,59,52,18,23,39,34,42,34,29,25,35,29,23,39,31,31,29,43,51,41,43,25,37,41,31,33,49
48,42,55,45,27,59,52,17,26,40,33,40,38,29,23,34,28,22,40,30,32,30,42,54,42,42,30,39,44,32,38,48
47,43,56,44,23,59,56,23,30,43,33,34,40,29,29,37,32,26,44,34,38,34,46,56,46,36,32,42,50,38,43,44
40,40,58,38,16,57,54,24,30,39,33,33,41,31,31,37,37,29,48,39,40,36,48,58,48,36,32,49,51,43,40,39
41,36,60,34,11,59,58,18,28,42,35,31,41,29,34,40,39,32,46,41,41,34,47,60,44,36,31,50,51,41,41,34
42,40,61,38,10,60,58,22,24,43,35,28,40,28,37,38,38,33,43,42,42,32,47,61,42,36,30,50,50,40,42,34
38,42,58,36,7,61,57,26,23,43,35,29,39,29,36,35,39,31,45,43,40,29,44,59,45,37,28,51,46,39,43,34
36,38,58,33,7,64,56,32,28,44,34,27,43,28,36,32,34,30,41,42,39,29,43,58,41,34,29,47,43,41,38,32
35,31,57,33,4,62,55,34,31,40,34,29,43,25,36,38,39,33,41,41,37,29,42,57,38,35,27,47,40,38,37,29
34,27,58,31,3,61,57,37,33,39,36,27,45,29,39,40,42,36,39,40,36,30,41,59,40,38,31,46,42,40,38,32
33,25,57,31,3,58,56,38,32,39,37,26,43,29,39,39,40,35,36,38,34,28,41,59,40,37,28,44,41,39,41,32
30,22,54,35,7,59,54,39,33,38,39,29,41,29,42,41,41,33,33,37,31,25,39,58,39,33,23,38,35,36,38,29
32,20,53,34,10,57,51,35,31,37,42,30,41,31,40,40,35,32,29,33,25,23,35,59,40,35,25,41,35,35,38,27
35,18,53,39,10,58,50,35,29,38,42,27,41,31,39,41,33,29,26,32,27,22,36,59,44,33,28,37,33,33,37,25
35,21,51,43,15,57,48,37,28,34,42,28,39,29,33,39,29,27,26,30,26,22,36,59,42,34,26,34,30,30,36,24
33,19,53,39,17,54,49,32,25,32,40,28,37,28,30,36,26,23,22,28,24,19,34,60,40,34,24,34,28,27,35,24
37,17,55,37,19,51,48,29,22,29,37,25,36,27,30,37,20,24,21,25,25,22,36,61,39,34,25,31,26,27,34,25
36,18,52,36,23,48,46,23,18,27,34,24,32,25,26,34,20,22,20,22,28,20,36,60,40,34,26,34,26,26,36,28
37,22,51,39,27,49,46,26,17,29,33,22,29,24,29,32,18,20,20,22,30,20,37,58,42,34,29,30,25,27,33,29
33,27,51,43,27,51,48,23,15,31,33,20,22,23,25,32,16,18,18,22,30,18,36,56,42,29,27,32,24,24,30,30
33,30,53,42,28,55,48,21,16,33,37,22,24,23,25,33,16,20,21,22,32,19,37,57,45,31,28,34,28,25,28,34
33,33,59,40,29,54,49,19,12,36,36,20,22,28,26,31,14,24,24,26,34,18,38,56,45,34,28,35,32,25,31,32
32,32,60,40,32,53,50,22,14,39,38,21,24,27,25,28,18,25,26,28,38,22,42,54,41,30,24,30,28,20,30,36
36,38,57,40,33,52,52,26,17,40,40,27,29,29,29,29,19,29,29,28,38,25,43,54,42,27,21,29,29,17,31,39
36,38,57,36,31,53,53,28,18,42,36,23,28,31,33,30,23,30,32,30,38,26,47,55,49,27,25,36,33,19,33,42
42,39,58,35,31,54,51,30,20,42,36,23,28,29,38,35,26,32,34,32,38,28,52,53,52,29,30,36,39,27,37,42
43,41,57,39,33,54,56,33,24,46,39,24,27,32,37,33,28,31,35,31,39,29,50,53,51,29,29,33,42,25,37,41
46,45,62,45,31,55,59,39,29,50,46,26,30,33,40,40,32,34,40,36,42,34,54,54,53,32,30,31,46,28,34,43
42,43,64,42,28,54,59,36,31,49,47,31,29,32,37,41,32,37,41,39,39,37,57,55,50,31,26,33,45,27,34,40
44,38,64,42,31,52,56,40,33,48,46,35,31,29,39,41,33,37,43,39,38,39,60,55,52,28,26,33,48,32,36,42
42,38,63,42,29,50,60,44,30,48,43,32,29,29,40,39,36,34,41,41,40,37,59,53,50,26,25,31,46,36,38,39
42,35,60,40,25,49,60,44,31,45,44,33,29,25,38,40,38,32,39,38,38,37,60,52,50,23,25,31,44,35,36,39
43,37,55,37,19,50,62,43,29,44,43,33,27,29,41,43,39,31,37,39,39,33,58,53,54,25,27,33,47,37,37,39
38,31,54,34,18,52,62,40,30,41,41,29,23,29,42,41,40,29,35,39,37,31,59,52,53,25,28,35,47,39,34,35
38,30,54,36,16,50,61,43,30,39,45,30,28,29,43,42,40,32,37,40,39,32,57,50,51,24,26,32,48,42,34,35
34,26,54,38,15,47,60,46,32,42,44,31,29,33,40,42,41,35,39,37,41,35,55,49,53,23,19,31,46,37,31,35
33,21,55,35,14,43,58,43,33,39,39,31,31,29,37,39,43,36,39,39,43,35,56,48,51,23,19,31,43,37,33,37
29,16,54,30,11,43,59,44,33,38,34,30,29,31,37,36,43,39,35,37,38,31,52,47,47,20,14,29,36,34,35,34
35,19,53,30,10,41,59,45,31,40,34,27,31,35,41,32,45,38,32,36,38,26,50,48,47,24,18,29,40,36,38,32
34,21,51,29,8,41,57,43,29,40,32,27,31,36,39,29,43,37,31,35,36,25,48,50,44,26,16,27,35,31,37,26
36,21,51,33,10,45,53,43,29,41,32,26,32,40,41,32,45,38,31,33,32,26,48,52,43,28,17,31,32,24,36,27
36,25,51,33,10,46,53,47,28,39,33,25,30,39,39,33,43,36,29,32,33,27,46,52,42,29,19,32,30,27,34,27
32,28,52,34,14,45,50,49,26,37,28,24,30,36,34,28,41,37,29,29,29,27,46,54,37,30,20,31,29,26,30,26
33,28,56,32,16,38,46,49,22,36,26,23,30,33,27,24,39,36,28,26,28,26,43,55,34,32,22,31,28,26,32,30
32,29,55,36,20,38,48,43,22,34,20,23,26,32,22,20,38,32,24,25,27,25,39,57,31,32,22,31,24,27,30,29
33,33,51,34,19,41,50,41,18,30,19,22,25,29,19,17,37,29,23,25,25,21,36,58,29,29,26,29,23,27,28,27
32,39,50,37,21,42,49,45,13,32,20,22,23,31,21,19,37,28,22,24,23,22,35,56,32,28,26,29,24,28,25,28
33,42,49,38,25,40,44,41,8,28,20,20,20,31,18,16,32,22,22,21,22,21,37,57,34,28,28,30,26,28,23,29
33,37,48,37,29,41,40,38,6,24,15,23,19,27,13,15,27,19,21,21,25,25,37,57,36,26,29,32,25,28,23,31
35,39,50,38,32,40,45,34,6,26,19,19,21,29,18,20,31,21,23,25,25,25,37,57,35,27,27,35,26,32,20,35
37,39,49,38,33,38,49,37,5,25,23,21,23,27,19,23,32,25,27,29,27,27,35,57,37,27,27,35,27,35,19,35
39,38,51,41,36,37,52,41,8,25,22,23,26,29,22,22,37,27,32,33,31,31,33,60,39,29,31,41,33,39,22,39
46,37,54,46,34,40,54,40,11,27,27,23,27,30,27,27,33,28,34,39,36,34,35,59,44,30,32,45,34,42,25,41
52,41,55,51,37,45,57,40,14,29,32,25,26,31,30,30,32,30,38,40,40,36,38,59,47,32,34,44,36,44,25,42
52,43,54,51,38,45,58,45,12,33,37,27,30,31,33,34,31,30,40,39,39,37,42,59,50,32,34,44,36,39,24,43
51,42,57,53,42,46,58,44,17,36,39,32,31,30,37,35,29,33,39,41,39,39,47,59,49,39,34,43,37,39,28,47
50,38,56,50,41,53,56,41,18,34,42,34,33,30,35,39,28,37,43,41,37,38,45,61,48,41,34,45,36,40,29,46
50,37,56,48,41,57,57,40,21,35,43,35,33,27,37,41,31,41,43,43,36,38,42,59,46,42,34,46,37,41,32,46
49,40,57,50,41,59,60,43,23,37,46,33,36,28,41,47,37,43,47,43,35,37,41,59,49,43,32,45,35,41,30,46
48,43,59,50,38,60,59,46,28,36,45,33,35,24,39,49,37,47,49,43,37,39,43,58,48,43,32,40,35,36,32,47
44,44,61,48,37,59,54,39,35,35,41,31,35,21,37,48,34,42,46,38,36,36,42,59,46,45,34,38,39,36,34,43
43,44,64,46,35,60,52,32,36,35,42,33,34,21,41,48,36,40,44,34,34,34,44,59,42,47,33,35,34,35,34,39
41,40,61,41,35,60,51,28,35,33,40,32,33,22,39,44,37,37,41,28,31,31,40,58,43,49,34,31,32,35,30,38
36,37,60,36,30,62,49,31,33,31,39,31,33,21,37,43,39,36,38,28,35,28,40,57,43,46,33,34,33,31,29,38
38,36,62,33,25,64,47,27,33,30,41,29,31,21,37,43,41,37,35,32,37,27,36,56,40,48,37,36,36,32,29,39
40,38,63,34,26,64,47,30,35,31,41,25,32,26,33,43,45,36,37,35,41,30,38,59,40,45,40,39,35,29,29,37
43,40,65,37,27,61,47,34,36,35,41,23,34,27,37,39,45,33,39,37,45,32,39,61,41,43,41,43,37,29,33,36
43,40,64,40,26,58,50,36,34,36,44,24,38,30,40,40,44,31,39,35,48,35,40,62,43,43,39,45,39,31,33,35
41,39,63,37,24,58,51,33,34,39,47,23,34,33,38,35,42,34,38,34,52,34,40,60,41,43,39,45,42,34,34,32
38,39,60,34,24,58,47,30,32,38,48,27,34,34,34,30,42,28,35,30,50,33,37,61,42,43,40,44,43,35,36,31
42,38,57,35,26,59,49,34,26,40,51,31,30,36,33,25,41,28,34,31,52,35,42,61,44,41,39,44,40,33,35,34
45,39,53,37,29,59,49,34,23,39,49,30,31,33,27,30,41,27,31,33,52,34,44,59,48,39,39,43,44,29,35,37
43,46,55,38,30,59,51,36,24,43,48,32,35,34,29,32,44,29,33,37,51,35,44,57,46,36,39,46,45,29,40,35
44,48,56,42,34,57,52,35,21,48,49,33,39,35,31,32,45,30,33,39,46,39,43,56,43,37,39,45,43,34,46,35
42,48,52,47,38,53,54,39,20,45,47,35,38,38,38,30,41,30,36,38,43,40,44,57,43,36,37,42,40,34,44,34
42,45,53,45,36,47,51,39,18,40,44,40,38,38,43,33,37,32,33,33,39,38,42,55,41,36,36,45,41,37,39,34
42,43,49,41,35,44,50,37,18,36,43,40,36,35,41,33,37,33,28,33,37,35,43,53,38,36,37,43,41,37,35,32
42,46,49,36,34,45,49,37,19,35,38,39,33,31,40,35,37,34,30,37,38,32,43,54,35,34,37,41,39,34,30,32
44,50,44,39,35,42,48,41,21,33,34,38,36,32,37,34,33,29,29,39,35,33,41,55,37,35,38,41,38,31,32,38
45,45,44,42,35,41,51,41,20,33,30,37,36,34,37,34,30,32,28,40,35,34,42,54,35,36,39,44,37,33,31,38
43,42,47,38,32,37,54,37,21,28,28,32,36,32,36,37,29,34,28,38,33,36,40,53,31,36,36,45,38,32,30,38
39,39,47,33,31,35,54,42,23,28,27,31,37,34,37,32,24,38,30,36,31,35,37,54,27,33,33,45,35,31,25,37
39,32,46,34,32,31,51,43,25,26,30,32,38,36,34,34,24,37,29,34,31,38,38,55,24,33,30,41,33,28,21,37
40,34,46,36,31,30,53,40,29,23,27,29,34,35,34,37,20,41,33,34,34,35,33,56,25,36,29,39,28,31,17,32
41,30,47,31,26,32,50,36,33,29,29,32,38,32,32,42,26,42,33,36,37,35,31,58,28,33,29,41,31,33,20,31
36,29,43,32,25,37,49,38,32,35,29,26,38,31,28,38,30,38,34,38,36,33,29,58,33,33,23,36,28,33,19,32
38,28,45,36,26,40,52,38,29,38,30,28,38,30,27,39,31,38,34,40,35,37,28,57,36,33,19,36,28,31,17,39
37,23,47,39,23,40,51,40,27,35,32,27,37,32,26,36,31,35,33,35,32,37,32,57,39,38,20,37,29,30,17,41
37,20,53,40,25,41,49,39,26,32,30,26,38,30,28,34,32,36,32,30,35,34,37,58,38,33,23,39,31,33,17,39
38,21,57,41,26,45,50,38,29,31,31,26,41,29,29,39,32,39,37,33,40,37,38,58,40,32,22,40,32,36,16,39
38,23,56,44,25,49,49,38,30,32,27,30,45,29,29,39,31,41,43,35,40,40,35,60,44,30,22,41,30,38,14,36
40,24,56,47,26,50,49,38,29,36,30,33,45,30,31,42,35,43,44,38,40,44,38,60,44,34,20,39,34,42,16,36
44,30,60,48,26,52,52,38,28,39,29,31,46,29,30,42,37,44,48,38,39,46,39,60,50,37,25,40,38,48,18,39
42,29,58,45,28,51,48,40,30,40,30,32,48,31,30,39,39,41,47,37,37,51,47,59,54,35,29,45,44,47,21,40
45,29,60,43,30,52,48,46,29,36,30,26,44,34,30,34,33,40,49,36,37,51,52,56,53,36,31,41,47,47,22,41
50,31,61,40,29,53,47,43,28,32,32,24,46,36,34,34,32,44,50,36,38,55,55,56,52,35,37,42,52,52,27,42
49,35,63,39,30,54,47,44,32,31,31,23,47,39,39,35,33,47,53,37,43,53,56,56,55,39,45,44,57,53,33,40
49,35,61,41,33,55,50,45,35,33,27,21,48,39,40,38,31,50,55,40,49,56,57,56,57,35,44,47,59,58,39,39
47,34,55,37,35,50,49,43,36,38,30,22,50,42,40,42,32,52,56,44,44,54,55,59,56,40,37,45,53,53,39,38
43,34,52,32,36,42,43,43,32,36,28,20,45,42,39,35,30,45,56,42,39,50,55,60,55,45,37,40,53,49,41,34
44,32,52,31,44,41,41,48,28,33,30,21,45,43,40,33,32,41,53,46,39,47,57,57,58,49,40,36,55,50,47,34
42,29,52,33,42,42,41,47,28,29,27,19,44,42,40,31,30,39,52,47,40,44,54,59,58,48,40,37,54,44,48,30
39,27,44,30,40,40,38,48,28,28,26,20,40,40,40,26,26,38,48,51,44,39,54,59,58,46,34,37,50,37,48,25
39,28,47,32,37,40,43,48,23,28,28,20,39,40,39,23,25,37,47,49,45,37,52,60,54,49,30,38,48,34,46,24
33,29,46,34,36,42,39,42,20,28,24,22,38,36,34,24,26,37,44,45,47,40,54,61,53,48,25,46,41,36,43,21
30,28,46,38,37,43,44,42,19,34,24,26,36,34,34,30,30,36,46,46,48,39,51,60,51,47,19,50,39,33,41,19
29,24,45,39,34,43,45,41,17,30,24,24,36,32,30,28,29,32,42,43,43,39,51,60,48,48,15,45,33,33,39,13
27,25,47,34,38,42,44,38,15,30,26,28,35,31,27,25,28,29,39,41,39,40,48,59,46,44,18,44,32,28,38,11
27,25,51,37,38,47,49,39,13,27,25,31,31,25,25,21,28,27,38,41,42,45,49,55,47,46,25,45,34,33,40,9
28,26,49,38,33,56,55,42,12,29,29,35,29,22,25,21,34,29,38,42,44,45,52,55,46,40,24,48,34,34,36,13
28,28,47,37,26,57,56,42,14,33,32,34,25,22,24,21,35,31,36,40,46,46,54,55,46,38,27,50,34,33,32,17
31,32,47,35,26,56,56,42,16,36,34,32,24,23,24,20,31,29,36,37,44,46,55,53,46,35,32,50,32,36,34,17
32,30,48,35,25,59,58,43,16,36,34,33,25,26,28,24,33,27,39,36,43,49,56,53,47,36,38,51,36,39,34,19
29,25,47,33,25,59,55,45,17,34,31,34,24,22,28,24,32,27,38,38,40,45,57,54,51,31,37,44,33,39,33,19
30,24,47,33,26,59,59,51,20,37,31,37,24,23,30,23,35,27,41,41,41,42,54,56,50,34,38,38,34,35,33,25
31,24,47,33,26,60,57,54,21,31,31,34,24,21,27,17,33,24,40,42,41,41,53,57,51,39,45,36,32,34,32,27
31,28,45,30,25,62,56,53,23,36,32,34,24,24,30,20,35,24,40,43,43,39,55,57,50,37,45,39,31,33,29,29
32,30,42,29,21,62,54,53,26,39,33,35,23,25,31,21,37,25,41,43,43,35,54,58,51,40,46,37,30,34,28,29
33,30,43,29,21,61,51,53,24,41,34,36,24,28,34,24,37,26,41,42,41,35,53,58,53,36,44,34,27,30,27,27
34,30,48,32,22,55,49,52,28,43,32,34,28,30,40,26,33,28,37,43,42,33,51,57,54,35,45,33,25,29,27,23
35,31,52,30,23,54,49,52,32,42,32,31,27,27,44,24,33,26,36,39,38,29,46,57,56,34,45,34,26,30,28,19
32,32,53,32,21,58,49,54,30,43,29,31,27,23,45,21,38,26,33,39,40,27,46,58,55,36,41,33,25,27,25,20
33,33,57,34,22,59,47,54,32,42,27,31,26,21,43,23,36,28,32,39,39,25,48,58,49,34,38,33,25,29,26,18
34,36,58,36,24,60,50,55,33,44,30,33,25,22,44,26,40,29,33,38,40,27,46,58,44,34,36,36,28,32,30,18
39,39,58,38,25,60,48,52,30,40,28,28,25,20,40,24,36,28,29,39,36,25,47,57,47,31,34,39,27,32,33,11
36,41,60,37,26,57,48,45,31,43,28,29,24,20,40,26,32,27,25,36,33,23,47,58,44,29,29,37,26,30,34,7
38,37,61,37,27,55,46,45,27,42,28,32,22,22,38,26,34,30,27,36,31,24,45,58,47,33,27,37,29,29,37,9
40,40,62,41,26,52,47,43,27,40,30,30,23,21,36,26,34,30,28,38,35,26,48,57,49,33,25,39,34,34,39,14
40,40,61,41,25,49,50,43,32,40,30,28,24,24,34,26,34,30,26,40,34,26,46,58,46,36,24,38,36,36,39,18
40,41,60,42,26,50,51,44,30,38,32,27,22,24,31,26,33,29,26,39,33,25,46,59,47,40,22,43,34,37,43,22
36,40,58,44,26,51,49,42,27,41,28,27,23,27,29,29,36,29,26,41,34,24,47,61,44,45,21,44,35,36,44,25
38,36,57,39,26,50,47,39,33,42,32,28,23,28,28,32,30,32,27,45,39,27,48,60,48,46,22,46,34,40,42,26
37,35,53,40,28,49,51,38,29,43,33,29,26,29,29,31,30,32,26,45,39,29,47,63,53,49,25,47,35,40,43,30
39,38,51,40,26,48,51,36,31,45,34,31,29,33,29,35,31,37,29,49,41,31,48,63,56,53,29,48,33,37,39,35
35,35,50,41,25,46,52,36,36,47,38,34,32,34,34,40,38,40,32,51,44,36,47,65,54,55,32,52,35,40,37,40
39,33,49,38,25,46,51,42,37,47,37,39,32,36,34,41,41,39,31,51,45,37,47,62,58,53,30,53,34,41,37,41
38,37,53,40,29,44,54,40,41,47,38,37,34,34,30,40,34,40,33,50,45,42,47,60,58,47,33,53,35,41,37,43
40,36,55,42,28,47,57,43,44,49,39,37,36,38,35,41,39,43,34,53,43,44,47,63,56,44,34,57,34,36,36,42
37,35,53,39,30,52,54,42,38,52,41,36,36,32,37,41,39,43,37,51,45,43,47,63,59,41,33,59,33,35,33,41
40,33,52,36,32,55,54,41,37,56,43,38,37,34,38,44,40,44,35,50,42,46,49,61,58,41,38,52,35,34,33,43
43,36,51,37,29,54,55,42,40,55,48,42,43,35,39,44,38,49,37,53,43,52,54,59,57,37,38,53,38,36,33,47
44,39,49,41,35,53,56,46,37,49,49,43,47,37,41,43,35,49,43,51,42,52,54,60,60,40,40,54,40,36,36,47
46,43,51,40,35,53,54,44,39,48,47,38,45,33,37,40,34,46,44,52,41,49,53,59,59,41,39,55,41,37,35,45
46,44,52,42,38,53,53,40,37,47,44,36,47,27,40,38,32,41,41,50,42,47,51,57,58,40,40,58,42,38,38,47
48,48,54,43,38,54,57,37,36,47,46,39,46,30,44,39,32,40,38,48,41,46,47,56,59,39,38,56,44,38,38,45
45,47,51,46,37,55,58,33,33,49,48,36,48,29,45,40,32,44,42,50,42,50,48,57,55,42,40,55,48,40,37,48
48,47,50,50,36,56,59,35,33,50,49,38,50,29,51,42,37,43,41,53,43,49,51,61,55,47,37,57,49,45,38,50
48,46,49,51,41,55,57,36,29,47,47,37,49,27,51,41,33,43,40,49,42,45,49,59,53,49,37,55,48,47,38,51
51,50,52,56,38,54,59,42,35,47,50,39,49,35,54,44,36,44,40,51,42,48,52,59,49,53,39,55,53,49,41,54
53,53,52,58,38,54,61,44,36,45,51,40,50,33,54,44,38,42,42,52,44,46,50,62,50,56,39,62,56,52,40,50
53,51,53,58,43,56,59,44,33,45,49,37,53,28,56,47,39,38,43,51,44,47,49,60,50,58,42,59,50,53,37,49
53,54,56,56,42,56,57,39,31,46,46,36,49,27,53,48,41,38,39,49,40,49,49,59,48,58,43,62,52,54,37,54
53,51,60,55,41,56,59,41,31,42,47,40,50,28,57,51,45,40,41,51,43,52,51,60,47,55,41,59,51,53,40,57
51,47,60,57,40,60,56,44,33,44,52,42,50,33,58,48,44,43,41,52,42,55,54,59,51,55,41,54,50,49,37,56
49,47,58,59,42,59,55,46,30,41,52,38,49,32,52,46,40,41,41,49,42,52,57,58,51,56,49,54,46,50,38,55
53,49,57,57,45,60,52,48,31,40,51,36,46,32,51,44,39,40,40,48,42,48,58,59,54,54,51,54,48,51,37,55
52,50,55,54,43,60,50,44,35,40,49,37,44,31,51,45,39,41,42,47,42,46,56,59,54,50,52,52,44,48,36,52
46,50,53,51,41,57,49,40,37,41,47,37,45,29,47,43,39,37,41,45,41,47,57,59,53,52,49,53,40,51,34,49
48,45,55,47,40,56,47,36,36,38,40,36,44,22,42,38,34,34,40,45,42,46,57,58,50,49,45,51,37,49,32,49
47,42,53,50,35,56,47,36,36,39,37,36,40,25,42,38,34,34,40,44,42,46,55,58,47,45,43,47,35,47,31,51
46,40,54,50,31,57,49,37,33,35,38,33,33,27,40,36,35,33,37,44,41,44,53,59,48,40,40,48,39,42,31,46
42,36,55,50,27,55,53,40,34,35,37,33,32,28,39,34,37,32,37,43,42,41,49,61,42,35,34,44,36,38,29,40
44,32,54,46,30,56,50,36,34,38,40,32,34,29,39,33,37,35,35,40,39,39,46,60,41,36,36,46,36,40,30,38
42,31,51,37,26,53,51,35,32,33,35,25,33,27,35,31,37,32,34,39,36,36,45,59,35,36,32,46,36,41,28,33
43,31,54,35,24,51,51,35,36,34,32,25,34,29,39,31,41,34,36,43,38,39,47,61,31,38,29,47,38,38,24,31
39,31,53,34,21,52,52,35,37,32,29,26,36,28,37,31,41,33,34,43,37,40,46,60,34,37,32,43,35,36,27,27
36,27,52,31,19,52,54,43,33,32,33,25,35,27,38,31,41,33,36,44,37,43,48,58,32,36,31,39,34,34,28,28
38,26,54,27,19,56,56,48,34,30,36,24,34,28,36,30,38,32,34,44,38,42,49,61,34,34,35,36,36,30,28,28
35,29,50,27,21,59,58,47,31,27,38,23,34,28,35,31,39,32,35,41,39,41,50,62,38,35,40,36,36,32,27,26
31,31,52,25,24,60,58,45,33,24,36,24,36,26,36,30,38,34,36,44,43,45,54,64,41,35,39,37,35,31,30,24
34,33,53,25,29,57,56,49,38,28,36,27,36,26,34,30,36,34,36,40,42,44,52,66,44,38,38,34,34,32,36,26
36,36,52,26,29,58,56,47,37,28,36,24,36,29,30,36,36,37,37,41,43,44,56,65,50,41,44,36,40,35,37,30
33,39,51,31,23,57,55,50,36,29,34,26,33,33,31,38,36,35,36,43,43,41,57,63,50,41,43,35,39,33,35,30
36,38,52,36,23,60,54,49,35,32,34,34,34,36,28,40,34,37,39,42,43,43,57,64,52,40,41,38,38,35,33,34
37,37,51,36,24,63,53,51,36,35,36,34,36,39,27,41,33,39,40,41,40,45,55,63,55,39,37,37,39,37,35,36
39,33,53,33,23,65,53,54,36,36,39,34,36,39,31,43,35,39,44,43,41,46,54,65,52,41,36,39,41,38,35,38
41,37,55,33,27,64,53,48,34,34,39,32,38,40,26,40,31,35,39,40,41,44,51,63,51,44,37,41,43,39,34,38
44,40,58,41,24,65,52,48,35,38,38,33,38,38,28,42,32,36,40,40,42,44,54,60,53,45,38,42,44,38,33,40
43,39,60,42,20,61,50,48,35,44,39,37,38,37,32,44,34,38,38,42,40,46,52,58,52,45,34,42,44,34,34,43
46,39,62,43,21,59,49,51,33,43,43,33,36,40,32,50,32,34,40,40,37,42,52,57,51,44,34,43,48,34,33,48
44,37,63,41,20,59,50,48,28,44,46,35,35,38,32,48,32,34,40,40,38,40,54,57,50,43,36,46,48,37,31,49
42,33,62,37,19,59,52,47,28,44,46,36,34,34,33,43,33,30,36,38,34,38,54,55,46,38,32,44,44,34,30,44
46,36,64,35,21,54,56,49,26,46,50,35,33,31,35,39,33,29,37,33,32,42,55,56,46,38,30,41,42,32,28,49
43,41,63,35,26,50,59,52,28,42,54,34,34,30,40,40,36,28,36,33,30,42,54,57,46,39,34,38,42,29,32,50
40,41,62,38,28,46,58,48,28,41,52,33,28,25,38,40,36,24,32,33,32,36,56,57,47,37,37,39,43,29,32,53
41,44,63,43,33,41,60,46,29,44,53,37,26,24,35,38,32,22,28,30,31,32,58,56,49,34,36,40,43,27,34,54
43,41,65,44,30,37,60,51,29,45,54,35,25,25,40,41,36,26,29,31,32,31,56,56,49,34,39,45,46,29,36,53
43,39,62,40,34,31,60,49,23,45,55,38,24,27,44,43,41,28,30,33,31,32,54,56,47,35,37,43,47,33,36,52
44,43,60,44,38,27,59,48,24,42,53,34,23,28,42,42,41,27,30,34,30,29,56,58,45,33,37,44,48,36,36,50
44,43,56,43,39,30,58,47,24,42,50,36,25,27,41,37,44,31,29,35,33,32,57,59,48,33,41,44,46,37,35,46
44,43,53,45,39,30,58,45,26,43,48,33,29,31,44,39,45,33,31,40,35,32,55,57,49,36,42,43,43,36,33,48
45,45,54,51,39,29,56,43,27,45,50,36,30,34,45,41,43,37,36,41,39,31,56,55,53,42,41,43,43,39,35,54
41,45,50,52,42,29,51,38,28,43,48,38,32,32,40,44,40,34,38,44,43,28,53,55,55,42,39,47,43,43,36,52
41,39,52,49,41,30,47,32,29,45,43,33,29,29,35,43,37,31,37,42,45,23,53,55,55,40,35,48,42,45,36,47
45,39,53,48,41,32,51,35,30,46,43,35,31,30,33,38,37,35,39,41,45,24,54,55,53,42,36,47,41,46,38,42
43,38,51,46,40,37,47,34,26,43,41,35,34,29,33,36,38,37,39,43,50,24,56,54,52,43,33,45,39,45,35,42
43,41,47,48,42,42,45,30,25,39,35,33,31,25,27,31,33,33,37,43,47,21,57,55,50,40,32,39,40,44,34,39
40,40,46,46,40,42,43,28,28,36,32,32,32,25,25,32,30,32,36,43,45,20,54,56,49,39,31,37,37,40,37,36
39,36,41,42,38,45,44,28,27,40,34,34,31,25,29,33,29,31,35,41,43,19,52,55,53,38,31,36,34,36,36,34
39,35,43,43,35,42,48,25,25,41,35,37,33,23,29,31,30,31,33,39,40,18,48,56,48,39,30,35,34,37,35,37
41,35,44,42,35,42,46,25,25,38,34,38,32,22,28,32,32,30,32,40,36,20,46,55,40,36,27,36,33,38,37,34
42,36,45,39,38,43,47,23,23,36,33,39,31,19,28,32,34,26,27,38,32,20,43,56,36,33,28,38,32,40,35,31
43,33,46,37,35,47,50,25,23,34,34,38,31,20,34,32,38,29,25,37,31,21,40,57,34,32,31,37,35,38,34,29
49,39,46,37,33,49,55,25,18,37,32,38,28,20,34,28,36,30,26,36,28,24,40,54,35,36,37,37,41,35,34,30
44,37,46,33,30,49,52,22,14,33,31,37,25,22,33,28,33,28,26,36,24,25,37,52,34,33,33,33,37,31,31,31
45,38,47,33,26,50,54,23,15,32,30,33,22,21,32,28,31,26,26,33,19,27,34,51,32,31,37,33,41,31,35,30
44,34,51,34,23,46,55,22,15,33,31,35,23,23,35,29,33,25,27,31,19,29,37,50,36,32,36,36,38,31,32,31
45,36,53,33,21,49,56,27,16,30,32,32,24,21,34,26,37,29,31,29,21,31,42,50,40,34,35,36,38,32,28,32
47,35,61,33,21,52,57,32,16,28,32,30,26,22,30,29,41,32,36,29,22,34,44,49,39,39,37,39,39,39,31,35
49,35,59,30,22,55,56,37,17,26,30,29,25,21,26,29,39,29,39,31,22,35,44,49,39,39,38,38,38,39,33,33
46,36,60,28,21,55,57,39,18,23,30,26,26,19,23,26,36,28,38,27,22,34,46,51,43,40,40,35,39,35,28,34
43,33,58,25,18,55,56,43,19,22,29,26,25,18,24,20,33,31,41,25,23,37,45,51,43,39,41,33,37,29,28,35
42,33,59,27,18,55,56,46,20,23,31,23,26,15,21,17,32,31,41,27,24,33,49,49,45,39,40,35,36,30,31,34
34,30,58,26,18,53,54,46,21,18,32,23,27,16,22,18,34,31,38,24,22,30,49,51,44,37,36,34,33,28,32,33
35,33,57,24,20,49,54,45,23,18,34,26,29,14,26,20,34,32,39,25,25,31,51,55,46,41,41,39,36,30,35,37
37,33,57,20,21,48,52,40,20,21,37,31,28,15,27,20,35,31,41,29,29,35,52,57,48,47,41,41,37,35,34,40
38,38,55,17,21,51,53,43,21,25,37,34,31,12,25,21,37,33,43,31,29,35,47,56,44,48,42,42,36,31,40,39
40,37,55,18,21,50,55,39,23,27,39,35,33,13,27,21,35,30,41,33,29,35,43,56,44,48,46,48,37,33,43,39
42,40,52,20,19,51,56,38,24,26,39,33,31,13,31,20,32,31,42,34,33,35,41,57,43,44,47,48,40,27,42,37
42,43,53,23,21,53,58,35,25,26,40,32,33,18,38,21,33,33,41,31,36,35,40,56,47,42,42,51,42,24,42,36
41,42,51,25,23,53,60,35,27,32,43,35,33,20,42,22,33,33,41,32,35,39,42,56,46,42,41,52,42,26,47,35
41,42,51,28,25,53,61,35,30,33,43,35,34,25,44,26,35,36,41,33,37,39,44,56,48,45,39,53,46,30,47,36
41,42,52,27,22,53,61,34,31,37,40,36,34,30,44,30,35,39,43,33,39,43,42,57,47,47,40,51,46,31,46,39
48,44,54,31,22,57,63,39,32,41,43,34,36,35,45,33,35,39,43,37,41,45,42,55,47,47,38,53,47,30,46,43
54,46,54,35,18,60,66,44,29,43,42,32,37,36,42,32,34,36,42,36,42,46,40,51,47,46,34,52,45,29,44,44
53,45,53,34,20,60,68,48,33,45,44,30,43,38,44,34,36,40,42,32,38,40,40,49,45,42,31,55,41,24,46,41
53,43,53,35,24,59,70,49,35,41,41,26,43,40,45,35,35,43,41,33,39,41,42,52,50,40,29,51,41,27,41,43
50,42,53,39,29,60,66,50,31,40,40,26,42,40,44,38,34,41,41,32,43,41,42,53,50,40,26,50,43,27,40,41
48,42,56,42,34,58,65,46,27,40,39,29,43,39,39,36,34,38,37,31,39,40,40,52,46,44,25,50,43,30,39,37
44,44,59,40,30,54,62,48,28,41,39,29,40,35,35,39,35,39,33,31,34,38,43,51,39,43,29,49,43,31,37,36
43,44,55,40,32,58,62,50,27,40,36,26,40,32,34,40,38,40,34,34,38,36,44,50,41,47,33,49,45,31,35,36
46,48,57,42,34,59,62,53,27,42,38,23,42,31,36,41,35,34,32,35,36,34,47,50,43,43,37,50,46,34,35,33
48,51,56,45,38,59,61,50,30,38,36,24,38,26,36,42,32,28,30,38,35,34,50,50,44,43,38,52,48,36,32,31
47,47,55,40,43,57,61,49,33,36,34,26,38,20,36,42,30,30,32,37,37,37,49,51,46,41,43,49,49,39,29,31
41,41,57,36,43,56,57,51,33,34,35,26,35,19,39,45,29,32,30,38,35,37,51,52,47,43,45,46,47,40,29,27
40,37,54,42,40,59,54,53,31,29,31,23,33,19,39,43,25,27,29,40,38,40,52,52,49,43,47,44,46,43,29,26
40,33,56,40,36,59,51,53,28,29,33,25,30,19,39,45,28,26,30,36,36,40,55,50,48,45,48,46,48,46,30,22
38,32,54,42,35,58,50,50,29,29,33,25,29,19,39,43,28,26,30,34,30,38,55,48,47,44,47,44,44,44,29,24
36,31,53,36,33,58,52,52,31,29,32,25,30,22,40,44,30,27,31,35,31,41,59,50,50,38,44,44,40,42,28,26
39,26,51,34,34,61,53,51,30,31,35,25,31,23,39,41,26,25,31,36,32,39,56,49,56,40,41,41,37,44,27,26
40,26,55,32,30,60,53,45,32,33,36,28,30,24,41,42,23,24,30,34,32,38,54,50,56,37,36,42,34,44,26,24
36,23,54,29,27,58,52,38,26,33,33,28,25,27,40,36,24,25,31,34,34,41,48,51,53,37,31,39,30,38,26,22
34,22,52,26,25,56,50,37,20,34,34,26,26,30,36,35,28,26,31,33,33,37,43,51,54,37,31,37,27,33,31,23
35,25,51,30,20,55,51,39,17,34,34,26,24,28,34,36,30,24,28,33,31,34,43,52,54,39,29,35,25,33,33,21
37,27,50,36,19,58,53,32,17,37,31,25,25,26,32,35,33,23,28,31,30,29,41,53,53,37,30,37,26,33,34,21
36,30,52,34,21,52,56,26,15,35,32,23,23,27,27,34,36,26,29,31,32,26,37,54,51,33,28,36,28,32,32,20
37,34,51,34,22,52,57,26,16,36,34,23,20,31,29,34,33,28,30,32,35,26,34,52,50,30,29,36,26,28,29,22
37,33,54,27,20,55,60,26,20,39,36,24,20,31,29,37,31,31,31,35,39,30,35,54,50,31,35,39,27,32,35,24
41,33,53,27,16,57,58,23,19,40,35,23,17,31,31,34,28,31,30,36,40,28,34,54,51,34,36,38,29,29,37,27
43,33,54,28,14,56,58,24,21,38,34,22,17,31,34,32,32,31,35,36,40,30,35,55,51,33,36,40,33,27,38,28
45,32,54,28,16,54,55,26,20,35,32,22,18,31,36,35,35,36,34,36,42,30,36,52,52,32,39,43,37,28,41,28
48,32,51,28,17,53,54,26,20,36,31,24,19,29,31,38,36,38,37,36,41,29,38,53,53,36,44,45,39,29,45,28
50,34,54,29,14,53,57,26,22,37,30,25,20,31,35,39,32,36,36,33,44,34,42,51,49,34,40,45,38,30,44,26
47,35,55,31,15,55,55,25,26,39,32,24,18,32,38,36,30,36,38,32,44,36,41,52,45,31,39,46,35,29,43,27
46,34,54,30,15,54,54,28,30,40,34,28,22,34,42,36,32,37,42,33,49,38,41,51,44,32,37,45,37,31,43,30
45,33,55,27,17,59,50,32,33,44,34,30,23,31,46,40,31,37,44,33,43,38,42,53,46,36,41,43,35,29,41,36
41,29,53,27,15,59,46,29,36,41,29,28,25,28,42,33,28,30,41,31,38,34,42,52,45,42,42,42,35,27,45,37
43,31,51,30,15,56,46,29,35,37,26,27,25,31,42,32,31,28,41,31,35,34,41,54,42,39,35,38,34,26,43,34
39,33,51,28,15,56,42,32,38,33,27,28,26,31,37,33,30,27,42,28,32,36,41,52,38,37,36,36,31,26,41,35
36,34,51,26,16,57,43,29,34,33,26,31,25,31,33,33,28,26,38,28,34,33,38,54,34,37,36,34,27,26,40,35
32,35,51,25,15,55,46,30,30,32,25,28,24,31,34,30,26,22,40,28,30,34,37,56,31,37,33,29,23,24,37,38
31,37,50,29,16,59,43,34,32,26,27,27,23,27,37,27,25,19,35,27,33,33,36,55,27,34,29,31,21,24,33,42
27,32,46,27,18,59,40,33,31,25,27,26,22,24,33,24,26,20,35,25,31,33,36,57,30,36,32,28,24,22,33,42
27,31,46,26,19,56,41,31,28,21,28,26,26,24,32,26,28,21,35,29,35,32,40,60,33,39,32,28,27,22,33,43
28,34,50,26,21,56,42,31,25,19,29,23,22,24,30,26,29,20,32,28,32,33,39,61,34,36,31,33,26,18,35,41
30,36,50,26,18,52,44,29,22,21,32,23,24,24,31,25,29,18,29,25,35,35,42,59,34,34,30,35,28,20,36,38
33,40,49,24,18,52,48,31,19,25,34,25,25,22,31,28,33,19,28,29,40,37,44,62,35,31,27,38,30,22,34,35
35,41,50,25,16,53,49,31,20,28,36,24,28,20,34,24,31,18,27,29,45,37,43,59,36,31,27,38,33,22,31,39
38,40,52,33,20,53,53,33,15,34,38,23,32,21,41,28,34,20,28,32,48,36,44,61,40,33,28,42,36,28,34,38
42,44,52,35,19,53,55,37,18,37,38,22,37,23,46,30,36,21,31,34,48,39,46,60,42,33,28,46,40,32,36,39
44,43,52,35,21,52,52,40,20,40,40,23,38,24,42,30,40,20,28,34,48,39,46,57,44,32,28,49,41,32,35,38
44,43,51,33,20,49,55,39,23,46,38,24,39,28,38,30,41,20,30,33,46,41,51,57,46,35,28,47,40,33,34,37
44,41,53,34,17,49,58,39,24,50,41,26,41,26,39,32,44,22,30,36,48,40,49,58,42,31,26,49,38,33,32,41
41,40,53,34,18,53,59,37,25,50,36,26,42,24,42,30,46,24,29,35,47,41,47,58,39,28,23,53,36,31,32,42
43,39,54,33,17,54,60,38,29,47,38,26,42,25,42,32,46,22,28,38,48,39,45,58,38,30,24,51,40,36,31,41
41,39,53,34,25,56,58,40,29,46,36,28,40,25,39,31,45,23,30,41,49,40,41,61,37,31,25,50,39,34,31,43
39,42,56,40,25,56,58,38,30,49,32,27,41,24,37,28,44,24,30,39,46,42,42,60,40,31,24,51,39,35,27,45
35,43,53,41,28,56,57,37,28,50,29,32,38,22,32,28,44,26,31,36,42,40,42,63,44,32,26,51,39,34,26,43
34,43,51,38,27,57,58,33,29,47,28,30,32,18,28,22,40,24,28,34,38,36,39,63,43,28,22,46,39,27,22,41
30,41,49,39,27,55,52,29,27,43,25,29,27,16,23,19,35,23,24,32,36,32,42,63,44,26,22,40,34,22,24,40
29,39,49,46,26,56,51,27,26,38,24,27,28,14,22,18,30,22,29,31,34,32,40,65,44,28,22,35,31,22,25,40
30,40,53,45,26,57,50,27,24,34,24,26,28,12,25,19,28,24,31,30,30,32,32,66,42,22,22,32,32,18,28,40
35,47,53,47,32,59,52,31,25,30,20,24,27,14,25,20,28,22,33,27,31,33,34,68,48,26,26,32,36,22,30,36
37,48,50,47,30,55,49,30,23,30,22,24,24,16,20,20,26,20,32,26,31,32,35,63,51,26,28,28,34,26,28,32
35,48,46,50,33,55,47,29,19,31,20,24,25,15,19,17,24,21,33,21,27,37,34,61,51,23,29,24,31,22,27,32
32,48,46,51,26,54,48,25,21,29,19,21,24,14,21,19,25,21,31,21,27,34,32,61,48,22,23,24,28,21,26,30
32,46,46,49,28,57,48,23,19,24,22,20,21,16,22,20,25,21,31,23,25,34,30,63,46,20,24,20,26,20,28,31
33,41,47,46,27,55,49,26,19,23,27,17,21,19,26,23,27,21,28,25,26,33,30,60,42,20,26,19,23,20,30,29
31,40,47,43,27,52,43,28,22,23,26,20,22,20,26,24,30,22,28,28,31,34,34,60,42,20,28,21,21,22,31,33
31,40,50,45,26,55,45,30,21,28,28,19,21,21,29,29,32,22,32,30,34,36,28,62,42,22,28,24,22,24,28,34
31,42,49,42,27,54,46,29,22,30,28,20,20,22,28,28,32,25,28,32,36,34,29,61,44,20,28,28,24,25,29,32
30,38,51,41,24,53,47,27,19,31,27,20,17,23,28,28,34,27,27,36,38,33,30,54,42,23,30,28,24,26,28,31
24,36,50,41,20,54,47,24,18,30,30,20,14,24,28,24,30,26,22,36,33,32,26,48,36,20,26,24,18,22,24,33
24,35,50,42,25,53,45,25,16,29,32,21,12,26,28,26,32,27,22,36,31,33,24,48,34,20,26,22,18,20,22,36
28,34,53,42,22,51,45,26,16,30,32,26,12,26,30,28,34,30,22,40,34,30,26,50,36,22,23,22,17,20,21,39
27,31,53,45,23,51,45,28,17,31,31,28,17,29,29,26,30,35,20,38,30,30,26,47,34,21,23,18,16,18,20,38
24,28,54,43,23,47,42,30,18,34,30,28,21,32,32,30,34,36,24,37,32,31,26,42,32,21,25,16,21,19,23,37
23,29,55,45,27,49,42,29,16,32,28,29,25,31,32,27,31,36,25,35,30,34,27,43,36,20,23,14,21,18,23,36
22,29,53,45,27,50,48,29,16,33,30,28,26,32,32,27,30,38,26,33,28,36,23,43,40,26,26,16,22,18,26,34
22,28,50,42,29,48,48,27,16,28,31,28,32,33,32,26,31,43,26,32,26,38,26,42,39,27,25,17,21,19,25,34
22,26,51,42,28,48,52,24,17,26,31,27,31,33,32,27,31,43,26,31,26,41,26,43,35,26,25,16,21,19,25,36
23,30,50,42,30,48,51,25,20,27,33,26,32,31,31,29,31,43,25,29,27,38,31,49,39,27,25,19,21,22,25,36
28,29,50,41,31,46,51,28,22,30,32,29,34,31,31,31,33,46,26,32,30,38,33,53,45,29,27,27,25,27,27,38
29,29,51,41,27,49,56,31,24,32,32,31,38,30,35,33,33,47,28,28,31,38,33,58,47,27,27,31,23,25,29,39
28,31,51,39,31,53,57,33,24,34,34,28,38,30,38,36,32,44,30,28,34,38,36,59,50,26,32,34,24,30,30,40
30,32,50,39,30,51,56,36,24,33,34,32,33,30,39,37,35,42,32,29,36,40,38,60,52,31,39,38,28,35,31,44
32,32,50,38,30,54,57,36,25,30,32,34,30,27,40,37,33,43,31,32,41,38,38,64,55,34,38,43,26,34,28,41
34,31,50,39,26,52,59,36,28,33,33,33,28,26,38,39,33,43,33,34,38,34,39,64,51,35,38,45,28,36,28,43
34,31,52,39,25,52,55,39,24,32,33,32,28,26,36,41,34,40,34,33,40,30,40,62,47,34,37,41,28,36,27,41
34,30,52,38,26,54,55,37,26,33,33,36,26,26,34,42,35,36,35,33,43,29,39,62,50,36,40,42,30,36,26,41
32,30,52,36,28,56,53,40,22,34,32,38,28,28,37,45,40,37,37,36,43,31,40,61,54,38,38,45,34,38,25,39
30,29,52,37,27,55,53,42,20,33,33,41,31,31,39,46,41,37,41,37,45,35,37,61,53,38,35,43,33,35,23,37
30,28,53,35,30,56,50,44,16,34,32,38,30,30,37,45,40,34,43,34,45,34,41,62,53,41,39,41,35,34,27,37
31,24,55,31,26,59,48,41,14,33,31,34,28,30,33,41,38,34,42,38,44,32,42,62,52,44,42,42,39,39,25,35
34,23,56,31,23,57,50,37,16,28,32,30,30,32,26,38,38,34,40,36,40,30,36,56,44,44,36,38,40,34,26,34
35,26,56,26,24,57,51,33,16,30,36,24,30,31,23,41,41,32,44,36,44,30,36,56,46,42,32,38,40,34,23,32
36,30,56,30,23,53,53,35,15,30,40,22,30,34,22,39,38,29,43,33,40,33,37,53,47,42,31,37,41,37,23,36
38,36,56,30,23,55,54,37,16,30,40,23,27,36,24,40,42,31,44,35,45,31,36,53,48,45,30,39,44,40,22,33
43,37,53,33,22,57,57,32,18,32,36,24,26,34,24,38,40,34,42,36,43,34,36,53,50,41,32,44,47,43,23,32
47,39,55,34,23,56,56,36,18,34,32,22,22,33,22,32,37,32,37,33,39,33,37,53,49,41,33,39,47,43,25,30
50,40,57,36,23,55,55,37,22,32,32,20,18,30,18,30,32,27,38,31,42,29,36,52,47,41,35,36,48,42,26,33
50,40,58,32,23,55,54,39,23,35,31,24,17,27,20,30,32,28,37,29,37,29,36,53,51,37,38,37,49,45,27,35
50,39,59,32,20,54,54,38,23,36,32,21,19,30,20,30,35,26,33,31,33,29,34,51,52,36,35,32,46,43,24,34
48,42,55,31,22,50,55,39,25,34,34,22,20,30,22,30,36,24,34,29,35,30,33,47,53,37,33,31,44,40,26,32
47,41,53,31,23,49,53,43,22,37,33,23,19,29,25,27,37,27,37,27,35,33,37,50,57,39,37,35,45,43,29,29
45,37,54,30,20,51,55,45,24,39,35,31,17,26,27,27,35,29,35,29,33,33,37,51,56,37,38,31,43,45,31,27
48,36,54,26,23,53,54,49,22,44,31,33,20,24,23,25,34,27,35,27,35,32,35,52,53,36,36,31,41,42,33,24
46,32,53,24,24,52,52,50,17,44,30,33,20,21,24,24,31,22,31,26,32,37,32,51,57,32,36,25,36,39,33,25
43,29,54,21,25,49,53,52,19,41,35,34,21,21,25,23,33,20,32,22,30,36,31,53,53,33,33,21,35,35,31,26
40,26,54,21,25,51,54,52,19,42,40,32,23,20,28,28,35,24,36,26,32,39,29,54,50,31,28,24,32,32,28,26
37,25,51,23,25,49,53,51,18,41,39,30,25,24,30,27,37,24,35,26,33,39,32,53,50,31,30,23,30,33,30,26
39,26,51,28,27,49,55,48,18,38,36,28,26,26,28,26,34,24,32,27,38,38,35,53,48,31,31,25,32,34,29,28
37,26,49,32,29,50,57,50,20,40,37,32,26,26,30,30,34,26,36,26,40,37,36,53,49,30,30,30,32,36,26,27
38,25,52,34,30,53,58,51,22,46,36,34,28,26,32,32,34,28,36,28,40,40,40,57,49,32,30,29,36,40,26,30
33,25,52,35,29,55,60,44,23,45,34,35,26,26,29,31,32,28,36,30,38,41,40,61,48,31,28,28,34,38,23,34
34,28,49,36,35,55,57,43,23,44,28,29,29,30,32,28,30,26,35,28,36,41,38,59,47,31,29,32,34,37,25,35
33,28,49,38,31,56,55,36,23,39,27,27,28,27,31,27,29,31,34,31,36,40,40,61,50,30,30,32,33,36,23,39
31,29,51,43,32,55,53,35,25,37,28,27,32,30,28,25,27,31,33,27,35,38,43,61,48,31,31,35,35,34,22,43
34,30,55,44,33,54,52,36,23,39,26,24,30,35,28,28,28,31,31,29,37,37,42,60,50,32,34,36,32,36,24,43
33,33,53,47,33,51,53,37,23,35,23,26,31,34,29,26,28,30,29,29,35,35,42,59,51,31,35,37,33,37,27,41
35,37,55,46,30,53,52,37,20,38,26,28,35,32,30,28,29,35,28,31,33,37,41,60,49,33,33,37,31,38,25,43
34,37,56,45,29,52,53,39,19,37,29,27,33,31,29,27,31,35,29,33,27,39,38,59,50,35,30,35,28,36,24,41
34,37,56,46,30,52,52,39,17,31,26,28,35,28,27,23,31,37,29,35,29,43,36,61,47,33,30,32,29,34,26,39
32,40,57,47,30,52,48,40,13,29,29,27,33,27,27,23,29,37,29,34,28,41,34,60,43,28,30,31,26,34,26,38
35,43,57,47,31,49,49,40,18,32,29,28,35,25,30,26,29,35,27,35,30,38,34,58,43,29,31,33,26,32,25,36
35,43,58,49,26,47,50,39,19,29,29,28,35,24,27,25,29,36,29,38,32,39,39,59,42,29,30,34,27,29,22,35
35,40,58,50,32,44,52,41,21,31,35,31,34,28,31,27,35,32,29,39,30,41,37,59,41,32,31,32,30,30,24,32
36,42,56,45,33,49,52,39,22,32,36,34,33,29,33,30,38,33,31,42,32,41,36,59,41,32,32,32,28,32,26,28
30,43,55,43,33,52,50,36,21,31,32,35,34,28,34,30,32,34,32,40,31,42,34,58,39,31,29,32,28,30,25,26
28,44,56,42,34,49,48,30,21,30,30,35,33,30,32,30,28,31,33,38,30,41,34,59,36,32,30,28,26,28,24,25
25,44,57,39,34,48,52,28,26,32,30,36,30,28,32,28,26,27,32,36,34,39,34,60,41,28,32,31,30,28,24,24
24,46,54,40,36,51,53,22,28,35,30,38,29,30,33,31,29,23,33,37,37,35,37,57,39,31,32,34,32,26,25,21
20,46,51,33,36,51,55,22,31,37,30,36,28,32,32,30,26,20,32,39,36,32,36,55,39,32,34,37,31,24,26,19
20,46,50,31,36,49,58,22,33,38,28,36,25,34,34,27,29,19,31,39,35,32,36,53,41,32,32,39,29,19,24,15
21,47,51,30,35,50,60,24,31,37,31,38,24,35,36,30,32,22,32,38,37,33,37,53,45,32,35,38,31,21,27,16
23,48,52,32,36,51,61,22,31,36,30,38,26,36,38,32,32,21,31,35,35,31,36,55,43,31,33,37,33,22,28,15
22,47,52,29,31,55,58,23,34,37,29,37,24,34,37,32,29,21,29,32,34,29,33,52,45,31,31,39,29,18,28,14
22,45,54,29,27,55,59,22,32,36,28,35,26,32,35,31,29,22,28,32,34,28,33,50,42,27,27,37,27,15,25,16
23,40,51,30,31,53,62,22,32,34,32,34,24,28,36,30,34,20,30,32,38,28,38,53,44,28,30,35,29,19,24,18
31,43,53,26,27,57,64,26,32,38,34,35,24,26,36,31,39,23,31,35,39,29,39,54,51,29,33,39,33,25,23,19
36,40,53,29,27,59,63,30,33,39,37,35,26,27,39,32,39,23,32,38,36,31,39,55,49,33,32,36,31,25,22,17
37,36,54,28,23,57,62,36,32,37,39,32,26,25,38,32,39,27,33,38,39,32,37,56,50,31,33,33,29,27,25,19
39,36,56,32,21,57,61,33,33,36,42,32,24,26,40,34,42,28,36,36,40,31,38,54,47,32,31,29,30,30,23,23
41,36,57,32,22,56,58,31,35,34,42,29,25,23,34,35,39,27,37,35,41,32,37,57,48,33,29,30,31,31,25,24
39,34,57,32,22,56,57,30,31,29,39,23,25,20,31,31,35,23,36,35,38,31,36,55,46,33,26,28,30,33,20,22
41,35,56,33,23,55,57,34,31,29,39,23,24,17,27,29,38,24,40,36,40,32,37,53,48,36,28,28,30,36,21,24
39,37,54,35,27,53,58,36,30,29,40,21,28,17,27,31,41,29,43,37,44,36,41,53,45,35,29,25,31,40,21,27
37,40,56,38,30,50,61,38,32,28,37,22,28,15,26,30,38,28,44,36,45,36,42,55,46,36,30,29,37,45,20,28
41,39,56,36,26,51,59,36,33,34,39,24,27,14,26,30,37,28,43,36,40,36,41,51,46,35,27,29,35,41,20,29
38,33,54,36,29,52,57,37,33,32,38,23,27,13,25,29,37,27,46,38,43,39,42,51,42,34,22,31,34,40,20,35
39,37,56,36,31,55,59,37,33,30,36,24,29,14,24,27,37,29,47,37,43,39,40,53,40,34,23,33,31,42,23,40
38,34,56,36,34,57,57,33,32,28,32,22,30,12,24,23,39,27,45,34,39,38,41,56,41,37,20,37,30,39,22,41
37,31,57,34,36,57,56,34,30,27,29,22,33,11,24,23,39,26,43,37,41,40,41,56,44,39,21,40,32,39,24,40
38,29,57,37,32,59,56,39,27,30,26,22,34,10,22,22,38,24,43,38,43,39,45,55,43,40,25,41,36,40,24,44
37,30,55,36,37,58,54,40,28,33,28,22,36,10,22,22,39,22,43,40,43,37,45,57,45,41,29,41,36,40,27,46
37,29,56,33,39,59,54,39,25,34,30,22,35,10,26,22,39,21,41,39,47,33,44,56,50,42,33,39,39,40,30,48
38,32,56,36,38,59,55,35,25,31,26,20,36,12,28,24,35,19,40,39,45,32,42,55,52,40,34,44,40,42,28,46
38,31,51,34,36,61,51,35,26,33,28,18,32,15,30,24,38,22,40,42,46,32,42,57,52,40,36,45,37,39,30,44
39,32,56,33,37,62,54,40,25,29,25,18,38,18,29,26,39,22,42,44,45,35,43,57,53,39,35,44,39,39,32,44
33,35,54,35,33,60,56,37,25,28,26,19,36,20,31,28,37,23,40,41,44,34,40,60,53,38,36,39,38,33,31,42
30,39,52,33,29,58,54,35,23,27,27,17,33,18,28,26,36,20,37,38,40,31,41,55,58,34,36,38,41,30,30,36
34,44,52,29,30,56,55,39,22,32,30,20,36,22,31,31,34,22,39,41,41,33,39,53,56,29,38,33,42,31,28,37
35,47,53,27,29,57,56,39,22,34,30,19,38,24,35,32,36,25,38,38,36,32,36,56,54,25,37,35,40,28,25,36
35,48,53,22,32,53,57,34,25,33,33,21,37,25,37,31,39,27,36,37,32,31,34,54,57,24,38,33,36,28,23,34
36,46,56,20,29,54,57,36,25,33,30,23,35,27,37,31,39,28,35,35,31,33,33,55,55,22,34,32,36,28,22,35
35,47,57,21,28,52,56,35,25,30,28,22,34,28,38,30,36,28,34,36,26,39,35,54,51,21,30,33,33,30,17,32
