Fp1,AF3,F7,F3,FC1,FC5,T7,C3,CP1,CP5,P7,P3,Pz,PO3,O1,Oz,O2,PO4,P4,P8,CP6,CP2,C4,T8,FC6,FC2,F4,F8,AF4,Fp2,Fz,Cz
0.6246438493221145,0.5842592222347627,0.6065524461807511,0.5900435715086749,0.5777802737967034,0.5595575612290029,0.5931351877277631,0.6155626072575655,0.5631834705597548,0.5959485142956614,0.6056402800937378,0.552321234830229,0.5877779606471057,0.45866080952207783,0.5961096351399374,0.6061415470471224,0.5913234143940834,0.6270811207288175,0.5792382056988835,0.6125030455857402,0.6104004514640117,0.6239903619327984,0.5982462017246386,0.6063518496020757,0.5935320435507119,0.6155022064431661,0.6175927290050128,0.6174129176629412,0.6083097863377331,0.6208653613279489,0.577385458520626,0.6164195889728352
0.6160352303106916,0.6140415016453401,0.6035601233349986,0.5926223993594039,0.3856597106140573,0.5262222941565617,0.6063728564867277,0.6018094463203147,0.44006364255312297,0.5874301111991082,0.4829576774890885,0.5071361028027007,0.560618750260241,0.4293521941170012,0.48324056770900214,0.4321590642915896,0.463022369398151,0.5156888802952889,0.48936183711203,0.4359249936953459,0.5632123538422611,0.6102137159498261,0.5046774432201304,0.5929979252422927,0.5825365197564396,0.6069539595304607,0.568183539805616,0.5247410223528477,0.6154577632797193,0.5916508095830388,0.5758520937273898,0.6180018335515811
0.5485499127684711,0.5819654836077135,0.5530399419801754,0.5352353042943864,0.4519638060572542,0.4781452095198246,0.5761057994114145,0.6098259795565337,0.3805591622983469,0.6014663871505704,0.6143794792096203,0.6043733944094196,0.6203999319705303,0.41518587968446624,0.5841949700580039,0.5956142647637188,0.5873799416273806,0.6166632165026238,0.6151068386600422,0.5874590904471999,0.5954915071567295,0.5867423938980102,0.5206944487132307,0.5776675357495544,0.42284782039066593,0.6148820050126498,0.5652298340917906,0.4807989665583192,0.5458161512268859,0.5382190854668955,0.5508974755042391,0.6254539822284936
0.5676931123386166,0.5193647964062013,0.6038871922140927,0.5669836042507612,0.5926744230114976,0.5171028105540644,0.5600452443805076,0.6049323985006946,0.48845191806243365,0.5990046420798423,0.5914766275353648,0.5534468151612775,0.6014901047416392,0.48707605816212657,0.5929599478799192,0.5517621325075882,0.5434819662432084,0.5566001069753717,0.6093704407095657,0.58835709461764,0.5821621216829487,0.5183661592213872,0.5985505892872742,0.5413455259699049,0.399040169019943,0.6193616279361522,0.595659018442683,0.4868771570360583,0.529325599500069,0.5478865621508482,0.569790393552262,0.6321153831700951
0.6248821096591272,0.6018874886062325,0.6090109280938764,0.6190557271408292,0.6073256711915396,0.5974684138585111,0.6349222029117076,0.6116562786334975,0.6218169369454334,0.6249851349043029,0.5992535387145759,0.5492816984637222,0.5682450762859769,0.5360853398532895,0.5399017434231456,0.502639384680693,0.4594298982439734,0.5264646645061927,0.584845816413948,0.5512936166393024,0.5946419624055678,0.552366898470198,0.6203070193428823,0.6245363887671423,0.5989936701925278,0.5938645690561216,0.5829162298511952,0.6014767545329068,0.6215018879602281,0.613349879419781,0.5846083382846059,0.5993640383819812
0.6090120504200365,0.5829489776003235,0.5897486235285291,0.58518846467365,0.5134903897961003,0.6060702673951769,0.6023593900361999,0.6089035614266326,0.5929397969808214,0.610487492473488,0.6090214277826421,0.6241446000037923,0.6089061101420357,0.5637359464207224,0.5470833449172544,0.5647874559127645,0.5156113254470771,0.5830563942471055,0.6176265189583746,0.5983263490386801,0.6212698843548435,0.6009353798529915,0.6414709431178643,0.596120641086922,0.6251267070661672,0.5757692463969587,0.5899739761947858,0.5851631284985133,0.5334110942841347,0.5629335125663063,0.46728115437176365,0.6205670114184184
0.6044653356213102,0.6009858492025676,0.5987809678515807,0.6004979538839732,0.5213932895551322,0.6047191031701913,0.5959782824958684,0.585391802272423,0.578024295567653,0.6242545222326695,0.6124830379717631,0.625668865517402,0.5934566460965566,0.5586049652507229,0.5673177198952537,0.5868497241315535,0.5947994832453253,0.6016690373061191,0.5981113473385706,0.5976050263710982,0.6152474638640936,0.6174159219698825,0.6348999029621631,0.6120749779202027,0.5874808421224241,0.5762909264542461,0.6190924411928145,0.6029591878893713,0.5904548043367802,0.5680075094993419,0.5649987247375671,0.5758203966986798
0.5867363818696043,0.6158327575912732,0.5820868581674098,0.6126007672543284,0.6032323530740167,0.48230461409602504,0.605898000761627,0.5882096230024872,0.49128759867059546,0.5583806036672779,0.5409139018357954,0.4465454153486496,0.6030782880459488,0.5322518051416862,0.5117560681925943,0.5277885239636003,0.5657461722501478,0.5810328667938229,0.6083276471485582,0.5764885655341805,0.61390567601331,0.6020439216597918,0.6052259556727848,0.6165860994514422,0.4665308967773247,0.5832216246781022,0.5114924909914943,0.5898841309659981,0.586275835622436,0.5899839599147066,0.5887429651893283,0.5855335766373732
0.573747593922537,0.5724952646941329,0.5283073751523236,0.57776533590195,0.5022482365397013,0.5389568205643066,0.600019692583053,0.6006522731791119,0.567816771840864,0.5934834056302183,0.5638358508649259,0.5471566813493749,0.6115157487450779,0.5957982588353098,0.5278609017821326,0.5320713784362586,0.56181171949013,0.5973504394510812,0.5921945182152212,0.5851449031352941,0.6167319136653112,0.5668245083558939,0.6198869089357196,0.6155309730758466,0.4615922542628492,0.5606774033519232,0.5176380583305531,0.6015593609237642,0.6087168720547249,0.5676683822475495,0.4938372166510354,0.6079851995060794
0.5935152878275228,0.5757853443774059,0.5724856197148933,0.5738391774718212,0.5241217209348791,0.586629060875786,0.5983791049878323,0.6007428905132915,0.6185979844741222,0.6072407062908076,0.5995913758260444,0.5927876627656862,0.5788655036263705,0.5718529455224663,0.5941957788946283,0.5742574160337275,0.5521117146955038,0.546555712259585,0.590561724170453,0.5794968849998734,0.6042078806909768,0.6082097572935872,0.6135044029829639,0.6214790176823639,0.6219319848588293,0.5347354644265835,0.5717371183334231,0.6134436633327182,0.6237946181210765,0.558692564024365,0.49697563125082034,0.6125373392199208
0.6101876755819621,0.6234512527433518,0.5874218487372784,0.6130990184008148,0.615769483960295,0.5737439256866261,0.6172358797071567,0.620973341484808,0.6125689892524802,0.6036961778731333,0.596551750070909,0.5752358254969498,0.6038377961594921,0.6050417094302516,0.6185193907425381,0.5994958870268922,0.5767642100005409,0.5983381898993244,0.607344930645091,0.5956700384091685,0.594160006785905,0.5928927064170376,0.6198331281392462,0.6043779024319297,0.5994048843876872,0.5370628624290835,0.5631113330459427,0.5960121665673846,0.6013592291968879,0.5816697227819537,0.5881415585827847,0.6203845141340962
0.6203550205315547,0.6251658195009874,0.5807692081848589,0.5867378238332431,0.6310039248516329,0.611489262876239,0.6044910816281264,0.634732757530462,0.4728341089846293,0.6020838637850368,0.6093486962623132,0.5362532742855648,0.5977133455995907,0.5771894141080378,0.5854803604437507,0.4364578338200085,0.5842717946708249,0.5892005670694855,0.5902729671451545,0.6099826086287559,0.6080894962672927,0.5936450345230369,0.6020853205765985,0.6191256584437038,0.618642022128893,0.6179537609852882,0.6233798092464149,0.632404037134375,0.6168978175207406,0.6183740412503651,0.5781180846946583,0.6321940755632532
0.5910058758252561,0.6067639225334047,0.5794287007695459,0.5797391814442694,0.6175048395876369,0.5804614488457812,0.5911927318464691,0.5834424122248674,0.4394570946509813,0.6136688658247679,0.5397891975328956,0.5070591683649184,0.5529763561785371,0.5803219255510215,0.5391936308840096,0.401935985374402,0.5229129231143962,0.5174780146992853,0.5479101675178887,0.5852851194138154,0.6081176210476589,0.5890419794456639,0.6113169606100913,0.6077259144345698,0.5986092290815134,0.622509307514962,0.6260475987339384,0.6238068853406563,0.6234781515021897,0.5895040425872261,0.598680718458343,0.6082059932043283
0.5928800307498249,0.6389032760391447,0.5949384529871515,0.6140970826942251,0.5799375620751126,0.5605530689737062,0.6154271279095272,0.5944037925964902,0.5664323360912108,0.5750659613389851,0.5528505887099104,0.4747342541802132,0.5315967640018315,0.456764801396275,0.49790838616396127,0.49187646404730845,0.5101520994010709,0.4820101598908557,0.5418924147807856,0.5311436138336623,0.5848255480943093,0.5656464259458255,0.622597585332642,0.6073408388970708,0.5198464711514207,0.5877670166653259,0.5143698649562668,0.6029905240532449,0.5976144166376544,0.5758127580321067,0.5161683166885179,0.5795475665596019
0.5526035224318846,0.6150065965898507,0.5913954376389385,0.600004325266897,0.48741252380564104,0.5816118007865893,0.5720995709088452,0.566288887928686,0.5392688444848269,0.5859443064773123,0.4985361199836248,0.46801205530995094,0.5032752428780125,0.493261093342637,0.4870450698157655,0.5200092498507473,0.518249081107011,0.5014800654753409,0.5371603493049301,0.5378913020905527,0.5701694760240087,0.5351473097243037,0.6017755337510335,0.5961570324324011,0.5735033869070281,0.5913443041361074,0.4893284233087944,0.6149924254024254,0.5817538052921647,0.5871588609435248,0.5022168138032433,0.6086000335212395
0.6001983738200637,0.6241048604528574,0.5793221075680899,0.581459510357765,0.5840449506660621,0.5967873082359018,0.594437583086195,0.5927455706138437,0.5235264551863779,0.5927287168684036,0.5545662491159044,0.5374188638987113,0.6015353433369677,0.5931436855645789,0.5877569558447681,0.6018691132864971,0.6212025440008072,0.6175734424614897,0.6148420498765698,0.6286751862874208,0.5988766490941142,0.5991691282925464,0.5583639777365085,0.5686361905609538,0.6014855325933577,0.5999368866326609,0.5563894424405146,0.6051094418554135,0.6099501846772716,0.5890431736828404,0.5941279123359209,0.6090696898487367
0.6227757499439557,0.6147655277261403,0.5729631114914046,0.5842585365861257,0.608050536323006,0.5227546260402606,0.6148942903456838,0.598822221823329,0.5807033046857786,0.6041812318285641,0.6146047278501314,0.6185169454052641,0.6048742328369316,0.5449429391828127,0.5976569590251427,0.6052365316125495,0.6113558850471724,0.6180861597235167,0.5816580912229111,0.6194157403564207,0.60942036757148,0.6075594962243355,0.5813647468959057,0.569759257655985,0.4599728209404762,0.6181900598289315,0.6165897615752931,0.5796912151957374,0.5966884059226579,0.6062940808916165,0.6094065525351724,0.5897282394859517
0.6074223099974396,0.6198673144495958,0.5673791800374702,0.6081288634582284,0.5776767455649834,0.5037832508457887,0.6077628423678566,0.5660801147398103,0.4768695339404936,0.5823210230497589,0.6221075534345516,0.5168015705939849,0.5213984682927114,0.5078638197301281,0.5770359407489183,0.5731013980739795,0.5299969143039399,0.6101042095185695,0.5881876321677122,0.5975866420804756,0.6189113379204666,0.5582459503823486,0.6145324626241535,0.5886402936514625,0.46397071294920655,0.5862314393469525,0.6187013115338034,0.5831731897313306,0.6018640206390584,0.6068231535876879,0.5720100226312294,0.5641736474634969
0.5910035448622224,0.6307198735286913,0.5951707550703232,0.6099888979405786,0.5419507676203471,0.5924893600097633,0.6150699892703,0.5995568029239704,0.5459519801086055,0.6082079043372086,0.6303021091663021,0.5749343173103064,0.6113731969444968,0.5368566664934113,0.6176795906117886,0.6123464423551972,0.5623947159621138,0.5939114744948122,0.6223753165432401,0.6196956025175372,0.613751058504024,0.6025760417862268,0.6127466064091444,0.6144314178885341,0.583343577558504,0.5902229251755623,0.5870822893715898,0.5645560896554873,0.585005846433071,0.5998945013851865,0.5845136015283099,0.584120951633214
0.6013825202146129,0.6150263724715365,0.5843217732937538,0.5964031149270831,0.5660279479302884,0.5825540124939228,0.6155649558701741,0.6123664026987294,0.5904493282100627,0.621392679679219,0.6307872265766256,0.5566851374853279,0.5871393457812538,0.576881690529479,0.616801149217255,0.6048054688871565,0.582870161450564,0.5138583337056066,0.6153282656399457,0.6092702489923199,0.6089306149352282,0.5958168847528073,0.6244956958994744,0.5934799181194113,0.6132759840300435,0.6220991320245898,0.5748805234769646,0.6075086991941803,0.6125876261522045,0.6113259577207506,0.5768826887586677,0.6187558870355265
0.606424773633489,0.6063194974369424,0.5560921325868087,0.5966743008338717,0.6085505466513109,0.5952885280019524,0.586045188460794,0.5517318830932842,0.5759974041919633,0.5830007636289519,0.6109377355518951,0.5079391795014006,0.6033449566538472,0.5920302504147762,0.6032603151083522,0.5455211969286722,0.5886633326984463,0.5475270240337955,0.5798085231166834,0.5778698156756692,0.5718444272377542,0.5940637966912784,0.628568706753388,0.6022286697148601,0.6308549875319064,0.6137062582584626,0.6272166373388196,0.5805840946410703,0.6093253390589541,0.6100357088586507,0.6106427429992806,0.6186416723649097
0.6063506448206676,0.6249906146431853,0.557333157482931,0.5964107276158569,0.6081567146953486,0.589752417173263,0.6135541944299292,0.5179641242945084,0.5037760417033983,0.5642788409743649,0.5622053451395245,0.44406066731132754,0.5349017430770525,0.5900731976362804,0.5807673515645626,0.5625982117130205,0.58755689514663,0.5513455954561092,0.5447374705237532,0.5522961827813997,0.5487484412006988,0.5883008606934004,0.6012442576727313,0.555234665145617,0.6190716459458742,0.5672506202132619,0.5736359761776533,0.5625280005179665,0.6219308831906648,0.5854273211636121,0.5957754321179216,0.5957705670906704
0.6225905131454886,0.6068286529533501,0.587727847028162,0.6252333195682479,0.5932482201199076,0.6024630356945686,0.6033268348828483,0.5817942231033331,0.5507869215730611,0.5804432729259303,0.5688228481180737,0.5497559496125799,0.5811094789462905,0.6032038915944625,0.5299156948054372,0.5931745117565856,0.5869372439294777,0.5882235634566111,0.5806507082360978,0.5543439649944208,0.5900788657113857,0.6091579840643251,0.6029934719916232,0.5327567946075312,0.5977200586296452,0.6309683219165834,0.6132637535336234,0.6042256940436003,0.6110515999945637,0.591832155549324,0.6221417654161567,0.625314822531603
0.606577446675534,0.6026825428187317,0.5928488253477384,0.625927393865263,0.5931861918017995,0.5857258894845814,0.6065891784045007,0.6200077878156459,0.5790988801310372,0.619501738986643,0.5959488766797761,0.5912517769645551,0.5982325320829578,0.5665614161384659,0.513679844358168,0.5721422738516252,0.6027208153624308,0.6135355696516531,0.6049122610575016,0.6136998407238297,0.6091090998290434,0.6082979628610242,0.59771376931821,0.5350666642785401,0.5845823099474764,0.6104457773830102,0.628407080792584,0.6093745603916019,0.6157483495152382,0.6171626192646634,0.6166435541500437,0.5441092233804363
0.5832007126163778,0.6166630019457862,0.5573379695892472,0.6094205466997126,0.6281250146316346,0.580314078025411,0.5751292712828936,0.6011609593128275,0.6103780239074414,0.6219540475414488,0.5922106936404524,0.5887469675939505,0.5882203544846978,0.5162395423669454,0.577096494126614,0.5699134312824494,0.5113308498089201,0.5244734400444958,0.5671537125434215,0.5320304934908356,0.5977127300028714,0.5527328703656929,0.5825062570889317,0.5647858915921452,0.5768498807040676,0.6037386035617637,0.5803719383033935,0.5706264776920503,0.5928558717525704,0.5867705682939067,0.5829978420161626,0.5698903459506697
0.5870157948371972,0.6285913343777518,0.6107198484259854,0.6011206918096026,0.5171210495064787,0.48724501820860056,0.6210161014256056,0.5507262739916352,0.5065490141643144,0.53379887517452,0.47026899465210725,0.49538427222940484,0.46433583764809605,0.3867181183760205,0.5010414990898814,0.499175641099839,0.47471059809826943,0.5113896688250132,0.5296498264424441,0.4818779164724053,0.5481167784848977,0.5388665053777396,0.6201423817153818,0.5699071373189476,0.5604442248396839,0.5847585555979422,0.6064402314334019,0.5431493702073054,0.5830339213759129,0.593873045152956,0.5904355669355189,0.555466313342508
0.6029881080394649,0.624488481539325,0.5995314505376589,0.6060923747336219,0.4813037572401715,0.5814416659659564,0.619148889631515,0.541200184962783,0.5364315746305273,0.5640512437692663,0.5862666421945861,0.5418310995233387,0.5345896614177578,0.49134466772565577,0.5199079881928262,0.5654783905714509,0.5644040901578543,0.5851331657415182,0.5681006460575154,0.5579218288719678,0.5636458937361996,0.5842463895383799,0.6148563510244965,0.5924722880740083,0.5846738695443213,0.6025940191169082,0.5832172352447088,0.6099883512925477,0.5911294978212815,0.5733618098873127,0.5551938951239743,0.6062211192683291
0.6001601893882016,0.6091478554466582,0.5757898575096505,0.6082752481106067,0.5351299139464941,0.5945061911392382,0.6014152316153192,0.5172525462360611,0.5574474173045918,0.5895868194335447,0.5433348599230241,0.5623115297093774,0.5938521079517702,0.5423517469354434,0.5180372572062303,0.5490140482121265,0.5579325187239506,0.5818224993293207,0.5402792219068339,0.5633272706147687,0.5765752894068703,0.6217784186968,0.6209923548028484,0.6084105199441757,0.6129994854970225,0.5996123670438352,0.5821113631070048,0.5929847959138774,0.6110032483130827,0.5602910798899251,0.5948053285004264,0.4463978267468561
0.567100873160662,0.6263722488499118,0.612833322587098,0.5935371642703747,0.5436356768450477,0.5958093949409576,0.6180814238433592,0.5856657008321808,0.6034732373170262,0.6035456723340981,0.5130443516469607,0.5795980787849182,0.6019107230335543,0.5091504303446467,0.5599660392232683,0.5328640200984466,0.5196758220964833,0.5999679103958546,0.5478226399522561,0.5206683489589902,0.6031264673328698,0.6028520641989644,0.5930238964505201,0.609542852687218,0.6096643087830825,0.5704901437354883,0.579840329729751,0.5394182357776568,0.5833184871324253,0.5721402105076621,0.5699906845126181,0.5928957968018389
0.5705216871506612,0.5575961161108182,0.5958404747355153,0.592455471219325,0.5913951808909674,0.6150420841012499,0.6127809251681723,0.5619145435998143,0.6152050455513797,0.5558602747681921,0.5676780371036703,0.5758535169812438,0.5912770695359346,0.526686850022274,0.6161119352734755,0.6175774913178798,0.5276911497708779,0.5960180716236693,0.5842467327981083,0.5357078602995504,0.5894864357508172,0.5616155540719452,0.6094003540687104,0.605796026778871,0.619772770029917,0.6093284754426191,0.616248613544026,0.5861475301637488,0.5968778316671021,0.5953534412845313,0.5984071149246935,0.5809401555289189
0.5766708252675731,0.5879586719801024,0.6186434247184315,0.5856064139561099,0.6026053685890074,0.5919666904033384,0.608744326466071,0.5488494452901324,0.5867810361746437,0.5457970260502224,0.5528731295307968,0.5839003004518928,0.5680231334892148,0.4728864964409383,0.48841879256906895,0.5877181434706945,0.5481890934864779,0.5766539144531752,0.5784481647265483,0.5879164303604,0.6107183843732339,0.5658423255061509,0.605117868940077,0.5969988719298692,0.6094151289562614,0.6071014552555548,0.6271072647052232,0.5550362033114337,0.5989186729667308,0.5837937734974467,0.5824182041209225,0.6145837581166531
0.6196409167682413,0.61364517346149,0.6175483877159617,0.5760648544526619,0.5916270152844662,0.6124648350020369,0.6105874109030796,0.6207856102553296,0.5018459292919202,0.6039976979815397,0.5641378508999326,0.5949127354830743,0.5572400640136936,0.4508777144773169,0.4231637086347383,0.5587710648434548,0.5394848774786783,0.5830889320602687,0.5596954898938507,0.5784554891896664,0.5883804085628402,0.48493453146231486,0.6044750726505596,0.5264337698255536,0.5985680084565137,0.5389723534949422,0.5992269294488207,0.5714634112928515,0.5988904985150907,0.6025220535164597,0.5913733618249738,0.6292934464916848
0.6162799259541867,0.6116703517887082,0.6001544943684131,0.6046115372379487,0.525987920918249,0.6189364326181418,0.6040564768967063,0.6254745654305613,0.5507535085556581,0.6156403783611155,0.6221086905180233,0.5836806151536496,0.5554158249658163,0.6110576716299863,0.5435718766701185,0.5968520239571877,0.5991381940933498,0.5505575288095662,0.5395665829566594,0.5734610815175016,0.6002370298882977,0.500234654280716,0.6303602466541626,0.5385150754661148,0.6201778379869083,0.5607469181782259,0.5694832057577299,0.6182960702761919,0.6161303584338671,0.6118045658079666,0.5988086038592054,0.6130823234544837
0.6065021213568378,0.5906806828585155,0.6194819789122255,0.6223150323443412,0.5511915333871633,0.6034892154920692,0.5993801887100165,0.589566975678312,0.506880603310901,0.5990393444508394,0.6184377878969837,0.5488738635232131,0.5958916162407952,0.5792999843198315,0.5550117648243529,0.5954470770997304,0.5996139127802178,0.5083584879932164,0.5664324679349776,0.560497186607009,0.5985618203095286,0.5387502506344115,0.6095571661362365,0.5486503305006452,0.6121818639646778,0.6159651084348687,0.5912504440067191,0.6188928142136778,0.628722578490801,0.6060134290351276,0.5799625466840322,0.6059014143118548
0.5770789537855039,0.5624221905884011,0.6140975321565856,0.4801371534288195,0.5363829078274751,0.6092045990311008,0.5918207455218223,0.6288155562120274,0.44508722050419763,0.5812018257113714,0.5998139200645592,0.6045736395622374,0.6078269774593539,0.5415440339832129,0.5600263965361668,0.5789605467053173,0.569304978667281,0.606457186263948,0.5977156308557625,0.6179103924252616,0.5897482950726253,0.5799212827191433,0.6150628025734369,0.5464699224027421,0.616336879253053,0.6211480129029856,0.5735188544891813,0.5952809926820436,0.597255786733796,0.5385213230020065,0.5989695115944773,0.6043144645396795
0.6060462687546612,0.6000589314843746,0.6194792857142891,0.5703775867677583,0.6035056607509854,0.6165503338316962,0.6189288388875382,0.6076217136135915,0.5077301971541903,0.5755330209305942,0.6030866168587793,0.5995987630352982,0.6007575558500997,0.435335154406946,0.5764361177117787,0.5813037734092635,0.5826699930589515,0.5665168294321488,0.5902690569674095,0.6067760785140961,0.5852055553328084,0.5869255591774002,0.6118526248264617,0.5325720943153046,0.6275561856662965,0.587989659142423,0.559547519734257,0.5993327347603684,0.6120366585092726,0.6149581101120157,0.5832742807281388,0.5869056945884015
0.5949070695557809,0.5855399093124479,0.6116741110765963,0.5912167357978193,0.5629967539761467,0.610138591592266,0.6205064898401027,0.6243055566997013,0.5585795401012791,0.5690807705312667,0.6065956239735116,0.5604588939728675,0.5720137651164755,0.4430899442359996,0.6036032767060688,0.621818519014594,0.6209879096495161,0.5817339810137134,0.6149852585228185,0.6061062746279773,0.6118026966167428,0.6226382678261863,0.6039769561092863,0.5253578208234918,0.618948701076446,0.5534249531770234,0.5615905023800196,0.6191079812340536,0.6221464662791029,0.5565228939451388,0.60415290471732,0.6049371803721115
0.6299902235548588,0.5712468745576922,0.5928637216371979,0.5948188107385637,0.5626067160837342,0.5998386018013605,0.5642621733777573,0.6107078769029701,0.5856879990716125,0.6073630346222146,0.6076184703906317,0.5976292386554077,0.5977511565131681,0.5877973565638152,0.5937623560245168,0.6069310112322458,0.6232345498717922,0.5570097080028077,0.6218271439685874,0.6092399502910754,0.6055483145280018,0.6044462183013299,0.5881672225123856,0.5874629182160958,0.5994999326426176,0.6256680363467954,0.6036075008826066,0.5927887718085532,0.6223655935949941,0.5778475600739066,0.6008892752029115,0.5992596839681803
0.5998934691831792,0.6241471526118236,0.6102965139025761,0.5386969813708667,0.568853276395966,0.6005425632525685,0.6018120198607481,0.609693348271363,0.6194318221623943,0.5418858828920436,0.5614819305999459,0.5454109630443977,0.6039046690701653,0.5059443601137843,0.565026350522666,0.5576260470730513,0.593835692933668,0.5551158356694633,0.5611243446755091,0.5540423755330706,0.6076580048051688,0.5977190100442634,0.5766808674086477,0.5851762096181957,0.5614379098955173,0.5887885264304343,0.5990381359535865,0.5535356367581685,0.6103330079663465,0.5895792710811336,0.5849507162471246,0.5720048189332144
0.6130663436580093,0.6170628065615018,0.5879515398122265,0.5976771663085267,0.5822390163907797,0.6038795050058933,0.6058474672686374,0.6086125199530242,0.6079497174818307,0.5688869664828564,0.549403861364781,0.527913010185219,0.5785177051156315,0.5363004465241028,0.5688246544255894,0.5720718575875968,0.5899601597091408,0.5113678141343114,0.6098443351421909,0.5653868133401537,0.5657105917090091,0.6081899724631894,0.5968498984177458,0.5894521247133587,0.6009222739483455,0.6038708302875514,0.6062151031274002,0.5819728856951525,0.6207420527364047,0.6206771824215584,0.5723688398591185,0.5994993443376967
0.6140684588777106,0.6264808350394802,0.6082843424058896,0.620001102875308,0.5625149213810837,0.5844850210786382,0.5967153537625901,0.6237198002102972,0.6036918456431285,0.6225793836545609,0.5886916377408947,0.5447827878734853,0.6056778130124982,0.5360565424055609,0.5980659659915651,0.5835692600056185,0.5972396490627517,0.5795425692444732,0.6096687412701155,0.597900541572778,0.6281977259475165,0.6152001682383103,0.5852195912532097,0.578814698638541,0.6055146783274648,0.5876285567889025,0.6131116404266472,0.6222735579121023,0.6036285700493181,0.619930884856713,0.5966637271050388,0.6090420831542418
0.6019560776682873,0.6040235402353327,0.5874533515886777,0.6245116265278605,0.5215424021958192,0.602034571752494,0.6095983509033526,0.6045342169204408,0.524544687630095,0.6055868700578844,0.6168699031648964,0.5840307193170149,0.6051049024364656,0.5124072559216325,0.5888091118630596,0.5979806202633939,0.6050603316936417,0.5813037506340615,0.583040562324001,0.5925414974809471,0.5969236607618992,0.5838019566912022,0.611710842382224,0.583657471470474,0.6005859575198238,0.6004037105612747,0.5908362005267576,0.6059094759385465,0.5700919823932521,0.5982946547459719,0.593910844628823,0.6092077249946363
0.6204418299009079,0.611432798085509,0.5872776997240081,0.6094443915557232,0.5482157408503208,0.6266879352622892,0.58075604277766,0.6075461802830329,0.5765238415582886,0.612847161809003,0.6122536345935382,0.5939017027597772,0.6163475095866886,0.5701183379384884,0.5979627219074333,0.6171082930636946,0.6098754533464493,0.5802574411233086,0.6058147589877351,0.6036499817683683,0.6006810668189179,0.6145635716614384,0.6073729026798457,0.5787155561443619,0.5986526857951785,0.5909088619659963,0.5828625595018192,0.5882629922767287,0.5709192627564541,0.6095754243638876,0.5732541531962808,0.6154257366213528
0.601932902322908,0.6178718654692278,0.5798597438389854,0.5631239730952767,0.5464637632157405,0.6106658972593005,0.6028780347457134,0.594167721717911,0.6053257495026639,0.527302381648651,0.5425624285353273,0.5166500288959407,0.6114010280959055,0.5073888682139983,0.5843760284423257,0.5503183396063036,0.5878009608279614,0.5316448386513731,0.6028373366822671,0.5601232317327448,0.5917562239705613,0.6053112869362567,0.6048064911241278,0.6181922358599974,0.5929454901121461,0.6107594063860016,0.5989982930002246,0.5328728228517984,0.602747148081764,0.5927007058023088,0.5648040722467992,0.6154889439568596
0.5606251240424995,0.6096593442182104,0.5653338681891648,0.5653835253833226,0.511775939382855,0.6158580302930932,0.5998162205042824,0.5700344421359342,0.4798739942054693,0.5171370643202674,0.5420828066858893,0.5445154841160954,0.5776507027405963,0.44594126886777324,0.5750518490070339,0.5635392082672572,0.6120998353167395,0.5736868861382692,0.5691862456937967,0.5198585275518978,0.5980385665791423,0.5957275748809483,0.6152871705783567,0.5738132859805368,0.5514120051681943,0.5899613380953767,0.5296656422380684,0.5498553683685363,0.5710908485003809,0.5312615552579372,0.5154379267592334,0.5569464655887596
0.5747764598989527,0.5855934651290021,0.6055996360322545,0.5866923184714308,0.5442431076543437,0.5825677529595079,0.6210817607018043,0.5315200875334261,0.5108727537556897,0.5515746534999988,0.519397332194108,0.534512449432765,0.5563994292142422,0.4819335740749725,0.5225574756307709,0.5357426560517169,0.547877696571051,0.5603420497566893,0.5241496932093466,0.5445268381286472,0.6129485282140558,0.5819526740857434,0.6026011070569242,0.5932837159607872,0.5918625611369753,0.6147225456491232,0.5454233360979025,0.5646586062331088,0.5855300894578962,0.5226249258407671,0.5002474696336389,0.5524128573025511
0.5718218588955619,0.5974271402551435,0.5715977915474167,0.5739339025967565,0.5529425228737969,0.6073898160180413,0.6183410724026811,0.5807913658973316,0.4048843880787394,0.6054291186734726,0.5966848199080317,0.5167697092018807,0.5445383475939544,0.4840088399313917,0.5894165173344065,0.5994825324870067,0.5699804057822484,0.5830690772143947,0.5474270438209483,0.5927218546700647,0.5867479966486675,0.5953979088489423,0.6221053774222204,0.5908418463459747,0.6164989925687285,0.6060016305052032,0.5845542373251057,0.5910190370089006,0.6113677960616459,0.583652223298122,0.5377890923164119,0.5955137228971221
0.5993769688768766,0.5567362349968309,0.6080419476873263,0.5504834656000007,0.520372275387991,0.5972460133566474,0.5612594540508478,0.5867384180334034,0.557508311091586,0.6251892347329424,0.5956671101947495,0.5897805337980792,0.5597792742990104,0.4517227842880994,0.6145483545557461,0.6075870214198187,0.611711922856612,0.5862689297249152,0.6110186911136037,0.5380847340398389,0.6150207141751902,0.5797082491742889,0.5875098119821351,0.5938963384327725,0.6022166807891046,0.5751912385786968,0.5500520733866228,0.5896321387879759,0.5960890083211327,0.5508902529250199,0.533985322610581,0.5395736899105517
0.5927125652441061,0.5716591370387005,0.5880423233120973,0.5907747130557646,0.5336537569915772,0.5978186160814849,0.5881266560593453,0.6036681497556736,0.6041190915028558,0.5887960741344482,0.6171589598387145,0.6066882826583488,0.6152890135005059,0.45715869810243054,0.6155538413099256,0.6171406331942281,0.6087426559756235,0.6076152724281486,0.6170743838498308,0.5815506599095118,0.6136067165337783,0.5993698240202691,0.5869114905192748,0.5851913616154306,0.5554768662655607,0.5823643659595196,0.5482284312790056,0.5905644494421857,0.5871044818575435,0.5715191772550849,0.5824201523752164,0.5849859774716456
0.5755611790263777,0.5962529115361969,0.5914949094422799,0.5980541196835175,0.5803551009959306,0.5972062938205911,0.6001336827435345,0.6210419427918107,0.5452404160587976,0.621921117652233,0.6257213476131199,0.5540145718602553,0.6185376353596231,0.48828783274044424,0.6153196205064411,0.6065664876619429,0.6054860344436859,0.6043773897100628,0.609843664145784,0.6166642710278075,0.6120523749340743,0.6060095592856776,0.5941884958355227,0.5685857305478381,0.5730237596284843,0.5584842862015722,0.5987974977331523,0.6155331820650936,0.5874489393806024,0.6339326949581354,0.6309800097629964,0.5952912698078535
0.5032241642896002,0.5517165374394966,0.5644230173027059,0.5771520080770941,0.4709413077853936,0.5972931514446975,0.6102515305439029,0.3995695776839124,0.5171796909174818,0.5605705238869251,0.5821253012034834,0.5073030258940554,0.5793025763914545,0.5387235531937061,0.5990050609587564,0.6003731127468699,0.5855195305207337,0.5312032435788472,0.6185180025241113,0.5747276324662361,0.5969296560163802,0.5626240763022843,0.6152057544951043,0.5849907445991537,0.5628682917919976,0.5644056303055573,0.5229720947256001,0.5728236308365653,0.5830323089358462,0.5027374353707552,0.5093874673239771,0.56211616901516
0.5740087407958901,0.5979643620756119,0.536598484474423,0.5983728734863579,0.5123907848880728,0.6017108601653156,0.6111101988111114,0.344504405206115,0.43090324110532163,0.5058901272466417,0.5545202786799912,0.49271980998537795,0.5646256122108326,0.419683824348532,0.5654841114967458,0.5950619143673095,0.5685779315883897,0.5483961760466141,0.5698822102513134,0.5550484380571605,0.5703821891827788,0.5972409995054763,0.6042169161462279,0.586623098607523,0.6109243732359705,0.5914349244269127,0.5133943660256095,0.575431164194609,0.6268188590816455,0.5679365585928261,0.5336632260558355,0.5606282201990964
0.49711043808331457,0.6103927948537078,0.6106295096309379,0.6146339388326362,0.4733875987718712,0.5870903905469338,0.6094447709546219,0.5134603600471911,0.4212187805591974,0.5252104470515756,0.4856517159947759,0.40973596464552325,0.509698383319036,0.4654849362170174,0.4699230752575317,0.4962355965078028,0.5047605031033533,0.5435823811741317,0.5304289466027132,0.5136506460951582,0.5646393895215148,0.5206554954348074,0.6030452658653134,0.5874740395706907,0.5936183602137874,0.5409925364882968,0.53712429355052,0.5952042234870788,0.6004649197863341,0.5972471866954321,0.503583125572107,0.5099761346983467
0.5713014192131496,0.5930094387669841,0.5700499808964881,0.6053312398090873,0.4988146363536496,0.5737456570354037,0.605928110723836,0.5526223066027243,0.49959902468769113,0.6190547658111571,0.5664320960970577,0.5326405057001203,0.5309511979882774,0.5084401203866683,0.5748204257358425,0.5244339079688509,0.5506327819304228,0.5405336941368212,0.5594675325870903,0.5931459633040651,0.596827775730682,0.5355628340835422,0.611750610403656,0.5629631534761121,0.6196346623613402,0.5731303186251688,0.5956829188768994,0.6043677617831527,0.6106421898151473,0.6118787212031453,0.5472361299010593,0.5216421866901664
0.597279123028618,0.589606408897889,0.5603062879994568,0.6017188064220957,0.5699788435894757,0.5834959469927922,0.5879567963491463,0.5951257827721159,0.5589863283633925,0.6100951769767419,0.6111380539430695,0.5860344055750448,0.595001930082285,0.5312244684705857,0.6002558192620607,0.6113320353024112,0.611064785064003,0.5939460752672029,0.6145748227044409,0.6207246816980685,0.6224419623843489,0.605950617635425,0.581003138007165,0.5465607654280353,0.5951089209888961,0.5909866913396403,0.6062133452449722,0.6329965901214551,0.6112127851764348,0.6070358956411191,0.6030884561861878,0.6012748162063835
0.6148822762394752,0.6054153494019814,0.6072899919902698,0.6037880892146633,0.5723214267756024,0.6164388258149585,0.6071669743697422,0.5774043910794705,0.5185310096175388,0.5880267391767234,0.5938554689819661,0.4938374516330516,0.49509230077113064,0.46011418439916235,0.542342816687889,0.614478591255425,0.599781840653471,0.5693354189171699,0.5769363686561962,0.62530541313779,0.604633173434145,0.5584668837207106,0.6073713558311464,0.5037544897591213,0.6081065564595514,0.5970945236200825,0.5256084647408124,0.6178983379874513,0.6340380586316003,0.5954619174900732,0.5696326074163431,0.6131925529261575
0.6279907524622885,0.5875610103667088,0.6009322437115928,0.6061316438575985,0.5644008463986511,0.6110595951015385,0.6268311446319941,0.5553630465402151,0.6160129022129592,0.558140869583922,0.605299572021484,0.5191123817387693,0.5982709676826106,0.3714822616947556,0.569607559412859,0.6127418807733197,0.6122998974452513,0.6005985247572085,0.5999248619756675,0.6264805427386745,0.6159865773582256,0.5885290021013889,0.6057829763527574,0.5463138088595436,0.5704004824098681,0.5811886787339755,0.6094689808134383,0.6022295133870346,0.6129033917285076,0.5921340599972739,0.5525653889628358,0.6198908414321529
0.6170598375020203,0.6011715986815468,0.6038714293881138,0.6072597782504535,0.5583178161102252,0.5819089933164004,0.6088671206937324,0.6162121947948836,0.5845806036889237,0.6000840483689434,0.5969302506384054,0.5733919372178244,0.5898172344807538,0.5538508858114788,0.5765710490269766,0.6074701567830842,0.5756666732453054,0.5506283402349175,0.5924720553354762,0.5925131664997261,0.5979899001259285,0.591772460055617,0.5918056471187025,0.5881698318537637,0.567025453879865,0.5856134571055497,0.6016484050932357,0.5937818297199476,0.6073753015503505,0.5805078148628366,0.5903665514937865,0.6038542009819082
0.5404831157329656,0.4880766039420643,0.5964671024916741,0.5336539954384646,0.48232891266698785,0.6141751362407254,0.5905227812307707,0.5523102118859186,0.5334810555089106,0.5801464685780613,0.5209957649931242,0.5114340610813305,0.5388153907517854,0.49695003129593207,0.5323450826367125,0.523450407091362,0.4669350785095063,0.5020956913014724,0.5340989714257316,0.5254421264115665,0.5715667603486922,0.5640316837120912,0.6063605107538803,0.5721771371936732,0.6006820917215514,0.5453872842207982,0.5103327567451782,0.5558455965739343,0.46623855471274683,0.49540910136534433,0.46478592254846635,0.5474719156379425
0.5689708836201347,0.5678812927864516,0.6215913697089365,0.5870926687153564,0.5232139563642509,0.6208559043384021,0.611872687978673,0.5763608125438313,0.5000367004406923,0.5158870545592197,0.5272617476507961,0.4951024820865997,0.5087987313759533,0.4786744867713107,0.49985924055217235,0.5297648171182967,0.47879597445525024,0.5311376113242398,0.5949986162865226,0.5552003598692453,0.5979407754587791,0.5573173671088436,0.6204839805990927,0.5538490077123224,0.5991771212460841,0.4819204050464064,0.5205782666604912,0.5839882182663518,0.574066051198509,0.5625398104921695,0.4909834253885326,0.5471152052908435
0.5746895138237524,0.5940983776247496,0.5958161926243893,0.6149457868075828,0.5596862961723382,0.6037829239297763,0.6060550649609608,0.5727640342988202,0.5813780026131488,0.5827132489233897,0.5940734288026049,0.5223648062614016,0.5293270232703812,0.48084393978094675,0.5468991128765998,0.5604816925887846,0.5119233353752453,0.5117656516390551,0.6138984382292986,0.621298708216718,0.6035908928988445,0.5763564743395472,0.5876847912340257,0.5400074233931556,0.6071887117524772,0.5800173748781606,0.5135215096963575,0.49899917692208745,0.599275439333435,0.5641262088992455,0.5653792013511706,0.6062384826425252
0.5928463879777045,0.6143672909279191,0.6210346002072975,0.6019345717871983,0.550440607807391,0.6145063548869633,0.5959092789062079,0.4624875532945713,0.5219442007648231,0.46991739628777074,0.5355848484801855,0.5544934692356062,0.5749020822157933,0.509722299481469,0.5570485013853311,0.535990627233248,0.5288501295894181,0.5140814945989112,0.5554098084210936,0.5709193905612919,0.5632920254669591,0.5776783110318393,0.6189674863696508,0.569385222081911,0.6187770363961351,0.5331070095612416,0.48028486090306094,0.5542722285655027,0.5868255834481529,0.6062458233178604,0.5418172923149193,0.5880798827711734
0.5805090778975505,0.6137667797903913,0.6166277553894084,0.6232106568331767,0.5440160176955358,0.6206642030993365,0.6147690526580185,0.4842933491421992,0.514942912166,0.4697309474100429,0.5547592225984864,0.4365022293713272,0.599174244127693,0.42185197950888365,0.5629782443714013,0.5933593104087699,0.5472176475010714,0.5699215768566535,0.5334057398331852,0.5693088607386252,0.5764524818184641,0.5594302190751455,0.5947472593059147,0.5608358285562085,0.6169740881689745,0.5176672740044808,0.5690397065334669,0.5749657875083508,0.5789556878526827,0.5860499270264988,0.5588888484878051,0.58769426908368
0.5267250703591831,0.5060215666133303,0.605482964928008,0.4629608945112758,0.4333128109581478,0.5996371151608129,0.6039879506331555,0.5083946397106694,0.5942759171127256,0.5245321869766315,0.5215188308604991,0.38857535307710955,0.5061218919575697,0.35916861891988705,0.5204471776875146,0.5187577280707206,0.5109856510315617,0.4977813764521221,0.6218184550517164,0.5778034028397954,0.5945578867169877,0.6266261823974849,0.6122706103177707,0.5784468284480581,0.6175985249772534,0.5895951071216129,0.5666803496604829,0.6208911336604606,0.5631996270755292,0.5509159951810202,0.5083982056081089,0.553433307141272
0.5609512329103962,0.5467020529401138,0.6055110695139041,0.5444563912290258,0.5235220886329789,0.5966369080209879,0.612805278165535,0.610081129414827,0.5764635385582825,0.5662989246115941,0.556347341407126,0.4772706369919428,0.5027874337371167,0.4729528491771992,0.5326408080799158,0.5144748369820351,0.4927487038264514,0.48064047590635217,0.5714713877733898,0.584784168159178,0.5483888316711809,0.5899251784367789,0.5984169219844571,0.5481714525767802,0.611402605427283,0.6074812835033047,0.5939851772007564,0.5870595689133384,0.5798790055548748,0.5595163097570396,0.5290582676830954,0.5805356080522135
0.6002000946722817,0.5849748065784353,0.6250061042801673,0.5881586718104121,0.5758173634205764,0.5959331144702004,0.6096173304908659,0.6126974447407433,0.5675830170945263,0.6023777894288979,0.6086393645426026,0.6050258388662076,0.5971895441669922,0.6085054614967014,0.6129056829977226,0.6074584103113129,0.6076028586114469,0.5985969267723555,0.6050380871350032,0.6112918509774943,0.5967247756481756,0.6006567078218081,0.6175740537729529,0.5946432614677711,0.5854315437679068,0.6146092639908725,0.5982506087610031,0.5483520813830587,0.6171375135402549,0.5920164507611169,0.5795040841727965,0.6302741115283924
0.6197654670261588,0.5756476054565415,0.6137894768431568,0.5936635078102239,0.5014127175790036,0.5893998086906664,0.5957607657628929,0.5961123320593427,0.5564268808204154,0.6104139536067675,0.6138875924751794,0.6180441056722452,0.556823927893958,0.5780154628237263,0.6127418445318147,0.6187888314628479,0.6237471966681472,0.5515949477402013,0.6163132305707991,0.6277980099222267,0.6192111726972822,0.6140064691213035,0.6070377959371845,0.5558189666275559,0.5521723271172451,0.6209486921883711,0.6105295235761544,0.535354267525582,0.608696166260418,0.6174885074812881,0.5865189933867386,0.6160961073437347
0.6233431828873024,0.5798611832532296,0.5995089918219196,0.612845069250302,0.5152582724064576,0.5878426364947493,0.6087773904052797,0.575406686581625,0.5660975016740173,0.619587104753754,0.6063510459536481,0.5558736403997241,0.5538168407256921,0.5190292679598787,0.5878375854101356,0.5825800018136823,0.5961840633626226,0.5416425144673283,0.5190357264752591,0.4492460433661629,0.6221469133914563,0.6140558477572066,0.6031426421219535,0.5549998852344517,0.6165676894063639,0.6073941619753546,0.6101243661546623,0.6064083696406637,0.6039410013758376,0.49915248348305696,0.6009016435999205,0.608066978332924
0.619651818634066,0.5832552180622914,0.6145073512459189,0.5911795530997915,0.5707011687971413,0.5988836972658014,0.592080719222986,0.5858444912036279,0.5944552545652658,0.6172424432619127,0.610614246846357,0.5220681966422511,0.5319708360315137,0.5168086752604358,0.5915382992168313,0.5706664268016238,0.5884160099719823,0.5535283075031038,0.5913317796931452,0.5509755754685528,0.631544928833702,0.6069180781107661,0.5971517439593745,0.5618196479052507,0.6202998613854387,0.5952312364619039,0.6008896190104004,0.6228974861910666,0.6152337137293844,0.5496053428067456,0.5648499507428538,0.604397869967052
0.6108889473653282,0.6180118763246327,0.615520570699091,0.6221634957474262,0.588723864754465,0.591052512508018,0.5830183089759299,0.611872441371355,0.5814962982856,0.6250962142694465,0.6238928993943766,0.610295983900957,0.5144195192905262,0.4798662817567353,0.6016538932048207,0.6055283623730312,0.6119360857133024,0.5193564624382222,0.5122918094478887,0.6251459605010291,0.599482742387067,0.514920899843563,0.6109641558504173,0.5476690325600486,0.6174630231702141,0.567859910877862,0.5836732751051316,0.6240671320047543,0.6021780877690375,0.5855339011714792,0.56300505873264,0.6094737118584844
0.5591899327760275,0.5973311615642909,0.6163170042549343,0.5719130451396496,0.5452871981767725,0.6046651346753973,0.5854756073125817,0.5050220135052709,0.5158132167717621,0.571797097959418,0.5807089021031666,0.5248927290648226,0.4400725394291518,0.38882007891265763,0.5413335081232811,0.5593533726420077,0.5759315788583924,0.4784785409251829,0.44363324759804396,0.5715153390157338,0.5681138834785997,0.47430477730151316,0.5977115470800478,0.5911480966378101,0.6114557748541626,0.6162587018643118,0.5942223381144777,0.6096764991560377,0.6071627607461528,0.5853463407026417,0.5815785086112112,0.5710692493450098
0.5572528750649869,0.5730226011975267,0.608175901305646,0.56872623919337,0.43452629840591217,0.6279857305894647,0.6094839639915496,0.3862259679742088,0.5568986867139397,0.6141363725389773,0.6174114638711196,0.5233064547355353,0.5506597535156406,0.5469695708419614,0.5818333101334153,0.6084037108924838,0.5256652170048856,0.5693877637766178,0.5785604169847917,0.5792051817609034,0.6130089317468856,0.597624984928664,0.596272582701895,0.5916797907500143,0.6131579791480317,0.5828660732234856,0.5397026935448119,0.5931193501525933,0.5514905971521531,0.5226401221757895,0.42345364114068873,0.5828199336863182
0.5494284795157189,0.6053895246533675,0.6006798121951465,0.4804955840833437,0.4752880278765566,0.5972591700057887,0.5969215753368299,0.4701348031779451,0.5173163153992825,0.6330419988570462,0.6040599133731598,0.5975726891638058,0.5613708364283865,0.5848576203388275,0.5412196157201455,0.6030824449609454,0.5268080333084667,0.5718584444911189,0.5028745013033858,0.6167084049598109,0.6232194276866513,0.5639998649502886,0.6072417469242076,0.5429830839561229,0.5894088805443283,0.4277889647546078,0.539299199719991,0.5839584276206112,0.5339155912710343,0.5860373450673763,0.44392118603336944,0.5118157681349312
0.5760681931294992,0.5067817460099906,0.6089551966027305,0.44609183122652435,0.4023298773872483,0.6153300719411153,0.5978089020686616,0.6059940903957444,0.5511948370366582,0.5972857979113618,0.5723824522171294,0.5935551469249486,0.6123087262156819,0.5363923360103522,0.538680946142996,0.5533821405409131,0.5170966258143195,0.5726419896649959,0.6147112576474204,0.5790855130562346,0.6082091588172993,0.6119696409403905,0.5727492619396248,0.5834157630750342,0.5823579007903757,0.5558826727186338,0.5867643939407445,0.4596922903189805,0.5913994672375784,0.6026641407246257,0.5569037451324779,0.6066885959272194
0.6078633368549559,0.6054843533779296,0.6120097008111604,0.6014239135181315,0.5198729838816999,0.5988207321280765,0.5914422725444386,0.581169743179469,0.6011647187664475,0.5992053126861252,0.6048010006930942,0.6247335669564094,0.6098010009449463,0.48228498532774816,0.6002792685202754,0.6132280882208462,0.5902107284319901,0.612270675069599,0.6085966166421428,0.6115143118551206,0.612726554977397,0.5936101872151847,0.5760543288766659,0.570131312944215,0.582446038702446,0.6043888285111217,0.5922509385080138,0.5205629630609142,0.6033715896921902,0.6051233684258428,0.6147900701991104,0.6041685398429351
0.6055520267882658,0.6169352224094111,0.6019249239923369,0.6081277512117343,0.4848028198604077,0.5149951236118664,0.5872750563749892,0.5797223156080702,0.534478329342572,0.5776814798072294,0.5930962576137351,0.5895605508378814,0.5916066539465287,0.483068807899662,0.6078018252242142,0.6106649749148871,0.5557161665376654,0.6138387756624065,0.5814110405339604,0.6061112510884198,0.5929767343472558,0.5841139843310581,0.575308049602002,0.5540164746774447,0.46512960182912316,0.6050033209667469,0.5918878130363957,0.46525914654643186,0.6048097789967937,0.6000144624013478,0.612673376011903,0.6023581224459105
0.4988151323657057,0.5579993384489536,0.6156463679104156,0.5954536313044488,0.5412225887428834,0.4742971839993253,0.6084414822841911,0.6175657389859972,0.46889093250883557,0.49649194018042225,0.5792748920011456,0.5148661390581358,0.4506789084305074,0.49623315403802665,0.5409992928964782,0.5520119883126776,0.46663947754132445,0.48891977355102245,0.49610218889690344,0.5478083594294082,0.5475293460798036,0.5348005365922506,0.615864240915795,0.5691844936305966,0.448344190570866,0.5562524765982357,0.5216064003148894,0.5424289049584535,0.527152749959003,0.5323707284067883,0.5181236725990374,0.5354905956591014
0.4069077604262381,0.44866786432166056,0.5871449343264721,0.5322960123309685,0.45656106140149555,0.5943504656012432,0.5819138463958625,0.5844265018355966,0.4973165447082547,0.527005007416094,0.5297090149077984,0.5541631141972423,0.43171106860612424,0.5598818036023763,0.5801063357359812,0.5746364471304926,0.5906647313379103,0.5814203485122835,0.584621583777713,0.5678486101024761,0.6076037721209889,0.5516459971767063,0.6052964232239416,0.5878380880551554,0.6083220127401306,0.5642601993485852,0.5383216918358977,0.5400443336127807,0.4896674952948537,0.4531823714405484,0.4862801995228953,0.5834870391485161
0.4832494159966923,0.5242621999242869,0.5975804265635795,0.5739021675077188,0.5139421539969079,0.5755141499120008,0.6159887876972606,0.565102803670897,0.571294953915095,0.5425307486052633,0.5395529110375399,0.5117690680956574,0.5156598331411363,0.5332748115180262,0.5706720716102711,0.5452685125883988,0.5763119699153292,0.578899677132469,0.5622535032707674,0.5708870386189554,0.5984837190241713,0.58642771158877,0.6026570130669948,0.575343449851406,0.5837286063242393,0.5924435625628511,0.562587865437958,0.5958517055731706,0.539398436428109,0.5123135851107331,0.5070505224535294,0.5466016307517086
0.5628839509972559,0.5662070112838041,0.6070979170514246,0.6065784531995326,0.5748996962335262,0.5128084235329299,0.59655030165273,0.4812754747642239,0.554594233889785,0.5153834916067103,0.538772205577583,0.4708953321732389,0.5265421529982728,0.49345849623031574,0.5373175225741919,0.5195473545496748,0.5605509872853323,0.5576821680743447,0.5654786997409176,0.5443268760231948,0.5798653635740073,0.5680833243485569,0.628351328909897,0.5885809819224775,0.5521200476494543,0.5808896898216939,0.5444149625741319,0.5778666897257766,0.595679977933192,0.5477951536391619,0.5683106267560775,0.5443702002899066
0.6096244046788075,0.6120747241341342,0.590068503582858,0.6201086883116596,0.49446538628680153,0.5928885686051683,0.5815361414457542,0.5178686619440769,0.5677202100029111,0.5736208723535106,0.5678929823634372,0.48108989344427133,0.5267751432366039,0.4703036779025952,0.5378284524314115,0.547478085354568,0.5634582221851554,0.48829233464012306,0.5809113944505216,0.5785221080080662,0.5588011011804241,0.6108873000727628,0.6303856288596229,0.6004349034688228,0.6040245121058232,0.5874037100575361,0.5605530781066692,0.5862921477361144,0.622217319015823,0.5836361797808285,0.5857748982584764,0.5826485656874825
0.5907556005638067,0.6202788815270485,0.6060751717178224,0.6036567467313931,0.48241467020770024,0.5925321572318046,0.5894107141893605,0.578117794620306,0.5878914646490085,0.6018873672344792,0.6206330874458593,0.5948493254469179,0.6244063243039527,0.48804425506670907,0.5937453412430359,0.6047110560796213,0.6175000253607364,0.5231116705612976,0.5824277361089971,0.6080099439740158,0.5663372295177771,0.6080500967151792,0.6016189999793432,0.5887131650760341,0.6022316595268279,0.5365790142486293,0.5950316036038006,0.6176113088609269,0.5952064156305034,0.5869217235301252,0.5346791937887595,0.5784730147184488
0.5865486431334094,0.6149001369108708,0.6261286334488181,0.5930803660769399,0.5738277826137138,0.5861214833952135,0.6144860504609096,0.6032107279196421,0.5737570136323173,0.5646897575812314,0.5784407315109967,0.5592647727687061,0.5555190522469935,0.35851580734109645,0.5121082283113021,0.5579752360490404,0.5591658002539853,0.5373194811241748,0.5651075987595142,0.5923073292293534,0.5964826648815927,0.5834098087141403,0.6200947208842396,0.5821257973389558,0.6225366330075899,0.5576094028190552,0.5747736771984948,0.5642938646708984,0.5898981565666102,0.580390234233739,0.5614563835684739,0.5746785290005159
0.524759385035893,0.4959206655553233,0.6056024033724107,0.5435225799753642,0.5115776165698593,0.5921805532057751,0.5957845052312647,0.5642546332864236,0.5251544835324231,0.5573363574179411,0.4883473637968818,0.5082600510498031,0.5518949549466301,0.4624110885980012,0.5243396562574739,0.5354546918487202,0.579854420034907,0.553544305883883,0.5412123500904306,0.5902966586569885,0.54281104962806,0.5719166363909534,0.604765084147347,0.5751915967282969,0.5083170594491615,0.5160526950794174,0.5269756416793018,0.542537497891228,0.4878753292426819,0.5702718926256697,0.45178901755333106,0.5748410562868081
0.5603410467538604,0.5902037644903401,0.58722343107034,0.6008994046255787,0.5503968585467309,0.6005937620560431,0.5633874455504536,0.5863503128233787,0.49413630560789323,0.6137046481972472,0.5649696606019942,0.5990759508104021,0.595196126122543,0.5514909533069402,0.6078441913406347,0.6096979268805675,0.6078465544626974,0.5526312455711586,0.5433932866235561,0.6046338015050866,0.5670164905366334,0.573261991265684,0.6031153408083658,0.5853133072243466,0.5161995684479307,0.5549746684189273,0.5503204025811427,0.6040345191337749,0.5556543300038741,0.5805251912028228,0.545799954084172,0.5918471758264523
0.6160838230758587,0.601671027468744,0.5951512117229175,0.5856994754574124,0.5793434975213081,0.6085696205735633,0.5655440435051662,0.58075112351021,0.4630006945723651,0.6191968936783336,0.5968335547955491,0.5657966602798694,0.5768356865820072,0.5852076230326534,0.600982187275888,0.5951969870085247,0.5737921242896441,0.6076912079910828,0.5690861033031709,0.5821485785032234,0.603415174907629,0.5691894647430804,0.585560215262816,0.5722073912646762,0.6065850068355355,0.5610204298805831,0.6174473357081511,0.6198493901726828,0.6023684541371845,0.6150965029721761,0.5830129073824939,0.6206169773438234
0.6193134885154022,0.6194337385853075,0.6032962201341864,0.5798085275524334,0.6024099861534103,0.5772584874636737,0.5637521631459969,0.6255322421624843,0.5371343146317686,0.5991395845253401,0.6054431508159817,0.5573709540511267,0.6188471406280969,0.6126322816824993,0.6090023775388399,0.5851079363691882,0.5488127340332332,0.6074265496217837,0.6207570519447735,0.611999310661511,0.6170103677787556,0.6157549305954712,0.5946844076916808,0.5702124457034059,0.600720822689706,0.5940599950787904,0.6147980692065723,0.619981186479031,0.6176696401334418,0.6043253469344269,0.6163116080810037,0.6072195166291076
0.6124001042207384,0.5972658296410047,0.5952821302919491,0.5709649612540613,0.5916935417887648,0.5925186684981137,0.5904797830696653,0.5907307425618512,0.622171479858487,0.6078021650908901,0.6067223712030919,0.5853248749215069,0.62592386215575,0.4671307027919339,0.5988812870465143,0.5976468832565054,0.5876063892359439,0.5663995311789348,0.6121666982352545,0.5948569937831286,0.5853419542418331,0.6175567383077535,0.6067610115780118,0.5941721879328946,0.5991973847673722,0.5698883063554282,0.5907138745548282,0.5880222999186234,0.5942036812565685,0.587269609996232,0.5685092819392125,0.5998477801477584
0.5687628602334559,0.5488723324349389,0.6177474615689257,0.5656192388931672,0.5470452111583286,0.631962666782592,0.6160801571772718,0.5820942355454591,0.5289561474075893,0.6048565846246877,0.5835798679430481,0.591111748080355,0.5060287680334522,0.427840588987964,0.49840403056119686,0.5264781494466684,0.592984866752352,0.5697912348276679,0.5586674062964494,0.5683599430519477,0.5573381727828988,0.5500013106290237,0.6061884860017409,0.5903146405686549,0.6004497044957207,0.5618744347600718,0.5527467937125357,0.5637913429716913,0.5433647531984143,0.5668592725946878,0.546199622345543,0.5183613369949567
0.5375688033029054,0.4765719092403569,0.5897853190844755,0.5257951663966652,0.5220514139135382,0.5919010665701736,0.6029418989915712,0.6003364020260371,0.5484093062966868,0.5433345352791228,0.5618128841185465,0.564067798518565,0.5259731998437616,0.45536309714122797,0.5216284101138984,0.4994010576290903,0.56452214861456,0.5612400416249054,0.5882032336082889,0.5365520761455634,0.5852873078214252,0.5961404692874789,0.631636897490317,0.5731427569309808,0.606494072623332,0.5976101903932561,0.6009689083072075,0.5960499675790576,0.5462759214634634,0.5816307258723097,0.5749974973819302,0.5949761689009408
0.5570583653102816,0.5051939764038543,0.5837766058017195,0.5501994240123126,0.5319101717216349,0.6141094732542454,0.6104705442566561,0.592460435809353,0.5219324397199372,0.5413976993407353,0.5981139073538276,0.6004887068778783,0.5574337260650064,0.4456347150622469,0.6176326821775672,0.6109943982847422,0.6160240180941192,0.5821029667526695,0.6139618069126405,0.6034535354226206,0.6133491042010571,0.5766710955451733,0.6250752442092268,0.5983653107536007,0.5755564164754433,0.602617459187192,0.6155291685088793,0.6036695617065484,0.5940186080661874,0.6025759698912053,0.5891157438037522,0.6204545491512129
0.6073256056015324,0.5756409149810017,0.592447175632957,0.6166479069198915,0.5859121667673622,0.603808762732185,0.583445027195532,0.6101338154682411,0.4774326278141824,0.5724047620538933,0.6132126961812936,0.5728270697225886,0.5866637048201785,0.410046654570651,0.6039550354895871,0.569752013366964,0.6054665151802192,0.5418399019554049,0.602460054504758,0.6045698894326109,0.6211614007753479,0.5768829147459871,0.6300782976598663,0.5584700745954432,0.6235402342131882,0.5965053518872259,0.625385079657046,0.6160690859310968,0.615246264295146,0.6086250117057715,0.5770246667784819,0.6193262956827793
0.5878402292429545,0.5884840863491024,0.5747713186884348,0.6014721319382914,0.6186588114133088,0.5848886122997959,0.5832698618323232,0.5888412660085384,0.5616046038489659,0.5957921126637694,0.6128343335535646,0.5944976774806466,0.6064540707460978,0.47634975882066094,0.6077174679445912,0.6174552250092777,0.6213223328907254,0.5895124357423033,0.6207089302898812,0.6076829296124495,0.6212481969768215,0.584299223073795,0.636485114787791,0.5354734041380913,0.6024511026215666,0.5992166880387956,0.5977444066207812,0.6163483389811532,0.5987046900048989,0.6134947081398826,0.5676262543249723,0.6126956314590495
0.6018410438034595,0.5894471922149038,0.5782027571675045,0.5903807309196424,0.4939876775778977,0.5885088518592595,0.5924426260785539,0.5721416853761073,0.5924630804249279,0.6137852162740062,0.6031577400662244,0.5262873781523368,0.5779734439855934,0.5080626075692182,0.5982218522307655,0.5797604580010243,0.5894557958561222,0.5713697112503294,0.5834853208821386,0.5782633521749723,0.588958323898099,0.5988974713569002,0.62498119843141,0.5553682014307559,0.5783238822112639,0.5749633212784294,0.603985377797525,0.602079509424039,0.5508741817678775,0.604992647488263,0.5500583722409632,0.5980274350227429
0.5679751272484386,0.556655217512322,0.5867309692225782,0.6130174155580662,0.5489704525039765,0.5883123054854732,0.5743226778670688,0.5642015078066297,0.5458506940269676,0.5703340589330086,0.5134649936989187,0.4823739064686923,0.6148928929268013,0.46077487477420637,0.5005768297835138,0.5729314214662479,0.5933297707900969,0.5756911119547453,0.5628251232990888,0.5462944566520076,0.588859594218026,0.619820346271129,0.6111024854745956,0.5740852116849425,0.5821427654385117,0.5820705268737631,0.5532719940850785,0.5487125976835784,0.5064237970027775,0.6008385681462807,0.5731627002950325,0.5773833921937485
0.6042660026263266,0.5483074651402025,0.6011409671435404,0.6169836238557985,0.5587262647819825,0.5775341516188377,0.5734702237289035,0.6110853189844684,0.4903034128532304,0.5341621474460079,0.5104412886783682,0.564318921914548,0.4940223018472894,0.2854303140677712,0.4962170826383933,0.530055295194307,0.5463734990846347,0.5251594736475039,0.5210328505850361,0.5557307493757446,0.5578783899425159,0.544238577738404,0.6047257451923843,0.570391559071784,0.62811946178066,0.5799306016388295,0.6068494518083744,0.5872820879855176,0.6010302675296915,0.614894188993513,0.5313370375077554,0.5931554893482461
0.5963694980035452,0.5959187623879518,0.6001593914142372,0.47982342744164225,0.4987092232004751,0.6032647213623099,0.589671136270941,0.5406752333423647,0.4878063589153931,0.5453807265888232,0.5202818296428784,0.5390646167709172,0.5107114402098285,0.2993956985269138,0.5415906858194462,0.5427495675887047,0.5667875721946872,0.534984849083286,0.5178369939259401,0.563598221134622,0.5576872196749466,0.5342885720435653,0.6016999367269779,0.555431838863993,0.5973774609059586,0.4977691235258523,0.5737665706587274,0.6018791839694311,0.5407805880515046,0.5935253517275388,0.45289841360941074,0.5561313886528011
0.5344968005155611,0.5106184341098813,0.6155581372404544,0.6050885671435832,0.5265718864454783,0.5929590419191555,0.5992353658973797,0.5894650568774568,0.5156304371026695,0.5827024268226483,0.5996038200192796,0.559304737224583,0.5685394389149967,0.5121731491118338,0.5338108550281125,0.5535237040019221,0.5299009645516847,0.5500938191777899,0.5759220722084465,0.5657560213666593,0.5948835331386272,0.5812834802324109,0.6072025942367795,0.5315120003088157,0.5886310616888142,0.532461620015477,0.54916301653664,0.5589815112015329,0.5066926513951224,0.5727589310254566,0.47050029440833047,0.5713796652506669
0.5539181070536099,0.5733814565810217,0.621330361773145,0.5413372097897283,0.5071795540189196,0.6283780550358438,0.5956487556959369,0.6048845559027575,0.5221719759645937,0.5904449054243757,0.6054122237960826,0.5512036196392055,0.5816127137793834,0.518965408086352,0.5413981476476658,0.564879250755694,0.5696359439219625,0.5508844300911543,0.6035636198408019,0.5854013407258969,0.6231629308356863,0.5961475822091811,0.6072358781974391,0.5436812051105936,0.609760223208163,0.6090261756431732,0.5757017258091922,0.5902873012305041,0.5712345044260334,0.5871743355710761,0.5267652507939586,0.6184441281693492
0.542319912239195,0.5402323754053022,0.6148144720519543,0.5120909863213836,0.42911768649578436,0.5943729326735676,0.5649801827961871,0.599290814244147,0.5868785986386655,0.5819167545274427,0.6052059528134507,0.5614902374754219,0.5979634740198321,0.5619401061686562,0.5875224000674528,0.6078569385372186,0.5953192438179751,0.5441151446161389,0.599132524527402,0.6301848093675508,0.6072762932117416,0.600007772912829,0.6015163506882677,0.5430707702252983,0.5960138248085542,0.6261983222505542,0.5303985855934688,0.5743928910327466,0.5373232675362455,0.5482940313634813,0.39338657011074835,0.5796667588864571
0.5744599160414305,0.6075602117974878,0.5836458266692832,0.6023156032618983,0.4767687929404787,0.6193112172180956,0.5962724715132348,0.6035383211231096,0.5132007567488526,0.6245277915218684,0.6161761676942462,0.5588800945392625,0.5641637444538135,0.5272839805498825,0.5911626578401961,0.6114334280358686,0.6052383518382559,0.5262047191589408,0.6005335724239145,0.6114111016438506,0.614689196974816,0.6075010223445756,0.6019244361891523,0.5460408060070564,0.6166222627462795,0.6196896728410877,0.5896648345691187,0.6250505521167636,0.6090787654654217,0.6053997343706895,0.5032743931485161,0.6140761199584367
0.6094374439133013,0.5859722335138462,0.5815126401396711,0.6102966049460243,0.5596576541445051,0.5952702725715011,0.5824659393591052,0.5612745354097881,0.48311090093190123,0.622999736977132,0.6237874585918363,0.5583043271600358,0.5250858569296742,0.5010378854040767,0.5800108199103756,0.5691727982733129,0.5173943338486048,0.5514503094526407,0.5788115344539673,0.5745857791178105,0.5856822583921473,0.5518627378438307,0.6239531142498754,0.5718107587950265,0.6157561907689669,0.615588744346032,0.5691716001475642,0.5743794546829533,0.5925117571523983,0.5871168705692392,0.5997919261952696,0.6073192151858609
0.6071872370474644,0.5620706411911468,0.6266732230952899,0.5983527413593563,0.5746099855134496,0.6286803118017648,0.5834283776626108,0.5530721214446787,0.5475572591964268,0.5955144550330325,0.5915172715145371,0.49836312472678984,0.4690557614288319,0.44019334476550753,0.5385532561251809,0.5378057548730834,0.5382998809706995,0.5109700695013303,0.5577514712610264,0.5771207948291787,0.5818278726469724,0.5699894651006886,0.6270086931619075,0.5988895194775187,0.630208176675027,0.6138134912571386,0.5581455262735139,0.5722666351246334,0.5878108030090479,0.5992417997888911,0.6071079927887663,0.6009970875257414
0.5486060583177242,0.5614378267370098,0.6327850896247474,0.588321033757362,0.5151624153701292,0.6291535831060385,0.573084171178243,0.6013223048080966,0.5662484538903543,0.5953572197162194,0.5986557615045567,0.5358159195412947,0.48723953046367435,0.46057684105408364,0.534093558378104,0.5035372360400766,0.5235685881642382,0.5052282699402126,0.5271797934203487,0.518336975655543,0.5549572454563644,0.6066734191983629,0.6125928724989517,0.5872136724149404,0.6043218179657377,0.572920028064225,0.5604757572770409,0.5303997947333345,0.5584003615248644,0.5343598046616242,0.5401850723754061,0.6045527179906064
0.5571416541442343,0.5725569962607836,0.6192833665435442,0.61361368428338,0.5200539675476221,0.6085454525453232,0.5497882751639599,0.5885721117593506,0.5907767432901283,0.5626253964864358,0.5737625012895243,0.5303281412645415,0.48944924226280173,0.534047859425115,0.5495434400328649,0.5283876395051834,0.5611598573132233,0.4738184465056516,0.4802906679291511,0.487466043440181,0.5225067911062116,0.5883879680746334,0.559858599219081,0.5791660636971728,0.604463848075104,0.5682809887800124,0.574493658291055,0.52698636418381,0.5571669389937078,0.5406097909582857,0.46584481696591046,0.6193030173208951
0.548011323830132,0.5809744144990898,0.6154085736395707,0.6019495977034278,0.49861179456968435,0.6227686013873365,0.5894122015025255,0.5993645470565512,0.41201385143743763,0.5340511007447537,0.5430018191507234,0.5364590112013645,0.46326027825466737,0.5352661251962759,0.5705976126188191,0.5555679721804859,0.5518357496634786,0.520224748515771,0.49960630927173133,0.5613113116956949,0.5516936393778852,0.4974597465911709,0.5741214295403272,0.5497594018443034,0.6331557022092573,0.5972562469684612,0.5803826078006976,0.5584221357286627,0.5659217154586912,0.5771632839742826,0.49138614193358265,0.5162694889938698
0.5751299898367876,0.5422205597664335,0.609173564563488,0.5863296261372093,0.5214310592774969,0.6144049276450926,0.5781490928217421,0.6044144653207904,0.5655291552157742,0.6176180574873715,0.6175940334212254,0.5917212679276296,0.4691087008371562,0.5602573350404789,0.5751753878114119,0.6032059873365228,0.5926879832146756,0.5344275355270821,0.519538760492799,0.5885830316386607,0.5900569851693207,0.4885077591228591,0.6073517523541441,0.5650226253860461,0.6204126463031251,0.5939594937064898,0.5084214317423599,0.5849347476010268,0.5944517645014863,0.619931123959093,0.5360381224888924,0.562128562082243
0.5953188811364185,0.5571313708497891,0.6005235459334509,0.5840966709875421,0.5720134208064809,0.6067505285626398,0.5497684353627605,0.5947251259995404,0.5588423326974155,0.6137794322693341,0.624275886895698,0.5869201049570554,0.5898071400911101,0.572714371777255,0.6024702404177169,0.6175394645136029,0.5877975273473055,0.5993824950144795,0.5984829819699532,0.6227607660231457,0.5539750363519403,0.5759435182864039,0.5859754890475029,0.5550832010225021,0.6067684780686868,0.5309441926816764,0.4527392786148991,0.6019797818862381,0.5828045895145348,0.5758808291820691,0.589709978532757,0.5812341429453443
0.5956531665349183,0.6229165684107987,0.6222656782544993,0.6064646366579856,0.48842405345988904,0.6017632681755742,0.518001248878359,0.5932574325603811,0.5039932590868694,0.5629149982014093,0.5971394650343449,0.5579230045084429,0.5931788695367003,0.6042666088517403,0.556319028743113,0.5966241649417032,0.5388550392962181,0.5573678717547986,0.6027439800854041,0.5964142689265116,0.5577871968756623,0.5931533672319387,0.6172863658608521,0.5627554916081268,0.6156270147028694,0.5595664692297339,0.5849143686181935,0.6056151217635055,0.6009096511078514,0.5906983955342192,0.5910130056447821,0.588491960297677
0.608520009902623,0.6109295559196151,0.6206936987845022,0.6057355790506979,0.41786443741473905,0.617682342768506,0.5702073521970954,0.5714374940447621,0.4989599654502165,0.5833981710094773,0.6154286153917915,0.5592756655922381,0.585310033031873,0.578681068630201,0.560312651355707,0.591959435618806,0.5908191832131631,0.5234169120128189,0.6010445332616619,0.5646633608484198,0.5517243995120386,0.6206125215000841,0.6238531365734826,0.5535354601131245,0.6255746380194094,0.6035163230805641,0.5752544416555254,0.6125986526627137,0.6090772748908071,0.6133791308408507,0.5764439491496097,0.6169845829593757
0.6122448378024188,0.6232420668712897,0.625319933020589,0.5767753271167555,0.5257974052803316,0.608624189227399,0.6148663293431978,0.5650268856096509,0.487901572481532,0.5433051503037211,0.5715558693417715,0.459999949450529,0.5306600049730049,0.4961627483513115,0.548253511164523,0.5349803375083391,0.5666628964430653,0.5206391544210471,0.5471501003464245,0.5488519375618683,0.5443966562928335,0.571737614182587,0.6265310835117696,0.572239801413646,0.640625031104366,0.6024484884512574,0.5965593341067998,0.616046247431513,0.5943101858775642,0.5985724626509109,0.5248106212019051,0.5912992643008413
0.6212807040186272,0.5871071643930692,0.6109698021594632,0.5765370695995133,0.5769854354938151,0.6069017746852355,0.5866437783617019,0.5450970741060169,0.5628378199117833,0.5041220102542794,0.5445175214714527,0.36984576885120746,0.5952606665225196,0.40446351222669785,0.5013703926230525,0.5087534175862475,0.5206308532851615,0.554773898363018,0.5689382744264182,0.5334345625702459,0.5745439481321755,0.5866131821340249,0.6222463649300671,0.5712710172696078,0.5952309501865376,0.6016941355185605,0.5994755522469309,0.5847984706686303,0.5987556439928179,0.5619236746740752,0.5671945963590141,0.6223063795065639
0.6282791642762381,0.5478635943273804,0.5924656747345807,0.5931394232969754,0.5148592144469976,0.6148576008505167,0.5752009456593488,0.5805156077326531,0.5189800998942194,0.6089017628503381,0.5827286196227474,0.4215435985075231,0.5312579349672208,0.4802178851946074,0.581047787477216,0.5728955139505361,0.5475905470454789,0.5891777059156584,0.5540608523281116,0.5739785934332411,0.5724990455055334,0.5962729929589877,0.6238416999394321,0.5668411353745664,0.585616774100008,0.5914824034039213,0.5940607554196917,0.569273857837319,0.5982376680041991,0.5410998082393027,0.5989932730614886,0.6197947736586983
0.5802154623030246,0.5594186793306744,0.5564345961949426,0.5671550270967773,0.4794349386521005,0.6030283823407195,0.5975487575033716,0.5716780189345199,0.5276453480396281,0.5962967392058579,0.5916517177929718,0.4904772116664389,0.4898697964781105,0.5169010854669688,0.5295228753718686,0.5487818826919899,0.5526430091520423,0.5332805182402959,0.5596464639511899,0.5725434637236451,0.5998131988691967,0.584743180281537,0.6099235624015495,0.5992131360219546,0.6146412476043215,0.5647192892563083,0.5522054587379795,0.5375773694744103,0.5284537169665547,0.5385998159277924,0.5448909352465658,0.6039347781107541
0.5561534248419525,0.5597465737047311,0.6150129827268707,0.5662041654703183,0.4687140057775305,0.5909721939452354,0.5973194666005969,0.5745395730572329,0.5032023373589615,0.5832427322717078,0.5945670661901559,0.5465471087558259,0.47031564666299713,0.5657428026254154,0.5485273864455122,0.5502291442034972,0.5544071881257601,0.5409697543783044,0.5107035536682181,0.555411429856669,0.5629193532163521,0.531890587495243,0.5917028023455639,0.6092684125822636,0.60349822211318,0.5545384862734462,0.5413432150412609,0.5268505707575316,0.5327757947267426,0.5189335502361587,0.5259290856441823,0.5948876618066108
0.5806012426870645,0.6022126940644245,0.5901983586315415,0.5912782529988355,0.5558502648059042,0.6001799135823598,0.604852097399926,0.6153048185119243,0.5286175035019034,0.5725390661679409,0.5633112823137897,0.5136272532823747,0.526375206987356,0.5026721559466873,0.5409660112905259,0.5593786254194791,0.5381676324178103,0.5331495513959567,0.5547385327972104,0.5469713401668236,0.5817226256618643,0.5453459659908501,0.6138807385399591,0.6173556353804246,0.5895189005527349,0.6071202622753741,0.5811646161709533,0.5417636643303174,0.5699841004155412,0.5741414382875095,0.5779243787319144,0.6002817887003428
0.5729115739149131,0.5851858613824809,0.5926520294580094,0.5798667459077554,0.5113636823478569,0.6149356358193501,0.5941569223617248,0.6016677123524486,0.5589634601768175,0.5571533202447374,0.549390624615979,0.48917353466732416,0.5233816510282872,0.46939920756261,0.5362794324732651,0.5427978321713373,0.569864410157894,0.5262619036739448,0.5773788820470988,0.5586655117951694,0.6131223549935193,0.5891325115349821,0.5990311276524507,0.5670817869657366,0.6193616341651762,0.5258259664451204,0.535390679816642,0.5685693407973006,0.5481226258589376,0.5897602524530028,0.5773366056039885,0.5907041588247913
0.5116069538657994,0.523820865216538,0.5832700366258516,0.5758969788044027,0.5077540678542356,0.6180911045616253,0.6205233611696208,0.5971499863542704,0.4876040047214183,0.5660017091294408,0.5495135360321998,0.4635672874967346,0.4545903941239308,0.4760791809474881,0.5466507595822979,0.5605326925769402,0.5691580625331129,0.5368030153719089,0.5756494524008328,0.5461792811287293,0.597346649791347,0.5583342821912987,0.596510503959383,0.5967291285907638,0.6228828424995618,0.591386305366849,0.5453303792249531,0.5189646985220085,0.5414675131435732,0.5454062508540892,0.5289580115196135,0.5930572302765562
0.48806306566034224,0.5282142066399704,0.5844863980836263,0.5747612255332034,0.5224499620032812,0.5990046986679068,0.5845191382180615,0.6215205431183867,0.484984544658003,0.5827682826619754,0.5522491305488219,0.41252177070175133,0.39382013697878143,0.4275253168340567,0.5453233634341329,0.5571399334059969,0.5357534446358627,0.5086250612253012,0.5106830279588922,0.5461847984750483,0.5785675271200923,0.5279032861170111,0.6118371481801534,0.5589640060646832,0.6076399777629408,0.509104776022215,0.5318410371034209,0.5108325719628303,0.5015250238594787,0.5267104681048786,0.5008781472866334,0.574542389752086
0.5207445159704227,0.5554604730736512,0.6277378879403149,0.5716765564448023,0.5295142006823845,0.6050087232201357,0.6098963431349443,0.5755408487097108,0.5221181922912266,0.5836388492640746,0.5623284745080911,0.49025973215160956,0.42893392116778606,0.5233440501138781,0.557915840753835,0.5567741225751656,0.5727855081769452,0.4998251092977149,0.49553858202640194,0.5671023977516345,0.5614577695786791,0.5149905499303595,0.6223217018388116,0.5805855031713231,0.6309662645602707,0.6010260213588237,0.5633165065447945,0.5884481457917823,0.5588332471096206,0.5734018098674822,0.5516096683231029,0.6095111742285406
0.5745842982123204,0.5828048784850745,0.606677287167889,0.6040917579078284,0.5415066773016156,0.6199422034781452,0.610561189092319,0.6023656921305003,0.564538550021801,0.5157177196976461,0.5420265680705918,0.4927019922326812,0.5430800534978238,0.5276695583226624,0.5300225907867746,0.5511838121392852,0.5443084789825818,0.5376781756002967,0.5201402590754892,0.5357832724733822,0.5495828265295802,0.5556789228888428,0.6168708523896748,0.5544903769477071,0.6347645101148419,0.6150765546550964,0.6038509854581634,0.5985990855624252,0.5651757195906544,0.5957060064715591,0.552301090802548,0.5809029469030756
0.5892493520278134,0.615870723957571,0.5964290852160685,0.6295554184042099,0.5931261605851644,0.6310357685174476,0.6150692824578868,0.5429444020792961,0.579453703432419,0.5660321353621827,0.5669893470745927,0.5401832263158594,0.5387538865281791,0.5393863091813,0.5249287075653754,0.5140242850495577,0.5010872254099068,0.4696187894103008,0.4916661330851484,0.5491636391943432,0.5996296718191401,0.5332369703105586,0.619739993570584,0.5798505749680858,0.6284516739065974,0.5945791855848653,0.6065368854118061,0.6092246572849473,0.5738559336425021,0.5958372297316414,0.5360313113001595,0.5755045784936551
0.5906052382595014,0.6183570321651696,0.62086921268961,0.5712477375489097,0.5713374026349559,0.6251158619302549,0.5909531996273396,0.5760688392127953,0.5010809975947158,0.5771246195992032,0.5530305105121712,0.5532527207839835,0.4704272795272724,0.5352966071565005,0.5430614082809648,0.5109536756337478,0.5157888385871453,0.44103108030289945,0.43088300249808725,0.5273000896390989,0.5426398335385723,0.44808818598437544,0.5461967310496736,0.5563769621832092,0.6284916445299973,0.5664827537835413,0.6073812760065729,0.6003032206861989,0.6101073408954295,0.6097416096010347,0.5603717035298293,0.5399576335754601
0.5076636981730203,0.5434411454035707,0.6106269678759317,0.5405406275311534,0.4917586539189423,0.613292861198037,0.5901042904578818,0.6216747998325877,0.4671867682581923,0.5623589402632161,0.5689940439565436,0.5177788349875815,0.43498125087064343,0.47805556228190377,0.5625912667777437,0.5476316809279661,0.5627772934943304,0.47681284755625464,0.4474401413040294,0.5266979879272451,0.5548536003859276,0.46507381557590105,0.6042778128429349,0.5866857222379386,0.594962314290011,0.5632835526533837,0.5600937964469287,0.5968806017722025,0.5501939130437646,0.5565534546960037,0.5030937054802507,0.5580176230812941
0.4898918701882323,0.5508272144645593,0.6000064099082699,0.5617367686814568,0.4787877962267486,0.5924700024994026,0.6143982233550414,0.579882458709101,0.4882750944441685,0.5080634772969362,0.5124585165816403,0.48289559272987953,0.4304249492197033,0.46791815393545894,0.5410619877459911,0.5411770730898721,0.5560223301864651,0.5402943462707568,0.49088872784146137,0.5256633504154659,0.5534019937610282,0.4550085750418937,0.6278996357996721,0.5558452643749665,0.6118692614526896,0.5773812235706081,0.5521356838905089,0.5575591803142761,0.5397782669544531,0.5385081159333802,0.522012380814917,0.5297507726191993
0.6225832033711718,0.6083054563957191,0.5931864559400413,0.6045391778599813,0.40351543390541095,0.5977992289747147,0.6173549990997829,0.6175744847431929,0.5093625922854658,0.5667045931988371,0.5499483634543054,0.5368213795349615,0.5740343863859884,0.5434597318373091,0.5595276346155635,0.58106936256331,0.5951184780227213,0.6036671010856529,0.5363134539206258,0.6072552550209495,0.5930367828172052,0.567550867541268,0.5957618837084028,0.5250725462555471,0.6017089408419669,0.5290211368693769,0.5776244235290162,0.5978211088408194,0.5625448031525202,0.5646255101751863,0.5781431997731028,0.5722349057329079
0.5944581568910174,0.49818205412802014,0.5845818391460422,0.459163189910237,0.4028120531024404,0.5885734758081267,0.6174985660138271,0.5938819299480035,0.5930304910568225,0.5772533845800024,0.6036983730276415,0.553863886855652,0.585778883494773,0.5264220133293961,0.5774413355677236,0.5767871024818615,0.5358966459565686,0.6018251717713907,0.5620965749687777,0.6073322492634966,0.5898959642940519,0.5790787037714664,0.6250555772985225,0.5683854414474512,0.6107977276307097,0.5828654487411341,0.5838729415375397,0.5903514585801803,0.5102777731257959,0.5769368552484906,0.6035297648970855,0.6066620838951144
0.6218772388877537,0.572408682633023,0.5948211911541811,0.5340437372384206,0.5080754831029991,0.5807926827161852,0.589549848864789,0.615619661515111,0.6069741049888818,0.6124153629218163,0.6074554461826704,0.6018497085101165,0.5913775322049687,0.5691867640748205,0.6003402106687881,0.6017570480254231,0.6158583759072372,0.612711713872473,0.604195124640098,0.5984239542995563,0.6098444244994933,0.6293788555812397,0.6203455827537961,0.5608218816427266,0.6201030177368633,0.6205510419606487,0.5405094816244711,0.6094214796904506,0.6136096192790162,0.6024213794647136,0.6086801689390708,0.605121958005403
0.6027157767017642,0.6231600329135176,0.569769847664081,0.6309798473429848,0.5887047328979484,0.5961274459271751,0.5807420528687115,0.5951124077178793,0.5773890555318871,0.552907559386878,0.6068439458335692,0.5897979507593374,0.5864618231517358,0.5782719987768026,0.5151620798166807,0.5498118834090447,0.5684361749662028,0.5760152033194893,0.6106949560552014,0.5784018626860967,0.6045784448503023,0.6169352816244217,0.6092692381485861,0.5622465434920538,0.6003826905602304,0.6060410202750343,0.5907673513845981,0.5860576942605573,0.5977184281120804,0.606287762416081,0.5727880956769582,0.5975325502746157
0.5954287972173216,0.6117073879615238,0.49160517767809925,0.578050158476286,0.5715628028860287,0.5921106012287956,0.5857370872752866,0.5856492515992359,0.5372787705038747,0.5713415575376616,0.5463474234181297,0.5734841978296016,0.5656149122512945,0.5101368568777043,0.44050894237944466,0.4947753624545069,0.5407722851717598,0.5240157539977282,0.5913292393746921,0.5514831955537945,0.5916360450518093,0.610748226819268,0.6168604809491216,0.5323601612565465,0.599896356458675,0.6214433079349122,0.598153261430882,0.589838424013938,0.5972372117520328,0.5940333893110699,0.5617833883847462,0.5768665018745778
0.6188356673420843,0.598829554527807,0.567852944952003,0.6057197802850823,0.4879203597344678,0.6211791431917253,0.5978545247086193,0.5894447885384715,0.5579499775592467,0.5471553266935666,0.5701333896405607,0.4944444336520763,0.5590033917380742,0.45801888564352117,0.5141624309719338,0.49876092874530903,0.5775745892414682,0.5602333844354653,0.5497447512330345,0.5789767935665815,0.5463075208083835,0.5905431119682072,0.6200622184199769,0.5157269129976945,0.616249695255495,0.5906447860110305,0.5623404706841213,0.619170166302717,0.5703915124097481,0.5910503375572925,0.5101136623227825,0.5148830254803153
0.6065933697471984,0.6053832626515854,0.5646985556821601,0.4966607668815291,0.428639186642456,0.5854692345056215,0.5765434932283645,0.5736123885114198,0.5706197150040656,0.5804720461326628,0.598187081679325,0.505356144723357,0.6098022544999471,0.5495999887854054,0.5683180798810958,0.5777132852798096,0.624789323160244,0.6099101883222338,0.6126258119297049,0.6147207631490038,0.6150900422207761,0.5956083637511022,0.6204412402066136,0.5510160742774729,0.6056261518967929,0.6052848404376492,0.4726996604582123,0.6241978437627798,0.6048811663938647,0.591437931918286,0.5520126779409975,0.6005155324165944
0.6174678270461109,0.5977483391035612,0.5684864121423833,0.5118462992148041,0.4822164914818965,0.6017457965157156,0.5895974147757737,0.591756145391324,0.5820076293254662,0.5498302431400766,0.597395717665301,0.5043029426890637,0.5743312376657248,0.5000384931239357,0.5919081100847614,0.6119134235164905,0.5858715699001219,0.6138860929923464,0.6144842298456401,0.616486635029545,0.5917526372338536,0.6005768725802468,0.602408120629539,0.5626546560242787,0.5958765017129082,0.5618718579730008,0.45894379810761293,0.6161315313161032,0.5901038543478404,0.6026401225784113,0.5278074098177201,0.5972979929240849
0.605585961763854,0.5979097719917599,0.5837167761369445,0.6291292890174187,0.510760030947396,0.6017655582417019,0.5930535892686496,0.6000576137728532,0.544023140852486,0.5775361561075477,0.6013769520079104,0.501611705194579,0.6065279424943046,0.5585701362853798,0.6123085765230311,0.605028431869333,0.5917066303406064,0.6011731329643616,0.5758918251026554,0.5686477894149463,0.6110993895498004,0.5970379897360049,0.5879879097316677,0.5677655642105117,0.5377042597760205,0.5969594953878616,0.49461456969829964,0.5744319300466912,0.5974448278105463,0.5904786495954975,0.5576051727163569,0.6004885335377589
0.6109387572866584,0.6198044563941032,0.5699006765775334,0.600061514682721,0.5691651351544228,0.6256290882531516,0.6001335947326792,0.626758465276347,0.5170574959180078,0.6328198679074799,0.6095949239531259,0.5704073610054889,0.5461635977869935,0.5757454177344176,0.6068390379887689,0.610335218058969,0.6188232566911347,0.5822728973390124,0.5856654362719075,0.5960009686182455,0.5996997125553681,0.6075463434918158,0.6100704279448934,0.5059686982503331,0.5859003410267462,0.6086382315006692,0.5633411997389812,0.5958611291033485,0.5700453291659158,0.6071019215501327,0.515523879398774,0.6301986664910992
0.5633695197665163,0.5772859938212459,0.5872649636282516,0.603267619122755,0.39439827921791115,0.6082585555371024,0.6194987157159255,0.5203221688412805,0.5141373249874593,0.5730383949241765,0.5618846335509076,0.5568636529217986,0.46689115838922657,0.5663603067590705,0.570684436567245,0.5731728531841824,0.5858739551882567,0.5332070472753511,0.5475277323827102,0.565320955537335,0.5394088526948772,0.5421554309465537,0.622126665364279,0.5652739513564474,0.6119720286137783,0.5769868102526082,0.5752231358743435,0.6007298697288631,0.551386830353931,0.5475155740709857,0.4876972147815488,0.5831605784653139
0.5158141412441498,0.4935570985688673,0.609763116960775,0.6104655365703512,0.34060036282002987,0.5976766467283057,0.5940118404243261,0.5962915161943337,0.4908192829939731,0.5206928299042842,0.5377965208380727,0.5104656055159917,0.44780580680622856,0.5587888619407188,0.48664846038767173,0.5179150821998484,0.5916379555755924,0.513435369944914,0.5639100820358437,0.5817990830340829,0.6125051996491753,0.5600789780667641,0.6247864711277342,0.583574277922176,0.6176120768738198,0.5810367208414617,0.5838162073288331,0.5873142370676396,0.5824334528142259,0.5802343176313846,0.5386518620523264,0.5828695637299753
0.5561999816420147,0.5702597981793942,0.5619745122759495,0.5848242821611569,0.488137024839185,0.600437310902033,0.5907085174146384,0.6142594343874422,0.47938433173371975,0.596967874664035,0.5501482520749182,0.5052062240350729,0.4687306135609513,0.5063143996650203,0.6029242242756694,0.5805907542884384,0.588181944413247,0.49520182959697967,0.52576315613633,0.5889972522059644,0.6042289308508781,0.5127200085314425,0.6087524204257884,0.601596691791577,0.6307544083967707,0.5910700713466791,0.5888263611553988,0.5827714945387636,0.588812968137339,0.5812193513913451,0.5503024480733811,0.5812186759676086
0.6200651742414519,0.5625386699752304,0.5588819930135154,0.5813283425733935,0.4201136569612057,0.6136181636123619,0.5946834582323204,0.593688215499185,0.5761515394881767,0.5719760869646211,0.5534729190142679,0.5370749349459802,0.5911839248158616,0.5100384826630289,0.5708481343483697,0.5895599040138317,0.5946714722284523,0.5753611128410284,0.5493743097727362,0.5985535898800375,0.5877881412571496,0.5577359664478564,0.6027676965425572,0.5715903918576994,0.6123542715378262,0.5648448556249982,0.5716946858587236,0.6087724365807631,0.6008388985942664,0.6022495093920853,0.5558371765808496,0.5630033740395951
0.5825272157976815,0.5532136862652526,0.5802651696083594,0.6048426923068277,0.38583266878099615,0.5918810843592975,0.6138329187613689,0.5477951551215059,0.555753373471182,0.5347992058557951,0.5297130138435413,0.4560724746521938,0.46911087492370956,0.4830161094459764,0.5682616962682294,0.5850906299759299,0.5758933214829263,0.5108414808160001,0.506028396726241,0.610584371155028,0.5870978807498216,0.4922108461577037,0.6108510256362976,0.5173465917841609,0.6151047925372529,0.5783947277565809,0.5630030809389732,0.6003015410595771,0.611927057634559,0.6023256987442851,0.5431061555263028,0.5659034085504234
0.5088311465576273,0.5168398059383088,0.5701645816211809,0.5862607862380705,0.5533654068280675,0.6045950252572696,0.581112685546562,0.5716778004361198,0.4923737890307197,0.515537787014373,0.5476597127956817,0.44285053057398144,0.45228188989400225,0.48832946972189967,0.5837292638201419,0.5893842032002186,0.5760571132416402,0.5220929704880117,0.5112319451045108,0.585497274990115,0.5804865061965774,0.5129932482545854,0.6123076887127823,0.5283909949768911,0.6210165763229678,0.6156038776969824,0.5918298706960458,0.5517621643228351,0.5671432013506882,0.5681395976264023,0.5375878207628658,0.579242531187366
0.49641280172242347,0.5334649159973803,0.5949439219523899,0.574850924336268,0.5555818538234757,0.609115286911104,0.6110906502330241,0.6294998757668093,0.4932572775388614,0.6069930306257749,0.6055182678633811,0.5372620864814165,0.5010125940452357,0.5958870727362295,0.5853998919477373,0.5873635897765097,0.5846179945786063,0.5588760313721426,0.5611315210931508,0.5815414355201844,0.5594191144722314,0.5885798786230296,0.6223734705915345,0.5599913220871247,0.6280173827861366,0.6179211180163561,0.593248305227734,0.5719932038551461,0.5522241104884728,0.5392236149484231,0.533590793796717,0.5840100472359211
0.5929646457502841,0.5812903964418863,0.5814909270414491,0.5633758084912315,0.5956314716391151,0.6063870976045183,0.6114023999504271,0.6063593268095319,0.4822179128994385,0.5886410466049949,0.5401801051809586,0.5199702420045549,0.5057383999710052,0.4823936601647609,0.5373929912052057,0.541212092227836,0.5640368551229337,0.5289689342942568,0.5338188244403043,0.5139536196157045,0.5158486796837873,0.5492884290952491,0.6191531608272848,0.6019387680768642,0.6219495760178154,0.6219754786818549,0.620031975906443,0.5855426121153473,0.6279354014010817,0.607935142651337,0.5898921653054211,0.6133410571818433
0.5990038824248077,0.571343568645323,0.5826610086116913,0.5655796058327934,0.523646070258315,0.6064999341840532,0.6140590570616646,0.592577768327631,0.5154733723908743,0.6076983936054561,0.6005331570513363,0.5651517454402142,0.5727865849404983,0.5245668267503913,0.5865338379162647,0.5911729298344097,0.5745804935937358,0.5836948459707357,0.5609953315235737,0.5594493822075539,0.5771299933155022,0.5816893170063329,0.609787151033931,0.598478112810072,0.6146605046680558,0.6047576164879142,0.6057127101871292,0.6095695918045205,0.6244629878062721,0.6199002202063857,0.5510432048737369,0.5954112030622544
0.5947686223451872,0.6112331161316451,0.581598249485611,0.622679609276935,0.5253506704965935,0.5861298920838977,0.6138099064983222,0.6274452151448985,0.5453571522899615,0.6139953302468204,0.6070582903707374,0.6037806358157999,0.6102590344419592,0.574168297026976,0.6001159254055607,0.6107623123220092,0.6118593844215865,0.6148042715870785,0.6095469108620942,0.6185887185336398,0.5909865246535743,0.6210406087768686,0.6064622264032694,0.5915107654679823,0.6103432764287117,0.5852068290970384,0.5774185426476676,0.6050160483587315,0.6173191293442999,0.6092936990345079,0.5458076189276926,0.6108115047777782
0.6135565036938958,0.6031316656868556,0.5925574898984066,0.623311611590563,0.6022275812019277,0.604353458894244,0.6148983594443789,0.6134898964828303,0.6101144218674978,0.6260680514874034,0.6196658639107012,0.6062486750814964,0.6115110669755206,0.5884067136650707,0.608484318512021,0.6027965708650889,0.6152506473411214,0.6131829282688638,0.6127858718584295,0.6068412940325241,0.6223577259545616,0.6185459374293463,0.6261489294998581,0.5679099843131219,0.6088926820639424,0.6006240336575194,0.6041256101138555,0.6223602276629601,0.6212296717109997,0.625303059920311,0.5706378235484159,0.6010063138459342
0.60805402954776,0.5937641063465404,0.6055428435440002,0.62923827031949,0.5919167227479815,0.6087195086144093,0.6094128359495328,0.6045367096366283,0.5488838835164409,0.5557858301100268,0.5500961504438145,0.5988980845063135,0.5489415075840334,0.4690436947719715,0.5653848639421502,0.5743219518856325,0.5590209263349785,0.5513013463444764,0.546843474278405,0.5770784712287514,0.5783078775345487,0.6076017567032262,0.6162887281643462,0.5716846708784451,0.6293635356354078,0.5978835050482441,0.6044826590198817,0.5985743845236697,0.6000476948338581,0.50933217822061,0.5555506867437553,0.6045635271631149
0.5595978928201518,0.47090689966715377,0.5690580490402337,0.5716800911934149,0.5570918884901582,0.6139837614235533,0.5914461198604946,0.6282521892180606,0.5452972805282654,0.560210840119684,0.5250831738767243,0.512796185305526,0.4855220292745966,0.46203220565471087,0.575317235316352,0.5653585771284322,0.5954823421317454,0.525489459694044,0.5589794727251176,0.5767365492774352,0.5813772232376898,0.595488542909236,0.6277096735284686,0.5808652509085331,0.6255955322074951,0.513442958272115,0.5459449931949755,0.5368956322674306,0.5450771036058473,0.5039647144312042,0.5120798361531599,0.5991565404670075
0.5545369336771538,0.5767482956174926,0.5843171296549946,0.5783351233545304,0.5699327544690316,0.6279102295859442,0.59625113085476,0.5960482357833684,0.5318535277401489,0.5739600511943028,0.5337783316635619,0.506888933484055,0.4858351640013587,0.4579982407584656,0.5366611217865206,0.5480053327055419,0.5853530517855852,0.5552621571345782,0.5025176100844221,0.6014809109119633,0.5911856756742132,0.5917487156433469,0.6148145677560278,0.5627482228876395,0.6084054959663038,0.49369371439381776,0.5716209577550588,0.5827563595968467,0.5386955808386661,0.5642561710072371,0.4882323028391049,0.5912172574728998
0.6158749423106697,0.5984649925367191,0.5852377541409116,0.6087487387851721,0.4803342445689479,0.6099280851144668,0.5959647849752961,0.5707632864825049,0.5194569570441054,0.5679640185256773,0.5592135337525632,0.5094222201769748,0.5327317304774247,0.5034755329570622,0.5346522943963311,0.5381791447811832,0.5228500295347133,0.5302225531228587,0.5426585273816559,0.5088629189024072,0.5537132566647295,0.5537261141679417,0.626876034691683,0.574388358849613,0.623875029054752,0.574866330908698,0.6104196532696421,0.619468541212185,0.5761454917006057,0.6034044057222502,0.5580947130025616,0.5883638045861757
0.6140669048509407,0.6027001239491061,0.5800913991014173,0.595603173044803,0.5525771598777283,0.6055188832712708,0.6009592557921414,0.598932564462234,0.5768529540244234,0.6040143459063487,0.5740124903386726,0.543382456325846,0.5517624588127023,0.5469538184871102,0.5715875602355134,0.5471809974319346,0.5256263874791435,0.5509111323328526,0.5382391514835595,0.5602777685450858,0.541525297836141,0.5645641439764467,0.6186409348784877,0.5588842135804211,0.618735293016027,0.5834334411825667,0.6126566806930132,0.6095354581195808,0.6155752002891812,0.5961837104305738,0.5881029710996313,0.5678675680579265
0.6140442129218964,0.5866463821858359,0.5796206425711488,0.5848033917743811,0.5369313225011093,0.6183195893246228,0.6145415293518449,0.6092460045145618,0.5794143405246975,0.5763940791394738,0.5847616245739131,0.5338414728972951,0.550310702323886,0.5507403585151719,0.5500232924298761,0.5479521894108658,0.5532644052058637,0.5100903624716931,0.4641667862022018,0.4809466109491061,0.472777510251977,0.5310023685959522,0.5804249774354512,0.4921735854687485,0.608697055361034,0.5444057849953106,0.5862089975426851,0.5900462180946213,0.5927669076251357,0.6057385358674727,0.5941252751997176,0.5520368610779799
0.5575344196395473,0.5943106795241574,0.604174640579064,0.587997162310072,0.5246804547430147,0.6224767680873352,0.6030875092896256,0.5920284811676915,0.45802554916591276,0.5818235849281215,0.5689293199750483,0.43048031727158015,0.35891767458394097,0.45231015968796695,0.5176307751982732,0.5277195381641088,0.5341611512224097,0.42517583530559633,0.3912352818262549,0.5371989140131066,0.5232861559441824,0.39198444151572764,0.61633640888743,0.5591843682141775,0.6256949763161866,0.574938111916293,0.5626614960557441,0.5981648551725527,0.5551086775532048,0.5766421155673391,0.5466753078590387,0.601747593910001
0.5265962904100773,0.5411457051010082,0.6137579089795584,0.5652987573678363,0.46280607509820676,0.606236664302298,0.6147904835091075,0.5827289762505242,0.4906939785179505,0.5734371406934805,0.6043663613211412,0.5294610598126196,0.37448450911244713,0.4851528261627988,0.568212504131881,0.5619546001298799,0.5724930075564759,0.4679962676906073,0.41578130068918734,0.5874654264113999,0.5628135864003613,0.4150281866132443,0.6174902724183599,0.5952488632716072,0.6035332492201043,0.5891697245266875,0.5268617900215353,0.559303144818581,0.5251825976015132,0.5150535690113369,0.49195288132603654,0.5780221464652118
0.5370307439476295,0.578244335215687,0.6017073806148945,0.6020885030205713,0.5356688572391242,0.5950374559069499,0.6008085791687285,0.5991128244631495,0.537313583354788,0.5319970989765389,0.5486041422909457,0.57240355923192,0.4812284393106239,0.5531199831141053,0.533359231115565,0.5285130170324457,0.540774434602229,0.5014622619122525,0.5181327915108709,0.5767331266238173,0.5608560338387993,0.5237838726071667,0.572448751415757,0.5935615819704049,0.5828550495411983,0.5719031407747733,0.5601404588023664,0.5844544471632657,0.5559158311423692,0.5439814498450987,0.5291297289438114,0.560374401714445
0.5718972504597186,0.5770682075064903,0.6114403029615004,0.5611672214690662,0.5405342349713852,0.6081910972731139,0.5947733393453623,0.6107799623969515,0.5274604939214832,0.5509737430051007,0.5524537430236248,0.5094131472402311,0.5477166023364991,0.5153254277537396,0.5403438336811646,0.5276942399379313,0.5364538706214226,0.5358935837525213,0.5426091755346616,0.5640146066702632,0.5627363309121668,0.48204238527295495,0.5760615943941688,0.560309178602877,0.6181180485631197,0.5596040689030926,0.5752066839570303,0.6027488563181831,0.551952352657533,0.5549973884200037,0.5424023672276256,0.5721712947222956
0.5649011643329341,0.5575558263958208,0.5994056120764956,0.5562895050642761,0.5696131058982679,0.608291122481747,0.6199781089973821,0.6199530587692449,0.5305916197975495,0.586529849609915,0.5619357409072893,0.5309873187829182,0.5882021249486722,0.504607479781649,0.5492808756127427,0.5620393329155275,0.5603338415502068,0.5614167652628572,0.5452049318361293,0.5599241559785039,0.5701808440944154,0.525848411480431,0.5983846344733426,0.5360984115705126,0.611528101032204,0.5954515928807556,0.6109572882701351,0.5948643821004818,0.6053416691462938,0.5871281407246637,0.5726591082821331,0.5812510118146643
0.5661879356906018,0.5830037611947173,0.6058278384317898,0.5949289116634616,0.5139895442783402,0.6046334481705465,0.606678613417671,0.5484308431704512,0.4774152530465803,0.526715352325969,0.5237480394464168,0.5342353408721032,0.5112707245175806,0.4730815061889597,0.5375448268949634,0.5570492697592425,0.5451536637189685,0.5357299181590772,0.49412426796885184,0.566579511296415,0.5687342058271639,0.4301436105517264,0.5999321342755197,0.5135616779953814,0.61741513524882,0.6190722465003182,0.6041922581035344,0.5970453068928203,0.601268418544779,0.584397391560831,0.5745286983502084,0.5022009067331963
0.6087617714856663,0.5915747229257708,0.5921750720312722,0.6080404818067557,0.5060553659132784,0.6072140352810745,0.6189194474641193,0.5880399940815424,0.5309655876356305,0.484579187057685,0.4752221109422845,0.3778429834943669,0.4825309745796106,0.40277481972338053,0.4932635945279277,0.5452806312559119,0.5651674799536867,0.48097084812740193,0.46743716404197383,0.5659639533839473,0.5562360779050775,0.48741974015052125,0.5980187461412878,0.5820006914223679,0.60360399526755,0.5769948606559613,0.5467444326805486,0.5862783227688254,0.5809092336872763,0.5645194028552353,0.5485281701160805,0.5433332754851817
0.5946580912800201,0.570289366351539,0.5985244709642065,0.6074967715557512,0.5373179390553247,0.5986398216445264,0.5770461228075476,0.6011281413581036,0.46846050748615775,0.5562102531885977,0.5189656005855823,0.41383675471229825,0.49107066756597634,0.4614344966506382,0.5196616561293759,0.5645728829349488,0.5815314708955968,0.556656198783961,0.5358114252310853,0.5837524425931134,0.5780059915212509,0.5711963817610493,0.5762107446954382,0.5472811666700251,0.611769907906186,0.6081443221681458,0.5597548193705909,0.6082311678928528,0.5962261517594227,0.6034477968365376,0.5639741006808285,0.5996758574527409
0.527337873464177,0.5911225450078058,0.5602053173907189,0.6073957971663583,0.5033018230181441,0.6079869589022522,0.6057683168607517,0.5747089729801703,0.48568604941512367,0.5429947467374606,0.549809379815794,0.5334213843049735,0.5707443876114602,0.5729818386142987,0.5421419859215676,0.5749594395940099,0.5570445099967225,0.5181141546573911,0.49788490715276273,0.5455221211158363,0.5276954671211784,0.5302472720384264,0.5433345536817841,0.6076077538646341,0.5972125224555301,0.5775044572812151,0.5107988343278809,0.5875995974046447,0.5605534717784334,0.5704528373286312,0.47652840400966495,0.5333369851839993
0.5756717636100838,0.6063331698165101,0.5883532138335875,0.6143264195209353,0.5515431543510327,0.6086666006464302,0.6064515092402599,0.5998416093105463,0.5146747223348503,0.5707880708128813,0.5658121709603664,0.5308919639130952,0.5183887465473821,0.529390981133224,0.5586360283837227,0.553621657101781,0.5054391970232314,0.5586002897301008,0.548281011973226,0.572982410839382,0.5553406118388508,0.5447497687778878,0.5736055986205694,0.5908346877513959,0.6049458423040651,0.6021861419662449,0.5612467928532701,0.5743544919749997,0.5723528107412501,0.5834012870426839,0.5268894180402014,0.5794890685613391
0.526940173547315,0.5806653281344302,0.6081731880313658,0.5875991339295805,0.5216292805216449,0.625020765806833,0.5853772990194771,0.6055510369629096,0.5313343265763374,0.616807234724962,0.5953444609644545,0.5809411405113779,0.4454556328078422,0.5633930165383229,0.5892027292892833,0.5839576969487269,0.6126974279467906,0.5402879810059311,0.5922398497251707,0.6006324322437665,0.6075618958131378,0.5495442405837169,0.5983936703497363,0.5923597565968324,0.6074545617843664,0.5750799346369263,0.5502104651736083,0.5416098594385114,0.563513500974968,0.5499439187254529,0.5422843145157671,0.5648486579073285
0.5907671060954794,0.6206902239307234,0.6127160876038978,0.5999049763896264,0.5553461719424512,0.6179942265624632,0.6209623956084506,0.590421257520274,0.48480908404444,0.5963376544605293,0.6068494126427635,0.568147983788906,0.5074604046359235,0.4981418014916327,0.5447732838271002,0.5474854830533016,0.5691543171433026,0.5000283106698623,0.5721675661190857,0.577112918562394,0.5925554378625513,0.5895000121548847,0.5975298193326838,0.5944656234928128,0.592435082793512,0.6086728842384711,0.5721991307251458,0.5931147062409854,0.604398400413468,0.5910911613312314,0.5808570013755017,0.5711619232729918
0.6232762498731311,0.6094337824403515,0.5992587952919274,0.5936581278263459,0.5690685529039374,0.5638609385779522,0.5839603015871931,0.5914045627731208,0.5064992761715006,0.6308575913794532,0.61598759614271,0.5826529122313132,0.5709250665238772,0.5796270883256518,0.6179603644803375,0.6102119991820325,0.5796183883614934,0.5894591407420976,0.5931042334797989,0.6028078830526722,0.6081307274383541,0.6053834347429723,0.5982397614741856,0.564013263060764,0.6034510115206435,0.6210612850527264,0.6265302897679236,0.6254652796843486,0.612833544308812,0.6148875025478007,0.6240206822790072,0.5947317556043352
0.598503261049402,0.594445232250764,0.6184829069543675,0.585499763397016,0.46673982195490105,0.5566337673808627,0.6181185312079566,0.6069053332811033,0.562019439385815,0.5685196113363097,0.5753474581714415,0.5566032994532037,0.609434982340107,0.583068550217075,0.5960408814538332,0.5949735836046406,0.5710605743955672,0.5745776975587392,0.5511818610515923,0.604484491106129,0.6024147299742508,0.5900671425910426,0.6234572332799313,0.5828041695980513,0.582787361455483,0.6069814006047413,0.6114871698377722,0.6072956971914018,0.6067658064309187,0.5877740017502269,0.5676033034361501,0.584439115097379
0.5181202000588487,0.5749731399475567,0.6066608834992566,0.5499893078384493,0.49328516109725756,0.5250583811815096,0.6018013358956463,0.5265765384504477,0.49446025576586444,0.5432256645664141,0.5412402250366537,0.5398603404171809,0.5522551143265283,0.46041525357230856,0.5726716631395128,0.5417859747565198,0.49303439852691444,0.5028822710629184,0.5130630317100846,0.48440232543192746,0.476132609981331,0.5736426971666635,0.6178530659707601,0.5764191793636253,0.586404549131864,0.5414035960781615,0.5552319085022226,0.4860154248537963,0.5923220988988398,0.5635480032087348,0.5592174541919679,0.5388586258985422
0.605886252215796,0.6083971615737592,0.6062972921886305,0.6203167514328048,0.5796537656810999,0.5968539087962469,0.5990618548460341,0.6270527431558357,0.5655311225834394,0.611494442042982,0.5831076789272224,0.5349530584884665,0.5574032633914817,0.5117281103024133,0.61807474264511,0.6129701467587627,0.5888407802932807,0.5794878121315703,0.5962002175242158,0.6120448365832775,0.6102987351895197,0.5827217502266931,0.6262419542762788,0.5545080155033445,0.6214153941991831,0.6062962728784403,0.5923895039606586,0.533005184462844,0.6222404753336906,0.6197731851225253,0.6167238980584768,0.5981784919219515
0.6162965862737263,0.5993776279278297,0.5855227091135565,0.59628755929835,0.5540078798994339,0.5887132518154927,0.5731557948563454,0.6202623875413296,0.5639741384761854,0.5753973830138216,0.5634736354571558,0.5558393058465081,0.5815520959672877,0.5784567526291777,0.6052954297295589,0.6002412851236149,0.6139446000503901,0.5894066723486796,0.5770378981944441,0.611933756754981,0.5809876658220504,0.5929556205391066,0.600174199307239,0.5510527753484639,0.6153595877709644,0.6168127565370469,0.6115350534976712,0.6032702491838308,0.6182629466532306,0.6168431306568473,0.6159982456360309,0.598171584127038
0.6212455612621847,0.5992947809645833,0.5918370848668455,0.6064854480567049,0.5694424447636424,0.5972015749488301,0.5999289476415095,0.5907406092083269,0.46009953857449587,0.5715619456927068,0.5251454361007386,0.6000940489111861,0.60013419738351,0.5344433426400979,0.5937387419745737,0.5886921762087879,0.6009709506772993,0.5935822088613636,0.5918492468308274,0.5967013642988399,0.5988121649888808,0.6005591505549145,0.6111943050619314,0.4840381611984871,0.6097180827268281,0.5875807938392746,0.5721770698813986,0.6088332789744669,0.6062475708604441,0.5219140314330509,0.5471600012069213,0.6029352458635008
0.6211589692238515,0.5489914346031826,0.5825924367567131,0.5941322859148424,0.5089894570712293,0.5884513522008781,0.585035125794883,0.561347560268127,0.4734174382384618,0.5400776922055804,0.553335579817755,0.5235313084633901,0.5365433062242001,0.4855103945227227,0.5596797547355578,0.5892590579607738,0.5549502247682659,0.5776753627415634,0.5372294542510085,0.5512687456954873,0.5422376024624174,0.5146181213023661,0.5849058538341828,0.5394125314989214,0.6064351492683021,0.5645546015254967,0.5689873514433669,0.5774245505412048,0.5804266140026468,0.546499448348913,0.42707461644327016,0.5326730183849658
0.5697089833387738,0.6001485665081365,0.5362891867344005,0.5932932204819378,0.5266938474660283,0.5999117511014901,0.6012693045633791,0.4932092458625452,0.4981172046142833,0.5519857613898835,0.5539618592682692,0.5575190913295047,0.5214846441048431,0.43195923374323186,0.5146964391377041,0.5671411152317636,0.5468410201482943,0.5342835941437637,0.5711556718318451,0.5141698919366247,0.5248209543724217,0.496567696730163,0.5752458496102699,0.5810978398785197,0.5987761442390596,0.6081874589432279,0.48932563285511427,0.541011508854914,0.5653276111763584,0.49770082381413583,0.4790601806217952,0.5945767610755269
0.5844006401160704,0.5829211036105081,0.587852625663778,0.5898211178069698,0.47378613271117864,0.6139180382057022,0.6069721606875502,0.5011680363865095,0.5934163314686431,0.6008367117029849,0.5685318992400452,0.6003763607748045,0.5941003661106543,0.4658425892104576,0.5279561867917612,0.5475709272936439,0.5441831502699008,0.5300894656348759,0.5670348553059683,0.5246284757743691,0.5511926805422903,0.5694893305536474,0.6044694177734242,0.5928426742433441,0.610232060351897,0.6116448415133091,0.5387203698059766,0.5782551940194881,0.581604742156208,0.542711718906421,0.5572403819425688,0.6005962844540971
0.6212420794353296,0.6022280530236346,0.5890750527911826,0.5918767980047102,0.47026236421066714,0.5900105130228127,0.6023348722200496,0.5706696135143561,0.5692098571684556,0.595696424396621,0.5547728664277854,0.5205019999652428,0.576562234213149,0.542369723850944,0.5432874299330663,0.5701556057501243,0.5544843578600779,0.5758254867855374,0.5543773832700621,0.5836015924076335,0.5714306311364297,0.5412623758633809,0.6123392608654067,0.6014097281861052,0.6165688017569843,0.6060930293750453,0.5971719545503616,0.5980999167447819,0.5998407189240996,0.6138351286451705,0.5923571308300128,0.5891807349558459
0.5912720503822256,0.5091424823187146,0.6084472537582883,0.6279279620684904,0.35339348151661565,0.5942648716914876,0.5984124968954497,0.6115154660625481,0.5846020592043053,0.5811929591847289,0.5841328149438726,0.5191784484830595,0.5794620316308903,0.5376499488771697,0.5589413305357029,0.5712755135918272,0.5911663942798666,0.5835591525699019,0.4953979239623313,0.5677086695472972,0.5283784282940375,0.506492185180289,0.5692629482100743,0.5422784132199747,0.6230672519440182,0.5856670857631076,0.5764524454337389,0.6147248406924763,0.5978753609516526,0.5970733646120466,0.5830691820790325,0.5801628574188302
0.5615335559341,0.5014089763473307,0.6095714762864191,0.6139167004787489,0.49828124442042576,0.6185588600349865,0.6044044322954207,0.5681473296740339,0.533758629017208,0.5362332749850793,0.5530280289125795,0.510075357978628,0.5067072623939002,0.5340145667690567,0.5698274724223873,0.5876296512238655,0.4801222054563802,0.5208133873894583,0.4394153815081964,0.5574318947597279,0.5063589132291525,0.4307953116678661,0.574403832229216,0.5890089069005513,0.6278863526134297,0.5591443266018875,0.5496969423681282,0.5915137286104408,0.5606392462011394,0.5495431291818147,0.5663037198560017,0.4847085026059239
0.5515993344137713,0.5824604716035815,0.5794334935655746,0.5895970784749931,0.524620259962853,0.5974609485962916,0.600673472197891,0.4891486171995966,0.47004545255906816,0.5766335092189333,0.5488227279312852,0.5221968472357046,0.4785014402887089,0.515306997728013,0.550413645214048,0.5593189680921103,0.40679349655621017,0.5024346733163819,0.48368346828855663,0.5393896077789516,0.5452235180850039,0.4550012536528837,0.6105895146702012,0.6023242029465006,0.6304884798336748,0.6060804961069197,0.5382837034083173,0.5664152106444,0.5367971578149642,0.5256927762260808,0.5443736232454404,0.5307482592015755
0.6017484710146848,0.5870920804443952,0.5518826796902403,0.5886250199019382,0.5686983806157636,0.5630240535913348,0.5621681670926495,0.4426262739282823,0.5658181536733667,0.6139980541090316,0.5909460474676662,0.5360990981063264,0.5786185247826986,0.5323092456982312,0.5989058147835428,0.5994884311207942,0.5736675391227167,0.584436958989547,0.606230136283661,0.588285346894584,0.6078798052907938,0.5916603180777306,0.5799919827627609,0.581239753765264,0.6012596783855512,0.5432421921874572,0.5795227668404453,0.5476163223324655,0.6141859658600992,0.5294165600475685,0.6119087623506194,0.6083310384352694
0.6083024799444945,0.6015555625971236,0.5571737810097249,0.6308776907593828,0.5919002613662888,0.5944827574711482,0.604518099905529,0.5588428050049754,0.5519003815653253,0.5857533332974291,0.593566118405675,0.49655519896807643,0.5479023995613679,0.5103806279334426,0.5842402980704363,0.5932332086368599,0.6075484660446482,0.5534846386925972,0.603978516503626,0.6112444033409903,0.60047150001694,0.5838070019514159,0.6118226323157142,0.5826616063541081,0.6006052137102553,0.5448154547527356,0.5184711746994117,0.5525363984454842,0.5962979382564773,0.5359726485138879,0.5623719612140925,0.6098965959841658
0.552055730353537,0.49637717665347214,0.605977209414692,0.5833814095377214,0.47332913736374127,0.6077545421092669,0.60714789228742,0.5824398270891952,0.5635329160777757,0.5796893882173476,0.5725512053148872,0.5210329157168798,0.5183029889134041,0.5412372485772785,0.5859102623843837,0.5811085897862577,0.6145014813221086,0.5618596989103964,0.5765833674745607,0.570858591173181,0.5849517101038095,0.578702817478766,0.6227872510537018,0.5673268956681514,0.6223489618217898,0.5314825565792991,0.44946045478544233,0.5852258415742655,0.5403503095464767,0.5390823406773048,0.5020800816845021,0.5929796719700969
0.6044915899573485,0.5119228540411446,0.5912825885904244,0.5580088896142686,0.4603597878046444,0.5926782792082252,0.6096389759212257,0.5722472226607161,0.5818508429042417,0.5771232505821572,0.5577674420367515,0.5451953965759384,0.5718435409734144,0.5730563729365472,0.576612580679667,0.5562464000217354,0.6167452413617461,0.6009172423570761,0.5355507660766693,0.5894715677442439,0.5447575640698772,0.5437703029386255,0.597427452638046,0.5745121965716432,0.6061995131279581,0.5769848101029417,0.5174564041433739,0.5961954973682538,0.5718145221944981,0.5867572685947547,0.5344723439671442,0.5622555026847783
0.5598360261967722,0.6095400771384073,0.5928723017855192,0.5998472226438567,0.5249347770214825,0.6095248214296869,0.6212646870460726,0.5632474243722452,0.4473352418254263,0.519168972557644,0.5273660068924793,0.45127720832827845,0.527513680240395,0.4918690327341329,0.5517264673527497,0.5462202719188416,0.5465438133890829,0.4803544050586507,0.3878247738774775,0.4537588699221124,0.4179466259648654,0.4317968680234756,0.5471143241732593,0.593346245084274,0.582871298320714,0.5467918631367014,0.5716981067712708,0.5897748857773314,0.5553148180168321,0.5670883328370985,0.5242973635288051,0.5050197034141135
0.5749078663796349,0.5980857756675628,0.5634693826259046,0.5912152889468105,0.5492820864807948,0.5786099951871447,0.5826252573414838,0.5264822531822885,0.43503332207209344,0.5203861988524834,0.5461524904926794,0.4522851054999322,0.5523144369164921,0.5660682943589045,0.4733168548026309,0.5031891046557658,0.5296067682822604,0.5096363015481336,0.4899169778274797,0.5386910855788556,0.4881606274541048,0.5305792726306071,0.5884479399599816,0.6121710317809644,0.5910189866136614,0.561040737673144,0.5371035978281523,0.5485616532961065,0.5302994523261843,0.5251385677665424,0.4857658582529533,0.5469581221947658
0.6089137702781102,0.5933625974890265,0.5726188733497448,0.6004162565959533,0.55000650490305,0.6231443294997153,0.5799144919990661,0.5915115493626527,0.5466335433231302,0.5807411743082037,0.6096006073336693,0.5165490040185848,0.5738775152266201,0.5419867471292478,0.5930983775351786,0.6104331728863278,0.5641812993746884,0.5721595867345034,0.5766133663550664,0.5788696981142574,0.5658232752328962,0.5709774319015254,0.6118531189741533,0.5674815764952998,0.611318420336387,0.6153996999010019,0.5704845718220357,0.6018392418075278,0.5702446492636151,0.5658037421846939,0.5093848878711201,0.6028794091373679
0.5873981141859931,0.5510156349044355,0.5863722437003234,0.593219199256866,0.533031606439126,0.5967724344062291,0.5919770522802946,0.5311031878848679,0.5364696675899256,0.5935414914581475,0.6252049866451019,0.5337244722473089,0.5562750524236599,0.49305229667586314,0.5970065179655315,0.6037695088830254,0.5678076291911783,0.5719904576364475,0.5681114496900436,0.5548532063902016,0.573392630326403,0.5793116641155626,0.6321333759078545,0.5289826405140977,0.6169113522007033,0.6146880639470566,0.5717143994247357,0.554179368909472,0.5611873916668596,0.5521902642885276,0.5681503969104155,0.6095175413664916
0.6132016840678841,0.5992838297687306,0.5914154176486857,0.620050209842852,0.4975642574586824,0.577013547453208,0.5888543392785618,0.44738113582398187,0.5349784876839555,0.5539912227273599,0.622553905892924,0.533324397188281,0.5154632026174039,0.528403945577106,0.5728537665786796,0.5683887831501714,0.5597706754259555,0.5271929753259528,0.5110258756421672,0.531528398132393,0.5667819772529048,0.5557589182908995,0.6073702631990073,0.5650374230228461,0.600502008859118,0.6162553381755113,0.6009148553993575,0.5974240366210983,0.6119086966921832,0.5253686117668779,0.47527916773859136,0.6044563484163634
0.61439163596107,0.6201713480077121,0.6077749636642235,0.6214684372117243,0.5568238688270425,0.6126900719971122,0.5994221319806899,0.5907094816529271,0.5545156455855228,0.5908648589850309,0.5871105402638519,0.5578418139885446,0.5373441704495417,0.5277282511779151,0.5461803695336698,0.5516406090386439,0.5458233549439369,0.5342572176318999,0.5295261920702368,0.5601967867704309,0.5645012535702345,0.5714604230912242,0.6084765573341432,0.5736467231194384,0.6035282529581453,0.6168272678958474,0.5848583203757054,0.5546195566018651,0.563748196053179,0.5900344625303656,0.5725664884146903,0.6012954856984125
0.6161113884068573,0.6060680509489564,0.6174880760817326,0.611353528248588,0.5902227081735407,0.6125894736276952,0.6056556227959888,0.5466760233352894,0.42923770306566805,0.6045214417164123,0.5835189384301049,0.5725831150893411,0.5433359408986338,0.5387290284024879,0.5702927896003923,0.5828170827845456,0.5686258795919281,0.4429151902670888,0.46770574720218444,0.564999172544477,0.5475361675297318,0.5675534234035776,0.6151030424784735,0.5458434035595686,0.6166450462918988,0.5712816833223465,0.5874986402562491,0.5911317726346171,0.5784736285730312,0.5635476384211116,0.5796642546103005,0.6118025152309287
0.5441138629779317,0.5520243585703803,0.6045062186143773,0.5797586596586903,0.5653700142614216,0.5801212646522474,0.6157219472083307,0.597570658822925,0.4440094741155127,0.5330658093186234,0.4710565242970965,0.5336852820086206,0.5607538214078382,0.5272739404718041,0.49577086837626655,0.5637863976877464,0.5605495713226899,0.5261288184782438,0.515577860420337,0.5661732913618943,0.5535949300934114,0.5757328289341997,0.6080587217894886,0.5954368166770202,0.6036444855277592,0.6102282352713438,0.5507488860103663,0.5293345600260592,0.5506513583437185,0.5446167812754644,0.5080226684300199,0.594783715446069
0.5720722519502633,0.492960871139951,0.5501846870587235,0.5812692237108776,0.545492550368145,0.5847351313131806,0.6203481200466462,0.5766377911681527,0.58560027081406,0.584883167466911,0.5419413079360388,0.5546430383578943,0.5722683444306401,0.5821195669044558,0.5330067517663127,0.5948838048539382,0.589458188230884,0.6103007545331426,0.5614051580343943,0.6020708594337633,0.5717758811691037,0.5892118425478168,0.615081034695599,0.5898727833567854,0.6138877685170281,0.5580369954426184,0.5486434700050062,0.5969669593680897,0.5298519503960273,0.5585509018112605,0.48151879877665205,0.5372709482091341
0.6171653608934944,0.5605695789559988,0.5819464774597282,0.5833697384552516,0.5462801239101139,0.5927763554031424,0.6045148711303479,0.5968880783039573,0.5281097646531184,0.5962511781010936,0.604606464694831,0.5281475882414682,0.574109882013373,0.6022575560481344,0.5436439210196805,0.5928674311912395,0.5819389218234385,0.5563034873107967,0.5736950917559105,0.5875055603840743,0.6004633849011618,0.5654257048574894,0.5980357768864064,0.5824680874044316,0.5887722842498645,0.5300681430397811,0.5677858924887903,0.6193100813979113,0.5857751042252264,0.6184914094904086,0.47219483928383366,0.5561345331905816
0.622498864636666,0.5929380548368177,0.5809924830597011,0.5571421136675444,0.5729928458104936,0.5894836027401,0.6078786756009897,0.5517016493506695,0.6086716885233409,0.6258093997727414,0.6252322889603841,0.5928480388974835,0.6021298776307364,0.6215671309511364,0.6239896756801362,0.6351022662890546,0.6289020619046201,0.6176553269505294,0.6203886886616226,0.6292401960764379,0.621260533580152,0.6029071744438198,0.5949873599879659,0.5466984198138094,0.5896451317353134,0.5730773258518777,0.5731206904071474,0.6183046959342582,0.6023537594556241,0.6059086476196256,0.536300571907015,0.509669817855611
0.5813971938889443,0.5799109974607427,0.5718592206368174,0.5671993317484113,0.6031242660967515,0.5871266181143044,0.5861140448193034,0.5986183828755913,0.5586012302339048,0.5932914067988465,0.5317814530868956,0.5570908798174685,0.6072369190219373,0.610222795827261,0.6056248960103395,0.610067435787771,0.5728380198661425,0.5326879531393871,0.6119615036145748,0.6316282285630194,0.6182942934226402,0.6041102541495443,0.6033617735900173,0.5671654894835699,0.5795220889450601,0.5909940267666786,0.5425323301409763,0.5922015003323571,0.5840228607459594,0.5920418410504049,0.6017767473999527,0.5849209821862522
0.5386938868651067,0.5053122600447971,0.5868763371871655,0.555765270215281,0.5714050432285585,0.566165559902571,0.5948791349186289,0.5496985676517538,0.47831806080147166,0.5380537951115795,0.5273625751252722,0.5423153887571048,0.5877765457830706,0.5388681710651827,0.5594051215739055,0.5774337351486591,0.5392183884622774,0.493110743340087,0.5460875522430417,0.5943033158605168,0.5939295285560013,0.5665572473547117,0.6186310985567388,0.5981450560473157,0.584375466273696,0.6025644796663406,0.47215737087313936,0.5118646211803901,0.5648736518116203,0.5301666725601097,0.5856669859695527,0.4550429536249935
0.5682057373627136,0.5631840485980407,0.6162939816129754,0.5908340576263126,0.5238305715733619,0.5854891429559586,0.6188188799813963,0.5793027220681659,0.4939624480407636,0.6161055769872612,0.5918977025052066,0.5827458861999235,0.58351308043379,0.5161560556978644,0.5732695557727862,0.5639202759986732,0.5724209113734331,0.5633193176243763,0.5650780122458744,0.5695817575380937,0.5820934131634358,0.6042047631750801,0.6183177079553372,0.568222164424575,0.5930593509922178,0.598660935958835,0.5371658354911018,0.5774325833177045,0.5553194440983586,0.5743471771220497,0.5679104254300487,0.4823392668970565
0.5408005146205077,0.5668959710260306,0.5839734145655703,0.5671479498568648,0.4969548425839281,0.5888181610087597,0.6030117276829613,0.5933580222367727,0.5273911283826463,0.5771130129745888,0.5376172953858681,0.5789331187744103,0.5229061102396048,0.5340164916729485,0.5770711459788377,0.563365462709567,0.5603421225810683,0.5082235657351926,0.5584977601379686,0.571735768967316,0.5917095871184597,0.5896210261183529,0.6146592747489573,0.5866562926468931,0.6265894728309779,0.5959531307512413,0.5782229721939689,0.5649201922195366,0.5738394603298274,0.580209088158148,0.5395734561673915,0.5602438986173983
0.5734906968346152,0.5799778150747175,0.6139001944848933,0.5278243914091273,0.529189182971921,0.5950441339098064,0.6215294438085031,0.612064111770999,0.539309980309846,0.5938713758155141,0.5786981916977287,0.5581371114379116,0.486077374801112,0.5642353057002767,0.5989443331146168,0.6051932514173494,0.6040737028175693,0.5040687567116279,0.4976700792138754,0.5812863608098886,0.5920799434713087,0.5342481995879713,0.6216516660108915,0.605162705440132,0.6288187871068969,0.5759109061443006,0.5745511138453897,0.5511911553144534,0.5443635886712606,0.5660080107966567,0.5175841689706057,0.5307251256147247
0.5632147193210767,0.6029188595958002,0.5882244902225924,0.576013916785955,0.5126473729729584,0.6118631789716765,0.6137599174685903,0.6138565515045864,0.5356043171135565,0.5930764487325241,0.586259389565774,0.5383963995889043,0.474837432586419,0.5061556236670511,0.5810731277349669,0.6005777788763091,0.5572517950010926,0.4958584120881623,0.4417626511777047,0.598119673634728,0.5567425634163621,0.48530330893737095,0.5963100425607931,0.5993440751932969,0.6129489322319364,0.5276969097160987,0.5674229804279638,0.5366341187488297,0.568688328019341,0.5700151466686757,0.5487372244295453,0.3384581196213732
