Fp1,AF3,F7,F3,FC1,FC5,T7,C3,CP1,CP5,P7,P3,Pz,PO3,O1,Oz,O2,PO4,P4,P8,CP6,CP2,C4,T8,FC6,FC2,F4,F8,AF4,Fp2,Fz,Cz
"(0.12035809869400588, 2.9879658126170847)","(0.24776465453337146, 1.6313889979161624)","(0.17732236866337228, 2.1844818448228804)","(0.1956499529190478, 1.8035302427325788)","(0.1717098980386217, 2.2550629954490975)","(0.21146062519123038, 1.8199138099473129)","(0.2705021953649516, 1.5519630060272267)","(0.20636276672766957, 1.7614410337525794)","(0.15717522927727057, 2.4139942307707645)","(0.2711598853809993, 1.4833944972975626)","(0.34722416182903293, 1.2257032234500946)","(0.248759288809491, 1.6235220205044005)","(0.1981063683621462, 1.8394614771350228)","(0.2748098621479762, 1.454641314495589)","(0.3321947767901685, 1.246840632023879)","(0.2944863016919448, 1.3944159782405472)","(0.3059967301211361, 1.3751315256611762)","(0.2515740966157442, 1.5841693683024038)","(0.24072845552418426, 1.6391395539521385)","(0.3038132142110249, 1.471089753850491)","(0.27255281547487475, 1.5429557763283337)","(0.19105524959363132, 1.853529999027224)","(0.1757235838069116, 2.1898916273557343)","(0.3093501494410191, 1.3071446001664526)","(0.16272541429538068, 2.385570244163946)","(0.1401459908475412, 2.578428436515656)","(0.17955889410576978, 2.0240749542087073)","(0.1296659582041559, 2.946591185403345)","(0.2672031187587544, 1.6334401114846606)","(0.17117575735243523, 2.2404199184597076)","(0.11911127765561152, 2.9630478001612164)","(0.13982825961966142, 2.428223941750519)"
"(0.12436403968395056, 3.034479402923921)","(0.2555738990198065, 1.6142341878016004)","(0.17656984752602903, 2.218581121780016)","(0.20423708630958926, 1.7744423566783625)","(0.17548873335173018, 2.215510073233821)","(0.21468413396605637, 1.8591752293365695)","(0.2604531751212132, 1.6101220596327246)","(0.20424584832411924, 1.7961445751494989)","(0.15155620546901377, 2.5193316305422613)","(0.26535418063317584, 1.5288087043213439)","(0.34427363046390463, 1.22496960647539)","(0.24241111801942586, 1.6638187689871502)","(0.18339686904574734, 2.0060098900418044)","(0.2740388483713195, 1.4725691543643837)","(0.34183970581936696, 1.2236959086596417)","(0.30429325366053117, 1.3767650847357877)","(0.30177857415849907, 1.41316771278105)","(0.2456492957712047, 1.640499643870589)","(0.2382615463764793, 1.6818297711865082)","(0.31963947540162574, 1.3984566726975045)","(0.28656125237640007, 1.4827089628193548)","(0.169323916635447, 2.1135402324554193)","(0.17512456765994702, 2.22506571626825)","(0.31090308230795854, 1.3250862569333153)","(0.17560007247742457, 2.2696828447106765)","(0.141893469663834, 2.616995993169253)","(0.18845070686043724, 1.9815783548408719)","(0.13508283652020484, 2.9503498805831603)","(0.28375212490768864, 1.5155790336061208)","(0.17593228134381886, 2.258411747687601)","(0.12003693506768484, 3.0572928110326774)","(0.13550851098746955, 2.5051857739161827)"
"(0.1380747374451014, 2.7430835889790375)","(0.256265901275419, 1.603720013164038)","(0.17777822627911613, 2.293912432544609)","(0.22274794992825317, 1.6201651822645937)","(0.19766675025816963, 1.931478736381262)","(0.2143975928198172, 1.887460448968163)","(0.24652987626016123, 1.6906549781033184)","(0.19746127820848683, 1.8003583981184357)","(0.15234083438601168, 2.522683084614347)","(0.26535702961671226, 1.540173452450698)","(0.3367650674134401, 1.2489620199966567)","(0.23396827659832356, 1.713446246757056)","(0.18487468829775644, 1.9158697952453236)","(0.2689850728101523, 1.4928394164960441)","(0.32883518824097535, 1.2703263659879076)","(0.2968018190046689, 1.4038466146219202)","(0.2908683268027307, 1.4493037484670634)","(0.2457006433903216, 1.5952593035510951)","(0.23610888086797127, 1.6203376988949842)","(0.3205050977599255, 1.3349099419624342)","(0.30255817902910387, 1.360039716654225)","(0.15317467108576963, 2.2484054941161187)","(0.19521213900181683, 1.9436432631879312)","(0.3201962521908115, 1.2797621243682056)","(0.2076074421638724, 1.8891595333940274)","(0.16980868854496348, 2.1409044113147173)","(0.21066065414667332, 1.8254714999530317)","(0.14771230920340384, 2.6317408618075717)","(0.32291258023679575, 1.3339061975482933)","(0.1962195716851493, 2.0392249622483436)","(0.14009210536855382, 2.5559592964248976)","(0.14134788316337552, 2.3001821214855287)"
"(0.1611682789719707, 2.309925836470336)","(0.2615636139188746, 1.5624203485440997)","(0.18712819131120484, 2.090520571960899)","(0.2418375707354571, 1.484899615963738)","(0.18703086594633953, 1.8994838699234222)","(0.2188994672134213, 1.8174728870221688)","(0.2561687175882042, 1.6164043046893353)","(0.2016555832025265, 1.7156608952368106)","(0.14916264140875324, 2.4346193618140397)","(0.2551124208357466, 1.571707178876995)","(0.32239344895929956, 1.2774885793889903)","(0.23149561792522413, 1.6768247938455678)","(0.1784757190063981, 2.003527499510097)","(0.2667136418625331, 1.4696915159757677)","(0.3175541462123753, 1.2940872854198215)","(0.2871178847863141, 1.4385667263329003)","(0.2913709798737251, 1.4603699538724828)","(0.24362367875921653, 1.6462191782397873)","(0.23069224797167387, 1.673570604004559)","(0.3257227250298408, 1.3249391943542523)","(0.303177771348668, 1.360579574747725)","(0.14423182742696145, 2.3857146872474937)","(0.20902481887130828, 1.8169699186919592)","(0.32499113955442804, 1.2606962683809815)","(0.22474222587997492, 1.7519833797435012)","(0.17119116185443922, 2.0211296198848436)","(0.22092742594242495, 1.7199385030637167)","(0.16757334578966662, 2.3137970205672604)","(0.3433383341893997, 1.2615497572934464)","(0.21479841913077116, 1.842365136291259)","(0.14682723909747628, 2.311046959017753)","(0.14123486948724182, 2.239611684427933)"
"(0.18501058577500942, 1.9606254509559173)","(0.26280018526864485, 1.5216153180900132)","(0.18926654071995216, 2.0164215126042206)","(0.26019003103149474, 1.4254353979456504)","(0.18884404568398344, 1.854785536998473)","(0.22473069021471212, 1.7782364650426599)","(0.253831817852764, 1.565473153472517)","(0.1967570851582798, 1.675725509448028)","(0.15253840155745454, 2.324739668657456)","(0.25815709923201957, 1.5000989485646896)","(0.3137694075779847, 1.289862866916194)","(0.23797566980389767, 1.566038702247511)","(0.1773710290115558, 1.9503773389987402)","(0.2577538414248153, 1.4479382727168038)","(0.2986097585455687, 1.3061065734867778)","(0.27312657979161914, 1.4295394377301736)","(0.277926444192178, 1.4628775374541918)","(0.24559686964861455, 1.6051014925444715)","(0.23339082357630195, 1.6743499479484478)","(0.3324721122864796, 1.2972672766796949)","(0.3003891569374427, 1.3655167576367027)","(0.14761174490707446, 2.4054235779302746)","(0.21902220732589475, 1.703105715941896)","(0.33077589283301667, 1.240082775868517)","(0.23590094336779943, 1.6048685699928324)","(0.1803235422806051, 1.8871976059085547)","(0.22750995114283196, 1.6499454804853695)","(0.1895395415045804, 2.025215259764207)","(0.36851841317137013, 1.1809037201241033)","(0.25336691945100587, 1.5746264481159156)","(0.16210139126199063, 2.0682392504535607)","(0.14901708572007258, 2.0983859176221413)"
"(0.1878284721273208, 1.9108251282840683)","(0.2623350329258227, 1.519490020963021)","(0.17757872644061543, 2.047810365886776)","(0.25410643412211065, 1.4571042060047308)","(0.17178744556820874, 1.9592833282875213)","(0.22856324403852588, 1.7646366148809884)","(0.24987987800995332, 1.5585075578734144)","(0.1992391794369319, 1.6279116374793376)","(0.17065270890620327, 2.0485506415085166)","(0.26102619973462904, 1.4773458195725024)","(0.3074168865548191, 1.3325886857935998)","(0.2353380421469902, 1.5771699370889003)","(0.18251566204009922, 1.8506938123021281)","(0.23324385423580668, 1.5940451236255462)","(0.28724506878493217, 1.3602806937173002)","(0.2541271232859969, 1.502857284376437)","(0.2589235297625235, 1.5248761410362524)","(0.22947569799563278, 1.6695246331267868)","(0.22369954165777992, 1.7307391145943969)","(0.3339393473114977, 1.2802788174711457)","(0.3033977844588593, 1.3486558627935719)","(0.15214902383270487, 2.3038191838173505)","(0.2222998028280496, 1.658130303149055)","(0.3304111830850068, 1.2288139245176817)","(0.24227810825456755, 1.5547614058914212)","(0.1831265815316943, 1.7869120676204149)","(0.22933769890040606, 1.6396043573494066)","(0.1995890282260876, 1.8921064807093821)","(0.3637126450203472, 1.2014961762659009)","(0.26816153524363423, 1.536987770117808)","(0.16379135339956555, 1.9968905434577315)","(0.15884552165768107, 1.9068395690225517)"
"(0.1994912455966038, 1.7649273868838373)","(0.2509032352102498, 1.532741782869782)","(0.17416472194399613, 2.0270565668312766)","(0.2518046203484455, 1.479543741185955)","(0.16759973958042015, 2.0343463296152167)","(0.23952189461603945, 1.6982387801994312)","(0.24185394115303369, 1.5617384485787704)","(0.19622901395484477, 1.6340495148506071)","(0.167773017845177, 2.0723864492378574)","(0.250880465526936, 1.5408535876891363)","(0.3073557242143508, 1.3586101362878111)","(0.23062875287211015, 1.6333695050110382)","(0.17977471393953948, 1.8226952233429903)","(0.22694678168121618, 1.6517818187184043)","(0.28720023243857784, 1.365186130480768)","(0.24987659226429632, 1.5039196851754655)","(0.2469693644399434, 1.5523038254594976)","(0.21854889225473054, 1.6319262361482108)","(0.22011209265455398, 1.6475181874058478)","(0.3166772733629048, 1.3187442906239202)","(0.29917180826695555, 1.3153744761216042)","(0.17389221619821926, 1.9219427978580543)","(0.228823114643674, 1.5369371560314078)","(0.32500922573074176, 1.2151833912869545)","(0.24719432996127624, 1.4707235978834572)","(0.19903474865176773, 1.5896920291332504)","(0.24532969914880123, 1.5254180870072864)","(0.2027398328975686, 1.7965876879935088)","(0.3561554965088812, 1.2289741459166166)","(0.2566658985039901, 1.6044958905113411)","(0.1785705634197208, 1.7976678683348561)","(0.177573254659746, 1.7910529253429868)"
"(0.2150939603683778, 1.658331753308665)","(0.2562885923425344, 1.450902522796121)","(0.15892977560443136, 2.212589045996343)","(0.25985028378021, 1.4110293949209893)","(0.18217485831487074, 1.8678755422778517)","(0.2451325287709492, 1.615561572678608)","(0.2192302513407938, 1.6266505221423)","(0.1794432181195049, 1.8416403706035795)","(0.16103185197744108, 2.1543999087412975)","(0.2281031424304197, 1.690392038427379)","(0.2973307517195877, 1.3967368323636373)","(0.22170520578565694, 1.69305599103595)","(0.18629071006715944, 1.7653285036964315)","(0.2158221361155237, 1.7284107820316652)","(0.2651588920591735, 1.4518060095000036)","(0.23930880278161434, 1.5216360529486903)","(0.2512797526036568, 1.4807293044845913)","(0.21359008986156383, 1.6254561244731756)","(0.2101671192251102, 1.667762754133628)","(0.29984654628454505, 1.3972626279102613)","(0.271021355224211, 1.428495744050765)","(0.1692019921682688, 1.8845029588382392)","(0.2144892021957782, 1.5532934782586985)","(0.31921338788452686, 1.2462663933390548)","(0.23328844613039762, 1.5108289970550617)","(0.19670636000236585, 1.633552100804943)","(0.2437301662711148, 1.5382565431693926)","(0.19696797103679334, 1.8043340226464024)","(0.34696338699768203, 1.2652056086395447)","(0.2617970066781552, 1.5792032163489862)","(0.1813457307597499, 1.837857836245834)","(0.17468102178800757, 1.7914202549675222)"
"(0.20053393050278548, 1.7717141534785188)","(0.245755063016831, 1.512027301702821)","(0.10332365042151027, 3.3692131099654596)","(0.2283433246510541, 1.6223107632904494)","(0.17521266887106518, 1.9405360526437518)","(0.1798615166759989, 2.1831726427365177)","(0.15292404808429924, 2.280290536202493)","(0.13457100355158, 2.4913384672701993)","(0.16027765316753825, 2.1801884718609776)","(0.17221218302655034, 2.253355680709499)","(0.25679856823477015, 1.6337988071398535)","(0.19737934844650107, 1.9192859577779637)","(0.189504739822954, 1.770474165584273)","(0.19096895771806033, 1.9617178482865472)","(0.2507597745993737, 1.5299770879112002)","(0.21988701040261913, 1.640315852379683)","(0.23264630593729482, 1.549528171040463)","(0.20417720541337855, 1.657728887042846)","(0.21977480879106986, 1.5633055337726485)","(0.2879082388158089, 1.412941129802591)","(0.25769825514588723, 1.4647082655740995)","(0.1848103156203757, 1.7148042759674054)","(0.2135016315638423, 1.5028892652226626)","(0.3040864481681287, 1.2765977444053043)","(0.2288658323357034, 1.5752529796586907)","(0.19194442992204427, 1.6294963476784767)","(0.23184511388877538, 1.6029418656840055)","(0.18485253161928827, 1.902996745652857)","(0.3435657961074364, 1.2808322259209428)","(0.24226847029067383, 1.7224326142355553)","(0.1784114219768992, 1.8753871432606937)","(0.16219067786530042, 1.8787770224514506)"
"(0.20067221877874022, 1.7572628162674215)","(0.2222029750844046, 1.6560734680969402)","(0.07720062156236716, 4.480004597652355)","(0.1990767285808112, 1.8855640529501307)","(0.17087765064237934, 1.9229096604461786)","(0.1379891596907254, 2.8331274406829623)","(0.12592497508430897, 2.795384377991421)","(0.12167934603382524, 2.7578811468049147)","(0.15000868390839564, 2.288713101520782)","(0.1442009518398877, 2.705489192213286)","(0.22282740998615558, 1.8975694875163571)","(0.1822365380950343, 2.0812582017469783)","(0.18656987677159056, 1.7886927776093264)","(0.17562813812106912, 2.162091803554246)","(0.23970453263944086, 1.6190007437019631)","(0.20072164843157386, 1.8188853662524955)","(0.20599565700075242, 1.7539522302992245)","(0.1876426849952999, 1.824733482634859)","(0.200755200789565, 1.7431791330207733)","(0.2721528959828486, 1.4791733055812304)","(0.24490444303121012, 1.5620583342585166)","(0.17789262610173634, 1.7914337423893467)","(0.21455388101402764, 1.4956822883253205)","(0.31946987926031095, 1.2537715559096327)","(0.229283093092987, 1.5509751352363839)","(0.18524708022337263, 1.7075098888160085)","(0.20918154854954388, 1.761247092725332)","(0.17053461987548943, 2.047845539902696)","(0.32809147155706614, 1.3490941066669204)","(0.20109315006675044, 2.0804937923067492)","(0.17831429132420049, 1.858394597103706)","(0.16185189727357419, 1.8464272831999655)"
"(0.20326289583646684, 1.738649558824362)","(0.22395790536674595, 1.617059659073777)","(0.07357019334686622, 4.643674096399696)","(0.20570244243116906, 1.869201084401733)","(0.17378166756597505, 1.9292078109413444)","(0.13341675623435117, 2.928081399918287)","(0.1276554056058451, 2.859650245230701)","(0.12437779340044837, 2.678812169817172)","(0.1543707633326123, 2.1915059230706655)","(0.13632376105776406, 2.8003313689979445)","(0.20805413403996, 1.9899683687731162)","(0.18352162556620394, 2.0332815239961906)","(0.20004862605404694, 1.6444492376887387)","(0.1749489409588697, 2.1417894722182917)","(0.23886667094690686, 1.6096840693443353)","(0.20513274118045513, 1.7613080107914147)","(0.2095484701760656, 1.7165633864230632)","(0.1937597019655578, 1.7284959338009451)","(0.20391036451676636, 1.6889307562123381)","(0.2670242359251055, 1.4949901212729817)","(0.23551346250549268, 1.6193693689381485)","(0.17430828692102923, 1.7928519327657195)","(0.19108984850696192, 1.6894384094132946)","(0.30964135219132743, 1.2988325635248472)","(0.2118829247979814, 1.6733715793914583)","(0.1659972980839537, 1.9521772536734525)","(0.1818639370432133, 2.029184819646902)","(0.14974580627062722, 2.3018076606178406)","(0.2977577616481388, 1.4891529540422321)","(0.1721821816719663, 2.4125315826140428)","(0.16334793340070405, 1.9898857961092444)","(0.16285199040128207, 1.8889626822846146)"
"(0.20523669057798324, 1.7259712631147697)","(0.2139356770240491, 1.6536181536837842)","(0.07190289623287191, 4.633697823796567)","(0.20746579586415748, 1.9060509257241707)","(0.17050906026486026, 1.9904278056102136)","(0.12258984641334764, 3.1065902672008083)","(0.13170713308076193, 2.885030624215753)","(0.11884443435283196, 2.774742268302502)","(0.15266353266037533, 2.1996523795015843)","(0.13124216581212694, 2.8851382931302236)","(0.20452936229401703, 2.0297548008543593)","(0.18470894013388034, 2.024801548829576)","(0.1991741491846369, 1.6410312715948505)","(0.18118055144899367, 2.0793463417230407)","(0.23928529718394223, 1.6037706080691694)","(0.20819001383112976, 1.726383381321233)","(0.2140400527073853, 1.6847965320795608)","(0.19387040214933993, 1.722283458105892)","(0.2042905331774974, 1.6736174037242912)","(0.26715599957947356, 1.494572993933719)","(0.23707886942158374, 1.6181814748138539)","(0.176840369443185, 1.7665286434519103)","(0.19103180021532296, 1.7119542367377654)","(0.31342678745373415, 1.298472871420143)","(0.2132694796576486, 1.665214767233378)","(0.16476028341367271, 1.9461237682661772)","(0.17796622261310344, 2.0635462621032183)","(0.14878031504802294, 2.236307137375703)","(0.2946935926610182, 1.524121565442992)","(0.15398139900413274, 2.619173324534428)","(0.1634748273253313, 1.9604290146880246)","(0.1620071583220765, 1.9022658349816104)"
"(0.20018690412167411, 1.7807263318919888)","(0.20248976825367804, 1.7756598645653667)","(0.05979427798627266, 5.340386244667889)","(0.19232753941365083, 2.034686600185017)","(0.16972985983793926, 2.001829514838008)","(0.10161747819853613, 3.661427365118677)","(0.11551482518653869, 3.2327564172418173)","(0.10483521001562543, 3.1956148354048803)","(0.14756488552426206, 2.3111858060962978)","(0.11613926346753793, 3.181980557899572)","(0.18423035722332082, 2.2400982215524405)","(0.16209459571432797, 2.2983052880285824)","(0.186259035592883, 1.7957447080248663)","(0.17560437730825473, 2.142242531409403)","(0.23218050894257938, 1.6840697025052334)","(0.20112864846356973, 1.818455258962911)","(0.2050047977332949, 1.7665147279581477)","(0.18295298681840474, 1.8565892816971756)","(0.19231414738895225, 1.8421937072094487)","(0.2586696473347842, 1.5688420304511137)","(0.2344651889412288, 1.6753516420102834)","(0.18109847763025613, 1.7916560805651387)","(0.18987736935724145, 1.7393854703839107)","(0.3183095207087789, 1.2985353964771578)","(0.19302201662432683, 1.9046982851898464)","(0.15270866822541823, 2.1143373942694983)","(0.14630068182128936, 2.532497244926842)","(0.12259942374789527, 2.716139030780126)","(0.2577595376072287, 1.7381744995771813)","(0.12164520989708097, 3.4106603229033943)","(0.1440861120452434, 2.2310717380338536)","(0.15328052634076086, 2.0542685442268374)"
"(0.19930532360576783, 1.801442577554506)","(0.17609723563196564, 1.995787426505952)","(0.04911823884109666, 6.604673009614835)","(0.1777671607012105, 2.228535097028733)","(0.17734715374485593, 2.045231396990155)","(0.08359905548617048, 4.5233793465160685)","(0.09932455501106695, 3.7230432049813036)","(0.09030684982450099, 3.876982703521312)","(0.14593490328875997, 2.4525910720976505)","(0.10104920075245793, 3.6640145308950034)","(0.1680093711962222, 2.4204931091667587)","(0.1439610186377971, 2.55942823101135)","(0.1922012845248586, 1.7657457510214174)","(0.16993053759991708, 2.221258411077429)","(0.2335815880804769, 1.6941578986191055)","(0.20437600209082177, 1.8327617006271681)","(0.20867514391335015, 1.777867832829353)","(0.19111419747891628, 1.8357760383339181)","(0.20335272717434283, 1.7946530704091697)","(0.26514701360544485, 1.4956521180631264)","(0.2508074220316642, 1.5742993155103815)","(0.19754887366739568, 1.7263801203319629)","(0.18194039518275953, 1.8578037205399436)","(0.30229455152620566, 1.3714904012388316)","(0.16843720484611038, 2.206713416335715)","(0.12752606238282324, 2.626133069791889)","(0.11594202017101607, 3.204373427466124)","(0.10070004129782807, 3.284144970259944)","(0.22116519710130036, 2.0369840121291105)","(0.10476554008917968, 4.03880891460539)","(0.11768785118094145, 2.8086797772445253)","(0.13972547340470254, 2.3528838499271703)"
"(0.1935922289620649, 1.834149260077046)","(0.16453705759580112, 2.1532572844281193)","(0.04443025746942774, 7.294500461672317)","(0.1794808150087755, 2.1468684363247714)","(0.18618648461204915, 1.9266775921643673)","(0.07763801832497963, 4.8471737115427596)","(0.09332227319607526, 4.025995280705849)","(0.08307889339141591, 4.2700150175160365)","(0.14355962538137795, 2.527041494684792)","(0.09175331629282024, 4.067001385237297)","(0.15503846827269754, 2.648492962676468)","(0.1311274403141982, 2.859351528048187)","(0.19705624155518545, 1.7507514631808714)","(0.1681525465687224, 2.3031309700229063)","(0.23953006612585437, 1.6833683216406707)","(0.20874304006537256, 1.8582855137541563)","(0.2064434341867695, 1.8656469094191845)","(0.18795687658144153, 1.9079166440100657)","(0.19464794007690878, 1.8422012555701142)","(0.24330277221072127, 1.5768043170939687)","(0.23420087446851942, 1.6350497315418904)","(0.19277028349289127, 1.751638440082587)","(0.16347281455427284, 2.0087952713487005)","(0.2838746828350753, 1.4566556416294578)","(0.163526107061042, 2.2937483578605558)","(0.1197323968263843, 2.7923190863555827)","(0.11190374700532388, 3.314717171041821)","(0.09437449793350741, 3.463155774870615)","(0.18875138046586531, 2.379894768023553)","(0.1026190410725523, 4.106280509481122)","(0.1104910076158429, 2.9660041431098194)","(0.1333315202202313, 2.4284200656543797)"
"(0.19542109521488465, 1.795856081312652)","(0.1645073099550449, 2.107751663513415)","(0.04284658085823987, 7.451513108604774)","(0.18750327954634402, 2.130373638509202)","(0.19038052743068712, 1.8819596376302978)","(0.07708465846339835, 4.727788852497006)","(0.0936836221256311, 4.128946366856923)","(0.07945044520124718, 4.460984787661083)","(0.13579514109783505, 2.706757661658083)","(0.09040641395184955, 4.248785007821873)","(0.159518486355142, 2.600593232101989)","(0.12664075055478213, 3.061247192733314)","(0.19020530657422866, 1.9121629665306192)","(0.1737147298057706, 2.329523311337574)","(0.2513633868273011, 1.6530994310162765)","(0.22204736082267953, 1.7965359945634058)","(0.20597889835019884, 1.8747757866781185)","(0.187467029693685, 1.9432192552889855)","(0.19576822591994453, 1.8355747903630066)","(0.22807296973764707, 1.6319199337195627)","(0.22879247023466814, 1.636824109043974)","(0.2008327220715411, 1.755895371084625)","(0.16028977631097532, 2.0222563262749143)","(0.2716200646930573, 1.5008838146150774)","(0.1592366398953689, 2.3733631649368667)","(0.11414922275031718, 2.9139179351539077)","(0.10609057824727389, 3.476457297208906)","(0.09044664341233893, 3.53533848681433)","(0.18913671919367026, 2.316175812803826)","(0.0973890234685136, 4.270074562870211)","(0.10936862054733207, 2.984672727409299)","(0.13266705503548704, 2.4669162987489464)"
"(0.2031152907586775, 1.7368270082061432)","(0.16933173423473935, 2.1369020319774945)","(0.041748773674155325, 7.731611880025608)","(0.18370462048866498, 2.1826103940486536)","(0.21690510884120753, 1.64017047323625)","(0.0726947588664881, 4.84746450186198)","(0.09447400230224604, 4.200777581963955)","(0.08160381239782066, 4.3692411148951775)","(0.13358424910352348, 2.737249632088471)","(0.09053279697022287, 4.26372629752537)","(0.15582456686616797, 2.6242286939142536)","(0.1228622625690614, 3.1353913583880106)","(0.19168766413972724, 1.8642302143235423)","(0.17281731700167285, 2.332517375875987)","(0.24996720295976452, 1.6527761952224571)","(0.222806364784717, 1.7885580320056365)","(0.20603390768833807, 1.8601558950101365)","(0.18598954123070074, 1.963397348131352)","(0.1932955779213849, 1.864739164556476)","(0.22174937379021198, 1.6776731758079448)","(0.22179732558868734, 1.6981011078836092)","(0.19238054561603604, 1.7906391747008576)","(0.15465875499626724, 2.138246873936377)","(0.26157388343484894, 1.5566459424752852)","(0.15901496898613937, 2.4571133961906035)","(0.11009401725869829, 3.080397324880353)","(0.10657288391818479, 3.5004155983439267)","(0.08828188620069964, 3.6299016665608104)","(0.18912609287355087, 2.2899305129231036)","(0.09727435226175302, 4.268415910608803)","(0.10841958671055787, 3.053654855195096)","(0.13074526396692165, 2.3914894901289663)"
"(0.18781547644289082, 1.778037023074346)","(0.16016794806204915, 2.3058286292339694)","(0.0386230217593196, 8.3692455392585)","(0.17407508308309833, 2.345196201362503)","(0.2108271234015535, 1.626452021807208)","(0.06462372504576147, 5.554154966660411)","(0.09907534739885478, 4.067945350756827)","(0.0880539679705134, 3.8041249264119994)","(0.1433656743263455, 2.472697756823645)","(0.10088145109193997, 3.830352386802097)","(0.16400284481674454, 2.494135978984058)","(0.12866484959350974, 2.969327847281248)","(0.18264329786993136, 1.973754499221764)","(0.17240348335326555, 2.3255929249868896)","(0.2530692253537783, 1.6096830391128998)","(0.22307380315438832, 1.7679693945362622)","(0.19872144912131462, 1.926266156240044)","(0.1785864916592678, 2.0301206491005934)","(0.18194530711729723, 1.9671895563230903)","(0.2183913951541485, 1.7060291564460217)","(0.20814005093629975, 1.7689174947861042)","(0.17463590271551016, 1.96949735842844)","(0.14951694099351126, 2.1293746276633683)","(0.2484520377540827, 1.6079964253962962)","(0.16261955426943933, 2.282612842937694)","(0.11877965041007633, 2.739874020479465)","(0.1119211412745703, 3.2716312758261603)","(0.09080590266221795, 3.243684880509242)","(0.19214215093339285, 2.2131160870853046)","(0.09870097832446406, 4.086295776493867)","(0.11399639754944804, 2.7508114841781235)","(0.13916406568373296, 2.137583397694182)"
"(0.1896049973975803, 1.7512176157463097)","(0.17176818362444599, 2.2292482891293175)","(0.04379542361648601, 7.8026676194607925)","(0.19421886375751568, 2.1229439795926917)","(0.20726770233455885, 1.672901238622132)","(0.07883503353592024, 4.87237461389555)","(0.11118274328402683, 3.66947883470499)","(0.10045024358376471, 3.3156741387855484)","(0.1559419379769603, 2.1733233596510693)","(0.11789899144946828, 3.227034161607363)","(0.1775806277263879, 2.206841570278513)","(0.14252505653157022, 2.538269647877346)","(0.1880471381783386, 1.8098482333582744)","(0.17988457616445444, 2.141933874871589)","(0.2521420497573699, 1.5754924083514255)","(0.226747088600519, 1.722147760517791)","(0.2037459836836558, 1.9364380233313623)","(0.18463223519173844, 1.973922687445765)","(0.18187700660406306, 1.8741991970229306)","(0.21948086415384824, 1.6609692263660947)","(0.2085074719249453, 1.730970751195346)","(0.17357774264761916, 1.9461810606750667)","(0.14817992021904489, 2.1765742444301686)","(0.24900511857050256, 1.627636694604223)","(0.16329625334380812, 2.2332260972878393)","(0.12172307708173451, 2.6854703690326915)","(0.1165112049931431, 3.0569651297786486)","(0.092633179007425, 3.1043501163443836)","(0.19094707564089872, 2.1385000967889862)","(0.10628425176960621, 3.7553685721087726)","(0.11448264651582911, 2.723432079551918)","(0.14895276289375262, 2.0340188450767887)"
"(0.1831411916693281, 1.7755810672079393)","(0.21574016970913848, 1.8126352886576007)","(0.060096817440944895, 5.855916460824638)","(0.23466748579758567, 1.74521029153837)","(0.2064790788574293, 1.6799177496024629)","(0.10613201174998473, 3.7385062906421243)","(0.1395967184124057, 2.924468155983059)","(0.1292526846649499, 2.5992043622973906)","(0.18247104690206398, 1.855308371169152)","(0.14686718811141947, 2.5597490153476032)","(0.21247608670732654, 1.8185035676188865)","(0.16358753546035842, 2.180587608441152)","(0.19514225771509866, 1.7229934506697684)","(0.20362883986060037, 1.872455830313666)","(0.2722687315853879, 1.4459161580245952)","(0.251690334517217, 1.5398139833614461)","(0.23299931610376645, 1.6796985000397149)","(0.20743408839186406, 1.7443535887844013)","(0.18885855263210816, 1.7844597736533596)","(0.22174925569008536, 1.627196279730636)","(0.20215068869136477, 1.7206293087498157)","(0.17093584218179014, 1.9640283894428603)","(0.1482912700926506, 2.142884741532281)","(0.2238688066506503, 1.6848446475347265)","(0.16738021497559627, 2.1492555997827325)","(0.12991753429514843, 2.5072364962271303)","(0.12559284330042347, 2.868427543987301)","(0.10313296263060458, 2.8170914809993546)","(0.20039613568533976, 1.9339055522965494)","(0.12410933864140312, 3.180230243669154)","(0.1217698007339976, 2.549694600613802)","(0.15753233254603244, 1.9450396180667833)"
"(0.18984795917788538, 1.7356295625621605)","(0.2361101405357032, 1.6277670630889813)","(0.10063068892155212, 3.5226984827632393)","(0.2615711438502272, 1.5399936905626281)","(0.19696187306303023, 1.7495149686293503)","(0.1637365936474418, 2.431172811078763)","(0.18677339232131004, 2.1273683368001355)","(0.1628754939531283, 2.0583819854786887)","(0.18354251502681054, 1.872398321572382)","(0.18688466775106571, 2.0075602272874433)","(0.24904476764741362, 1.5777015759107982)","(0.1703849700228339, 2.125785762145366)","(0.1815715763205981, 1.9029242004512374)","(0.21979477827833535, 1.7521708742047062)","(0.29175559294504927, 1.3673958605147227)","(0.2628750413673617, 1.499985366613237)","(0.2421735882812865, 1.6304113131532962)","(0.1961083162134836, 1.876672206975888)","(0.1739122369093793, 1.9339547326597788)","(0.21104670470836542, 1.686518744548876)","(0.19434168968817603, 1.7540667541938217)","(0.16565948613957307, 2.0877635200315487)","(0.1679111731671308, 1.897940160220023)","(0.22266973731463216, 1.6965479945220048)","(0.19264647892633918, 1.8789498187320424)","(0.17143137751999551, 1.8802580572490073)","(0.16797957514001846, 2.1082045517395667)","(0.13833903694018015, 2.0997990257264223)","(0.2595252458060797, 1.5343047089168984)","(0.18764042369038908, 2.1194343953599946)","(0.14886693776670681, 2.0969232138526737)","(0.1758066984756944, 1.7597617339840108)"
"(0.206478472031843, 1.6794794852474033)","(0.2419322012321997, 1.5776836114606911)","(0.12193038521143518, 2.9098979314849984)","(0.2647736165991331, 1.500864468582934)","(0.2036507561812366, 1.6972855698254725)","(0.17899796198399223, 2.230121841501218)","(0.19117975851150415, 2.066823962232728)","(0.16628489901252172, 2.0269546561163776)","(0.18049370339836077, 1.9276247143896033)","(0.1955698660366916, 1.9360774514081156)","(0.25190115108441263, 1.5674946786190724)","(0.17874772210116435, 2.0548610934463456)","(0.1753852553420234, 1.9685916348585732)","(0.23167388599075903, 1.683738177101842)","(0.3062374308266827, 1.3255046020966323)","(0.2724410793217567, 1.4759072837860538)","(0.2493238029390768, 1.5832578916388047)","(0.19271502197797297, 1.8736344927196746)","(0.17112411711328676, 1.9526119644734246)","(0.21028039911212115, 1.6955910204970355)","(0.19891588586557735, 1.7214980723044773)","(0.1557008901068132, 2.20627148945722)","(0.18704869511602304, 1.7096894869619366)","(0.22829763146571336, 1.673692485582943)","(0.20703595913354567, 1.7659726247007645)","(0.19244255064611948, 1.7192398002477036)","(0.19547835190760263, 1.8369107091301347)","(0.16261790242643187, 1.8978565138509398)","(0.283401808215871, 1.4190611104185722)","(0.21477392306165047, 1.8705672213481945)","(0.16465155939397874, 1.9928736845944899)","(0.17798490888592805, 1.759855366962501)"
"(0.2081407675384658, 1.6846774856060882)","(0.23757125624141556, 1.5881417412607546)","(0.11915309790841279, 2.9997785016703427)","(0.262474624730531, 1.518751116702208)","(0.2053267196890188, 1.7023665118359066)","(0.18356328928512422, 2.1994976495191034)","(0.1929790267211584, 2.0500075862674776)","(0.17042324190401847, 1.9906537320013526)","(0.1851077570838256, 1.8686647104187213)","(0.19639574510740015, 1.950091990536069)","(0.261519067389506, 1.5260428550090173)","(0.18856140870048155, 2.005394325205362)","(0.17981791608129513, 1.911595611600432)","(0.24418838948073, 1.6625529624982187)","(0.3175019769918011, 1.298071398178815)","(0.29179870008907316, 1.4010161493073028)","(0.2563400026632529, 1.5489261315774154)","(0.19690943952710474, 1.8274055401359115)","(0.1765031086415249, 1.881300533007755)","(0.21885928278992856, 1.6607914984226926)","(0.20372827583243308, 1.7066888969719656)","(0.1584955606683652, 2.1346879396026033)","(0.19242361525918739, 1.6721971367112234)","(0.232264889839859, 1.6823767257684945)","(0.20611619943961088, 1.7650981751485066)","(0.18971480504712082, 1.7624734792050172)","(0.19257580414119052, 1.8764008692306846)","(0.16075354505766745, 1.9339964815143167)","(0.2749368048773932, 1.452907291086343)","(0.21711078117159024, 1.8386804747034078)","(0.15617800750978839, 2.1140774096613133)","(0.1772363200202552, 1.7519485451413432)"
"(0.19310361347754132, 1.8114135022818332)","(0.2424630236722426, 1.5593435422816224)","(0.10896489666543945, 3.2423216428741397)","(0.26197010402076004, 1.4988622344931364)","(0.20743156651327668, 1.6214330172538909)","(0.1880230798971199, 2.1524622248727416)","(0.19592511266907617, 2.023436738726817)","(0.18072409160868214, 1.8310633921246817)","(0.19268111163576893, 1.7921887715464242)","(0.19641896267038655, 1.9476736665347985)","(0.25293737630062674, 1.5968397490853863)","(0.18332766920349572, 2.0883043844247267)","(0.16818333042605932, 1.9678012658478001)","(0.2389389833493467, 1.7227080168599698)","(0.3018267650251139, 1.3738635949867801)","(0.27848421292519393, 1.4715886832485279)","(0.24100614903651468, 1.6303433727699042)","(0.18177973531400712, 1.8764515993341049)","(0.16693243960069923, 1.8563003004037466)","(0.20343124846355765, 1.755132100397858)","(0.17505842743184394, 1.8806777852868846)","(0.16142753700954451, 1.9661994149952662)","(0.16369742635321274, 1.8781205026566261)","(0.23425646026761204, 1.7057032951331121)","(0.18647886685864828, 1.9263513290200587)","(0.16190078533718394, 2.0229930887600753)","(0.16628873461333019, 2.1622299416957853)","(0.13536426103762442, 2.27252918790761)","(0.2404803701380589, 1.6260154275700807)","(0.14788211692849798, 2.6205877972812837)","(0.16166533467947236, 2.0089296903975824)","(0.17992622019054433, 1.647032136884404)"
"(0.16844533990194377, 2.0606920075249917)","(0.24064471541253668, 1.5714191259784522)","(0.09240115635495132, 3.7232084078530043)","(0.23734560893396467, 1.6491760791980783)","(0.20033550582365398, 1.695407430480548)","(0.16023373617720305, 2.5064038228533345)","(0.1822340094998758, 2.1774155328518376)","(0.18317765685674148, 1.8168979914449355)","(0.1958997665826572, 1.7828611191382693)","(0.18011780243480963, 2.123208407457364)","(0.24084923386360718, 1.6721893041278184)","(0.1882869305070674, 2.0294563307402402)","(0.1616126077519327, 2.026014289101488)","(0.24042076071814839, 1.6919530440203414)","(0.2903745235977141, 1.4245190114906658)","(0.27164160496312284, 1.4960322756100013)","(0.2318649526590681, 1.662889048928669)","(0.1781801542022077, 1.8549529998884549)","(0.17025024208330627, 1.8032090352850338)","(0.21865248887264857, 1.6906813163844394)","(0.17549186876372916, 1.878120096479482)","(0.15788300082914267, 1.960014265958791)","(0.14506454974358451, 2.084828635658154)","(0.2427734798043565, 1.624207734500999)","(0.15674462955611035, 2.2365257558099274)","(0.13212475933950588, 2.453509036982349)","(0.12862096745797258, 2.8061878473105595)","(0.10348788697141106, 3.0071703930634373)","(0.197485536838164, 1.9670813569285075)","(0.1068893498517952, 3.6147901572442414)","(0.14737110924674454, 2.1729112871539207)","(0.17177032216604995, 1.7840095618528193)"
"(0.15522148600051433, 2.256181067211499)","(0.23544497434705752, 1.6449879930417963)","(0.08153696413357044, 4.301352113669723)","(0.22183967136336247, 1.7013339543010202)","(0.20329314163230575, 1.6529049395638777)","(0.14474297987478707, 2.819965381603425)","(0.16962857776796103, 2.3238771088443877)","(0.17501225044485308, 1.9290100768242007)","(0.20795720585896693, 1.6591772596617262)","(0.16839803608798287, 2.239640332441237)","(0.23446077752706856, 1.6889842794354728)","(0.21428047546458137, 1.7545897076316186)","(0.17025689955801793, 1.7816350564990922)","(0.25446560506931504, 1.56015717118368)","(0.2925501098107884, 1.4016772250313714)","(0.27083253971731946, 1.4838336125652767)","(0.23177703166123415, 1.6350292857795858)","(0.17679625223701886, 1.741784399087776)","(0.16782364875946165, 1.7151916072655042)","(0.22895861030620598, 1.6221749175582418)","(0.1740534598454814, 1.8725910655983249)","(0.14517547166960862, 1.9677673724196938)","(0.1344485948221529, 2.1905994219827485)","(0.24696864242401015, 1.6173635177614933)","(0.1403787390842119, 2.4614201630267765)","(0.12403408344491414, 2.7040819561287983)","(0.11696657132832146, 3.081736929799008)","(0.08880338313353685, 3.532584715235378)","(0.17318273193429173, 2.2655410037521992)","(0.0947508455269453, 4.081501523783117)","(0.1307520702007262, 2.3809546665731673)","(0.16891696613413856, 1.8661845071991363)"
"(0.15051009498992424, 2.354126179759633)","(0.21483502691922712, 1.8139942877372497)","(0.07387299003461549, 4.758942418791593)","(0.21564008421779296, 1.7534695301091292)","(0.20235487346992037, 1.6483023295276105)","(0.13152894133371745, 3.1367915022422443)","(0.16252954522418983, 2.3974505509377897)","(0.1591687519731733, 2.0871661343137164)","(0.2197776160415374, 1.575880747859329)","(0.16475437626463868, 2.2635323929368623)","(0.24894829350324024, 1.5971988784783722)","(0.22184825478601106, 1.680639394455077)","(0.17073902702918659, 1.828917951715207)","(0.2615691147274851, 1.4902091881434978)","(0.29672663261856536, 1.3698044174770703)","(0.2795784760130978, 1.4376093187576628)","(0.24599791464643933, 1.5805608830974787)","(0.18317528932705177, 1.780717165015199)","(0.16968118849099, 1.7360187369937075)","(0.2297325132157542, 1.6280286100301251)","(0.17991791916802982, 1.877373937101173)","(0.13671444016720594, 2.172601579405815)","(0.13492935438639567, 2.2214937172768847)","(0.25919645822505527, 1.57153755637536)","(0.13379830616052785, 2.527399948523734)","(0.12493117438540426, 2.759762315695321)","(0.11278084533649675, 3.1431820674056192)","(0.08638608765527156, 3.707371926037384)","(0.17146690816453578, 2.3061157759398414)","(0.09266227918963846, 4.122192133081202)","(0.1177816408793066, 2.64974675888015)","(0.1740248296179501, 1.8618281033339883)"
"(0.15784376188863275, 2.310793188290272)","(0.21930410343545545, 1.799356298575465)","(0.0738510740771125, 4.750152283988619)","(0.2270248390806286, 1.6443583491258893)","(0.20236851451960447, 1.6858034749549098)","(0.13092734942706175, 3.086456990218233)","(0.14997536157469304, 2.5553189145719912)","(0.1420194918555564, 2.4621716169753776)","(0.22211265452609646, 1.5835870555793063)","(0.14774999360299335, 2.492655929895139)","(0.23458305869740959, 1.677937012971738)","(0.22514475123233185, 1.640679080959681)","(0.1719962761136997, 1.7240221701446712)","(0.26824308244457234, 1.4498276682845082)","(0.2992617917828315, 1.3701683915174958)","(0.2790071040455368, 1.4451439093894605)","(0.24450953239729145, 1.5710827365030409)","(0.1830312286785829, 1.7149842758030829)","(0.1746864059582328, 1.6243887459721393)","(0.2301445322652578, 1.6112341785148496)","(0.1904005247820281, 1.7854337940790252)","(0.1382505196945688, 2.057416461547462)","(0.14043243702223734, 2.1525613987750867)","(0.27176854391485805, 1.5315309023547967)","(0.13559062825499338, 2.626583591062249)","(0.12077728503988348, 2.9729587368297996)","(0.11465526707968009, 3.18534825151107)","(0.08568337662214916, 3.961419749890115)","(0.16537649407109367, 2.3823133209496983)","(0.09245379180164563, 4.161212087614987)","(0.10709155626019598, 3.026641739616814)","(0.17532831480925262, 1.9554500552081173)"
"(0.1539807472592208, 2.3575643025191066)","(0.19157822537610572, 2.0066142961889613)","(0.07069376586432455, 4.827430406042346)","(0.2095153442012584, 1.7340972947673006)","(0.1740864099623468, 1.9381480715091948)","(0.11588771254372926, 3.411619471510248)","(0.14078762182413418, 2.6018537425676804)","(0.13743186039488062, 2.4727011227320013)","(0.22425273326610437, 1.5616841943439324)","(0.13721998785598488, 2.6009812384669524)","(0.22677548450397306, 1.7696881271226854)","(0.222563123447865, 1.6679947715270893)","(0.155864453301881, 1.9484878230234386)","(0.2846484784328285, 1.4010850871984784)","(0.31333509830440565, 1.3421937883637047)","(0.29072306442348045, 1.4169759330856677)","(0.24354406314959015, 1.5638685117044533)","(0.1742579175005068, 1.7761297649476175)","(0.16211567033761873, 1.729966577423352)","(0.22139611512248444, 1.7026703360779636)","(0.18521826238926284, 1.8218939100237035)","(0.1332441121015591, 2.098521571334953)","(0.14296713944809228, 2.0102388459370273)","(0.26965056911683233, 1.5467530157333367)","(0.13650555429225758, 2.597007252406738)","(0.12511239522942738, 2.7782190306491685)","(0.11453947342243993, 3.2844785306870468)","(0.08845501293822355, 3.8730754638010088)","(0.16039334353986012, 2.4557760737555903)","(0.09208411547932632, 4.16403405366058)","(0.11096740497971441, 2.8730526881314113)","(0.16621677728014872, 2.003113362413541)"
"(0.16131970101673793, 2.3078240457715458)","(0.18157438497910597, 2.000637010844745)","(0.06901507163629864, 4.848702044375056)","(0.21081710782138155, 1.7663079320774289)","(0.17148437691696636, 1.9346178854937297)","(0.11806551260273576, 3.275573502881772)","(0.1385342211049229, 2.656425536961835)","(0.1331383126888466, 2.511755218513742)","(0.20153487150604307, 1.7135528288548647)","(0.13786415484950698, 2.6263656009078367)","(0.22663791946780643, 1.7691525787486482)","(0.20676067485143573, 1.79211932938202)","(0.15628068723353433, 1.9411647477085336)","(0.2726262073787694, 1.4626682317474082)","(0.3066944850389768, 1.3762667946559979)","(0.27934070032741976, 1.480102631760946)","(0.2505245845385182, 1.5234013716070425)","(0.18160085811092486, 1.7156833860431495)","(0.16757473118273358, 1.7082021251294415)","(0.24280084940093255, 1.5652450906363466)","(0.19847099862476922, 1.7324760062367561)","(0.13901259397716306, 2.0595831603978376)","(0.15425340584383782, 1.926444068396453)","(0.283660559486956, 1.4791605484914976)","(0.14448950086663284, 2.4756635953247255)","(0.13074432749564588, 2.7086463709774677)","(0.13028795141925592, 2.9367950189524157)","(0.09315153740167362, 3.6610450079182604)","(0.16799861985171705, 2.4102960738193104)","(0.09012499958395274, 4.153771190616443)","(0.11654118285026462, 2.7707376859008384)","(0.17101238381427863, 1.984115400363472)"
"(0.16884248566021534, 2.2674243445961175)","(0.18868092945403325, 1.9995268851458243)","(0.07381041193410234, 4.485931713507916)","(0.22607760259821477, 1.694328201993422)","(0.18816732063123112, 1.795339837375215)","(0.12758079222211952, 3.034861691276627)","(0.1408931874936851, 2.6491938990385635)","(0.13988259516982526, 2.3501725076287503)","(0.1931252984886717, 1.7532905635178089)","(0.1400567882488843, 2.6122330373580547)","(0.22777217675992278, 1.7562873774974697)","(0.19555572054394726, 1.8547537210067213)","(0.15608571066798455, 1.8676770310488515)","(0.2559205211983409, 1.5335166325366512)","(0.2861460403355702, 1.4469805018188109)","(0.2579195862091196, 1.557364866326592)","(0.23877075480477875, 1.5707778655117088)","(0.1809823006994351, 1.727495452458328)","(0.17112240177650345, 1.7312723098033418)","(0.2671400970364649, 1.5218024342169845)","(0.21195344049358816, 1.677718046109712)","(0.14353001235537294, 2.0141958952318295)","(0.1590414071814745, 1.8677131964129552)","(0.289089188101541, 1.4716679943736004)","(0.14821795403181656, 2.425403442116651)","(0.1373557873010369, 2.538581459983296)","(0.13564761283257828, 2.8750343497453605)","(0.09687527503438026, 3.708899091810479)","(0.16999658374852927, 2.341143018109563)","(0.09427708254762818, 3.9632831309748826)","(0.12040410817889538, 2.7216114834689518)","(0.1720575277534442, 1.883077036092975)"
"(0.16485358952136478, 2.1820912597008073)","(0.20181834729087358, 1.842284875341276)","(0.09866853391700305, 3.3062959088314363)","(0.24965508912324147, 1.496159737152027)","(0.19012131677883198, 1.7787017774586436)","(0.1684341190081021, 2.28924032602542)","(0.15815921947395192, 2.2715596603278674)","(0.1622870831060991, 2.0037126164599433)","(0.18484988485254764, 1.8116246922091175)","(0.1619010751167098, 2.1198311947765087)","(0.2449251809731966, 1.5916604001650523)","(0.18708228767936447, 1.8258515822182657)","(0.15535995696593943, 1.9205196471830241)","(0.2290334700719706, 1.6521993171139069)","(0.27530412078807226, 1.4585482672468573)","(0.2431651457257388, 1.6064561074327268)","(0.23443496382454926, 1.631799790644817)","(0.18363218895775102, 1.7580154911148886)","(0.17561603888730198, 1.7165430077866337)","(0.2675718214484619, 1.521391329561391)","(0.20934904966828172, 1.6819592570550106)","(0.15892464084125138, 1.8421052677474214)","(0.16635812499172728, 1.7660979617989156)","(0.29673979624080243, 1.4163759887205154)","(0.15641333814283248, 2.2103075517488913)","(0.1442280048573459, 2.4167396703848376)","(0.14129183422384536, 2.720636339030427)","(0.11039095780799173, 3.0779920343806206)","(0.17611880169587077, 2.2287037299845096)","(0.10748594741255922, 3.4575285134575626)","(0.11783896381939438, 2.640612723512894)","(0.18592608112839895, 1.7269329700312217)"
"(0.17813293750398132, 1.9788597351632773)","(0.1937203412421483, 1.8956632307319699)","(0.11788903498713722, 2.7792100906659636)","(0.24243602831356675, 1.545905179182737)","(0.16920607648539748, 1.936745620579559)","(0.1942948823868028, 1.9769906346188846)","(0.1630732408164025, 2.246524178332756)","(0.16623438766423376, 1.9857371356724742)","(0.1736130713728072, 1.9078108850426556)","(0.1758752729587251, 1.9075851120060623)","(0.24859586008279247, 1.5294095250367683)","(0.17713035954567197, 1.8143449884117233)","(0.14365385322062685, 2.007220295223929)","(0.20193852494522035, 1.7296901240651508)","(0.2561452138444602, 1.5113225607246739)","(0.21328978872604493, 1.7362935064940936)","(0.21600249365837432, 1.7254326473484136)","(0.1778990309573036, 1.7788818018504617)","(0.18151256469544777, 1.6215686099648554)","(0.2728528991803755, 1.4503225632455103)","(0.22244695309108709, 1.5405900056575643)","(0.1712002785853063, 1.6371127857110026)","(0.19207629556107228, 1.5205834258755722)","(0.31802150669122664, 1.2964658582634188)","(0.1830194594361977, 1.831141849148754)","(0.1726059198585113, 1.9738148510834186)","(0.17299274753131305, 2.220562403736032)","(0.13469600667865925, 2.478911966079772)","(0.21137920559735351, 1.8773914422863718)","(0.12925072290450174, 2.8332915057063968)","(0.14472989347354137, 2.0960976829513784)","(0.18891143780913222, 1.6749576772157084)"
"(0.1730931824612669, 2.012823584791717)","(0.19127207148043235, 1.9006946156388)","(0.1226878144007409, 2.7168229115833795)","(0.2360027604803101, 1.5999741287916502)","(0.16021068359361562, 2.031479193357672)","(0.21252532389248935, 1.7851911544214027)","(0.16439147380560984, 2.233846627673755)","(0.1677295670458636, 1.9899543881510946)","(0.1695462939711941, 1.898404445049163)","(0.19029634595232015, 1.8764574932367124)","(0.2634625218818344, 1.5112497810835737)","(0.1868322016208983, 1.80516675137639)","(0.1356714222306597, 2.1082718408509207)","(0.19120046535025648, 1.7849661391889613)","(0.25889425685185075, 1.4732353920645611)","(0.2117480379060817, 1.7212517416452375)","(0.21190718374221254, 1.7033034451480145)","(0.1721686972291259, 1.8255529580256762)","(0.17353930191125075, 1.710587152233254)","(0.2567263556826738, 1.5588199152763522)","(0.23386247684671352, 1.4959827788856015)","(0.1683777557923179, 1.6514902113688297)","(0.19290704384629503, 1.5484602959027804)","(0.30691240909896644, 1.32341675930509)","(0.1788289859356561, 1.896721513629151)","(0.16824047744431642, 2.0541903459554534)","(0.1751550467375854, 2.191888397676799)","(0.13317388211305642, 2.5860443131010955)","(0.2111345021468641, 1.895801314178)","(0.12763826701649206, 2.854184332570619)","(0.1344933419352591, 2.296815583666875)","(0.17800121923317747, 1.7872095359491664)"
"(0.18634091175808168, 1.8752665892289273)","(0.17404859309555354, 2.0935097531739135)","(0.11625890250410344, 3.007649300623772)","(0.23494838801973622, 1.6376062455370461)","(0.16278717987055483, 1.9862816816828042)","(0.21021027394898906, 1.8427031415817823)","(0.1655420278762953, 2.1774047552676)","(0.16865086352495207, 2.0225645026568166)","(0.17078237704661262, 1.8286333361207303)","(0.19548013515487717, 1.8910257926911123)","(0.26468573935273476, 1.5236362544147177)","(0.18624073339553734, 1.8226473533226328)","(0.1364392804135589, 2.0251612188382375)","(0.18471451789927662, 1.848400014211528)","(0.2612321273656302, 1.4483170799820542)","(0.21726187888610488, 1.6522992188211476)","(0.21175753411212958, 1.6705185034725867)","(0.16937838345113654, 1.8260283041382925)","(0.16677029419673173, 1.7704435371870502)","(0.2500839384899513, 1.6005477148328084)","(0.23772035315565657, 1.5079456782052345)","(0.16473176290028194, 1.6689224319490235)","(0.19742128243692678, 1.5441518619100654)","(0.3054720145474818, 1.351827495183247)","(0.1940656989735196, 1.7952828770993878)","(0.18514961084860637, 1.8764651415486453)","(0.1953108970770328, 1.9636973978356602)","(0.14814142977015402, 2.3405836476989523)","(0.2291888220821521, 1.7412234820599861)","(0.14720325160176634, 2.4613892128837227)","(0.13821797710724273, 2.2686846466404345)","(0.18026967264937416, 1.7546838489075918)"
"(0.20311871688792513, 1.7485061005984452)","(0.17423514424792627, 2.0513684850681484)","(0.11870845292309458, 2.9268972144093937)","(0.23649158087107253, 1.6023476479210914)","(0.16795768914381137, 1.9702426676224196)","(0.2084085608764002, 1.8433656718964315)","(0.17659360563538332, 2.0265556542079297)","(0.17103854433870128, 1.952414335986857)","(0.16610786193870358, 1.8858008617616224)","(0.19707391841223373, 1.8375218763225791)","(0.26549570513230136, 1.5120141184016191)","(0.18132945258412073, 1.8829063647064233)","(0.13262101829714176, 2.0849356835964516)","(0.18580186042472818, 1.8791057784594265)","(0.26416694020784137, 1.4309391262303455)","(0.22185321521752277, 1.6218477952573083)","(0.21276614597284033, 1.6628337253964145)","(0.17085003939193635, 1.8259937086890035)","(0.17042764542809224, 1.7588210475976198)","(0.24810500130972332, 1.6015452454943662)","(0.23548583476870893, 1.5236126881365266)","(0.1674161686699599, 1.6472994789996747)","(0.20466750291121724, 1.4883239676599103)","(0.30679577966066957, 1.342593251897195)","(0.2087302736413373, 1.6643499435365459)","(0.2031406117797673, 1.7044570484088026)","(0.23257909681695613, 1.6615453157132725)","(0.1738979779642258, 2.0382516693010224)","(0.2685302803836318, 1.5142253229380445)","(0.18163723359893547, 1.9915547910237656)","(0.15294204548729984, 2.222530954373885)","(0.18024060311597806, 1.6685536900433113)"
"(0.20351294257298438, 1.7343728744629074)","(0.18097177556371813, 1.9225150138788487)","(0.13890660423443618, 2.4887806469093814)","(0.23919838696486406, 1.5823750880019425)","(0.16702159421351254, 1.9774745357899963)","(0.22910699994777553, 1.7057188031336266)","(0.18886330673431242, 1.9120237884700146)","(0.1785772686754423, 1.8806671542688618)","(0.15535898534554093, 1.9955251009785477)","(0.1921093578017445, 1.8909274684028408)","(0.25309350111674267, 1.590799739092793)","(0.18067486185032874, 1.885227541379755)","(0.1289773787908207, 2.099202454270573)","(0.18384720967324195, 1.9154841501145004)","(0.26352550717794143, 1.4286619575374062)","(0.21765434174973855, 1.6196246678698922)","(0.1993255566817601, 1.668748837021148)","(0.16428244514996174, 1.7679100712313005)","(0.16856554306533378, 1.7106037747163254)","(0.250429400149569, 1.568468108668196)","(0.2313189745495299, 1.505847280464451)","(0.1714094277036905, 1.5582518378693786)","(0.20732281860704402, 1.4358200611045029)","(0.2979480113929573, 1.370709515779539)","(0.22717255679177462, 1.5350884561861806)","(0.20665651456563014, 1.6133151879748213)","(0.25743354244914984, 1.5407914710718795)","(0.1960935431235232, 1.8030602236822928)","(0.293243769763228, 1.3766581190068057)","(0.21294210128654542, 1.726202069500611)","(0.17378802009568772, 1.9260111037675358)","(0.17250300855650993, 1.6807719616944214)"
"(0.19886354620512828, 1.7769750424076136)","(0.1747102107145549, 1.9525331922113438)","(0.14618296630833114, 2.33730439513555)","(0.23304216412846385, 1.6286915586042598)","(0.16709779376054712, 1.9652513759713426)","(0.23030340038878008, 1.685879902700269)","(0.20567088653159543, 1.7840813724132385)","(0.19158580906273256, 1.7969066239898606)","(0.14166856663491914, 2.1687033562866214)","(0.20397669945980268, 1.830922873853736)","(0.2674082893159157, 1.5320509903146942)","(0.17936828113886866, 1.947149245673602)","(0.123000432880418, 2.229746453988744)","(0.17958724619876906, 1.9608144201050148)","(0.2581738029371435, 1.4493387534302478)","(0.2083726134516333, 1.6820642530208492)","(0.19200445999330823, 1.740840458420076)","(0.15712760865245426, 1.8796507790852106)","(0.1595782094995968, 1.8817635649967346)","(0.25119456773096127, 1.5797769636206271)","(0.22916544495078128, 1.556524799092466)","(0.17320718849060443, 1.5733105332549784)","(0.20191770093822606, 1.497318979585414)","(0.29802912124154796, 1.3753103071695578)","(0.2198079779004772, 1.581506690771594)","(0.21050750234829266, 1.5682012021662637)","(0.2475831036264905, 1.6052500953672497)","(0.20429020189485536, 1.7574765893152267)","(0.3031125357663468, 1.3600888323188518)","(0.19361471643760444, 1.886494597508785)","(0.19549076637341858, 1.7031138751313968)","(0.17076736272709714, 1.6897893005611733)"
"(0.1987257651548589, 1.8442605368118652)","(0.18767845811499323, 1.8535115784493557)","(0.17642873436196374, 1.9381614353098517)","(0.24151454032252945, 1.5601348164588211)","(0.1756807993056681, 1.8638705096731876)","(0.2574122219636767, 1.5116795220806845)","(0.23544271298698755, 1.5956339627781346)","(0.20600295062535195, 1.7064862927747761)","(0.13151183163792865, 2.396745897719294)","(0.2228887916854397, 1.711567222950526)","(0.27948263721578603, 1.4531711336593522)","(0.18859643000677523, 1.8826131249701532)","(0.1288005704628756, 2.2239310084891164)","(0.18871592889823316, 1.9250283676494815)","(0.2769037137094921, 1.403962748228187)","(0.2309206186493231, 1.6107419822480074)","(0.20771601003566098, 1.676397686574234)","(0.1672366363665747, 1.8554111521220529)","(0.1665679557805051, 1.8337199555323336)","(0.2663574438128992, 1.4913963767055896)","(0.22692067685751424, 1.5869097660502673)","(0.18179714310521936, 1.5127779173307028)","(0.19276526999619242, 1.6166965818044488)","(0.295221210558108, 1.3824383559061526)","(0.21044588355423427, 1.7017308326669895)","(0.20717973020051483, 1.6596896634830576)","(0.23590513212207934, 1.681604882459084)","(0.2037963036442775, 1.8131115354084852)","(0.3097419018444517, 1.349581653593371)","(0.18449155814928192, 2.0386062215302885)","(0.18823603665909924, 1.812126592463327)","(0.1725657197531279, 1.7212793589229398)"
"(0.19779177056708824, 1.8440834977153768)","(0.1926346978626004, 1.8575055258527517)","(0.18785824688877997, 1.816149397667322)","(0.22793848591358154, 1.6363934282383168)","(0.18494493977718063, 1.8300061833933938)","(0.25478585726944325, 1.5105980552669205)","(0.23914994655814828, 1.5758798845481239)","(0.2010088517715203, 1.7411963472802496)","(0.12881368290306752, 2.528768932593753)","(0.2259805548225667, 1.7205889446096372)","(0.28772506899871797, 1.4535014645180873)","(0.21136122174618857, 1.786153755921648)","(0.13001643133346133, 2.2832251621209045)","(0.21237767249998774, 1.8573960762221244)","(0.30836131187386934, 1.3522579298655057)","(0.26061556083798953, 1.536673555904249)","(0.21690642339758648, 1.651345091483132)","(0.1641687304092973, 1.8699069073007435)","(0.1633840576835457, 1.817845852713957)","(0.25523641931904134, 1.57251004774655)","(0.22780001656921425, 1.6058968139280927)","(0.18311815739592313, 1.4732229337732512)","(0.19051788320052762, 1.6335318000169767)","(0.2950447329030179, 1.3960078827160065)","(0.21280479420097834, 1.7083694374772718)","(0.2058380945351717, 1.618554324218544)","(0.22278157955648267, 1.7363968458671653)","(0.2039907927075836, 1.849716301405843)","(0.296742992111328, 1.4169235527197785)","(0.18033645850805455, 2.0989817193188163)","(0.1877877342224361, 1.8037924634906282)","(0.17214527809853575, 1.695118990505773)"
"(0.19135527223994636, 1.8529823649664616)","(0.20267434601110756, 1.8519498730991362)","(0.1982606604682559, 1.776730656720734)","(0.22248278572458444, 1.7117782145829785)","(0.1811406039773845, 1.8508754529722213)","(0.2599119122155661, 1.509836983331889)","(0.2439461639833736, 1.5607376386245484)","(0.1946076330024004, 1.8668498985848874)","(0.13212116333899068, 2.5108480330579708)","(0.21373680709588727, 1.80468818186278)","(0.2795141960557241, 1.46442902302896)","(0.2076097393520342, 1.8247154187601524)","(0.1300039920622786, 2.373136616376461)","(0.20907984009214012, 1.9056971812936083)","(0.30387899432124205, 1.3932386338812603)","(0.2672363840869623, 1.533283024437615)","(0.22318922717458675, 1.665286825718138)","(0.16654169068265096, 1.9076238832773336)","(0.1712350058942687, 1.7336605895926815)","(0.23437715466269946, 1.6728236443648297)","(0.22625122252030952, 1.5957889118793733)","(0.1767513600890796, 1.5289992425963472)","(0.19734489663880717, 1.5748384248499316)","(0.3082346164899216, 1.3365856184304723)","(0.22100426913581062, 1.624526283622557)","(0.2162866070874167, 1.5847807123267115)","(0.2267043575720237, 1.7302755131076886)","(0.20161967848615775, 1.8341322933410926)","(0.2811833197640712, 1.43566205209639)","(0.19445194039719454, 1.9984877611348317)","(0.19813421695001066, 1.7622604511550277)","(0.1752394462780135, 1.7167530186770352)"
"(0.19161659539810333, 1.916701804983331)","(0.21610622025605994, 1.8134122557403094)","(0.20004810488326358, 1.8352838155824465)","(0.22313959215187962, 1.7213359028655286)","(0.1736965683010547, 1.908799359936758)","(0.2524249651103331, 1.5906173602405105)","(0.2615689660213774, 1.4863790961656818)","(0.1726204898413636, 2.1319188705669125)","(0.1347461283948416, 2.4563537116510648)","(0.2056843016548992, 1.9425932290309493)","(0.29308284471654233, 1.4259708728551461)","(0.2138486018484047, 1.820504144689736)","(0.13362060407244442, 2.2618830251448974)","(0.22097139132491708, 1.8281694981290642)","(0.32104125668310407, 1.3295748535436145)","(0.28496418419145664, 1.4485146331161554)","(0.24377433346325936, 1.547152312067938)","(0.17006943989577866, 1.8701620759568507)","(0.1747734596491548, 1.7001045638403138)","(0.24680226157021642, 1.6281850237632933)","(0.23584169250756426, 1.551254939770465)","(0.1773514925860475, 1.4900356211065122)","(0.2000894712486927, 1.5606536754135942)","(0.3175470803193016, 1.2991526349528684)","(0.22902686855416557, 1.5996078083459164)","(0.21120478775882295, 1.598650170248481)","(0.22457272226731118, 1.7469487337026808)","(0.1746143258136945, 2.1731449381566996)","(0.2864612618506229, 1.4117010159858954)","(0.1949330055264719, 2.0075997015957556)","(0.19686069153361704, 1.7873801263470483)","(0.17070337316788836, 1.753142078923307)"
"(0.18573273400150506, 1.9975730484575986)","(0.23447097797407593, 1.7279604380939813)","(0.1943027918126283, 1.9003000497381721)","(0.22093794805270212, 1.7623791507836364)","(0.188558265436569, 1.8459830262896575)","(0.2220346205778648, 1.8266547630311525)","(0.2622500751368056, 1.4732109980620232)","(0.15549851283168212, 2.3436680948220086)","(0.1462452677202874, 2.28567385582358)","(0.1970163288542271, 2.0102631405174685)","(0.28706976523944383, 1.449175823239395)","(0.2161921416140245, 1.7957311909757085)","(0.13953675529661125, 2.262212248907682)","(0.231201461294645, 1.7483649264316201)","(0.32147551506803135, 1.3202737111017417)","(0.2922361778414832, 1.4135906890075847)","(0.24836768212573365, 1.533971040321596)","(0.1733749817949544, 1.8807611148171253)","(0.16953502519286842, 1.8568647716875788)","(0.24410325028399665, 1.7234526519441578)","(0.22573386904325407, 1.7236801456535322)","(0.1749597377039305, 1.6281183984482348)","(0.18707409318323234, 1.7520042991715135)","(0.3170539057648969, 1.3117919343148834)","(0.22540836881921839, 1.657880126572282)","(0.2100600818541466, 1.666417186983082)","(0.22429150288124147, 1.7332488204924603)","(0.17241428413146653, 2.2466656186505913)","(0.28620707661879863, 1.4170398640266686)","(0.19471568084141477, 2.034385959523723)","(0.2052437730912805, 1.8181908771792317)","(0.1604471729692509, 1.9047382144817517)"
"(0.17239541682173237, 2.2072829062740684)","(0.22669871288034152, 1.8078526662240904)","(0.19275382741301264, 1.9500421028029382)","(0.2331046007141172, 1.6835353434541722)","(0.21535796618893266, 1.6516794866261786)","(0.21478277725408315, 1.9052805581341858)","(0.2577044960864162, 1.507821828355362)","(0.15941844891982376, 2.247694613037193)","(0.15409802494843494, 2.1846210652334976)","(0.1955665014715186, 1.9860785680910098)","(0.2849207254506271, 1.4388001386621827)","(0.22522849808341414, 1.7376351010123725)","(0.157541817924964, 2.0305376073293835)","(0.25518251530934444, 1.6089679153839869)","(0.32307768950471627, 1.3275459898278597)","(0.3013366016425019, 1.37413483252974)","(0.26211060947508424, 1.4749326889369847)","(0.19491230019379496, 1.697720038210039)","(0.18523684280312175, 1.7234460956970912)","(0.2644567614784414, 1.5937357584894156)","(0.20819108293645366, 1.8978959754219287)","(0.18832755502150567, 1.5425847698651602)","(0.17248926129660805, 1.9237848231443406)","(0.31545847693262224, 1.3351222386769321)","(0.21453984089652256, 1.7641112901677163)","(0.18941976156379292, 1.8170429025006294)","(0.2212277423594373, 1.7712970333326488)","(0.16111493317310652, 2.413422154254033)","(0.28305273390710306, 1.4370840697664706)","(0.18314286425814064, 2.2897198489555355)","(0.20607232853246585, 1.8192557060789694)","(0.16600380113520197, 1.8411959884879472)"
"(0.1710518254777838, 2.323687754208222)","(0.21810884444142814, 1.8887796207620666)","(0.1921092347165055, 2.042343426351979)","(0.22899790559504005, 1.7201170164771917)","(0.21477773976967648, 1.7190657318008757)","(0.22106807590978628, 1.8687559908658558)","(0.25872046467012744, 1.5165092860431841)","(0.15438184695631937, 2.3176038224493154)","(0.14040016560159652, 2.450136371442669)","(0.1943319084751536, 1.971857348846002)","(0.28711847893630027, 1.4480364327475004)","(0.22488504667293885, 1.783376040065851)","(0.16720233089836822, 2.1162086447301705)","(0.2667029280213048, 1.5945897193627936)","(0.3308840346722466, 1.331445461441712)","(0.3103206757878962, 1.38363392509522)","(0.27235152774231564, 1.4718031090333896)","(0.20363471907463393, 1.7295189134194526)","(0.1947633679705761, 1.7164103156035748)","(0.26471455609548306, 1.595018456027999)","(0.2022135299441828, 1.955693781110358)","(0.19487724256393216, 1.5860481286998245)","(0.1728801188705317, 1.9076657282842286)","(0.31683452994830497, 1.3207063037949165)","(0.20706400923030654, 1.8294386801590385)","(0.1738768634352209, 1.989914407021304)","(0.22198432334103507, 1.787046217893808)","(0.15733003878549862, 2.475127438352623)","(0.28920579772145777, 1.4227544574445998)","(0.19170982201456604, 2.2030661399481906)","(0.16862186303567966, 2.2944198676540806)","(0.17210052164519735, 1.7670863251990463)"
"(0.16811076815480475, 2.4001417615649028)","(0.21671943255373863, 1.9019540017195493)","(0.19583857610461447, 2.0161047719190437)","(0.22222431848495955, 1.787369943881757)","(0.21856458661079622, 1.7329877137556347)","(0.22372242488694347, 1.8718143945693981)","(0.27743606590447356, 1.4650887901993228)","(0.1487995911693947, 2.4453809286241697)","(0.1316634331012854, 2.7134020983469864)","(0.1941748457148929, 2.0572081081853657)","(0.30366296490027006, 1.426949428107808)","(0.23805190403015958, 1.7249262692500524)","(0.18105114562909924, 1.9926832441627322)","(0.2670648554666291, 1.5862078238649933)","(0.3294676433620614, 1.3339599469459231)","(0.3096229311167375, 1.388911939554261)","(0.28221906808073477, 1.4420246288669158)","(0.2258566886488894, 1.6312666671762368)","(0.2188329735388523, 1.6179450468472658)","(0.2782025433485147, 1.5104983839075816)","(0.21857480770813628, 1.8231787023495063)","(0.20218217330068078, 1.6229407642749718)","(0.17892012031023383, 1.9054057425444446)","(0.3283100259164743, 1.2858030627262067)","(0.20910554140460888, 1.7925826157675397)","(0.17167481818710684, 1.9966508680615804)","(0.22543697433354667, 1.7836328947269802)","(0.16086031473064968, 2.4220933399893165)","(0.29779962171894214, 1.382866591701628)","(0.1891495859657748, 2.2565031858572806)","(0.15921767625466107, 2.3582469701680497)","(0.1727452189466458, 1.8611111057327174)"
"(0.1683009950283299, 2.4397006278533095)","(0.21670148846253848, 1.972927477769433)","(0.18112762462141407, 2.2533979175623187)","(0.21558941651388144, 1.811921818495765)","(0.22671328386224512, 1.7232298010239635)","(0.2068031243243284, 2.0049755863249135)","(0.27811222649957423, 1.4786906291525859)","(0.13911051303982028, 2.603230080523328)","(0.11698310339304013, 3.12982030983126)","(0.17719978266615624, 2.2492397043172083)","(0.29862558317980464, 1.4368437073826879)","(0.2325412715721323, 1.7801143292330175)","(0.18908548976327627, 1.9483530158017286)","(0.25329899844935505, 1.6943630394628348)","(0.3284942980372566, 1.3647236229758382)","(0.31012810621856757, 1.4113605831352354)","(0.2783049995297976, 1.4786096232739567)","(0.22560777872142881, 1.6698885358069635)","(0.22596703060672144, 1.6084969374199303)","(0.26636447822259024, 1.5997143302670473)","(0.20823508224783607, 1.9381240725890663)","(0.18842418008832582, 1.783944659798775)","(0.16931539782872645, 2.0857436428146587)","(0.3342318654579329, 1.26805119727617)","(0.19965780340313322, 1.8984991556738235)","(0.17436677641833773, 2.0646074255989184)","(0.23212779964626012, 1.6999420979214264)","(0.16214400868794834, 2.4420272378346444)","(0.2923642805637984, 1.4096077520997263)","(0.19387185160000253, 2.2197702820448693)","(0.15639066095854007, 2.4839596817375775)","(0.1741077149524614, 1.9002932783560516)"
"(0.16722240166757868, 2.5103553860021894)","(0.22130759468648661, 1.955431246667798)","(0.18150033942637894, 2.334553064406118)","(0.21064054738524893, 1.904473538839535)","(0.2350503787007938, 1.7258434916955967)","(0.20306843959559837, 2.0920469447629673)","(0.27536524461665574, 1.5191284979599413)","(0.12941635734214502, 2.726617244752992)","(0.1170424922460858, 3.2412922941057296)","(0.16499502701587143, 2.43489153266443)","(0.29175396990993496, 1.466126834519107)","(0.21275010707961098, 1.9299283896488875)","(0.20852838443640703, 1.7494444778510834)","(0.2580837413699679, 1.64540960861608)","(0.32755085237837256, 1.344131251973503)","(0.3145592241385977, 1.3750277412068537)","(0.28590147970696295, 1.4355612263393125)","(0.23845641390581965, 1.597532840235454)","(0.24471035522089055, 1.4921856554988226)","(0.2598018098293183, 1.6440261331437585)","(0.2092613871239348, 1.92079297332131)","(0.1877461570125531, 1.752883868298222)","(0.17429140954681357, 2.0728530708588786)","(0.33083449959530814, 1.2643834408373422)","(0.19504805192562358, 1.9744385990847144)","(0.17161023453706115, 2.1124966258128617)","(0.23828660113953723, 1.6708271530193866)","(0.16338678412312352, 2.4520083038551883)","(0.29454283341545073, 1.3982809956140732)","(0.21527234762221914, 1.983008745662592)","(0.1573687577612325, 2.5206499109812133)","(0.17994331155331653, 1.9015421923563696)"
"(0.18816724937436302, 2.2430814222206776)","(0.23690349107820985, 1.8291182123802427)","(0.19256332422535552, 2.217043172544262)","(0.22100377163568477, 1.8316463604293551)","(0.24521845383600593, 1.6705126915514923)","(0.20980265636453388, 2.0081092519174835)","(0.2908936075249368, 1.4408921382929152)","(0.13514761874997272, 2.598386275407358)","(0.12432155802460132, 3.0590969327006907)","(0.17257459117420984, 2.3706671369553955)","(0.2979753711925215, 1.4447330860610261)","(0.20924107257898464, 1.972767319999255)","(0.22138741718319094, 1.608488513037917)","(0.2548816873626384, 1.6677403599276888)","(0.3143159526623808, 1.3940778279393886)","(0.3027200622555183, 1.4223341949865465)","(0.28552344271404595, 1.4445664108083103)","(0.23545826676633722, 1.6225731330704993)","(0.24725532857589733, 1.498878282897975)","(0.24816609585655042, 1.7468458639071827)","(0.2174804716216247, 1.872063050847702)","(0.19288223343726627, 1.6797623003650106)","(0.1897248364775656, 1.9142043397217963)","(0.34944295037849865, 1.2206919424811737)","(0.21290834325599117, 1.7751645915830707)","(0.1701952984968883, 2.0729383201212417)","(0.2566076866825942, 1.5493998962986992)","(0.16524088893316774, 2.414586463808615)","(0.2943680045122417, 1.3874758713075033)","(0.2527655671180786, 1.7148644773917898)","(0.16943301794974291, 2.3187098037952767)","(0.18892895341141766, 1.679304272327468)"
"(0.19278687071380443, 2.1806375647628076)","(0.23413728635442782, 1.822733457684431)","(0.2008462057336837, 2.0866058122360727)","(0.23029583292662964, 1.7859929505669605)","(0.24263922115877215, 1.6578869416164237)","(0.20977563129070914, 1.9991635285706744)","(0.2929393576370113, 1.432145989473343)","(0.1418443185518652, 2.5670125103827504)","(0.13415042111027106, 2.770617305673146)","(0.16819636525317022, 2.3542162528058155)","(0.2899306125538443, 1.4640724423607967)","(0.20080639909218043, 1.9734864934012177)","(0.21779061067997676, 1.6147731343909306)","(0.24009622062184888, 1.6667896617352538)","(0.28915522900322765, 1.4361406381185193)","(0.2784560155304225, 1.4737152490459307)","(0.2772994536648086, 1.4927919347992782)","(0.23340948971739967, 1.6410711725105422)","(0.2429718410058868, 1.5388637034286679)","(0.25733446024708173, 1.6739722277338862)","(0.21672895751720767, 1.867172776347984)","(0.18917196838658096, 1.7155623563821416)","(0.19221712104858038, 1.8888954446898563)","(0.35018817578797706, 1.2133278628283837)","(0.2196201592898143, 1.7582904787781395)","(0.17741706755814532, 1.994731628008164)","(0.2664893442412878, 1.4901364126112453)","(0.1638654750033654, 2.436044561050896)","(0.2963649551829886, 1.3646686974720914)","(0.2663803460520921, 1.6323334442478983)","(0.18340404924577972, 2.107569956748447)","(0.18379664042114902, 1.725753779459275)"
"(0.18590106108517332, 2.281455186078613)","(0.24041336984247266, 1.7010784279149072)","(0.19855671323934887, 2.0930483371635704)","(0.23002071265583018, 1.7833639323434392)","(0.22389031490790445, 1.778696437576464)","(0.2051169546033079, 2.0259929718829985)","(0.28815518086616765, 1.4610224486553625)","(0.14338474025718123, 2.480288105457641)","(0.1409205642865127, 2.588161993814847)","(0.1684843353021201, 2.3531280585764436)","(0.28924689145888116, 1.4976043119086218)","(0.2066372628169892, 1.9525226583025685)","(0.2077273455931532, 1.6713344630284583)","(0.23089123482555565, 1.7728839851043063)","(0.30368734946431186, 1.3891495330751358)","(0.2816649064863415, 1.4828155460217138)","(0.2715804171420074, 1.536986316631436)","(0.2174271925139315, 1.7332093804087134)","(0.21863325383345766, 1.6697263964236717)","(0.26588237142308746, 1.5951840644719757)","(0.22174523988209544, 1.811437310971098)","(0.19425093342003796, 1.6138238290596605)","(0.19115493150430987, 1.8716942335236006)","(0.3415311456030677, 1.2257049887878846)","(0.21661700238706216, 1.813994842809508)","(0.17250247245381145, 2.057757018881191)","(0.2691479079408887, 1.4722178858617174)","(0.16076110934465293, 2.4968066989654085)","(0.3134274913905564, 1.3480905702273325)","(0.2620677733557865, 1.6228378117443307)","(0.17043640282108113, 2.205643010349745)","(0.1758773087812175, 1.7342930236203673)"
"(0.18952051172775577, 2.2218354546208)","(0.24378206109194986, 1.634117050027538)","(0.20530455398942862, 1.9332628718093436)","(0.23081550725096445, 1.782970523523335)","(0.21219361895902003, 1.8918844586096941)","(0.20035167760955055, 1.9980367135054078)","(0.2949150854655659, 1.4228133671099943)","(0.14962450311692227, 2.4021339054480877)","(0.14954126271260057, 2.424720389642474)","(0.17887631641270313, 2.1736084694893196)","(0.2944247262241719, 1.4771664767189614)","(0.2058816088375633, 1.9763427653833425)","(0.20320004069749234, 1.729180374160963)","(0.2335435681823498, 1.795514239874316)","(0.31049254437600127, 1.3812989561638058)","(0.28846873441645604, 1.478410136352606)","(0.2668536743267026, 1.5627135692650251)","(0.21066099828702547, 1.8103135084337436)","(0.21481825870427157, 1.7407134909089472)","(0.27419105803954386, 1.5763573351656537)","(0.22692422029587064, 1.813109117953371)","(0.18380036159776378, 1.732477146940265)","(0.19011040351928463, 1.929370413190626)","(0.3453076060649007, 1.2124827488110255)","(0.21978743504123663, 1.7747609979051582)","(0.17138840695128432, 2.074997026243705)","(0.27594622699769245, 1.4493534827655068)","(0.18804472059628338, 2.1343161491143485)","(0.33855869773105657, 1.260861490417724)","(0.26985484620300426, 1.5957632713307)","(0.1684790558601301, 2.2331165787272513)","(0.1741368731285628, 1.7811345653820734)"
"(0.20488934667400535, 2.025645035531796)","(0.24493672367589409, 1.5705483725910965)","(0.21193297664239955, 1.8641901942927273)","(0.2469359303505853, 1.673847887178521)","(0.22278942562181833, 1.783205993078162)","(0.22861987734929742, 1.731035825700427)","(0.29718228361067106, 1.425753070626723)","(0.1672008722248928, 2.1557803919999934)","(0.15061127469543487, 2.3387472658071378)","(0.1924168795497652, 2.0217358131404626)","(0.2943838301695964, 1.4750656858206308)","(0.20957546624613055, 1.8822914214387114)","(0.20209070829874823, 1.7024073655673149)","(0.229101249108949, 1.7822006434054183)","(0.3054741791609375, 1.39897954061523)","(0.28039031146816207, 1.507898765291433)","(0.26737279073382064, 1.5535145807036055)","(0.20797554111957692, 1.8148941669427503)","(0.2131301668548607, 1.7056780814361612)","(0.27436653863889154, 1.5347501011759637)","(0.2253049653648917, 1.7323719663959374)","(0.18143657623115228, 1.6706991875733743)","(0.19252280468574232, 1.7723428593446648)","(0.3448061589234051, 1.2019475255938743)","(0.2274956893680574, 1.673542456764838)","(0.17583568502598493, 1.99792329118245)","(0.2798356490056312, 1.41824280272742)","(0.20462013380809238, 1.937965452084318)","(0.34922509262930884, 1.2340681756685024)","(0.27232547413573854, 1.544492907085705)","(0.17424307822902632, 2.1066491609932743)","(0.17296061975815696, 1.782382528593778)"
"(0.22436220094173734, 1.818531028787747)","(0.24786668928622585, 1.53724795887667)","(0.2126566861044454, 1.84865912109339)","(0.23932210633090759, 1.7445240232247365)","(0.2181314103234095, 1.850820065427002)","(0.24276251755382955, 1.628184565623113)","(0.2951251000561553, 1.452593037594473)","(0.17242754661449175, 2.0788846673253367)","(0.15337630473899017, 2.2575176026679427)","(0.19581812010802715, 2.0087871598665075)","(0.28784833322998593, 1.5079280316260648)","(0.20817462061482753, 1.8810996906000583)","(0.196370828668728, 1.6912091297933118)","(0.22297211152654708, 1.823469493954007)","(0.29957873412991187, 1.4150059589571449)","(0.2750160492879416, 1.5395581121332247)","(0.26232986336601494, 1.594040079406835)","(0.20561743036824057, 1.8405925123397342)","(0.2135498944647793, 1.6892280882858688)","(0.28821590806137964, 1.4538009151104254)","(0.24697339433590232, 1.5759024691893146)","(0.1823869695923129, 1.6464387621421719)","(0.20913777997022953, 1.6229062647961572)","(0.3490793068860566, 1.187716420114898)","(0.24945686957337998, 1.528836079803657)","(0.1967890137063123, 1.8084277785989658)","(0.29133322021415814, 1.3538940904037)","(0.21641572573105575, 1.7638366564237085)","(0.3462970769484505, 1.2423870654387537)","(0.2847069111527375, 1.4348266436806587)","(0.18114238980052438, 2.0070408937352435)","(0.1801140194647673, 1.7209409715427082)"
"(0.2266991794333563, 1.7858283331330609)","(0.2659696704115136, 1.4336619896151939)","(0.21871620456230134, 1.7557538877023058)","(0.2455430846147182, 1.6847960035944962)","(0.21014697419273862, 1.906140500419236)","(0.23903880701284147, 1.6220516992100682)","(0.29522453482032024, 1.4497366019166409)","(0.16935530465972973, 2.106927723454854)","(0.15317017913225975, 2.2340462217559756)","(0.1968480262489695, 2.0079866014827914)","(0.28948554168947416, 1.4739843810381272)","(0.21042770925343857, 1.8489107777326534)","(0.1921435076071364, 1.6781771235188587)","(0.22150567243387465, 1.8160389287934218)","(0.295600965869902, 1.4152341882134494)","(0.2768831324182706, 1.5045557774694274)","(0.26364422674890997, 1.5777953963686095)","(0.2059857954722493, 1.809109966017742)","(0.21326903338780992, 1.6534999352491526)","(0.28775052000730783, 1.4494744502693204)","(0.24248402110972594, 1.5910263266681737)","(0.1797571806718444, 1.6274816683100892)","(0.21570703377963843, 1.5873877799697624)","(0.35035953371997786, 1.1888461722249914)","(0.275938152806781, 1.4196827094820181)","(0.22397179333586148, 1.6046181997606928)","(0.31417852042732736, 1.2572215639676108)","(0.22631877772572087, 1.713105472458731)","(0.34148130359319523, 1.2482677933667128)","(0.27777632854551104, 1.4794609183017846)","(0.2022563980564125, 1.7893144889081634)","(0.1722264705552872, 1.7555996227488495)"
"(0.22504778702767464, 1.7597484317032506)","(0.26916795905194596, 1.432413455051386)","(0.21148303551384454, 1.806514484215748)","(0.24691243699379029, 1.6601799928379266)","(0.20534325972786263, 1.8938421699448091)","(0.22411352471249943, 1.7017379114843383)","(0.2793903494204302, 1.532080944146664)","(0.1692842600269216, 2.1102380757343715)","(0.15083031092325946, 2.221495177248767)","(0.18719096120265277, 2.078507990394267)","(0.2710779911186951, 1.5093302704824503)","(0.19876636477199874, 1.8964902325604969)","(0.18256449378116674, 1.7029034097178044)","(0.2177027734289173, 1.8300378882893509)","(0.2970887527894832, 1.4083484707946863)","(0.27579234880810405, 1.5039753291776965)","(0.2526662026728619, 1.6314786620524426)","(0.19297750405483052, 1.8900462825087188)","(0.2001424010160533, 1.727312075748295)","(0.27273448693412417, 1.548718169996202)","(0.23444502917591245, 1.6648223090287195)","(0.16989805328584393, 1.6250143811224491)","(0.2149653773302582, 1.614619376842371)","(0.34360961364831627, 1.1922480366433958)","(0.2836248786076041, 1.3986749625344728)","(0.23350066700046196, 1.5255337191630394)","(0.30590414695220075, 1.274443981404499)","(0.2263615194044112, 1.6890259220682915)","(0.3368727796371548, 1.2520078705582278)","(0.2855242739138149, 1.4338405997345547)","(0.2072886560017345, 1.7124602045959456)","(0.1713590718084282, 1.738920604541504)"
"(0.22249693765840253, 1.7594127647989166)","(0.2705890144038979, 1.430933837752259)","(0.2208523638395356, 1.7218138832123777)","(0.25145566141579034, 1.6776372763046083)","(0.20722923767285537, 1.88733091477564)","(0.2319704393887145, 1.635124365865351)","(0.2713169482240258, 1.5592702356872368)","(0.18012923557282357, 1.9891829996574777)","(0.16681419528303923, 1.99239077196557)","(0.20466825697042604, 1.9101306258775586)","(0.27947727859472005, 1.4715326174402743)","(0.20168002246536287, 1.8609378250271864)","(0.1828976664968477, 1.7097232649591445)","(0.22398546832181626, 1.7718183290834582)","(0.2948351087295943, 1.4122630170529948)","(0.2740556003783583, 1.512256836400677)","(0.2612660350891348, 1.5834855017167346)","(0.19552692783812936, 1.8737700827380555)","(0.19894002070017403, 1.7453860701445605)","(0.28048091206351944, 1.4912495343006873)","(0.24376596361732839, 1.597777343384955)","(0.1808619331389722, 1.583409036368222)","(0.221993035580416, 1.5803054926190196)","(0.33371999335458474, 1.2265344105914104)","(0.28247939444071984, 1.4223828587404979)","(0.2240189832762424, 1.636518560037512)","(0.3028059141367942, 1.2997229257617302)","(0.21856702995484845, 1.7401080930809374)","(0.34203983604295235, 1.246020203168071)","(0.2843280825435864, 1.4458528152345749)","(0.19263685837908037, 1.866621970750088)","(0.17753681496257614, 1.724161825461925)"
"(0.22101048887806335, 1.7324431242357743)","(0.2716465610118488, 1.403040155409888)","(0.2178092052531958, 1.7236237545980078)","(0.25308119130597617, 1.6661471742478007)","(0.20664170868118464, 1.8654741290281354)","(0.2386024220110472, 1.5793655550446921)","(0.2623922226793806, 1.5816159949357693)","(0.18068289132373766, 1.984159568959708)","(0.18114275347410666, 1.7520953340744725)","(0.21860405376612838, 1.7574326765390067)","(0.27792680202576314, 1.4727227639461633)","(0.21406146367749557, 1.7297902390765176)","(0.18398873645584862, 1.711143249705876)","(0.22438380270793581, 1.7666493980575235)","(0.29050478505966376, 1.4507981065562703)","(0.2621174260105932, 1.5919204801720954)","(0.2506505379490615, 1.6520866943630244)","(0.19184201500825776, 1.8921384472034233)","(0.18858844718704226, 1.8440276026348896)","(0.2784247500348961, 1.4749789236179258)","(0.24814284606018583, 1.611188293696835)","(0.17795162781489351, 1.696211842380412)","(0.2258885589077901, 1.572140917159403)","(0.3380815164373459, 1.2179614446611833)","(0.2864801887979681, 1.399085718071244)","(0.2233576982821372, 1.6435489860788977)","(0.30007803513318543, 1.2941673698607465)","(0.21352577948130844, 1.7389177510887075)","(0.34009334480346765, 1.249124528230512)","(0.2845446103240499, 1.4597588176470953)","(0.1821115646605052, 1.9447212094745152)","(0.17897774740965966, 1.7084477822794966)"
"(0.20943095489446129, 1.756184517005936)","(0.2730739677523478, 1.3923531429535119)","(0.21535048442259166, 1.7299543378514897)","(0.25628527425055675, 1.649957241659232)","(0.20933106907541604, 1.8219278358769018)","(0.23821381963878013, 1.5892126365206913)","(0.2584648888348278, 1.607702340117412)","(0.17695378981854526, 2.018104649622233)","(0.16845591766879053, 1.848347704797556)","(0.21691194713086506, 1.7252032861662865)","(0.2784571792612148, 1.5053465649076667)","(0.21699380210528432, 1.7113408327323985)","(0.17941507159457684, 1.767783493253657)","(0.22239661036398786, 1.7989680370925731)","(0.2878928901024616, 1.4766660903352116)","(0.2549865228357705, 1.653090284041156)","(0.24898448071937904, 1.6706125895323711)","(0.1916038849168003, 1.8794835652476187)","(0.19107664228474688, 1.8265799640291787)","(0.28532985131123395, 1.4249131224404967)","(0.2532108733901099, 1.583657893958604)","(0.18462688683507933, 1.688419755384163)","(0.23693700038709942, 1.5413122823741952)","(0.32976740704333257, 1.2449865543569687)","(0.2784386545091825, 1.4354894004566368)","(0.2181740435956427, 1.6986895025194386)","(0.29554272089652933, 1.3265017737207705)","(0.21332560913843868, 1.7027301081522048)","(0.340107357626848, 1.2494274352129575)","(0.27314985931186375, 1.4677216246634355)","(0.1806388961763702, 1.9043542029062726)","(0.18991648749156484, 1.7466287846082542)"
"(0.21627158057017368, 1.6959170860497832)","(0.28032907588912814, 1.3765116337272634)","(0.20340671414460712, 1.7991247353220365)","(0.25066193224922034, 1.6577740881043113)","(0.20579568214452434, 1.8113522585445931)","(0.23838693318060675, 1.5682058040974758)","(0.2422699920919269, 1.6644133527635612)","(0.1655028264033361, 2.0721442187041266)","(0.15681213646151643, 1.9904468525084573)","(0.20916594057236018, 1.7687157649535532)","(0.2680145589478023, 1.5300443901181635)","(0.2134443035769767, 1.7310884556522617)","(0.1785533181563842, 1.7731607431765353)","(0.21810060690099584, 1.835128804553487)","(0.28199850807400667, 1.5012400144785587)","(0.2521800590641337, 1.6756748405505208)","(0.24397742645591755, 1.6962265667589231)","(0.1926606542074664, 1.864771713465029)","(0.19760470366499544, 1.7604657273345343)","(0.2759865424366691, 1.4384478512826422)","(0.25664053442573587, 1.5408297578067998)","(0.18823561035932646, 1.6826309000844102)","(0.2353042970949662, 1.5366604899893241)","(0.32740451481745, 1.248516812083577)","(0.27709044234577274, 1.4191691042536834)","(0.1958336249810806, 1.8541093783826152)","(0.2748610256257342, 1.4117591884698748)","(0.21979750771378112, 1.6223784686186407)","(0.33898011549762497, 1.2517864096850888)","(0.2763701963340799, 1.4162026958482683)","(0.17426932417139349, 1.930402147256356)","(0.16646901883932425, 2.0228356761714483)"
"(0.21524366201828027, 1.6659137324440638)","(0.28799138850726175, 1.377657806443747)","(0.2199332542673539, 1.7291295144320364)","(0.25148086248012574, 1.6060565576600025)","(0.2070549316335168, 1.8155393937381334)","(0.2325017993826439, 1.6054061564545326)","(0.24900755063290672, 1.6289021976928173)","(0.16478081029815075, 2.189985881343858)","(0.16135093262490313, 1.961526257123045)","(0.21443601121712563, 1.7657322499790111)","(0.27688567450047025, 1.4876825270619334)","(0.22092348392651873, 1.666193777471766)","(0.18655258244218487, 1.682823808260955)","(0.24059061823624292, 1.6364876619051163)","(0.2923574929877793, 1.4107363439919367)","(0.26442403090380584, 1.5623464805661003)","(0.2539519886501521, 1.6303885543788692)","(0.209818323940328, 1.7191879401963774)","(0.20856949042314432, 1.675546068715706)","(0.2723927163434497, 1.4468411996904071)","(0.2574276582709529, 1.5319184267473185)","(0.18856754952187718, 1.7270935806138912)","(0.23596182528508816, 1.5615856175112879)","(0.32719957163987046, 1.2626385744015658)","(0.2698581139858681, 1.4347164670727721)","(0.19990980882602172, 1.8138247562629355)","(0.26627893717326395, 1.4396096233486448)","(0.22065279563648726, 1.609081777689134)","(0.343384950721554, 1.2550554352999208)","(0.27108698922997015, 1.4425679785732217)","(0.1791708431061403, 1.8681868583309633)","(0.1599617650498739, 2.117313118070157)"
"(0.21899388171056833, 1.6441946482694623)","(0.286994200826686, 1.41127363348257)","(0.23161513936023662, 1.7410011744176186)","(0.26384491413864053, 1.5699282051818362)","(0.20583311407090174, 1.824645109807614)","(0.24606280465925146, 1.5861951826180622)","(0.2514800895136971, 1.6074143633773943)","(0.1803984738769792, 1.9906774323765362)","(0.1660357520698146, 1.9430282786742912)","(0.218484410138407, 1.759585134606536)","(0.2792688084841029, 1.4692613319571315)","(0.23039373175082825, 1.582067326640929)","(0.19450809504925037, 1.6242118087154744)","(0.24506398422630468, 1.5702268914779616)","(0.2898316872354586, 1.397110157486685)","(0.26000282450741774, 1.548938850623543)","(0.251347879206986, 1.6075480709235668)","(0.2103288962042681, 1.6580042872931404)","(0.20341771378746, 1.6402337982486737)","(0.25629018933592157, 1.4430757302659536)","(0.24654416697460546, 1.5596950554511617)","(0.19884122800846135, 1.6247588737055738)","(0.23626318087031623, 1.553471707022863)","(0.33006227882503286, 1.2685833839470306)","(0.26854363543050347, 1.45022509899025)","(0.19803202025594796, 1.8062507919424275)","(0.25807865731141016, 1.4456585749737028)","(0.22313618125277387, 1.6015093829483098)","(0.3362184678613341, 1.2890445404504112)","(0.27032680613186216, 1.4401066012242205)","(0.18320513930149376, 1.8400909316957372)","(0.16012719625038427, 2.126194462923135)"
"(0.21922734316806594, 1.6585237078219945)","(0.274572674829353, 1.4693982805312713)","(0.2405916302778931, 1.680350175500509)","(0.2585356141298054, 1.627432495172574)","(0.19108566261564358, 1.9547289075261638)","(0.24605365996509418, 1.5776425453598915)","(0.2500493775420629, 1.5903975122832748)","(0.17838172345864695, 2.004294955405178)","(0.16164862565751537, 2.0220616310195396)","(0.21668960909110552, 1.7571291451506077)","(0.2768131380136134, 1.4925660220755288)","(0.2376640411119178, 1.57872219412586)","(0.19218676708654564, 1.6123194331759543)","(0.25280857529806333, 1.5802358123990563)","(0.3027599184689905, 1.3615218136583889)","(0.26546916826627104, 1.5357249400757735)","(0.24761152531607802, 1.6297771927795375)","(0.212089324333134, 1.6298804334108905)","(0.2080899699782282, 1.6387511303859807)","(0.26108443231381484, 1.4258208948326476)","(0.2520933251940493, 1.5695389590820024)","(0.1925811854025447, 1.709766374721966)","(0.23414872259991873, 1.6355301314728588)","(0.33259079163416766, 1.268921606044559)","(0.27067229499156686, 1.4656977075699198)","(0.19820789839809452, 1.8200590051502232)","(0.25608248850539445, 1.484712504212346)","(0.22593535190116704, 1.611600347969587)","(0.33356217422742707, 1.2843159463801066)","(0.27214900799636593, 1.464579852166527)","(0.17288270850898121, 1.9920911746441057)","(0.18045909580017416, 1.9089889894598653)"
"(0.21626219879701344, 1.6982497130687668)","(0.2851945411013085, 1.436763595223302)","(0.24755940493966447, 1.6248770699936756)","(0.28198809513871087, 1.4895489486664695)","(0.19805137901509703, 1.7655842477104526)","(0.25894837872840026, 1.4868740610845899)","(0.2591614268414042, 1.4936817537431948)","(0.1732982047514292, 2.097750594190682)","(0.15829028671464435, 2.0820291465627716)","(0.21652913447008085, 1.702497070404669)","(0.28201682466926414, 1.4440810428782984)","(0.24006814593502215, 1.5471838093758437)","(0.20163264785406168, 1.5960608748605372)","(0.25903807864456324, 1.5298508960321662)","(0.30922957152963226, 1.3340944893817304)","(0.2664692314104294, 1.5239958788426593)","(0.2481024129825575, 1.613493922973813)","(0.21321377250065932, 1.6105381573498283)","(0.20572334784008425, 1.674216202390549)","(0.2625195915379855, 1.4166408244451618)","(0.2509759080749151, 1.5741018332231045)","(0.19603983500661565, 1.6968514202655516)","(0.22869824577924766, 1.68323455638699)","(0.32909473161892333, 1.283063362342178)","(0.26833217150548627, 1.4790490040577216)","(0.19898387648500906, 1.7906288671777073)","(0.25745211529088, 1.5346488208055853)","(0.22485337465500518, 1.6535110882001054)","(0.3387868430927781, 1.273854233304212)","(0.2605218717543532, 1.5519863081298937)","(0.17187279234267216, 1.9831401932147295)","(0.15780117462863594, 2.1876528687041623)"
"(0.22645339551747362, 1.625869806564521)","(0.2897162446352021, 1.4084506938705745)","(0.26058132965923597, 1.5698477859456499)","(0.2815216302488247, 1.5063700022703903)","(0.204126994609363, 1.7477879424067402)","(0.26402166701179075, 1.4919124686411667)","(0.2619124402449553, 1.4852709133812805)","(0.17708705474267378, 2.1007239550539736)","(0.16523296393747364, 2.067590187869985)","(0.22064645232743993, 1.644669013010555)","(0.28759717019329556, 1.42261249342492)","(0.24448737221664163, 1.5364107617960807)","(0.20569764204337193, 1.6114562315428236)","(0.2717651016437554, 1.4725561792070045)","(0.309662177181841, 1.3479606225110243)","(0.2628997546720516, 1.5538404542782247)","(0.2385445585430906, 1.6503630594074046)","(0.21703219606863874, 1.5937283517782768)","(0.1993294402519475, 1.7831203154959852)","(0.2575374576808101, 1.434577283265173)","(0.258391752458778, 1.5300586506509029)","(0.20095405643179062, 1.735149423409935)","(0.2325915488301715, 1.662587374799953)","(0.3183274760196663, 1.3177585218218248)","(0.2691492930429757, 1.444085343658375)","(0.20187569136388758, 1.7686613553872184)","(0.25766422726384, 1.5201692543858596)","(0.22418474667176017, 1.6663555211648922)","(0.3482435208634446, 1.2611984582153508)","(0.24784117658115246, 1.5935121664218344)","(0.17933473896659127, 1.9588728408199891)","(0.1645363065119718, 2.121679051425128)"
"(0.22358709071021843, 1.655466268959673)","(0.27922689420515145, 1.4466261958583508)","(0.26367497867266265, 1.5613561003239531)","(0.2831617122805812, 1.5230225471913716)","(0.18847932595869402, 1.9194232238179965)","(0.2712642232809441, 1.4867256580349915)","(0.256386007158224, 1.5181350836228307)","(0.1754461036226654, 2.1196259291879076)","(0.16816580927843733, 2.068625613257473)","(0.22362632043763198, 1.6338323070943965)","(0.2864006208578348, 1.4366579633492718)","(0.23917452238960007, 1.593333925058277)","(0.20637711917324383, 1.5946322027629036)","(0.2742521769866913, 1.4567116709371226)","(0.3102479694591932, 1.335072530002446)","(0.2603996742173175, 1.5643926365989929)","(0.24470069374056072, 1.6137227005262569)","(0.22029315016379936, 1.5506489930247878)","(0.19954130946924936, 1.7536045257172608)","(0.2657973656011323, 1.3892515519637314)","(0.2580667709793465, 1.514429253265469)","(0.20706635260260828, 1.702379762049273)","(0.23206235722004845, 1.6572696541083942)","(0.3171271575504019, 1.3484645087571243)","(0.26346976266484745, 1.4501978670568325)","(0.19309839941256626, 1.8169079037792524)","(0.25443414371315193, 1.5530969357002482)","(0.2190712236557839, 1.6856771805885515)","(0.3504538539865013, 1.2508353396745273)","(0.24585524462226327, 1.624305883114654)","(0.17562596530729066, 1.987985001212624)","(0.16785057014849578, 2.123098261156453)"
"(0.23938770434540288, 1.5483991497445444)","(0.28288662743306286, 1.4195802072176524)","(0.24737999111268738, 1.6637835680494961)","(0.2806031146554368, 1.523101518471216)","(0.17292726703259115, 2.0162534472997224)","(0.2546283118543033, 1.584765378464794)","(0.26180822979183777, 1.5056379633685002)","(0.18007816939464968, 2.0926470650093125)","(0.1655547119085664, 2.0916815916548894)","(0.22453740737082922, 1.6210783004566653)","(0.28196401486752243, 1.4755163985578865)","(0.23903695181122483, 1.6137918360801753)","(0.21005145623511848, 1.569804671302268)","(0.27677847647947584, 1.4582221947956493)","(0.3132834009373872, 1.3283330726377958)","(0.26840064657548285, 1.5465055153072367)","(0.24875033071643243, 1.6353164114466687)","(0.22248661032582764, 1.555349248385922)","(0.2015914143202069, 1.7453297615888328)","(0.2660034403046568, 1.3948658855219278)","(0.2526190494224819, 1.5520473958316539)","(0.20405292201606814, 1.704586543909108)","(0.23054997502217578, 1.657545358525234)","(0.32128806742907445, 1.3227814638924846)","(0.2692277796808133, 1.3974300638385218)","(0.190118427708205, 1.780122541417934)","(0.2526816833335406, 1.5536486549150341)","(0.2179950452283558, 1.6763028669630076)","(0.3431702524468491, 1.2668815124626471)","(0.23389891452303013, 1.699082346867704)","(0.18417892322774643, 1.882278151709872)","(0.16641696071558723, 2.0961207397215578)"
"(0.24821482636305534, 1.5367461707581718)","(0.2920412810993554, 1.397440777749254)","(0.2527667341907027, 1.6300906479007002)","(0.26936853815361816, 1.5951997792508248)","(0.16254655566280007, 2.098506043587816)","(0.24678247351648894, 1.6210142177696463)","(0.26194873067261426, 1.4959482357307377)","(0.19413486997686263, 1.9257803203256323)","(0.13332342329268485, 2.6651176541940584)","(0.23027092185325485, 1.5720213287635476)","(0.2923825287893214, 1.4194980375449204)","(0.24154969792717926, 1.6314049067353047)","(0.19571385904240965, 1.6593570229461492)","(0.25094933811305337, 1.6188942924150078)","(0.3090693217061437, 1.3556722785735145)","(0.2676583154243325, 1.5607560119649064)","(0.24428844786750212, 1.6685413500302189)","(0.20286403685528087, 1.6817717677580089)","(0.20082147005591336, 1.7271316016647165)","(0.25536331498915227, 1.4555378800527345)","(0.25067006149638077, 1.5252253483176816)","(0.21483383296739436, 1.5567941925513797)","(0.23435767986452172, 1.5912208630456233)","(0.31331805650288236, 1.339494190780506)","(0.2730369264839569, 1.3732010165163777)","(0.19080297777051938, 1.7808880252070551)","(0.2506076884538594, 1.5507995584642358)","(0.2271176501200216, 1.6698844565078232)","(0.3453164428248634, 1.255018782272692)","(0.23633950909871757, 1.6992254753231377)","(0.19787332856745782, 1.7979717591475288)","(0.16546373339179787, 2.0930184590998646)"
"(0.24586848810987397, 1.5478640410514106)","(0.29336105455128736, 1.4204758030086815)","(0.2591035761056914, 1.6098040326051037)","(0.26426093868382805, 1.6280843655600796)","(0.14168069822657117, 2.4417333903503753)","(0.24873856355914958, 1.6446427026725043)","(0.2520496649736292, 1.5237594911523211)","(0.20571133011173987, 1.8532097506569278)","(0.12745435766227556, 2.844746501896854)","(0.2249492456196736, 1.5977159060552548)","(0.2795163418984884, 1.4018465515488248)","(0.23781398786117422, 1.66933916410672)","(0.18473043363126423, 1.7315481402707413)","(0.25062934024825917, 1.6265249021019215)","(0.3128632325235409, 1.3423737767823978)","(0.2790963426917314, 1.5002886084432447)","(0.23930372946054526, 1.6757600894182256)","(0.1953648887251965, 1.783283418481401)","(0.19643369888435958, 1.820173470541028)","(0.2524501536881425, 1.5655426337031986)","(0.24922795071377507, 1.5670086467056838)","(0.20944106739618762, 1.6177870358189628)","(0.23631400770346297, 1.5935739379698926)","(0.2808659747628194, 1.470778601777516)","(0.2695837086521446, 1.3959264621129939)","(0.18794332487635235, 1.8582133476567122)","(0.23684126763444796, 1.6288777564161763)","(0.23053305804720667, 1.6660598679824727)","(0.33743328969598885, 1.2914530033649678)","(0.2511780884208928, 1.5880590230322917)","(0.18191006598357284, 2.0128464010815468)","(0.1558790529827973, 2.225896770111019)"
"(0.24047929195770504, 1.587577938125466)","(0.2833702973558702, 1.4805445824759547)","(0.27149780873004375, 1.5611492795973958)","(0.25785153708915715, 1.6640886260943952)","(0.13781380512461414, 2.5532304786939797)","(0.2542779408056489, 1.6256635398463337)","(0.2680938928278974, 1.4871924410314898)","(0.22733602430679867, 1.6974065324179566)","(0.1504541904452314, 2.4502501827367924)","(0.2560919504692772, 1.4632693173095168)","(0.2984927894454548, 1.3409475985640587)","(0.2585295342277759, 1.571809506773671)","(0.19035505305938064, 1.6634830619877288)","(0.254492476994282, 1.6206866520708632)","(0.31915677814649585, 1.328589282771998)","(0.29536457022556595, 1.4435528194751819)","(0.25986575567451353, 1.6132974523676913)","(0.2073249899911668, 1.7735023001612344)","(0.19272273083448488, 1.8971673008161354)","(0.23681905941217365, 1.6716900881459913)","(0.2348932390501011, 1.6694031746345126)","(0.20137579169487566, 1.6743771495138158)","(0.23517657767195405, 1.6137465510868028)","(0.2593545614155099, 1.5990720102206635)","(0.25700669185190456, 1.4338280935918382)","(0.19743533151205445, 1.8267448460425495)","(0.24833490506569786, 1.572904961973377)","(0.22097313641673916, 1.7456625821923668)","(0.33992255087778417, 1.273542992449778)","(0.24113724320921232, 1.6643952255517058)","(0.17050761610403997, 2.175091811764013)","(0.1582111333319631, 2.2157926231176144)"
"(0.2450126986265325, 1.6176947646034734)","(0.2705744783525694, 1.5427113986169803)","(0.26443721410225063, 1.6012844017501204)","(0.2590513681094103, 1.6675275427480236)","(0.14007044525135198, 2.547765231813867)","(0.26107681419767953, 1.5939151836372845)","(0.2750911391653667, 1.4457510886700922)","(0.23428952341263629, 1.5894870242944017)","(0.1501436309799617, 2.4094743903608977)","(0.25851607792611064, 1.4007546461713458)","(0.2985884708264379, 1.3209086434884267)","(0.26062359622168046, 1.5588319076424235)","(0.1925833813982767, 1.6769050993497194)","(0.25939964470806237, 1.6283985593119352)","(0.32621339583499476, 1.3432474341214344)","(0.30294076510665596, 1.4502053455528323)","(0.26286301649379845, 1.6200329232504795)","(0.20932939728241085, 1.8017865185068065)","(0.19468229731172987, 1.916208211097638)","(0.23985497721089763, 1.671624432842286)","(0.2385730677606259, 1.6674652276603137)","(0.19920948742036618, 1.7232151265509956)","(0.23154394715664386, 1.6462676991124308)","(0.24711917169071207, 1.6574714174248288)","(0.2478077568622094, 1.4850749449913327)","(0.18442411609466972, 1.9129312877746933)","(0.23415001802077148, 1.6602990404776514)","(0.21154137898641942, 1.8374507021722641)","(0.3298289138785964, 1.2996629517992513)","(0.23744649624976294, 1.6834035581821347)","(0.16247962136709596, 2.312558131060833)","(0.15544424639391086, 2.289140941362519)"
"(0.2396105578323012, 1.6277446462571883)","(0.2747769127884566, 1.4917431762553657)","(0.23010858257876374, 1.799636316278375)","(0.24586234104752172, 1.7482820932483178)","(0.14059423764512083, 2.4899813647842906)","(0.2517982725007477, 1.6454177241725663)","(0.2893983680692926, 1.3759983555072826)","(0.24076323013934497, 1.5657830437874627)","(0.14246555993222362, 2.5607292407094633)","(0.2596023651881548, 1.4200240867147893)","(0.30534727907007025, 1.3010633987912248)","(0.2583226716631404, 1.5619801833046976)","(0.18317142778333978, 1.7163168879967998)","(0.2588388883103935, 1.6105694279380036)","(0.326876763072674, 1.2960020386761761)","(0.30113260380848533, 1.418878361428168)","(0.2648253478703319, 1.607211385198213)","(0.20610583653364778, 1.8198535253736423)","(0.19260284822152537, 1.9482548961319979)","(0.23894618920872654, 1.686148123935626)","(0.24023549259700971, 1.657386913041706)","(0.1968504514849397, 1.743862209999081)","(0.22900885598005014, 1.645468636395148)","(0.2290345913405262, 1.7080845590103402)","(0.23929169078237644, 1.568098961647616)","(0.1894275942696748, 1.9346124559595526)","(0.22739870352765462, 1.7532212420286384)","(0.21121607650317437, 1.8150876220655694)","(0.31906742290449464, 1.313044826712334)","(0.2375699524130226, 1.6484368483467124)","(0.16972933347283095, 2.2239691344843693)","(0.15767743281103969, 2.2305554034737876)"
"(0.23976564021296032, 1.6267481236961812)","(0.2887628567458036, 1.4352226196122144)","(0.20110091134895836, 2.064834164899909)","(0.2293697317819835, 1.8178869013465315)","(0.12822772141826128, 2.6538980674332127)","(0.23955682451805752, 1.7281273370945989)","(0.2689593623175969, 1.5126165797575388)","(0.2268050641240017, 1.6624004933413947)","(0.1222558938812322, 2.9303678011740555)","(0.2474535684439284, 1.5399389066801583)","(0.30663179363505394, 1.3220422599597845)","(0.25452101991614484, 1.610721513654687)","(0.18368144384418308, 1.8103400137770904)","(0.2483575883575391, 1.6884016880554498)","(0.3189120163760448, 1.3207758642426124)","(0.29179378227294084, 1.4713128118586463)","(0.26206708177124144, 1.6364700267295045)","(0.20156812073966074, 1.8870175678517176)","(0.18719223688329814, 2.017377476427924)","(0.23694069580883648, 1.7017494189786233)","(0.236156491761361, 1.6717581077088357)","(0.20611933699937066, 1.7320040879726664)","(0.2320380651691746, 1.5993479145495615)","(0.24576658568329673, 1.614368850395166)","(0.24306680383044582, 1.535298196246659)","(0.18757556049357632, 1.9290803495927131)","(0.22226729367718787, 1.709999571124202)","(0.2085505933036236, 1.8112936794558927)","(0.3098798953723831, 1.3604470613766746)","(0.22969941166418997, 1.699938358384404)","(0.18230502386754138, 2.0278682268820294)","(0.14280418650448742, 2.472407354312079)"
"(0.24294193512558562, 1.5607222140062664)","(0.2718284654654576, 1.5386336607238555)","(0.1978609853524145, 2.082536115987616)","(0.2178276456727782, 1.9338952063801391)","(0.1133934665005692, 3.0512543717351672)","(0.22918221235414574, 1.7944895644917915)","(0.26672500383916253, 1.525056641964431)","(0.23433930401207578, 1.6458508954102575)","(0.1229988466568306, 3.0796931422542135)","(0.2624561134130326, 1.5547026587335921)","(0.31208274358472665, 1.365738267837144)","(0.25833714866833185, 1.6622496138862248)","(0.18421261983437487, 1.843643056421309)","(0.24410827498606041, 1.7770470940601741)","(0.3138572086277019, 1.3787553622083286)","(0.28826717755543385, 1.5247589772183)","(0.26588948461722856, 1.6209715516517573)","(0.19992239886633892, 1.9130182910855733)","(0.18795616614950064, 2.00342125302632)","(0.23168134035330187, 1.7438313534295906)","(0.23254735858341774, 1.7100908303732432)","(0.20905345605776668, 1.7479909063981436)","(0.23431889282956805, 1.568453751300593)","(0.2575423529559106, 1.5719181440682233)","(0.23731939813536576, 1.5463898297154408)","(0.18133317581297229, 1.9176417705107902)","(0.2158977236680107, 1.7085382725161777)","(0.2103742134950897, 1.7300479846559416)","(0.3057810402119161, 1.3606461539215586)","(0.23271935840556096, 1.6474839726924244)","(0.17676868821585914, 2.0679177737617365)","(0.15507156624032686, 2.286867274924452)"
"(0.2403523418743272, 1.5956951647554916)","(0.25992642539226263, 1.5889747970545345)","(0.18976595374362784, 2.1457943829796986)","(0.2194538952045382, 1.8962925096896157)","(0.10552657053089086, 3.2950743064277512)","(0.22761927270217008, 1.8261824380536327)","(0.25702916985609414, 1.6008639970132446)","(0.21424116639901378, 1.781260769503129)","(0.11222391062377347, 3.341887837475935)","(0.25468172462996896, 1.626014554607435)","(0.29675900632886726, 1.449122403017175)","(0.2273996131134043, 1.8757126844724072)","(0.17378516137575017, 1.9723511628963013)","(0.2432383029005461, 1.7669051645622766)","(0.3080563960444116, 1.4005086998768637)","(0.2832204196491004, 1.5502602947312598)","(0.2625868155213785, 1.6460654812137387)","(0.19492656648335557, 1.9758061147432457)","(0.19780663435229284, 1.8834099607756098)","(0.21499961123663594, 1.8857697659331518)","(0.22422577206796704, 1.7824231481494814)","(0.20219655255506444, 1.7926440751251103)","(0.23430749020207853, 1.5517420980612748)","(0.27121582415983625, 1.542840128234436)","(0.22809612743500426, 1.5934952627802543)","(0.18168616131313078, 1.8828881160384818)","(0.21113829706862153, 1.7167538424576998)","(0.20990087039801825, 1.6849878261655713)","(0.2958184449069477, 1.3779271418722678)","(0.24213057122090312, 1.583621427348838)","(0.16797883771639363, 2.1306002382978133)","(0.14069824998814445, 2.519560113552803)"
"(0.22292108495840732, 1.7058101513970128)","(0.253519912590534, 1.6418582485780218)","(0.17122038410252116, 2.342674348357261)","(0.20969850683606078, 1.9440320103605948)","(0.10457084036107807, 3.2860758792047173)","(0.21314214331830436, 1.8742738069741527)","(0.26513621982243424, 1.5620625790961935)","(0.21001304728805092, 1.7958583428203687)","(0.10903076813361101, 3.4118516287432823)","(0.2532187383819497, 1.6251410922481422)","(0.3006895752533711, 1.414394669737213)","(0.22575515539215513, 1.8671745550798402)","(0.16964488518585585, 2.1045876176451412)","(0.2407092987679351, 1.75693718404588)","(0.3015041588182014, 1.4131919436857368)","(0.2814734186010207, 1.5438527782023035)","(0.25413784992557764, 1.6871377926841955)","(0.18864120566937684, 2.0609394649538606)","(0.20126072466252892, 1.902553753256819)","(0.20008076854820253, 2.042755690723272)","(0.22123713984484863, 1.8436090667394787)","(0.20591581646235593, 1.8217068802104794)","(0.2369862492648157, 1.5787837427391407)","(0.2776635930875004, 1.549772455198049)","(0.21760516132807248, 1.6579647757035612)","(0.1801596293929303, 1.935221084705886)","(0.21131350653921108, 1.7547109189440322)","(0.19622841513986553, 1.7879271606503375)","(0.2955167549002712, 1.411027621495945)","(0.22794791353147398, 1.6365245364952323)","(0.17063495466563414, 2.0659650782779693)","(0.1323159554504538, 2.624393894995857)"
"(0.2122891722074439, 1.7419006875256204)","(0.2554168495207826, 1.6107606102416494)","(0.17809847129095022, 2.212968032357572)","(0.20239762566640823, 2.0533158716888753)","(0.10376344901811585, 3.272862502923457)","(0.20664705601612765, 1.8982083015628692)","(0.2569007132248058, 1.6072281664875396)","(0.20680061489416712, 1.8170923576663665)","(0.11248420848363701, 3.31551624771517)","(0.24754235348145145, 1.6492807532676683)","(0.3067679315179207, 1.4023118406929214)","(0.222593799313115, 1.8883978804040265)","(0.17099807975352171, 2.0691083027349935)","(0.23563928495258202, 1.7637868879847058)","(0.2931549491291167, 1.439136513090842)","(0.27231198916975224, 1.5676040183173165)","(0.24702311602718297, 1.7030040293765756)","(0.18563546149464327, 2.0479729825933854)","(0.20298702147260178, 1.8741891749263795)","(0.20078665415209018, 2.0769763659173073)","(0.22721386222495202, 1.7932336064418213)","(0.20877927198101415, 1.7821227927451255)","(0.23971417869769887, 1.5687023571790137)","(0.2778115791083116, 1.5339069465811674)","(0.2103457786293512, 1.6794131700230297)","(0.18424736036866024, 1.8927341202812884)","(0.20672814437087245, 1.7565547930152392)","(0.19544483494317877, 1.759792550161375)","(0.3030763105517878, 1.3734263438371355)","(0.23326083515318285, 1.5950341289691305)","(0.17593205444939156, 1.9707877822424764)","(0.13661687827151445, 2.5707786427428863)"
"(0.20883862824192762, 1.7247551116194586)","(0.24903856215344378, 1.6209601187313314)","(0.17606372357033997, 2.163674761424513)","(0.2016195393661903, 2.0250669913787824)","(0.10421788898846505, 3.4270791583290032)","(0.2195318244390671, 1.77697350196539)","(0.2592184943764008, 1.589047849770574)","(0.2153928184635225, 1.8089506487215838)","(0.1365638625976584, 2.7483036119646345)","(0.24193504411469188, 1.667326157663285)","(0.3105648555212788, 1.3719995686867372)","(0.2279128035176948, 1.840634963393724)","(0.1784216669220522, 2.0361203276318833)","(0.248319237191474, 1.677659088372996)","(0.2976430537825549, 1.4089823336226874)","(0.28061653421216853, 1.519824461121583)","(0.25192357593985965, 1.6749194438740473)","(0.1976700412299045, 1.9612008389569107)","(0.21043214643793481, 1.8656258045471268)","(0.2089449006552102, 2.034364770490251)","(0.22880593812356004, 1.8113632249402358)","(0.21130312256151265, 1.803708062047558)","(0.24021094237268548, 1.6026491290602494)","(0.28544883251992986, 1.4717889318739283)","(0.20717551469978862, 1.7214417234590451)","(0.18205281904780096, 1.8865337750537727)","(0.20404249146815767, 1.726804924779916)","(0.19057988131713097, 1.731733765077017)","(0.3025501017909194, 1.3899416900020596)","(0.23325527258953593, 1.5421246726057354)","(0.17888381463874845, 1.9104547699604155)","(0.13794175241916026, 2.5827075445613583)"
"(0.20913946984549692, 1.7057162475152263)","(0.24413017277331, 1.6340077895239369)","(0.16947293737791133, 2.175224835352547)","(0.20103783436493353, 2.020074554578831)","(0.11798732042483374, 3.027153438633956)","(0.2292646721911402, 1.7238870881969222)","(0.27399717114925776, 1.5278228241779268)","(0.21676337677704588, 1.7861884944998656)","(0.15700274296577743, 2.411778990851011)","(0.24247980931567112, 1.6650662104690341)","(0.3105573538584511, 1.3796675115618808)","(0.21639930834788623, 1.931315432859255)","(0.18619220110935988, 2.0173019272851533)","(0.2363029108913497, 1.7627098013124545)","(0.2907952589525408, 1.4380416480572578)","(0.2699093690417391, 1.5832385853229503)","(0.24098498313088612, 1.7718498169302315)","(0.19498993302194953, 1.996501226148239)","(0.20031507150930863, 1.9353155414566519)","(0.20662700470992085, 1.9969726835719448)","(0.2100848062554865, 1.908986167635143)","(0.21236488491061956, 1.7984649005832487)","(0.2357233920030909, 1.5864479156301545)","(0.2914190923696955, 1.4394467308993184)","(0.20597346116079152, 1.7062726185222408)","(0.18542650061145582, 1.8053637750314337)","(0.2100783453378875, 1.662975419560124)","(0.18908375040702555, 1.6969623765400808)","(0.3123366088061255, 1.3481477366669485)","(0.21467041661608716, 1.6629390370728556)","(0.18316227248304115, 1.8690621187826308)","(0.14482032708328127, 2.443654973893268)"
"(0.20628958451164223, 1.7349161582554433)","(0.2517381030137081, 1.5624147265715613)","(0.1709852052469525, 2.127460806404686)","(0.2096307963430879, 1.9591937981295795)","(0.12862890322361836, 2.809318760030108)","(0.22932137199364067, 1.7201817738052694)","(0.2835479815006626, 1.4833607550025187)","(0.22602963684986774, 1.7196485585282681)","(0.16379000742074515, 2.2673664060657424)","(0.24559423759061716, 1.6325566651145347)","(0.318206283250319, 1.3606417172926206)","(0.21508417071604136, 1.9183311793103934)","(0.1898495670851508, 1.9552752173212764)","(0.2338259425418611, 1.7552256870792424)","(0.28988431423128197, 1.4346532388682056)","(0.2618643650701099, 1.597116692190997)","(0.220377668408976, 1.8522917282931006)","(0.18417766584983303, 2.016959302760676)","(0.19489598061137153, 1.93923223327826)","(0.21715312330873007, 1.915419421574445)","(0.20080679262231121, 1.9816737334416976)","(0.2182048996925943, 1.7239666816890886)","(0.23309266138168955, 1.6012409728334693)","(0.30122864676177774, 1.39959174198649)","(0.21079482946848593, 1.7155136925685872)","(0.18953353320684826, 1.8055951861212378)","(0.20821212215650842, 1.686859823317791)","(0.19414413150431437, 1.7311508918998315)","(0.31165066995802776, 1.3666449365345203)","(0.2166722557022655, 1.7272895098397982)","(0.1929612341357784, 1.8022033550469256)","(0.1649739776030493, 2.1124967416509697)"
"(0.2070380711380485, 1.7058258960094814)","(0.24933052606207387, 1.5715938552565643)","(0.16506717371352733, 2.169972223245859)","(0.21332811664725956, 1.944126242416561)","(0.1252993164271055, 2.8748212727616163)","(0.2305610423095516, 1.7127715623754074)","(0.28563394993482766, 1.4710889702809011)","(0.22508976486388285, 1.73782544065895)","(0.18181626697431091, 2.044298138388123)","(0.24186308249612787, 1.6537655302756507)","(0.30933870429275834, 1.394820250554146)","(0.20678488903311584, 1.967151927798037)","(0.17212205866818628, 2.079295495813538)","(0.22463215066466027, 1.770010704260313)","(0.27647312006120045, 1.4461808160887366)","(0.25097158562991434, 1.5986577444938088)","(0.22163357928641125, 1.7752106052502057)","(0.1850585799886276, 1.945322410241753)","(0.1940365801209125, 1.9251983189063184)","(0.2244905728279612, 1.8312308899337306)","(0.1972975607736335, 1.9958238955561336)","(0.21320802320868065, 1.7432342924358553)","(0.24115962050494294, 1.5245030484207198)","(0.30734521942499865, 1.3798550995382262)","(0.21954542778461678, 1.6476886548777356)","(0.1979947191048652, 1.7312015143436457)","(0.21517383688144026, 1.6344773988724135)","(0.20169982158372995, 1.674630927171049)","(0.30802790141919145, 1.3570212591861153)","(0.21529497622662672, 1.7609257827341755)","(0.19067579573693152, 1.7992590813055933)","(0.185796240169432, 1.8477449439364888)"
"(0.20259200059608862, 1.676060376452731)","(0.23347664661934903, 1.6777374897657706)","(0.16703113996943048, 2.0792086205450437)","(0.2107875884100007, 1.9346436972758052)","(0.11727853878842319, 2.942541356375104)","(0.22852228787830783, 1.6994335418844144)","(0.27112218677292116, 1.5428596948379234)","(0.21653410087170114, 1.7793807648403384)","(0.18403004069943202, 2.001639997126738)","(0.2396268796690652, 1.642189724706392)","(0.29558710966532603, 1.442136271700485)","(0.20760494051452916, 1.9381832551409743)","(0.17721634041945206, 1.986299700417)","(0.2295193464537029, 1.7348203846162698)","(0.2827077018038544, 1.4495121620564326)","(0.2531447457930916, 1.6079774248761134)","(0.21897106270553804, 1.7877423632690002)","(0.18336270909568153, 1.9729566852438205)","(0.1983310941693337, 1.904228692512815)","(0.23631918587887402, 1.7680913982091353)","(0.20092108927295496, 2.003836619818533)","(0.21323352830254264, 1.7442919165959672)","(0.2340843862832946, 1.5870989910243498)","(0.31145151927658465, 1.3601164982194673)","(0.2165372565344622, 1.594465318398931)","(0.19111104605787027, 1.7361268029280792)","(0.21740592154941293, 1.5431115338585804)","(0.20404458873709258, 1.6199252449862023)","(0.29646476674399974, 1.3918118867300149)","(0.2214927779957949, 1.7253266374726886)","(0.19082472415764276, 1.6949293500876563)","(0.17571644700221906, 1.9462873499679838)"
"(0.19827832293073538, 1.755552720966024)","(0.23662479900460578, 1.6728736200991143)","(0.1808320545765526, 1.8873808531947964)","(0.22834864487250386, 1.7832889816871786)","(0.10679695507447623, 3.268475875344368)","(0.24930462760806088, 1.591363276270085)","(0.27664789602425244, 1.494120618682355)","(0.22354743290628576, 1.6987903937511204)","(0.20288519854711232, 1.853523959437833)","(0.25215691487152625, 1.5494105214074705)","(0.2960407624598377, 1.428557169571734)","(0.2165454259351848, 1.8564041654094408)","(0.181240344245454, 1.9144700681843816)","(0.23590527941642914, 1.6718272763165631)","(0.2830768492993531, 1.4382496565488152)","(0.25598127207462434, 1.5819760903040216)","(0.2233308521765294, 1.7534066684549978)","(0.18316492406528903, 1.9697327547112906)","(0.19839278686913064, 1.9033837217634964)","(0.23900195103576993, 1.7348750882628026)","(0.20377883307029873, 1.9905026939083672)","(0.2133578715216717, 1.7103732776605616)","(0.23580787676682832, 1.5919010156246192)","(0.3130909417572322, 1.3838262163965878)","(0.21205375557026018, 1.6352113529564833)","(0.1872421816896263, 1.7598490417421793)","(0.21621829403756193, 1.5835916010201403)","(0.19024951175269053, 1.6990484196677613)","(0.29829387481305547, 1.3893433799990473)","(0.2195186203762967, 1.7348049567276644)","(0.1809789229113584, 1.756889187297672)","(0.1792025761359343, 1.8692836675736326)"
"(0.20403226763064938, 1.7522587272299732)","(0.2545899518095925, 1.5496698034942076)","(0.18348674197199863, 1.8713001178809145)","(0.24437222384906782, 1.6417395366437)","(0.12072654015953226, 2.8839469357399814)","(0.2545290753162213, 1.5593923627525426)","(0.2717250115201759, 1.528793776413066)","(0.20570100103104869, 1.7984130752785692)","(0.19690717732494117, 1.8250514252722954)","(0.23417302810710233, 1.586773735244154)","(0.2832920881651449, 1.4484161327279257)","(0.2083144425589914, 1.8470525836777745)","(0.17341886287532207, 1.960687199121721)","(0.23382374548633814, 1.6270538047263892)","(0.28062107063765235, 1.4037221401998874)","(0.257305960927628, 1.525838159975405)","(0.22263869330110114, 1.7472793980831967)","(0.1840958363381071, 1.975857266285209)","(0.20162194343256923, 1.8816168576844772)","(0.23153675384717565, 1.794278391413132)","(0.20774295488073835, 1.934738116972408)","(0.1997093954393015, 1.7839981610055602)","(0.24433966342710634, 1.550511920124521)","(0.30709690865942396, 1.397471913448399)","(0.22381183102905744, 1.5710800992847778)","(0.20435668828848047, 1.6858275013007906)","(0.2257789909336061, 1.5085135329683887)","(0.19705150836577653, 1.7058403200847416)","(0.30466339985499785, 1.3782469355462068)","(0.23714954593456006, 1.624212804009384)","(0.17922514356434316, 1.7992281138361368)","(0.18436186969279422, 1.777048835616747)"
"(0.2138702334917443, 1.6410147057303897)","(0.2724721711531932, 1.476504493070463)","(0.1894585500311516, 1.7764366853781486)","(0.252881236300918, 1.589888821786667)","(0.1582776476387337, 2.201308580654616)","(0.2573789808458694, 1.5168160356166898)","(0.277033625821907, 1.4699380444993955)","(0.22309609753973883, 1.6383560509389192)","(0.19360282698477582, 1.8450355445330804)","(0.24111474173710337, 1.5168007851050314)","(0.2896151543674866, 1.4032871970991145)","(0.220288463263095, 1.741545230505973)","(0.16297926219959005, 2.0768137941102647)","(0.24321804162323948, 1.5621146156412329)","(0.28750292535344285, 1.3531447408016566)","(0.26253789209811773, 1.4784037781347117)","(0.23925099103863864, 1.6158720565444509)","(0.19337785897064777, 1.8841143103041536)","(0.20912204444381055, 1.839284400968406)","(0.2533019402549871, 1.6538535656942435)","(0.22498427027687518, 1.7924283295356378)","(0.17971424095140967, 1.968969913194866)","(0.25097747568865086, 1.5140813133654454)","(0.31167488985827113, 1.3613752401959938)","(0.24045961178211664, 1.4751967922509461)","(0.22214443715012216, 1.588182320338758)","(0.23760517375397006, 1.4901972292990546)","(0.20264509120576787, 1.685252317643825)","(0.3150509876291389, 1.349674568998928)","(0.24850998096153823, 1.5649375112910326)","(0.19341610409832477, 1.6954287830636545)","(0.2035026237888246, 1.5894280857670187)"
"(0.20810973664302596, 1.6780019002001956)","(0.27254271488637927, 1.4618038595575167)","(0.20121845398600274, 1.6659817582062353)","(0.24065021706672898, 1.6778926224800452)","(0.15747256389509648, 2.2217543009884055)","(0.24835628546675378, 1.58540703741474)","(0.261714965380964, 1.5219647118985098)","(0.21888023643001875, 1.6948012161364163)","(0.2137599667956177, 1.6723299709709012)","(0.2381286012136207, 1.5237739884419264)","(0.28472021350244525, 1.4193530160981356)","(0.22961202686765872, 1.668571851926744)","(0.17419349405659187, 1.8941845827472863)","(0.24822442203835038, 1.529366641813829)","(0.29356018166476255, 1.3184971488368005)","(0.2691585160391012, 1.420077817048058)","(0.2535261140886218, 1.5197680855089373)","(0.2135303763827013, 1.6688332776903578)","(0.20573661806015192, 1.8059284938379492)","(0.27593344973300077, 1.4986988964190229)","(0.2373312894176057, 1.6865609172883842)","(0.1940650421413174, 1.7280679384692845)","(0.24394854620862882, 1.5222107080603042)","(0.30452156446315737, 1.3544230950131586)","(0.24138822707234742, 1.4896509961880129)","(0.23655765619493865, 1.4604284735824529)","(0.22473065811793969, 1.4320324730201148)","(0.19850700794589818, 1.713715249422028)","(0.3098989956550235, 1.353055102603514)","(0.2570404055366129, 1.5664433573837133)","(0.18951923522715614, 1.750720123239235)","(0.21389397306783026, 1.5382565616921018)"
