Fp1,AF3,F7,F3,FC1,FC5,T7,C3,CP1,CP5,P7,P3,Pz,PO3,O1,Oz,O2,PO4,P4,P8,CP6,CP2,C4,T8,FC6,FC2,F4,F8,AF4,Fp2,Fz,Cz
0.5837013681894052,0.5851080395442563,0.5795898615139241,0.6132951537510363,0.54404895010674,0.60054814979335,0.6077588593658527,0.5692362806249576,0.5516550431302387,0.5812697347019928,0.6024938694783204,0.5674632490569076,0.5282826497127302,0.6090186356340883,0.6135435557497448,0.6220278724511963,0.5907096599898551,0.574815870761451,0.6189782871288703,0.6361034079417669,0.5799266761671507,0.5468105858803711,0.5898014749589247,0.6316202608281878,0.6068069466094066,0.590349508349449,0.591272243180681,0.5699828100811177,0.5951592123229577,0.5785084710528308,0.5608005581841757,0.5419275540441175
0.5858380494114575,0.6051960275245492,0.5799704445870826,0.6222704892921613,0.5467635988803217,0.593146199914734,0.6167308511520333,0.5877492171935992,0.584011995259194,0.5746212425359976,0.6105448164892384,0.5659051422907804,0.5180944296391661,0.6015213323805098,0.6116047887565133,0.6111105852271455,0.6055884240501355,0.5522878510204214,0.5605768849258985,0.6045372156262268,0.5968258415806305,0.5388190910574351,0.5874167476290335,0.5928380012814354,0.5937153079920181,0.5663297490299715,0.5975141093502554,0.5765924628078825,0.6199328612146835,0.6059988954168793,0.5683154816311662,0.5282342382127925
0.5833371085428878,0.6105952448461749,0.5803499285965747,0.6116441849881258,0.5745888674492545,0.6194138565553557,0.6143040506309512,0.5868827439236681,0.5321505985163411,0.5847845605079827,0.6380862536838161,0.572297933976246,0.5312462665011566,0.5771882606993959,0.6045492576300746,0.5848547650687315,0.5985022001234546,0.5756824978496691,0.5523358745240339,0.6142966517103043,0.5857066982017614,0.5352916927188089,0.5729011854780697,0.6332784278230843,0.5656654625122415,0.5789400935163478,0.606197494776668,0.5949701194705619,0.6261503464738878,0.61280695186342,0.5850285068530212,0.517437114559582
0.6092503050470324,0.6003890876150337,0.5795477297286302,0.5994709912388161,0.566456490805682,0.6140557625916583,0.5960694705093568,0.5702581468082757,0.5348261440095499,0.5692175349087765,0.5833703297951023,0.5713354208100814,0.5523861357291615,0.578315522089011,0.6119641905214652,0.5815416371126245,0.5675241593285318,0.5275460226911757,0.5545229000129344,0.589196107852962,0.5635256487088025,0.5279065170875006,0.5922264489278035,0.6425674033948012,0.5697936717067962,0.559493138736685,0.5647403202351762,0.5761100174057305,0.6271741543154228,0.6160823345099509,0.5502123625251887,0.5080958169126499
0.60853371380085,0.5930658239187134,0.5986819850017513,0.5705161086023036,0.560901543949369,0.6005076267102796,0.6116823757377441,0.5628732836818555,0.5332886579160987,0.5878238714994559,0.6043074824898937,0.5597815813366096,0.5487620244763498,0.5979486904970761,0.6317291430108729,0.5790572801809191,0.5811202572949812,0.5597591042516381,0.5866315000012006,0.5614737862403514,0.5329477912822784,0.5339712765065494,0.584342194293813,0.6288350860133458,0.5950896579895626,0.5884971043879297,0.5950728558364737,0.5368256813398213,0.6503586583225731,0.6156069276978906,0.5650601614773696,0.5370284729651811
0.6428892870585465,0.624658863010441,0.6054474757662187,0.5806397665816432,0.5686976622571693,0.5910302644998562,0.5891390188508265,0.5779611984848545,0.5563025964255708,0.5948993359026278,0.5897302297398652,0.5803150709290108,0.559450335087297,0.5989895968931189,0.5923256258705814,0.5899183816375211,0.5488726356306994,0.5988868992740919,0.5941386668151627,0.5750430016815726,0.5768213933984074,0.5429373944224078,0.5976345590532173,0.6668063640953088,0.6024636117457773,0.5935722159692229,0.5861937335556351,0.5992214845895658,0.624765626575436,0.5895433061936024,0.5926094648956965,0.556279770994013
0.60406227426326,0.5926079094536112,0.5719193127451114,0.591928193419101,0.5800269554726101,0.6082050617095351,0.608680161675867,0.5413207213677302,0.5439462144809948,0.5537351159026884,0.5784126247720405,0.5692801593180352,0.5331196427729146,0.5774796103807391,0.6031776275706662,0.591316388122741,0.5617653165464986,0.5726352219900641,0.5432927425951153,0.6013236571283933,0.5727606459623735,0.535748627165324,0.581582095815917,0.6274487139080955,0.6226565526781478,0.5929577137024231,0.6168660063256186,0.6031460408059877,0.6172471553851535,0.6179616928426324,0.5561899174882567,0.5498321395418779
0.5544951845522705,0.5745059924086884,0.5530118812309706,0.570544159240066,0.544053150611314,0.5995882502281509,0.5850702480578187,0.5557893672419563,0.5301960872563143,0.5519734461278065,0.5847735721976743,0.548286659890934,0.5044508726893961,0.5243263930708544,0.5794420136179932,0.5739909016347688,0.5478218833959572,0.48541519023744817,0.5427562306750602,0.6105091213806033,0.55408442833687,0.5420252032837922,0.5668683792883891,0.6294992605209981,0.5928627503593007,0.5109862408459951,0.6149891927435416,0.5743027767496591,0.6239659295653768,0.5994883792635113,0.5526046282331047,0.5310668842170672
0.5544157422886364,0.5937791144400681,0.5626677941175657,0.5606701888556942,0.5530985333036211,0.6040735258548264,0.5624008768983249,0.568908615978335,0.541906764117833,0.5622903603974438,0.588508294478685,0.5361348996962807,0.5371016317538992,0.5428209832765316,0.5890182593694107,0.581659443454988,0.5720165654573353,0.5298523843889611,0.5601257140300979,0.6392769001733858,0.6146079311360473,0.5473038812186233,0.5594613825704391,0.6272343203069464,0.6079400332135685,0.5467309140251739,0.5887499583618636,0.5813113267185539,0.6295613888549991,0.6365569626845411,0.5838601032108937,0.5437893633108777
0.6157713906065094,0.6013574906764898,0.5690946225355122,0.6061764688687146,0.5670983923071953,0.621530391196079,0.5857622541031695,0.6068166214879214,0.5372384546908902,0.5863373563336629,0.5916742676460212,0.5837964041847408,0.5435230741099999,0.581981929318331,0.6147932115889518,0.6195938304770716,0.5909753653117784,0.55945439717906,0.5843944592935939,0.6279291759668371,0.6268966680868466,0.5534090182637503,0.5784656140683824,0.636021361710807,0.6133074577141064,0.5531429697259038,0.5913480046591428,0.5856373576226024,0.6354792945374976,0.6306350585266318,0.5546958627524123,0.5468275585501896
0.6052337196898661,0.6131333508265753,0.5891084268181119,0.6307819283904523,0.582352422404695,0.6091898342299,0.5888649147018672,0.5916434938547481,0.5541744333775065,0.5609691608391678,0.5834023791176985,0.5941374503761874,0.5371007714911591,0.5712692083232445,0.6016057221005124,0.6017530330144854,0.6006986819954303,0.5635990389784569,0.583600650684728,0.6137609474377657,0.604783549724949,0.551815777971219,0.5801984042718762,0.6137211848026314,0.6124983038933576,0.563731652439607,0.5967142849172804,0.6163612435376886,0.6491250994289004,0.6266391918614413,0.5763409159933301,0.5467821414675997
0.6011063112782167,0.5933915625402713,0.5778076389569509,0.601169875468222,0.5781596699859817,0.6041968872024102,0.624786709196298,0.5802260456054573,0.5875832247311834,0.6011837735003596,0.6040062658340943,0.5933645612866334,0.5678621659911971,0.6127942798206001,0.5831199858687093,0.5906881929111707,0.6242552664572703,0.5704968622647129,0.5655710287239768,0.6074447501192544,0.5708438722897284,0.5771800502086215,0.5714275377094533,0.616863175878859,0.5964719004921721,0.5811456191660715,0.5872397666824192,0.6001468530199463,0.6238112889256553,0.5957406366096629,0.5843577369479656,0.5472827952861001
0.5748744678572781,0.5832895177757398,0.5759768472737616,0.597705237794262,0.5713080191006803,0.6055978347890751,0.5870741984094017,0.5754815177675692,0.5365745615836519,0.5692837355517835,0.5884214900407425,0.5719379490698064,0.5391672752848287,0.5639039980779748,0.5783714596377094,0.5961907494634198,0.6071574574677845,0.5658980769304387,0.5540552136314698,0.5719733860964693,0.5572968898772128,0.542411291084075,0.542769251604458,0.6310432809849753,0.5592402350260488,0.5683294103219971,0.5979322299659038,0.5732963567585867,0.6076440080442636,0.5832004643180135,0.5657054624656239,0.5271465020593626
0.5702969986761031,0.5907860207697042,0.5668370157602864,0.6005735530961025,0.5666970148245505,0.6228179839623951,0.5760016369711436,0.5504052891891771,0.5339014906379935,0.5604011817931345,0.5797772917955188,0.5561978299455452,0.5388152688606369,0.5143274017804411,0.6037537691030392,0.5750253728226351,0.5863666556291003,0.5637095166125783,0.5349362268677802,0.6003807049723537,0.5819464400207508,0.5317488367193763,0.5525478764659733,0.5976240062974711,0.5396982237509245,0.5539864335897668,0.6045741483445877,0.5604198932192941,0.6024722027034146,0.6115709540674015,0.5352457072309456,0.5282652169913447
0.5002715637275128,0.5721417379971427,0.5894598561616826,0.6056686319688205,0.5750870954466576,0.6188247163548257,0.5951686656645712,0.5554766971173524,0.541148868854441,0.5436918933301613,0.5820387331411481,0.4888173927719657,0.5394437089196473,0.5783830854140835,0.5832338588941153,0.5770051302541832,0.5946247069927453,0.5626600552944332,0.560864493477419,0.5846121124539629,0.5810866385171836,0.5585785884359544,0.5917035353863618,0.6087415838605956,0.5769004524822043,0.5404754437639694,0.599561882627762,0.5882749684614454,0.6145262721409854,0.6167954526186725,0.5577430517012889,0.5393506510576693
0.5191830865779146,0.5792893242512611,0.5644530109327519,0.6002511740176684,0.5817954735357396,0.572561426557368,0.5573377043568692,0.5274858248303365,0.560379872555012,0.5154132727493654,0.5894058846305361,0.5426474310036573,0.5649139165110091,0.5707120041897671,0.589308230603081,0.6075689570917504,0.5832419028883016,0.5604920362532986,0.5675161122604617,0.632535426877562,0.5799334685237811,0.5696922998245357,0.5656852964172203,0.6121173269141034,0.61039151490814,0.5512038799893157,0.5744900405210243,0.5995321533530156,0.5954740879416871,0.6148250741236683,0.5857414950851747,0.5448962149636785
0.570095681226988,0.6107835030215103,0.5498869259009758,0.6077332213694628,0.5849551792322143,0.556346312369866,0.541233527829176,0.5828923820733225,0.5503728114994719,0.5397368914976144,0.5857253649109571,0.5285833012862629,0.5338647204493143,0.5422527783797553,0.6051678583794051,0.5740454279056646,0.558948827049917,0.5452360004162107,0.5835168753500763,0.6303853188996782,0.5735115287185697,0.5246911426518857,0.5605069995797987,0.6022848018929694,0.6102656075344388,0.5593106116042454,0.6031376889136899,0.593572200930061,0.5934447508425174,0.6317544676002722,0.5730568429827279,0.556956563496712
0.5868955402942602,0.5894788877245198,0.5779985838777968,0.6006977533304991,0.5760766755972724,0.5886879569751637,0.5805692265947777,0.5653207686325672,0.5728989553364463,0.5769424735144169,0.6113854677433932,0.5933251549362484,0.5361538397732626,0.6089473854097025,0.5919106972400172,0.6125924042767927,0.563985502915556,0.5667991215694945,0.5419673481616734,0.6235780442414391,0.5637686266310622,0.46942267517829883,0.5763589401107558,0.6144938135597942,0.5972330770513854,0.5804667356819433,0.587546589472673,0.6228593965091012,0.6078862167085926,0.600937406098184,0.5663600249261527,0.5545567816016814
0.6037613435080145,0.605238372047336,0.5951097408036774,0.6238397165538498,0.5843094290266517,0.6103731981801124,0.6070694136202031,0.6098485054655214,0.5875720968632496,0.5810669761681462,0.6017837010871263,0.5871810140778289,0.5442307767877361,0.5875951684815135,0.5828821560889703,0.586641437388983,0.5866776290160804,0.5617596119443173,0.5486464432434919,0.6003150873599061,0.57113680709609,0.5225234861132257,0.5762263888626751,0.5964363106255375,0.6106293697806073,0.5850039419671131,0.6160620492853268,0.6158297843910465,0.5992753885291449,0.5806709415660962,0.5773403941636341,0.561457929951561
0.40347330010054483,0.53060812105449,0.5785471306375407,0.5753996319835117,0.5640019703619594,0.6072676554528558,0.5748702358778175,0.5851000903861139,0.541140988067871,0.5654893458025878,0.5830274385606642,0.5670758209503601,0.5058880598420417,0.5738895987528503,0.5802322101675346,0.5670362690007043,0.5247906364777548,0.4993741390472328,0.539558535285801,0.5883404196217725,0.5697770978274566,0.5490057763365459,0.5788707053916498,0.6128912673839015,0.5671281890311834,0.5936674342963024,0.6219526802272051,0.5631545349299301,0.597949214056122,0.5120082831001458,0.5763306527537266,0.5619892788345173
0.35808487374518316,0.5261803823959594,0.5481957688967931,0.56685459457983,0.5897407135672603,0.5802171288554168,0.5303033596799973,0.5700209344062444,0.49836511441468767,0.518444719328123,0.5862760636267974,0.5232321432796985,0.47609255240521,0.5164296248931661,0.5683460757806702,0.5551519195855827,0.5209876111899887,0.4991280995944991,0.5315544407498578,0.6141933968756756,0.5756892955427113,0.4892363722821025,0.5821269590512776,0.6270761154632187,0.5755892207864157,0.5839359588660096,0.6311738527973332,0.5353139364789024,0.5917996556928258,0.5153390129427877,0.581213083048977,0.5264928032377068
0.5089924127319243,0.5450880779915162,0.5373172594793822,0.6022119388465783,0.5809099403702329,0.5911300750024826,0.5663848585632341,0.542599773448317,0.5082884462670378,0.5336548411587256,0.5924974970209593,0.5426881711460303,0.5027558432980976,0.5321439483174251,0.555864263491324,0.5522483499664124,0.5656918032152873,0.533568715927669,0.5402540674570169,0.5962539967969183,0.5698035400415646,0.5361073960968294,0.5979328321482558,0.6162773231859782,0.6168078505590757,0.5795148715581422,0.6284315046315401,0.5868464044514785,0.5941807129988987,0.5748040322010444,0.5884346640080618,0.569064451154826
0.546779115156979,0.595674938834835,0.5485286353796188,0.6084924023908709,0.5689449488606493,0.6068991923128979,0.5474660821891844,0.5747569737500742,0.4893050856989922,0.5480389422261109,0.5762627414902561,0.5219822805445355,0.5162176547662245,0.5001489108471975,0.5596666478518779,0.5651048906770249,0.5522767228802397,0.5457186586969018,0.567680158818094,0.5947231583380437,0.5764266387839925,0.5761004254605426,0.5600909952361617,0.6144304977189412,0.620327575483274,0.5690652371607223,0.6155846340787581,0.5867556554962214,0.6147481942057857,0.5967506458594776,0.5675636887240412,0.5452334559833436
0.5344964857330203,0.5916261433738348,0.5702826710425093,0.599487475245676,0.5634755344356308,0.6038333612831606,0.5848090098140215,0.5640599461412013,0.556459255959274,0.552114468136844,0.5772224981285627,0.5085697927750306,0.5453845935226429,0.5061316968379375,0.5614714986430296,0.5671495842133951,0.5563095448629722,0.5216835837828602,0.5241101318194912,0.565890175871,0.5631670073530182,0.5799855733139521,0.5593064757195183,0.6270427800677307,0.6019099659357439,0.5294451618698939,0.6305843471290431,0.5722587856323904,0.5932560324156038,0.6088025161119575,0.5358139451032371,0.5059956120703677
0.5143707243171765,0.5935122264538637,0.5470212689815246,0.5778502907954688,0.5484305859562943,0.6161518853522296,0.5967732885640125,0.5762391588677556,0.535906116458305,0.5722014919989649,0.6138355588356745,0.5429442333131238,0.5223151905554979,0.5601585240748936,0.6105111776179535,0.6167096185550074,0.5701525665029936,0.5658525269367236,0.548959953055919,0.5978433440968978,0.577370749904702,0.557362011432355,0.5801887379086894,0.6159414039824354,0.6232853590051612,0.5557131654927798,0.6041538169883762,0.5829602806339595,0.5801421931523838,0.6268974839656138,0.5518365671915357,0.5461367828029915
0.5374450102573896,0.5740955307482376,0.592497481840319,0.6211058981626634,0.5649118521296033,0.6082690837982083,0.5743086695080852,0.5689606884670653,0.5309766476785684,0.593444799031559,0.5994245853370317,0.5877353215924233,0.5181992521608878,0.5838988916239769,0.6042129670206826,0.5517771505899409,0.546575892742255,0.5372920393694098,0.5693102234085501,0.6125340094176015,0.5872660287313032,0.5565562729621227,0.5955750356840412,0.632605392813002,0.6196092064579055,0.550591438379223,0.6233718664466799,0.6093225511659588,0.6194649932912424,0.6274956741636246,0.5704408804507755,0.5566308896814025
0.5325729011954459,0.5906486019066697,0.5725955647013312,0.6181820989438207,0.5811428398464673,0.575797506656206,0.5577191979798237,0.5651013799545388,0.5710026769365757,0.576534061273509,0.5689363209431062,0.5638134828654269,0.556709198440204,0.5295012324886459,0.5802683070759151,0.5384303299080324,0.5357250268220048,0.5308050763308909,0.5448551722451906,0.5968023028836815,0.5584653394381034,0.5720852491667263,0.5685167782274534,0.6090804809900687,0.6053066767421713,0.5599433242942804,0.6294511685645054,0.612536705942639,0.6398474152953066,0.6043539730985339,0.5559765970127764,0.543070303666163
0.5473838729358786,0.5780506677235207,0.5653944192818003,0.5724623732563683,0.5529144402697206,0.5693290977355834,0.594723296341126,0.5630003528299032,0.5670102096271084,0.5821142409379187,0.5842999958293729,0.555633587620668,0.5405413555894327,0.5468441608757777,0.5554672831497633,0.5790572942593144,0.5654017265682958,0.5437650188034651,0.5664480780974954,0.5790806225781089,0.5529760332512152,0.542804124356715,0.5752185794136104,0.5612127236399775,0.5925679984841543,0.5425239174872005,0.6217464783492943,0.6067758062262598,0.6410755549283631,0.6124654869612765,0.5281610765556057,0.5433460340588203
0.5857518293465778,0.6095104912715783,0.5637012659814387,0.6009113523007255,0.5726938307962892,0.5844460359670252,0.6031418812961515,0.5758717861279945,0.5669704165086742,0.595457099669491,0.5913448373499754,0.5335392509084271,0.5506975490335808,0.557038947366828,0.5588643651033012,0.5879113286907436,0.5675369542788058,0.550581685167749,0.5615172314894248,0.5525535741021876,0.5857414186690297,0.5459511537852464,0.584148421817178,0.5987439082386095,0.6139970149513352,0.5691185926686173,0.6110766457889385,0.64996005624961,0.6282627604403364,0.6406991508092981,0.5341355845333777,0.5550206122054253
0.5713384362790572,0.5956889268723256,0.5581553092637743,0.6212725867175779,0.5661231805077853,0.5990603354454964,0.5818501402548866,0.5547332012373043,0.5626343789210986,0.5772734359217733,0.5885484560764409,0.5735814013912406,0.5883078550922116,0.5673116258867688,0.5435693001208346,0.5813844752078423,0.5992281820269136,0.5836808486181537,0.5451170909273526,0.5996149777250666,0.6017262029456889,0.569837955442281,0.6065093136203918,0.6305974129612362,0.6285929931984859,0.5914030028151136,0.5661586706539494,0.6144311108778964,0.6133935725129791,0.6186877365875918,0.5788525566161193,0.5679288252548047
0.5812734456165316,0.6176685947674492,0.5236913474340463,0.6290965702426337,0.5597254740900168,0.6057515228149266,0.5904412497396687,0.5174408045200458,0.5410127769078117,0.5469380424598653,0.6125160825345732,0.5339500655417413,0.5419121706806007,0.5718703700764305,0.5699857963692527,0.5773156647934492,0.5627820523246823,0.552386673183745,0.5649381934178992,0.5873531212795591,0.5835159511859698,0.5353145224525853,0.58440429111812,0.6175542359408,0.6194696314714574,0.5912019351880153,0.5884026261882154,0.609543092889226,0.6452353381460814,0.6145735209579755,0.562463887385829,0.5061834499544888
0.5973577902544074,0.6112908378006119,0.5751048203143627,0.619395016427418,0.582724530784958,0.6579801163945072,0.5840905725033898,0.5613579620542426,0.529610373112749,0.5356864158015915,0.6061771597067169,0.5298979344831589,0.49097022289577374,0.5523070423177954,0.6043904807275342,0.5830285393560817,0.577364246467257,0.5585341473791332,0.5436621443441005,0.6013463074396026,0.5848085355676718,0.5442525659295581,0.5830598622652552,0.6159110047483831,0.6212566886833897,0.5761534500234156,0.6267564616158783,0.5961662590702725,0.6308743753603259,0.6203293584016927,0.5741322507881255,0.49536715813923315
0.6185915235997124,0.6580374982449086,0.569526297320452,0.6123564700735025,0.5887119355186843,0.6198711835128345,0.6029315170469296,0.5895875696635628,0.5520788609601768,0.5685148363311248,0.6022034699771166,0.5990419278691608,0.5261902824222382,0.57796448418024,0.6121408926767473,0.617886988091072,0.6109442108919554,0.5502068970164009,0.5667269669859643,0.5981741322574878,0.5354387862198737,0.5477812413212555,0.5754004987838885,0.5859764620650276,0.6287729433978444,0.5868156492913741,0.5838969396796911,0.6020607187792826,0.6016322601792385,0.6149847906732675,0.5819154841599321,0.5306495923410672
0.642291463741608,0.6525958609215312,0.591206774268763,0.6327944571226114,0.562281977214238,0.6097849037479457,0.5436936933685104,0.554166863947489,0.56709460531262,0.5530404130279352,0.6015240299784037,0.5841767580581236,0.539200247896503,0.5982986298786424,0.6314050483911231,0.6063595382982543,0.5867930357198583,0.5317425104305546,0.5192659958055037,0.5810451136699171,0.5607860826558926,0.5647843910367825,0.568644986116611,0.5666705389069047,0.6238099576386995,0.5601964939889319,0.5986191987676053,0.5995514448115613,0.6242649605640862,0.606240860468501,0.5332409009398367,0.5524908454706057
0.5811942475626917,0.612322793224811,0.5587907486528811,0.6079880332695669,0.5819878167646619,0.6150928859744544,0.5657192899000778,0.5689530298157797,0.5496693896596399,0.5209156830988526,0.5818949299706828,0.5510007139175181,0.5224908009218789,0.5750834762214936,0.6098000803614974,0.6071331757596812,0.5615045747638003,0.5849869392182683,0.5816794008207915,0.5894091380227335,0.5859664320415909,0.551625464541003,0.5497984493585584,0.5925958423279116,0.622995983138297,0.5775567352789728,0.6255599197721811,0.5957755504582045,0.6052397022678093,0.6056709494898684,0.5663563676990786,0.558758100394043
0.5695206384989584,0.5849135606984133,0.5632013972937671,0.6112594589756513,0.5722084035300683,0.6089112890421644,0.5642606287134369,0.547390145752022,0.559364402932407,0.5498953646252103,0.5765861345217154,0.5915775004458932,0.5568204771953424,0.5924526492434126,0.6105918025529418,0.5967669939761149,0.5974752209341108,0.5516695218607341,0.5696995373973119,0.5808571516643184,0.5883746605807154,0.5600778746364448,0.5712658598377272,0.5859404389127105,0.6135243236469452,0.570724804080168,0.6277141927406085,0.6032795352145777,0.6127707659175905,0.6486585807503968,0.5639742613099723,0.5699682905424299
0.5241881998355837,0.6012447811511734,0.5515322866632628,0.6211452959953006,0.5650125961206096,0.59558558045424,0.5608223520849238,0.5537992973220982,0.5533097577441857,0.5361105000722128,0.5494454984972208,0.48576561460939205,0.5269872319457733,0.4993597609295217,0.5838440360238928,0.554837735686581,0.5747842011024882,0.5460021823931864,0.5482389785367197,0.5930791088802096,0.5691975409437333,0.5145998261040208,0.555900763666576,0.6226435009513467,0.5930116023006056,0.5715571578089058,0.626626764112395,0.5792791244716966,0.619991561363769,0.6178144594074886,0.5519943007919013,0.5422112480250254
0.5461597778455025,0.5621307384599779,0.5566809291430235,0.5703121923143928,0.5360762373291412,0.5839981013757987,0.5739977086040757,0.5464950258081132,0.5412402956342888,0.5154804920215832,0.5372287853652113,0.48365161545546,0.5109984032974908,0.5000259629764061,0.5571968234681277,0.5125210065697714,0.5020568948101216,0.4970128468514332,0.5272377174604301,0.5903878712778039,0.564133362795114,0.4978871747273761,0.5377307685343511,0.6077941109458593,0.5800249812057285,0.5339874090277967,0.5927709552766678,0.5951361187649318,0.6330065640987419,0.593849642039229,0.5202557825134884,0.5369373444615522
0.5580781685811353,0.5835563615563353,0.5590204946196788,0.5807359793610347,0.5309605432874553,0.5873677432451929,0.5563027004108632,0.5389480339365864,0.5394320463286877,0.565839599941631,0.5511788405928821,0.5263293603545334,0.5266260823622675,0.5486671402720469,0.5946088339712512,0.5278872214350594,0.5232312815505153,0.49471100746919117,0.5115151998493404,0.5694398143169495,0.5649614539714007,0.5100096878206277,0.5593635314569787,0.6051523552072116,0.5932471385126603,0.5696199344182094,0.6005508490367366,0.569815328572624,0.6216700175502652,0.5761902653151503,0.5366610363572688,0.5416125745352889
0.5111439884798026,0.5986859132418099,0.5721465005034343,0.5660220911564231,0.5522547603383372,0.5774812597306758,0.5585386635628069,0.5311909631215457,0.5499554595212248,0.5494431925024155,0.5695156973836069,0.5226178624176683,0.5198605610586173,0.5335120565480791,0.569573418050604,0.559077721107081,0.5378092730598008,0.44793839415524905,0.4890509124501321,0.5930138568865346,0.5701600246261092,0.5534096767805705,0.5611545513239795,0.5987571271227137,0.6034563676917073,0.55376715858351,0.592293113553668,0.5848731024311769,0.6037626856598131,0.604616488260203,0.5312883695899524,0.5452485837591765
0.5247592195802371,0.5844129944983325,0.5236763678030956,0.5594805069842339,0.5447231930656322,0.6158195644669293,0.579953210732822,0.5704763201049321,0.5307345198481652,0.5973994153319042,0.5870694028558274,0.5249835131714149,0.5180585745360231,0.5019642987095274,0.551929785187216,0.5566033326832174,0.5383492931235478,0.4540550266169867,0.5062348976778064,0.6112343788268682,0.603266400404737,0.5125868757229517,0.5899252541951552,0.596365419779239,0.5871775408396305,0.5372232118141156,0.5683002342060677,0.5771691472656393,0.5995816665126341,0.566468613532539,0.52886480877959,0.507455604687685
0.5697129987775709,0.5516581226387611,0.5204614158048697,0.5748959409966319,0.559012494687964,0.5884066740689393,0.6061661955403932,0.5427807900762787,0.5360818725246266,0.5805597417724733,0.6108236414272219,0.5359517816382358,0.5017753878850835,0.5310818850148173,0.5706783515112468,0.5580767330222796,0.5409389679340051,0.4679675066973692,0.533459773236614,0.6000153180251049,0.6107487754423788,0.525071523080785,0.5935269462029336,0.590472956288993,0.5829743436967987,0.5789769147525208,0.6109999057243471,0.571113839243615,0.6249978784859653,0.5375801431715956,0.5264459555216061,0.510584438792347
0.5577645823482276,0.5840012923310614,0.5867249042646465,0.5889822919215071,0.5760009899817677,0.6026633396201606,0.5849487869690897,0.5335951234823075,0.5331848066910787,0.5573495015145404,0.5743397513249211,0.5171465341134058,0.47483702174240117,0.5522823526218761,0.5644658429421598,0.5404324208063644,0.5732618860340586,0.5268403248929392,0.5232683190072249,0.5967116415901752,0.5621739745284176,0.4757827742162446,0.5262326754576216,0.5966182513256992,0.5998571995206952,0.5494652404213625,0.6054840334716229,0.5911130713653217,0.6010457669419651,0.5796054663378585,0.541563548323122,0.49215022270562514
0.5612678532210009,0.5700426434960413,0.5677349084537084,0.5614533934220582,0.5829167992486739,0.622630689890677,0.6116180499383597,0.5567686989171383,0.5415335054921764,0.5828332733732928,0.5979480475317365,0.5451494627555453,0.47608896450633376,0.5448624555475208,0.5780265014180173,0.5756578208605707,0.5945594359303628,0.5440932149681141,0.525945694062012,0.6056221673265401,0.5574404526866479,0.4793634508509883,0.5448527447676406,0.6054664740856266,0.5913910044626269,0.5791312362676595,0.6061829076583889,0.5896077213812538,0.5983486179046089,0.6083301268648844,0.5688920404879583,0.5290074901871069
0.5649023371336255,0.5805277657771688,0.5514952572412355,0.5709290716548789,0.5702523512712023,0.6019965863424255,0.594582230789992,0.5932883585900304,0.5340878372832654,0.5644535377396402,0.5860157166925606,0.5639759446654056,0.5235659252188074,0.5445582062738041,0.6063395057259151,0.5672112380025727,0.5751178338385885,0.537522218135221,0.5574561787872594,0.5857878240723315,0.5893284196508071,0.5402523122833665,0.6055790811657125,0.6118850934458115,0.5954465652641208,0.592581662122821,0.6177409737223947,0.5579691151775874,0.5902986746336247,0.5920665220334689,0.5716734719654095,0.5501244435092962
0.5792587035910546,0.5824489452937489,0.5436498207307117,0.6045104200848708,0.5406464539234221,0.59885775139273,0.5700363011577658,0.5878667990767568,0.5845289350369387,0.5806351964444216,0.6006761931319637,0.5676530736395877,0.5529983353629753,0.5257368317357307,0.6202328615464325,0.5843958352935239,0.5596459812263004,0.5223874941106113,0.564383484090325,0.5947533912621612,0.5891576200080371,0.5519987781700517,0.5642937196021753,0.582256924224597,0.6003913462392365,0.5938324932550452,0.6212524257600216,0.587691025197036,0.6009655385047905,0.6061695084492156,0.5650974248164045,0.5572215481045597
0.5829867494513721,0.5973878132382784,0.5319892608591328,0.6176167418745826,0.5819820883909372,0.5929805135613657,0.545715568368975,0.602747511099758,0.5488388651778706,0.5799517252419712,0.6124903420323471,0.5704980874305683,0.558350240060772,0.5550432461471275,0.5779666023777277,0.5871053457186868,0.5680744780396965,0.5520388659110327,0.589647182817119,0.592047262353554,0.5816100852212602,0.5677816451840139,0.578103318084985,0.6094478138117387,0.5867663340965552,0.5970303769037804,0.6138306249069494,0.6040787887179855,0.610964149197307,0.6218866180965095,0.5858826694894486,0.5542740662126198
0.47933864499204715,0.5522307148698498,0.571792718463703,0.5737534902146124,0.5902787564745444,0.6058694526193018,0.5703482847615704,0.571979401418901,0.5519847089777912,0.6033195123927304,0.596513592156326,0.5860277296523635,0.5415321887433593,0.5617235589215084,0.5994033726684642,0.5945301100902016,0.5848733611149419,0.5286079037276354,0.5375007660741393,0.5991359360342021,0.5884796801024761,0.559739227514044,0.5550729543872213,0.5899944077795345,0.6005726588919109,0.556490888212994,0.6195041798260466,0.6231673654410841,0.6004616151949311,0.5470620168389386,0.5738504341408444,0.5600833482846013
0.35027842003828935,0.5396112299907694,0.5720488230989718,0.5689689648906824,0.5607633714740468,0.5785779433141212,0.5432375007328227,0.5286329556610374,0.5252784745243289,0.5040436299950737,0.5600951961849878,0.5011433903385107,0.5172597220537702,0.5618721009812964,0.6088643753813159,0.5780605964129779,0.5251018224350346,0.5454732253532231,0.5436865287381836,0.5711008530581223,0.5706468679001904,0.5367857030219705,0.5637936269195158,0.5880073921348918,0.6061879803764283,0.5596775279722626,0.5906687788999605,0.6177753797190686,0.58048079085306,0.4606074301085563,0.556881280622278,0.5127895712397916
0.35932681845203485,0.5553422049225092,0.5896343117342688,0.5751545289516153,0.5705753553941277,0.5812815997884306,0.5402293911219438,0.5115753848868243,0.5399286652609319,0.5156227010539443,0.5983521392984779,0.506084246089749,0.5226128913073675,0.564131241035156,0.6196344570565597,0.5718424025204869,0.5428426801525319,0.5261369924767703,0.5285630064880338,0.5926154415176148,0.5637004725276733,0.5527574910350701,0.5598326142258085,0.5856265687593405,0.5935172136925875,0.5834771737912559,0.6275346560138884,0.5858530530126358,0.5915261516550383,0.5048963376136126,0.5553940366978574,0.5430380138535855
0.34869573477801286,0.5322931572728877,0.6123471810564993,0.6113427419387034,0.6040330478539007,0.6308650070237785,0.5204214969451662,0.556189320830943,0.5600281231372564,0.5038627665822704,0.5327579475459938,0.5153928311410922,0.5214304113118309,0.565389341445313,0.6107890876851574,0.5909323413865697,0.562839811212045,0.5327731685804475,0.5204805747604984,0.5884375960662673,0.5474199452545547,0.5197128444158836,0.5782844195766059,0.5878002121005377,0.5981399607811584,0.5721189849728705,0.6064148015057529,0.5867181025132919,0.5675611793037851,0.5286446544984602,0.5252673304096969,0.5846617290831224
0.3651018308342544,0.5445115476087352,0.6159328862935416,0.6109554975528892,0.5798864313018228,0.6305171114565948,0.5643087314227575,0.6039969200881306,0.5251940493207377,0.5073955122776614,0.552550921570333,0.5138952264600571,0.5211999456613507,0.5678041223091466,0.6285610608106182,0.5951044973545851,0.5815049314058669,0.5425833836350922,0.5322577231768926,0.5872219845501072,0.5610357851685466,0.5464693619705026,0.6159175752820434,0.6196746488219196,0.6079662144148559,0.5557502066920637,0.6178246613316145,0.5931403509818534,0.5981079413715333,0.5519337877966151,0.5313497808844851,0.5684464716703781
0.592754688870567,0.617357914835408,0.6049107606834174,0.623994346056906,0.5862481318483055,0.6300966561297829,0.5929095077572888,0.5986204605049399,0.5288665798338754,0.5707456332139054,0.5858587786964189,0.5797718394639948,0.5269841172942509,0.6013187193276943,0.610649555281261,0.609595233337394,0.5929404084425784,0.5532308338558249,0.5357386598824729,0.6138403711062388,0.5610180169360786,0.5753481647440406,0.5898837428215882,0.6084636458840698,0.6066846799700638,0.5874579421455572,0.6067154704392363,0.6173572823203606,0.61048861083224,0.642678041384086,0.5684767033378426,0.5527000386277625
0.5944060002361979,0.5901379133768545,0.6036384705434994,0.6235843930004328,0.6003814425141925,0.6140588161119265,0.5839929712736045,0.5967869091919038,0.5669879611107707,0.5651142147432844,0.6225398206957413,0.5990637368965643,0.5898453495070375,0.644358864014265,0.6094349463312301,0.6055669631938683,0.5741684306011998,0.5753369170685128,0.6008864716107483,0.6063630137675586,0.5927654061988599,0.5898647141385753,0.6294835570052291,0.627547443371955,0.6183268927177776,0.6074552163303966,0.5972208973228539,0.6230333065102354,0.6012523222483241,0.6359716909284638,0.5723000589282141,0.5970165640439107
0.4225662871949627,0.5790709236223504,0.6165034143368815,0.6172844915260032,0.5723794224976868,0.6241837401457744,0.6010541010604804,0.6044153604397362,0.5393701938523332,0.5685891435050809,0.5742044123593883,0.5409385824915676,0.5727183893841055,0.606737239754576,0.6143844514162149,0.5944360726956477,0.5760556986868997,0.5763038105471061,0.560752992078299,0.6176836260792622,0.5845905002361826,0.563230042919189,0.5983468671012369,0.5956405727323655,0.6186133609254818,0.6430066981100664,0.6253654127547086,0.6076983759235035,0.6323509929184032,0.5843968752691815,0.5759398818141457,0.5777302041261598
0.38580399411047805,0.5876367393674511,0.5848419862483616,0.61798054796889,0.5859717516405851,0.6128357822469233,0.5706002992824932,0.6023403667550413,0.5369320328633105,0.5726439414063824,0.5978466703760645,0.5538902931885907,0.5496231189877934,0.5938969116960715,0.6219343817279408,0.5915962879881822,0.5663473967068331,0.5457142361134224,0.5372738221850972,0.5957474370453508,0.571505979725393,0.5422451263101657,0.5880213475750433,0.6090067628218816,0.6100321388486263,0.6298420426415556,0.6178431815421757,0.6263336304854841,0.6247647422589648,0.5624117455666084,0.5575998694679827,0.5777539259055811
0.5314652085253795,0.5862789411217224,0.5874053531267629,0.6295238624168675,0.6021788876330851,0.6100217012319304,0.618439341790443,0.5812598481680742,0.5262837064548336,0.588499066212143,0.5922739550218554,0.5835741696647077,0.5456885220269312,0.5946898768746012,0.6197599803040217,0.6119319693882197,0.5903860989602463,0.5730549912992373,0.5849496025981327,0.6087593602215442,0.5985720013372,0.5751352308685487,0.59299765438189,0.6347992229081454,0.6110612763846301,0.6268831438405096,0.6029913639403062,0.6235248775776565,0.5803728221140081,0.6240229756681126,0.5575676530157887,0.5914666104439772
0.6064432910983921,0.5949164530072228,0.600028894391563,0.5808770786890873,0.5639042888372892,0.625286810932884,0.6109837369699576,0.5868374540099053,0.568794672983163,0.5967839010017664,0.5982843063246559,0.5660871873885638,0.5361367974023898,0.5877467045076266,0.6043224175826483,0.6149072559549462,0.5939103895217643,0.5484237805547219,0.5681604615810842,0.6231071649776414,0.595266104594347,0.5757756997387857,0.5950040046733038,0.6098489406031034,0.5959044943162883,0.5910771925914116,0.5723845712304749,0.592595184163224,0.589076564394595,0.595240777803764,0.6057010019015752,0.6000061913492587
0.5509911850655231,0.6125277740481394,0.5702004208175158,0.6070417939450587,0.6019352648919263,0.6082999037383519,0.5920797966066491,0.5731718573211961,0.5438429955213695,0.5792768163732016,0.5817863458673815,0.5467090587822496,0.5428101016660913,0.5816665336450826,0.577430296176157,0.5737104591530233,0.5500893623423857,0.5248974041456096,0.5479146510760389,0.6150539627612326,0.5782880895147131,0.5622030839325549,0.6038870834031913,0.6415126368968007,0.6059053729907147,0.6064240570203294,0.5882584069536354,0.5910807984401667,0.6144437575444814,0.6068459608135619,0.6039038381464152,0.5932009281654116
0.4763947481460229,0.6219146462048766,0.5723782657053462,0.6158275334980599,0.5900537841717548,0.5860934927999306,0.5829202155488735,0.5978257395986688,0.5449743522448616,0.5649061914037716,0.56805889923716,0.5560269123760766,0.5419916205106938,0.5433235813868595,0.6168168791389381,0.5813320459185007,0.5614558190990429,0.5488520237690908,0.5327924953245766,0.6082621320626509,0.5834785686077035,0.5745681367959259,0.5918956967612816,0.5884707801330937,0.6221433604842046,0.5913535044779712,0.6342673838120696,0.6011843112626427,0.5989715286730766,0.5856649387695816,0.566152379107792,0.5584834971404056
0.4599615553257621,0.5668574444002372,0.5964112939587234,0.6183768197561315,0.5387372607334959,0.581555935421544,0.5576966456572041,0.5667708653289059,0.5340825515649592,0.5587039150547848,0.5465314793197598,0.5309285678379001,0.5473314509163791,0.5436537327409816,0.5630654892996017,0.5236553514884781,0.5396349648151384,0.4958608265881499,0.5248035206446557,0.561623763060231,0.5948001806516667,0.5498351621957238,0.5730275881839004,0.6164520000013143,0.6067371348046504,0.5479073106931125,0.6027230886144297,0.5774867332170217,0.5952731918855427,0.6120145460105877,0.5152354340002314,0.5197603558193684
0.5175536890507169,0.5836727533522938,0.5910412992134462,0.5927370230132429,0.5132782326738052,0.5854680264614287,0.5893933737456072,0.5454429017767075,0.5067339727300295,0.5387110618973971,0.5710536769736341,0.5432318185374969,0.5178824075558861,0.528944786656564,0.5666277267667406,0.4902271041470492,0.467753699585324,0.4550356600418177,0.5195026809726118,0.5707586499824759,0.6033794577401594,0.5538528246194434,0.582453767394493,0.626968754805552,0.6091337840953166,0.5604673609534845,0.6428200617146156,0.5824775849833541,0.6143822699721198,0.6111401231843749,0.518176400953323,0.5046699713520524
0.5671520964158421,0.6197483716507435,0.5915350755389559,0.6215394246693631,0.588981211525831,0.596463234132758,0.6046403141776557,0.5788325896508142,0.5229991738655544,0.5405238901155931,0.6147224953306543,0.5531860735110752,0.5268007246634774,0.5696342462397377,0.6189880082063208,0.6114348014883482,0.5752377637882882,0.5451770482245801,0.5833330801851737,0.5992160467280883,0.5912406938051791,0.5431581403141661,0.5895327249717761,0.606087775993017,0.6175040127120148,0.5920183403009931,0.6421970005960542,0.6003531710472982,0.6390175636252713,0.585936885535518,0.5695753062521081,0.5827227000319266
0.5964971466905169,0.6271898414152539,0.5980586929984115,0.5963043312397907,0.587007064380237,0.5990527390938047,0.6068158751590977,0.5514468063095075,0.5741951663010019,0.5743218872337783,0.6104852287339186,0.5354064207675515,0.5812800842936401,0.5940722392708802,0.6089261899572049,0.5796606156313318,0.5960827341295754,0.5607111564255138,0.5624526670745542,0.5824012506513361,0.5920299515589984,0.5770147342648104,0.5755841801743897,0.6056737868526554,0.5999750173454292,0.5677113748508473,0.6061485517695155,0.6058112530852302,0.6240251507764976,0.6010119169588175,0.5522654736589692,0.5743468804581888
0.6233864804769875,0.6198603380900325,0.5542982246896453,0.6083406999818806,0.5807970773157458,0.6056608349625772,0.6068860657957749,0.557025154335002,0.5719281700944343,0.5682846642088304,0.5860120629224315,0.5372841088922815,0.5501163473310449,0.5254540294439369,0.5870817934287635,0.5713317852911315,0.6080092809110718,0.618549966058584,0.5723192681911979,0.6030776388228207,0.6031050893626784,0.5239444038670213,0.5756266309170921,0.5969222645693151,0.6137243118997917,0.5692134158918094,0.6059564439879184,0.61854287578694,0.6194010860884451,0.6032336314386222,0.5608174210296211,0.557836787342016
0.6074899867802612,0.5905663909114969,0.5529590412639287,0.6146780917505081,0.5464036203981588,0.6059130194176205,0.5726622297716601,0.5672639188138793,0.5516981078120984,0.5310542959281173,0.5491117920068032,0.5354995473702271,0.5429001023323856,0.5429487675221245,0.5473231813299,0.5830899870599255,0.6156418612110315,0.5659343413269844,0.5444430036976016,0.6277314725612033,0.5969792867025285,0.5411873260104647,0.5830221778960336,0.5971972477419016,0.6316554245395145,0.5765275935114773,0.596100874123874,0.5991747816546273,0.6143689086487596,0.5828937943623695,0.563909529533742,0.569973722312072
0.6153503600064929,0.6220524633312814,0.6037255167156901,0.6188635739270558,0.5964897115533097,0.6170459230494649,0.5820834532388504,0.5794724813981587,0.5147872452450217,0.5671491286202497,0.5908780754957554,0.5729230749425147,0.5328017026254313,0.5743750396506213,0.5998138833763553,0.594412984942839,0.6248735504968774,0.5426629626173338,0.5666487423573829,0.6020580389469643,0.5630043795421233,0.540595721352819,0.586367989329394,0.6125338871368777,0.5992397389560171,0.5865526991460168,0.6307800473595124,0.6147779139215053,0.6056056949175144,0.6020475626232193,0.601306325722653,0.5646537984957569
0.5735493650400141,0.6344970650763471,0.5951148495474414,0.6135864680193333,0.5464102531676649,0.6193452100558505,0.580567152075139,0.5402928297175529,0.546377783366311,0.5797220907996046,0.5631524002036383,0.5666977575643171,0.5646913759197663,0.5835041037902005,0.5924197767385158,0.5992604510674804,0.5756119458458353,0.556954530768591,0.5489401151241182,0.5949083955301515,0.590053542650963,0.5662884348871402,0.601656776317784,0.6366015382815116,0.602016512162896,0.6151313167356385,0.6260734753393229,0.5878048491658365,0.6120737573626855,0.6314337698169483,0.591810701801454,0.5289520497496012
0.4965309200143646,0.6121739006547173,0.5805855407401963,0.6079498882000887,0.5535059787026033,0.6291109454854795,0.5959178752657532,0.5479332661258454,0.5735446724970772,0.5886075516237743,0.5864700134218022,0.5686073353173211,0.5505873621194399,0.579175147912077,0.6017124919687733,0.5907914852979417,0.5611977966535813,0.5617903489910128,0.5791679961360736,0.5821209646242189,0.5935636023034547,0.573195519470703,0.5816380911971133,0.6119576470240711,0.5934848156379058,0.5589348670958114,0.6278074966078822,0.5848603754973762,0.5927229307807642,0.5760134191885311,0.5539463384795762,0.5352393158269555
0.4256452592079154,0.5923174739208599,0.6082448670722891,0.624472460903871,0.5843000458023853,0.6049658677573406,0.5715386585547004,0.5544785580742162,0.5707831904794802,0.5761922498157781,0.6295711012060003,0.5568557165527714,0.5418646704837746,0.5881835076624635,0.6100016846203893,0.6108915846027632,0.5819730686040652,0.5523993878071694,0.560128838404657,0.595189927867398,0.5652583722058862,0.5722416255549838,0.5632330732663893,0.5926007431438021,0.6072136886489825,0.5676364521023798,0.5912240357377945,0.5994694159784162,0.6325427991373918,0.5651403810787188,0.557865802908498,0.5475612121828157
0.523285334185271,0.6001976839962526,0.596549234680186,0.6206469391548257,0.5988298891868062,0.6333318993521009,0.5812640043556279,0.5671879724131097,0.5767620887388492,0.5947092979149766,0.5958958442285573,0.5885686343857763,0.5714169687026986,0.5975563114755693,0.5739972357765883,0.5863262353474359,0.6013369291877959,0.5367474064651971,0.5384980292013921,0.5937896468953134,0.5828032354185488,0.5548810985055743,0.5789930322124142,0.6134065079814519,0.5995899787395071,0.5722015695076732,0.5881769735982973,0.6174423440072476,0.6412787646206288,0.6227810778240483,0.5805366483323597,0.5786828621159996
0.5246349299305906,0.6255185207320255,0.623474946748253,0.6219042686152654,0.6126784072358604,0.6322489166078613,0.5727074129093825,0.572922293385119,0.595277575162585,0.563886568626009,0.5965259303973216,0.5758522179808954,0.5558299620656926,0.5892353276009512,0.5934070264010725,0.6189109279369829,0.5811590678783403,0.5503641913478252,0.5703914247315045,0.6036811464461027,0.5920930607927146,0.5711006304550206,0.5916267671419999,0.5910163244310351,0.6072634077589978,0.6046013160293793,0.6108080354726257,0.5783245725143926,0.64003394624004,0.6217856980659406,0.5834071626701887,0.5693060577623106
0.5387713118490254,0.6202050314802312,0.6071458122439535,0.6038791722031474,0.5912755019842,0.6506285280926671,0.600564491729136,0.5809967308536788,0.5751176413728372,0.5254442154200132,0.5626432983753595,0.548861269127797,0.5577990402512456,0.5803947360300841,0.6074852751395694,0.5969886380292189,0.5717293598157456,0.5603134204230655,0.5705744299750419,0.6264743671805584,0.585203699835676,0.5762067739686727,0.6101647687408094,0.6004938196164282,0.6141242880388349,0.6266852809862198,0.6331400387611534,0.600043278019061,0.6054467324616497,0.6061435774801973,0.590908700038856,0.5503883292824323
0.6010396840905425,0.6087623889267282,0.6117619214340348,0.6333449311928581,0.6079165462094478,0.6245521622037509,0.6023564630938383,0.5634036259913962,0.5460704275487105,0.5817315176553226,0.5987659040350248,0.546879502028311,0.567496372259495,0.5929443686843805,0.5889342685287766,0.5991682184823373,0.6025039825964211,0.5679286331406268,0.5778214325807447,0.6168313105163601,0.5688532709389915,0.5682220355054577,0.5702210506092444,0.6254382849658784,0.6431734050652862,0.6033477796450897,0.6140174284769104,0.6239621895367371,0.5879072855907603,0.6128754186404501,0.5546839951044453,0.5572024047140078
0.618446937972196,0.6051223207621721,0.5655013049408781,0.6131546088750088,0.583132276551769,0.5853465671884779,0.5306764234896999,0.5503968320528076,0.5453678428847026,0.5856057218715134,0.604803033841486,0.5716998321207836,0.5650863531817802,0.5780024654638058,0.5860698236328821,0.5553462318131421,0.5962434281726265,0.5508743566132162,0.5685126945596339,0.5845150526349752,0.5767304317870656,0.5556713642787496,0.5791469220702958,0.6042208025384896,0.6475222516767696,0.5807273643721738,0.5881961691563236,0.6336882835263107,0.5766230039540376,0.6202600083201499,0.5702977631262445,0.5627619145567588
0.60236017906354,0.6117012560429647,0.604152300389198,0.6316879209843291,0.6042357438784212,0.5856939085901374,0.5724339261551319,0.5665449702390948,0.5373211667102562,0.5696914121165038,0.5514683077743348,0.54278011135905,0.5391128660920534,0.582752509721641,0.5990267446716921,0.5887710888275506,0.5881899888504227,0.5423072417751893,0.5360401748049362,0.5626374692071581,0.5571070122835673,0.5589680778946056,0.5838678936797619,0.5786355906965723,0.6219337417188009,0.5904471272357985,0.604151514857358,0.600799359674903,0.6321004306966627,0.6213628875943282,0.5807668891631956,0.533481441153389
0.6124083805048244,0.6297011966248061,0.585903425784938,0.6372841948497392,0.5690759288629823,0.615289626958555,0.5606240858503102,0.5881591507121033,0.5137593926092867,0.6043889239634339,0.597144244516858,0.5776623787730162,0.5355196757809808,0.5460342457172112,0.593624114898812,0.5658371747772564,0.5657064968695287,0.557301859339228,0.5374701808413649,0.6138382197902734,0.5722083237286761,0.5505508992255477,0.5685882135045097,0.56899985677929,0.6171124721359322,0.5683826322943872,0.6200977738418243,0.6055049402065737,0.6031546606858167,0.6149051641952856,0.536284458166949,0.5397645108159117
0.5842058211749546,0.6062721607880666,0.5205243871641101,0.6053874630811666,0.5398641873087531,0.6032605049329045,0.5503473188047785,0.5395546548751424,0.5204556347050109,0.5985411867246477,0.6141456447461473,0.5728491876066486,0.5027264954002488,0.5726474402310058,0.6048092462323758,0.5898867195498454,0.5519725442504924,0.5470630847666911,0.5328484021286513,0.5900563090200741,0.5694122522040961,0.5107905495203697,0.5934787499549863,0.609473782134855,0.6006288926513297,0.5585853812600705,0.5602984863896197,0.6123921740598477,0.6004616276983712,0.6224992532616658,0.5005301500158401,0.5016461423993723
0.5738487838018971,0.6063288379558518,0.5617206671314778,0.6237500804058409,0.5555286281559737,0.5804531540740085,0.5286275949254589,0.5628307159475141,0.5640034624684436,0.5519358683376772,0.5882787201547965,0.5647282269512828,0.49935825403730894,0.5901181220797129,0.6113645794331264,0.584539608591232,0.5800926304803151,0.5488057774407902,0.5209449687723624,0.6197118618281405,0.5882573927676575,0.5224673279724166,0.5629039139234964,0.6381357045284526,0.611709372103205,0.5847143675282904,0.5766828035256473,0.57979587633363,0.6299584426912253,0.6183350573140882,0.523078118274142,0.5166965866355806
0.6059950699678343,0.5922778864297862,0.5766492669654131,0.626165897255123,0.5894387080491836,0.6072993872092942,0.5502920404385288,0.5904002071707732,0.5243477946414314,0.5706044532529226,0.5836457428106003,0.5786945072374272,0.5091318117568782,0.5658419278635178,0.617914393055988,0.6213345902486425,0.6064216641833444,0.5384963352483672,0.5369972716844678,0.628666170746746,0.6060794142023154,0.505134224662585,0.5862377222743063,0.606495847377023,0.6202287990209174,0.5816817474595966,0.5830382335266453,0.5896344957862674,0.6018809335019859,0.6032390426148697,0.5896038426562384,0.514089581273387
0.6130623955512804,0.5745687434339892,0.582294723573582,0.612156627132558,0.6037710817612054,0.6140232770661966,0.5881859457178753,0.55153717857928,0.5291640011941823,0.5618577602704575,0.5999325335934476,0.5694409444454411,0.5376762414721399,0.5732777887632263,0.6037260411592342,0.6270842412743423,0.6130568674685812,0.5737704804001766,0.5674344132099494,0.6050452463036082,0.5942029687224868,0.5492332248548215,0.5882659548013947,0.5734259474104482,0.6342565526645023,0.5722546867924674,0.5890585402445634,0.6329507478921599,0.6330186573569385,0.6160895544826914,0.567186461520977,0.5332695284693174
0.6014040650806045,0.6303430756029984,0.6063912986352453,0.6252320096013824,0.5554091183413083,0.6139804900603782,0.5504383101634223,0.5766871703495426,0.5306451454490033,0.5767905442956018,0.5850017136692762,0.5764915326718039,0.5613472571912901,0.571696391158603,0.5904800995001196,0.6163880553946095,0.5743825413705101,0.5478747096949155,0.5571700578213035,0.615085793016303,0.5803198222931525,0.5512464410200324,0.6066419118159438,0.5875603694626461,0.5894198021844739,0.5504861533134058,0.6168985451698359,0.6493562871552654,0.6193555329689713,0.5921134461835238,0.5649438352062783,0.5584690419008962
0.6008151170381475,0.6209331897611352,0.5867039620039041,0.6052232596513596,0.5612615629682578,0.6159308171874067,0.5782073091565216,0.5756507094357728,0.5149755120552149,0.5801265938120461,0.6152751054840175,0.5924302818315872,0.5236169137135565,0.5796628022942354,0.599634081529365,0.6049323648877372,0.5535567406146793,0.528681467614613,0.5453971090084417,0.5912798166289597,0.5671382110936838,0.5283810804106008,0.5807946189099118,0.6063535839964422,0.6188398417164223,0.5857607188455134,0.6318881127470015,0.637517434905845,0.62072063813687,0.5691966014199314,0.5419728731329694,0.5344299158570998
0.6209950891063447,0.6207000326701513,0.6159160472177261,0.5717571333476599,0.6008880049366145,0.6078219262822735,0.5984392846156643,0.5549165770600246,0.5471914263561621,0.605213168392039,0.5799871410813524,0.553197659183255,0.5325524054633068,0.5767205030263094,0.5920825999808921,0.5934690384770125,0.5682480325945276,0.5086315638053636,0.554326958372692,0.581678111523527,0.5742880976598879,0.5409154826308553,0.5853555828129031,0.6178824453040228,0.6034601462058284,0.5945522675222641,0.6223248949459128,0.6370847681068361,0.6369137960214135,0.6005036776908588,0.5349976372055636,0.5647754706020813
0.5780357654810504,0.6157709983133244,0.6024175217230479,0.6343712849383789,0.5622583467486915,0.6255743435375902,0.5900232467350222,0.5640642033870953,0.5646427576791027,0.6025380372694498,0.5872346544844418,0.5779973932629994,0.5311232449988972,0.577102530079145,0.5845492919759612,0.5620524410234808,0.5552774973463119,0.5076833415414144,0.5612181512970316,0.5683116757096207,0.5919679360004939,0.5518235329944443,0.566236933174721,0.5983754224612627,0.6019110571140716,0.60853130479066,0.6252860011316099,0.6133691671250823,0.6077849750646616,0.5934564744841038,0.5484306483192176,0.5620623183910172
0.5630773757767225,0.6207709847694707,0.5839787216510302,0.617472711246875,0.5570730190419191,0.5904266878027626,0.5451652079944207,0.5935586749942963,0.5630996784163149,0.5875274126137131,0.5589904492866906,0.5147404424306061,0.5172905342181253,0.5227326257077767,0.5933980652110908,0.557211014139058,0.4967664955573774,0.4769740716729407,0.503773191801943,0.5948658842540824,0.5914778197991937,0.536946794655365,0.5625695869880598,0.5719245759640148,0.6009441543444449,0.5872294736108872,0.6084074480016208,0.583847380420095,0.61411632108118,0.6055711331392479,0.5394402009020967,0.5428830115858272
0.5770520966402164,0.6143124196243224,0.5656134005615998,0.593725753538477,0.5679754625619231,0.6035601637279275,0.5241905143283145,0.5847826411372852,0.5608401803620926,0.578367559149974,0.5462361224029926,0.5016864440208315,0.49511108164619744,0.48007918316777953,0.5655658815876894,0.5423431828447134,0.5092641998662639,0.48793369400148023,0.5492125805864414,0.596264785722624,0.5950722026499911,0.5042021492857978,0.5727308565915399,0.5941714487067751,0.5825460749793829,0.6055693606072281,0.5829530710885944,0.588164083046979,0.608291440013343,0.627452784145714,0.538632728864501,0.520030382727751
0.5839406242271106,0.6303443904791473,0.5635534647394151,0.5836364461265329,0.5674621188511333,0.5935644444117676,0.56190240545159,0.6079327824101664,0.578336727174761,0.5466005351802665,0.567588859855849,0.5821796703692357,0.4940282297587313,0.5505491886918876,0.5814527749386147,0.5749512007129924,0.5655365011983617,0.45645599971304174,0.5290148336583766,0.6041898826766992,0.5922971986167629,0.5525085402328145,0.5965582805061032,0.6067529057990257,0.6208735698406489,0.6137591842082339,0.6065691872765457,0.5911629241306109,0.5870018325761883,0.6214687306798496,0.5724682623156587,0.555686166747396
0.6020866476896494,0.6042604748016864,0.5970181939985819,0.578410395174485,0.6026983765775573,0.6192045287886492,0.5780579140064002,0.5784004609415154,0.5282465349791017,0.554205535653892,0.6076379931111626,0.5898900843402886,0.5807664860274078,0.555688814009847,0.5819286606238663,0.5675742056019666,0.56338024071235,0.5632565891620365,0.5914701640969882,0.5934531438156991,0.6071854179961882,0.5810465031498704,0.6082408180863026,0.6213237894660293,0.6415045245076336,0.5973052599074973,0.6148409826544121,0.6062047956348824,0.6202838456074198,0.6258571400268114,0.59095484699598,0.5737121819778666
0.5793908444479596,0.5988062308510247,0.5910131197555568,0.6127094809942495,0.5842573088416039,0.6056833654579528,0.5700376253913784,0.5698566437634769,0.5281037816465197,0.5673296249888939,0.5800443653441496,0.5722600968369917,0.5047506559125816,0.5126682562873168,0.5600425158178899,0.5117788060822059,0.5175849702827593,0.5103147952915483,0.5381764594614991,0.5589920333822236,0.5423612317540538,0.5624006737767453,0.5656396301271092,0.5966965409880962,0.5892681075650779,0.5527200992430101,0.6021046078490175,0.5892205769155452,0.6102527476764266,0.6001792805027404,0.5373002937213824,0.5192078876297024
0.5485594677740653,0.5694256471710051,0.5570701024947327,0.584159387996253,0.5464900715201253,0.578688996496207,0.5580433978903905,0.5313078605868413,0.5595997392722509,0.5596758717630128,0.5348570202448668,0.5107829130733967,0.5154250557829316,0.49947578701802176,0.5272272775997542,0.48870952178847027,0.4591317234310668,0.4963570885229651,0.5353382078068352,0.5653069976178164,0.5667217522059169,0.5208482315271423,0.5373929883066495,0.5858293841196853,0.5644968432465984,0.5312270415007005,0.5936469955747183,0.5807206673106142,0.626196000301154,0.5708854650280588,0.5302934464251723,0.4975924784847905
0.5315369528273681,0.5668597598444958,0.5443737268412603,0.5683870307937005,0.5227688977932288,0.5973855788319016,0.5625201458670768,0.566204443737437,0.4801647507347142,0.5497192254897754,0.5523212380663471,0.4773466278600016,0.4592543124827557,0.46894531207990875,0.5640042915743435,0.5362153124270961,0.46644896907454836,0.45261701075054583,0.5128858320626031,0.5600448322171041,0.5982747329876732,0.5203337753062796,0.5702770053568464,0.6036035804378903,0.5850130751941536,0.5243636735014383,0.6028048296034161,0.5642757596702062,0.6170475964292303,0.597597254541125,0.46810530034899367,0.502076940503918
0.5264244274446042,0.5791964173489021,0.5411009869575074,0.5996985325920017,0.5148590866806093,0.5954822902666757,0.5353397328467957,0.5633883937046731,0.46940715521416543,0.5479609071620573,0.5209585146966567,0.4892416078813353,0.4459479360854832,0.47458081965638765,0.5642144891330099,0.5313115969697839,0.4605545488690166,0.4169743827114636,0.4529944474652159,0.5903691673844031,0.5952561925210671,0.49319881410219546,0.5981794282478838,0.5720722235070919,0.5782313207348122,0.525894169421278,0.5883694615889219,0.5560484613286953,0.6200934570378265,0.5910987816748099,0.4825941578683288,0.4709731590211028
0.5338668967127886,0.5654063151126429,0.5482539671981801,0.5929184095004496,0.48606587405046486,0.6123874267644478,0.5399622087864864,0.5617194387806315,0.5318185191922562,0.5581014720781252,0.5575059596612961,0.482164833861658,0.453689122023897,0.46623386592313265,0.5785296749420645,0.4969247942282502,0.4946859353796049,0.4319416566046441,0.5017613075228389,0.5762808357040452,0.5912431985069522,0.5197193542275902,0.5724885611081194,0.585708563036893,0.5688477129070377,0.5390434248640692,0.5960617384445732,0.5877724792031094,0.6065264845558542,0.6063661044912272,0.46554274922677275,0.509182680439638
0.5727723067542438,0.5746023383810934,0.594859409354977,0.6114681077928572,0.5488726599137776,0.5960480518911648,0.6068534934287992,0.5476362814529789,0.5286339580020769,0.5624117306052856,0.5942520174718209,0.5325455057440225,0.5131832715983848,0.526720561831528,0.5697823046508224,0.5427528462651106,0.4785369930405463,0.4319083742376937,0.5303182216012545,0.5733154676642518,0.6101677353385799,0.5521781995885284,0.5889545411575656,0.6201342440657553,0.6038400809093978,0.5580451525670882,0.601437051308531,0.594703002653981,0.603906891554403,0.6229544429541085,0.5141239119631273,0.5205787041565935
0.6093624358396141,0.5795941198629473,0.5931742281939085,0.6072892617256929,0.6136797241431946,0.6064222421690535,0.5893070084837846,0.5828692354710281,0.5715039445853427,0.5662004716388402,0.5893069845774384,0.5442946766641588,0.5060044883789425,0.5389166209131555,0.5875934534350962,0.5337713289013486,0.5097858946953608,0.49592272979564056,0.5298117029934262,0.5796504967622984,0.5594099057376694,0.5271607365104582,0.6043405118183678,0.6177252221896952,0.6116758178797244,0.5976036212978713,0.5972196702981223,0.596923525751289,0.6001298488918341,0.6178183459402837,0.544275423442492,0.5291264817026722
0.6010338153501786,0.6181183050790038,0.6140181285053261,0.5720233195331001,0.6372846093924482,0.6174837236746424,0.6104572591547672,0.6002430748462206,0.5765803108618557,0.5694501775236174,0.5918283101993786,0.5640910722572974,0.5588765442513015,0.5504873229295733,0.6109983928510228,0.5865443120667804,0.5785807621320807,0.5849155045727978,0.5705047519949806,0.6233448737701823,0.5834801136191574,0.5515998308603343,0.6293854199782416,0.6055955203470602,0.6149987510408694,0.6308873040894074,0.5925329832231059,0.5901180665684831,0.6032762503531623,0.6131331728692855,0.6048085891026154,0.5832238908191201
0.584531699927211,0.640174161077411,0.5706562262432096,0.5888250237729054,0.6307059439083713,0.6244406750007783,0.6261147879499438,0.6011709197680344,0.5494348807972487,0.5734314075562685,0.6314346861053703,0.5669838398018734,0.5542429145727223,0.5989361989511606,0.6400618316615834,0.6012359614728613,0.588781823733354,0.5583290398923126,0.5714119589517512,0.6256809667885856,0.6160395350485741,0.5685550517893332,0.606442545794232,0.6155807071222426,0.6071768106553339,0.6374547418832028,0.6109501814550717,0.6198467566431676,0.601128647371421,0.6068151217815396,0.5926104182875576,0.5931498835451374
0.6106891994802388,0.6129011672956901,0.5997831572272969,0.6177950214085319,0.5976260390768253,0.6056304811623368,0.5956880763305765,0.5847560212501781,0.5738479330761419,0.5760853711774692,0.5800351348875119,0.5326202134907243,0.5250983718511861,0.5196047294335044,0.5873528859837367,0.5604431333383992,0.5411233318894926,0.5049860011029854,0.550236395181467,0.5886112873578169,0.5915329659627169,0.5468709115939285,0.6025320730467256,0.6005169511901975,0.6033834680278685,0.6158513367681073,0.6155521611473924,0.6044174243830893,0.6048990889575343,0.6080123145420662,0.5377611231414718,0.5575682069454064
0.5774562869925779,0.5938809666346145,0.5888919974757694,0.6505292868691663,0.588562959796811,0.6007626474570311,0.5743404398435725,0.5836442295084936,0.5729578680879261,0.5808968991044559,0.567456459851889,0.5092842742138473,0.5057521290217846,0.5088632248015919,0.5972509939999213,0.5361654468266974,0.5205016169150927,0.5007538113690555,0.5581820472307077,0.6010110202670185,0.5915446171143994,0.5721218074468535,0.604219047037124,0.6018731430767397,0.6097692218408577,0.5796875616547688,0.6182896789335102,0.585610923499627,0.632668390824497,0.6204516977406445,0.5660877189877072,0.5530089183597666
0.5903663015446865,0.5910827005181125,0.5845430945512757,0.6167116756237787,0.5745105370070354,0.5982868344732761,0.5433513499269584,0.5725669537210485,0.533499914712086,0.5666283012328726,0.5768506294102567,0.5206331136007623,0.4780286821140476,0.49932934740160606,0.5839010188319844,0.5421397095990721,0.519576282017427,0.5081507117036135,0.5561157373396033,0.5564225420384692,0.555232380673806,0.5511772026175623,0.5895584099823927,0.6077801952123281,0.6061616754144552,0.5835527587019258,0.611019675674179,0.6038698460796414,0.6312726316683794,0.5773677206404657,0.5828625639350284,0.49880254462006146
0.5623431505148422,0.6146164480430398,0.564833742687711,0.5881756145394959,0.5544835868661542,0.5889219363670097,0.5554224902668303,0.547133098951337,0.5136915443089327,0.5371722701642887,0.5914509646332458,0.5209294399742133,0.47354778543827347,0.5222237130902454,0.5892431473966386,0.5443384009613483,0.5182237818424089,0.5038504915482571,0.5108496832919798,0.5687290910168863,0.5763142101293819,0.5391757951718077,0.5832791089638967,0.576902641143179,0.5663798086974277,0.5649086019547758,0.5792339525541421,0.5892665195391227,0.5989180770724736,0.550528419070965,0.5388313423175988,0.5549862526517373
0.5573686904989645,0.6043005822494449,0.5703863237880977,0.5856613661463235,0.5619750447699441,0.6093610682007271,0.5517109049349487,0.5813653868981055,0.5148261891846873,0.5469854330238366,0.5638554741426027,0.5297622901238133,0.474954308355906,0.49523377360571885,0.5746120784995163,0.5659567588755565,0.5374981908398118,0.494586040972401,0.5369427639326445,0.6041509086914472,0.5610414135037765,0.5320573064723759,0.5786722384040561,0.5731381143044532,0.5753711701430908,0.5736769847306955,0.5928853279267883,0.5921353092907826,0.5730435822411639,0.5941590181437917,0.5725288921508263,0.5579883259271261
0.5603440185370472,0.6070930011073701,0.579852349755337,0.5572361598665339,0.5594195710031862,0.6078933056780111,0.5276887581419207,0.5772656133550123,0.519321633528246,0.5513946875098252,0.5805271643120413,0.5362313114895514,0.5150897064853819,0.5637527275180396,0.6008457955036626,0.6068629450155978,0.593775986037905,0.5179066389419122,0.5352945691964024,0.6225375544083698,0.5684731510171663,0.5470546718315048,0.5769049611524224,0.6079357852140097,0.6096341767417734,0.5626264187681866,0.5920386277538459,0.5977034916210391,0.612586801387808,0.6235359202378312,0.5962904424223106,0.5748289400729654
0.5792200152254088,0.6267686944303437,0.582714528203053,0.6061826562317467,0.5576312232282015,0.6107139196550389,0.5369269258519429,0.541292691140582,0.5463016263175162,0.5769603446452947,0.6079197381262933,0.5448263310556576,0.5371321592403953,0.5394289489563535,0.6093607740994194,0.5561045456096978,0.5492262997361879,0.5350975757540857,0.5431507760214336,0.6094198485676441,0.572146231286446,0.5437650090193942,0.5828994984362867,0.5933831370513154,0.6133873254548279,0.5386129067879568,0.6032446015079973,0.6198653370602298,0.61587419592757,0.579499824790263,0.575051902153858,0.556661666569473
0.5568818242082378,0.5900163534382803,0.5653994571709848,0.5990781316221687,0.5450688046434577,0.6039013785844936,0.5692128365017401,0.5877291927348414,0.548668632934088,0.5750792509236136,0.6065072589639109,0.5427540762029546,0.5015731785251174,0.5581271667664605,0.602648857817702,0.5973117976584406,0.5579167140554633,0.5121525228928197,0.5524680319550264,0.6069273037536127,0.5683586762535211,0.5527622526887161,0.5724873494999767,0.5895151933904992,0.5997974407948523,0.5564986331210995,0.5928284685028014,0.5809637091395246,0.6001689982039498,0.6183784243852992,0.562641467940876,0.5489532079770805
0.5506678028967773,0.604811162477239,0.570715939132842,0.5955216344678242,0.5779494543154962,0.6069927545983824,0.5417910055538848,0.5503210980853992,0.5526003140707845,0.5546413821069591,0.5997955659296892,0.5591782181400302,0.4934120128383155,0.6184816186549171,0.6152089501765583,0.5806702224361282,0.577119666902675,0.5437539027353653,0.5407392566118103,0.6224192669313338,0.5944070590798205,0.5465474142468483,0.6122967511664763,0.6146602357774515,0.6176204765905031,0.5943945260134789,0.5958869296054377,0.5850585427035293,0.560034499302537,0.6046054579942854,0.5707008363227253,0.5096479701578951
0.5333669542342712,0.5938267765601739,0.5612130517068046,0.6036276675915935,0.5738270501394926,0.5710688515978397,0.5656659436336384,0.5756544505985444,0.561994529342992,0.5357078145496037,0.6174451323894439,0.5543104555945138,0.507739240703021,0.5922406450075854,0.5934332682957706,0.5737036982465735,0.6064744221073668,0.601669433706121,0.5551891469432606,0.6206098212357412,0.580755453469763,0.5652610255390722,0.5844729082773621,0.6043226922891423,0.5893628165271867,0.5949642284430983,0.6199579487661766,0.5873891195998606,0.5965901831041558,0.5834683034132064,0.5716892266955296,0.5084101259431351
0.5456301780949175,0.6160817335530209,0.5422996985457607,0.5688015760124738,0.515116400950062,0.5832551272333419,0.5774630474800602,0.5834511884640432,0.5509297238004085,0.5514645967866163,0.6067997017511964,0.5725105858922737,0.5023036218527701,0.5724633095293834,0.6129197901236116,0.5800611064176961,0.5838412946836313,0.5620417584991677,0.5590342034234754,0.6021322376347933,0.6063096519165212,0.5389382940714893,0.5890272896827811,0.5952829563057302,0.591513345640323,0.5255950104753264,0.6378114317225885,0.5744287372721035,0.6089112906879652,0.5618844372568281,0.5574320359548341,0.48648946310700847
0.5469318539491579,0.623725790023808,0.5570572667436031,0.6019436153942479,0.5130512587080376,0.6178862464195065,0.5684895059424662,0.57024933815884,0.5558678018150478,0.5768354162746681,0.5831518899287178,0.5848750036497101,0.47632780020390175,0.5848257571179762,0.5944295188546884,0.5889608014177181,0.597708821400786,0.5708124868559383,0.5237942160897706,0.6283858598852232,0.601410785731733,0.5169010620303549,0.5698077435124018,0.6013058601828192,0.6192093268936114,0.4952272589068647,0.5984240248166466,0.5534964789215446,0.6117104901030932,0.581880658748795,0.5085621661858482,0.46209757132637064
0.5400592385412066,0.575467522150003,0.552571474336033,0.6005738145972113,0.5565085730333053,0.6057882834561075,0.5547341448689074,0.5535319067077129,0.5022921286273765,0.5924085544849751,0.6086489986495098,0.5477498037474415,0.5250649821147833,0.5855271382537892,0.5870837662587833,0.6026384442032846,0.5981422366364377,0.5874948120892531,0.578391605609843,0.6220826437529143,0.6031878115947258,0.541226081447125,0.5683510829583196,0.6132089993092023,0.6060491464257542,0.5569590210569002,0.6038029646958183,0.5923733554656363,0.6005386848455307,0.5723409990459158,0.5274480206135537,0.48763386487333715
0.49122514941350826,0.5663260806395725,0.5512671834821408,0.5967365968049791,0.5570090142395987,0.5559551976943213,0.5332201415896298,0.5879485185303301,0.5182239748465087,0.5442884631363438,0.5776865749905049,0.5748296050016903,0.5280585412864149,0.5912412268934242,0.5887134202658415,0.5809084527266521,0.6034762370526314,0.5706279787836368,0.5743320454711895,0.6188406322379385,0.5992858656384539,0.5189995491235759,0.5561968883884605,0.5793014272810115,0.5620381732155124,0.5660704161092287,0.5599507923674145,0.6004942210346456,0.5943829159757104,0.5996823424738449,0.5762318141637839,0.49760668309862766
0.4889454377587059,0.6078397363640189,0.5202985990233171,0.610890805982673,0.5301700576030504,0.5851282258311676,0.5144551023508868,0.543660678291924,0.5488685249956995,0.5762101732896086,0.5531278273570353,0.5815265672065411,0.5293382027141513,0.5689999885781045,0.5924872424650354,0.5694970667465471,0.5763000284672621,0.5414800489088765,0.5447891551041892,0.5929371981462883,0.5722063337894663,0.5399860690508325,0.5548707217061333,0.5675619479864684,0.5864818515640566,0.555680579463242,0.5870079602102867,0.5820793778925322,0.5851535744796599,0.6165797341971189,0.5716096628143501,0.5009382250482988
0.3105822872099666,0.5687801010006082,0.5386626754814317,0.6114838244764127,0.5815741658136862,0.5966993368249018,0.4433768621735106,0.5112003398394762,0.5114655273520783,0.5247640901980613,0.5552512170542041,0.5230118264992507,0.511500393651168,0.5361867462532408,0.626645430444642,0.5795655948316987,0.5705153259171207,0.5207321147868718,0.5318132146747034,0.5610838656025652,0.5317072479506129,0.5364006394531255,0.5114383788523864,0.5652972390472226,0.6078659319998074,0.5461537477424954,0.609873688754119,0.5946539231751724,0.5906663399534686,0.49019202831083986,0.5687535321985955,0.4890958990844103
0.3277198627823439,0.5866821533617976,0.5498856821528668,0.6306754697972159,0.5899867553954823,0.596639435684891,0.49622976576485645,0.5478193730579703,0.5037963291438605,0.5214678737474103,0.5535207355758143,0.4828030445388136,0.48413011605767986,0.5235276906740416,0.6254276051695964,0.5883441400949403,0.5610918286795115,0.5359648163857558,0.4673436250635259,0.5705906805274328,0.5297837468114119,0.49906353632234346,0.554893970278131,0.5757678053986184,0.6147153464012094,0.5763477420430858,0.6079276906523541,0.5837214758966067,0.5943945573760034,0.4244708930170922,0.5662804677549604,0.5263756623054898
0.5009802204925262,0.6203836671882845,0.5914455338812545,0.6139216947466917,0.6298859362423537,0.5770877012898596,0.5343913806688723,0.5678019594148149,0.5105357365029777,0.5325469315943754,0.5593278916133326,0.4992643471220539,0.474768117509198,0.5365437072669454,0.6158258121141214,0.5907488390162365,0.5943896179489676,0.5299482227956913,0.4923664263124192,0.6061858604989676,0.5862315680943126,0.4985020158938953,0.5853257081768208,0.5890407991931603,0.5901681992404932,0.6193972431177253,0.6241714405873799,0.6206616864114922,0.6292221562957852,0.5831062559560327,0.5793941763067116,0.5530250411089987
0.6022366523645863,0.6042757590944738,0.6143224257238771,0.6222086191063103,0.6065077402070087,0.5837928455540182,0.535013258192274,0.5812060139508617,0.5358644010028035,0.5564432108457544,0.5643464667694005,0.565981969003071,0.5089155391419937,0.5459685501668528,0.578135111387502,0.5502732710348139,0.5302269720507882,0.487537208983166,0.5355379208487383,0.5663909440826496,0.5837848804226824,0.5631387872119284,0.5862612765559265,0.5832008847318764,0.6216267853230986,0.6086493254757319,0.6310019457706946,0.6255425790879401,0.6281870427056551,0.6238483850907222,0.584068636172439,0.5753606901941208
0.5084558197251194,0.5555625130549324,0.6129164746328084,0.6060849268940909,0.5855891921774261,0.6102628111640076,0.5795756092158708,0.584678724183556,0.5286525908255664,0.5604719292754257,0.5946179583666908,0.5480940948747377,0.5012042107864616,0.5545590139014953,0.6184515069909473,0.5487036434202257,0.509497698991956,0.4948958957414642,0.48653722242298514,0.5424769379426557,0.5730900792417759,0.5154911246467111,0.5786434604258766,0.586386273970855,0.6182551950047701,0.6164271543339788,0.6340528555519791,0.6000639995037362,0.6251793210376548,0.5921472830266041,0.5775808101175466,0.5543940881022316
0.4460460696463402,0.5936961894803554,0.6166342523743404,0.5979774077973592,0.6081699807136212,0.6323639101799623,0.6101597683910307,0.6021325270393203,0.5822975853406835,0.5630901897225287,0.6009836667553072,0.5704945881313805,0.5186250417479576,0.5562998885731658,0.5889761545446732,0.5623335600988053,0.5814914173898584,0.548518554285959,0.5622550523885481,0.5864862644607887,0.5621948555500476,0.5144378703562835,0.595013669822182,0.5898142630482615,0.6301271721550536,0.6111934109970916,0.6081116304391911,0.5879398035508636,0.605905213592592,0.6129408181552534,0.6052275537839953,0.5493284712982147
0.5790922975534092,0.5895172468168899,0.6127294715833345,0.6070724804840797,0.5895079012965367,0.6181306079623599,0.6293536287304113,0.5742356358938605,0.5692043036083589,0.595088670635231,0.5593403501924925,0.6045916333665162,0.5832385006066092,0.5710658725901157,0.5949624898621826,0.5940874380328682,0.5911324580909416,0.5677090947769274,0.5953760650954121,0.5992441158255302,0.5744952817606817,0.5396487250397777,0.6040857384204603,0.6154293911537083,0.6030438421462083,0.6104020717938732,0.6095840106649857,0.610802777947328,0.6041015780176067,0.6300972422038842,0.5687198243763856,0.5664542971657416
0.6371815101838512,0.5976231436247068,0.5873892375075509,0.6173184356086954,0.5991266050781165,0.6096064018939966,0.5839221348877639,0.5504224544386203,0.5465658484145108,0.5752376786718649,0.5853942222867801,0.6050548221604339,0.5492378266684379,0.6065352945661755,0.6004181184106381,0.59358066053615,0.5843995284309025,0.578286376456552,0.5719537877584298,0.6038330068554245,0.5926773732986197,0.5401327549647625,0.5685306865228235,0.6151054494567068,0.6164259915722319,0.6055228770204799,0.5990433286492127,0.6081897512444789,0.6134584375703902,0.5989061006658325,0.6335534898564243,0.5781939767739468
0.6248653523512973,0.6399360929527025,0.583810477549962,0.5864875578883222,0.6100594373524801,0.6324536302001129,0.5833296886642145,0.6060403553847791,0.5868875027494469,0.5681920521057453,0.5850755714689551,0.5669888826930989,0.5786007954747703,0.5828746232951754,0.6005948699624688,0.5643837996469916,0.58107764595827,0.5616196818109418,0.578662767835147,0.6182425491795649,0.6026730466086567,0.566753511854523,0.5990665398235753,0.6158947364416973,0.6183076562013605,0.6257783920529603,0.6377706391058662,0.6070402190831952,0.6052960877178131,0.5904196060510687,0.5919475873097735,0.5778008027522836
0.613917305524005,0.6094094721554466,0.5930594787825152,0.5883611700870386,0.5867222137586778,0.6001407129809637,0.6265781165732269,0.6049612787020928,0.5970937266945282,0.5586688806467701,0.6143838830793737,0.590210095497512,0.5508517645449853,0.5920812467169196,0.6159046844305509,0.5828685643126832,0.5842031262964822,0.5372612412043698,0.5842305071094787,0.6126989095998234,0.5975235098078611,0.5719500736271543,0.5818590453700008,0.5971630562813584,0.6182751185079853,0.6003192714460197,0.610281093747945,0.5831533530278339,0.5698552623021493,0.5826085572391313,0.599331353487651,0.596724197271834
0.6019040094767116,0.5830284932922338,0.5852100537295195,0.633121682583973,0.5806550833111324,0.593642922782585,0.5764216855308408,0.6086542433394158,0.5506819335522923,0.5791585563454578,0.5959269103844527,0.5412655112614493,0.5346579829052893,0.5869922461220263,0.6172803720538091,0.6091585019026282,0.5728059844833102,0.55109592299618,0.571466367024378,0.597322227197953,0.6022147929471635,0.5806085579094029,0.5541864120685602,0.5952348249335926,0.609126401024203,0.5983280182765336,0.615924676576511,0.6009730007498564,0.5892640027499589,0.6332804385299959,0.5720695459437781,0.5733876609255906
0.44574548616704224,0.557463961283212,0.6052024574886454,0.5978655452123056,0.5888786197114633,0.5767107681882351,0.559553439195867,0.5109156607461407,0.5165015097180099,0.5175619910039044,0.5623722278641341,0.5230180455769031,0.5062006681309827,0.5357736829775854,0.5690842733019839,0.5796734679944064,0.5161565761912104,0.4743434096358765,0.5219434430254695,0.5920637652286049,0.5777401671800244,0.5071449379332478,0.5768849759260486,0.5672897323740878,0.6105231337306432,0.6101363385100487,0.6084811988034535,0.5822120338540677,0.5828550518010238,0.5543228975586065,0.5619577900871091,0.5457075616608971
0.4763010864294661,0.5940322405223437,0.5980271341860877,0.621043668976649,0.5537100262353278,0.5841954626030645,0.5629521192990263,0.5615891111917102,0.5345574250595275,0.5122668640116061,0.5905020069036042,0.5312491961461658,0.4817721228285641,0.5422626630972025,0.5748584184656447,0.5623807590472163,0.5471274993301694,0.5048785767605675,0.5244128976353162,0.6097218571565834,0.5626607266923571,0.5186478899204214,0.5774877351435217,0.5793139012416475,0.6107377989954368,0.5888312482731859,0.610563759122662,0.5904524531800268,0.5828872232992426,0.5680745653553521,0.5614724244350491,0.5116079244591276
0.5763341717067858,0.627917971452888,0.6229242252299527,0.6194015137424058,0.555450904535594,0.6191077674137269,0.5988549258810423,0.5597565822965449,0.5524812474076906,0.5615524473431566,0.6031726937777147,0.552787274304309,0.5347737882871622,0.5796935510191505,0.6059502584697958,0.5951219332451667,0.5845439558458154,0.5810716235073508,0.5490245532318028,0.603481749971277,0.5987927155140143,0.5453906373537478,0.5739989984819558,0.6034301417996994,0.6225851148842945,0.6068576102374434,0.6205378663514152,0.6086300825751767,0.6186870854013846,0.616832086059806,0.5692965028790877,0.5486276945730788
0.4772020919225808,0.6193052543013882,0.5963862963636983,0.5790976226229714,0.5586833666265179,0.5849243122030394,0.5794491634478107,0.5607388320765194,0.5335390851860335,0.5420185156392594,0.5741316417130875,0.47710993102680943,0.4989362412566014,0.528348636510263,0.6111056073872985,0.5804707056588532,0.5633996664468404,0.5211761261196393,0.5190161008501919,0.6034315844094857,0.5813127432311007,0.5256767459830867,0.5674708894158993,0.6048465598977417,0.5899965813926453,0.5737772347618599,0.6111008103512026,0.6040769143347253,0.5977891058711164,0.5759155657969672,0.5347190910984416,0.5513538370754336
0.5134481311001595,0.5986267334308515,0.5769342453136868,0.6111390489383481,0.580770414054999,0.6190924547106946,0.563863693857301,0.5629921709345482,0.5279216072219977,0.5386321384281376,0.5759461896768414,0.5127535611189793,0.4928595528917534,0.5405234643658119,0.6000332111560196,0.589391045846873,0.5438472107751076,0.5023598588807192,0.5092446332204776,0.5730227060736595,0.5786415482237035,0.5144703129801966,0.5819486248682275,0.606590854851849,0.5836563865443658,0.544664466519416,0.6095296245002482,0.6334459317116541,0.6226326218348901,0.606835870027147,0.5443269258530741,0.5634249274588812
0.6016257164004171,0.6335240099925508,0.6113965810615403,0.6198520338042237,0.5805551471352959,0.6021209387065669,0.5783229356418307,0.5512070581190938,0.5637871110796127,0.56272152312087,0.5873546099835312,0.513014006373099,0.5371678740130239,0.5268467328773823,0.6080416717454629,0.5959964640604918,0.5889285609724646,0.5366346664414254,0.5431665827350263,0.5676192835327294,0.5590011552104492,0.5701811677151123,0.5481432066307539,0.5961717847195334,0.5828935079617032,0.574662185030792,0.6118376900186773,0.5928037945809632,0.6226441782552556,0.6153951669708091,0.5639747641234458,0.5539916253135693
0.6078561878203557,0.6263124626071965,0.5808317257388285,0.6055629782674541,0.5692740149062145,0.6129902726424783,0.5762038778970369,0.5964965980591286,0.557963125121653,0.5541693648266355,0.5782012291103658,0.5541734141343815,0.5552853995924973,0.530699019820918,0.6039103866633164,0.562718784816481,0.5296208849410897,0.5249797629127131,0.5389783201172986,0.5872023330115725,0.579672897159841,0.5542211647964881,0.5546693097530655,0.609377802212018,0.5919226968912246,0.5817673916733028,0.6247111951142501,0.6044416115657798,0.6166743640221477,0.6151693870484478,0.5417444320459528,0.5339713635952235
0.5721050250342135,0.6214985251399106,0.596989559818851,0.5925441486400973,0.5417061186659367,0.6065491346979925,0.5542036161738646,0.5630118080599669,0.5494032157357096,0.5707455453536077,0.5512809937211944,0.5264645830473134,0.5066007878375394,0.5230359450277509,0.583932668062046,0.5264393884273342,0.5264130530010811,0.4998520418137251,0.5283395323708087,0.57504559273166,0.5284535786056566,0.5432362416337471,0.5551243718221519,0.6020538990804507,0.5849243900166474,0.5761584817347365,0.6276036709810371,0.6174883513022018,0.6151021971848811,0.5710075965526231,0.5354072303614448,0.533467730827629
0.5699957208224666,0.5768398365917018,0.5749400019667998,0.5904036525735252,0.569442846821175,0.6367926997541642,0.5350482693335952,0.5675724050404418,0.5157980675479976,0.549194180656575,0.5749806534083928,0.5542661194746938,0.5055215416153302,0.5528015055621629,0.600218318880636,0.5657693782904407,0.5456929521608656,0.48595735078705715,0.4921185444523051,0.5941788096357725,0.560631451422231,0.5517176269831667,0.6022420441334324,0.579384295625804,0.642254402940492,0.5823114280812689,0.6292266180816712,0.6130542240705088,0.6326476195225097,0.6243850180404489,0.5387216791854073,0.563385166492087
0.5871637993166199,0.5586012483532778,0.5775689093857217,0.6111055506195027,0.561468359607936,0.5954789181395519,0.5581963674921795,0.5753257262317284,0.5305291880824847,0.5590313159832871,0.5995146389934614,0.5663469104170495,0.5182569186740045,0.5386617816423152,0.5926387285751304,0.5773704423989634,0.574632753137454,0.5330313981675023,0.49851879490150885,0.5709457794001462,0.561989226803608,0.562060460605625,0.5711863294904993,0.6102802011434001,0.6089296493705216,0.5753125820630962,0.6282551493259563,0.5979742578744629,0.5985335614340483,0.5830339564840945,0.5328162610073077,0.5803815464740278
0.5464089541674779,0.5669541579219497,0.5211487408203723,0.6262157049533656,0.5543874479165893,0.580779824849285,0.5295596669265836,0.5442854141362226,0.5264602819456519,0.5271807560952357,0.5645450197373196,0.5311427742708066,0.5245306064154622,0.507482127501055,0.5658637063559753,0.5506360761265396,0.5392259393620691,0.4790357596021253,0.4721388328789047,0.6049778757546624,0.5586082189818518,0.5442002579362191,0.5857721838024412,0.5750717794599791,0.6200359154505937,0.5764253653234666,0.6120860790781064,0.5643628809493371,0.6163466352260625,0.5909647373618547,0.5609883574167567,0.5715757590591188
0.5328612898221063,0.597792638051788,0.5166017134506284,0.5973721309850668,0.556605595824589,0.5665787092298089,0.5349430876644785,0.5479473833196553,0.49231298089053777,0.5005902608326496,0.513135288248765,0.5241508922079037,0.5233338170639632,0.5287713383552397,0.5964016269100725,0.5730838747838445,0.5245404433764049,0.4969083773587646,0.5191043174815126,0.6071137168575662,0.5731301556320649,0.5357325216305422,0.5990436375736006,0.587628451470537,0.6189582818571062,0.5566745420603785,0.6144650398190463,0.5820382365521701,0.6107103123931132,0.6109915345953034,0.5519832862003358,0.5422487765431265
0.5355090330089363,0.6009969567195101,0.570749911229504,0.5959684179225593,0.5771848155789101,0.5808859226418641,0.5213622002713598,0.5730317484704703,0.5483154130970478,0.5312807395759416,0.5506696276260294,0.5607610544245194,0.5427111215447433,0.5293428638027189,0.5772068303694056,0.5750074296066012,0.5325578646453448,0.5344034566103066,0.5106969863583304,0.6007337758795988,0.5814199482381803,0.5496404000311212,0.6058433631610423,0.597431370672536,0.6070795566312879,0.5848506364544983,0.6148464686480191,0.598415972199088,0.6237029011122615,0.6078336902340977,0.5565866357105329,0.5430641044017737
0.5701826029385297,0.5923014706372318,0.5790289778921793,0.6092992904229426,0.5908271934123883,0.5919140751984182,0.5321305310153068,0.5838190145933804,0.5539097627368816,0.573882558982711,0.541978675390526,0.5591387319407506,0.5569393394548725,0.5257671523777625,0.5913935255030021,0.5716822092266112,0.5665414502921347,0.5292968103073736,0.5450389973112717,0.5698829966295564,0.5575714433124586,0.5295403707972546,0.5664760313309345,0.5806931937017636,0.5783229037460629,0.5630391057230901,0.6137943395798842,0.5751153369547248,0.6252328712709021,0.6200057491441329,0.5383540375675047,0.5459070415617231
0.6315919375080798,0.6009571953561785,0.5594093524029908,0.6026756296267197,0.5829597965038404,0.5770962686609264,0.5863895371468906,0.5616084157093977,0.5689399006898532,0.5705002015672007,0.5628614780184216,0.5451645148466788,0.5471565502633076,0.5545966724600015,0.6157605717726247,0.5914750813696079,0.5687842532266134,0.5714234884739895,0.5301072805231235,0.5643008521463844,0.5068125531414527,0.5438724627169478,0.5618866554892961,0.5552633891906775,0.616357178439702,0.5572146504582349,0.6066491500777937,0.5998966701394708,0.6231550800263541,0.6390752725142468,0.5643943997301206,0.5508237151892335
0.6406446445085718,0.6011768162480737,0.5432305911859254,0.6139135374520586,0.5918532495594797,0.5775150881730879,0.5417867779203558,0.5700851212100946,0.5419231327135319,0.5395636380965079,0.5619533096182079,0.5236276259170989,0.5175413600450058,0.5419119029916182,0.5978321510366831,0.5911616831511064,0.5878230628369887,0.5190536457728112,0.5470360210537395,0.5883865142696765,0.5449735763849501,0.5412925677314782,0.5672648546548729,0.5471085372797782,0.5935254486052295,0.5776935598370572,0.6079651853055128,0.5740509159616214,0.6337094518536173,0.6394573411307318,0.5412167275135285,0.5406131406375225
0.62827398717454,0.6185871212649561,0.5639369104750829,0.6071219522810467,0.5909898655317707,0.6110047514631973,0.5733387343170739,0.5610151136204151,0.5262356807534232,0.5592012533440593,0.5966681621721857,0.5430977885481241,0.5332835588048206,0.556165105322866,0.6179987277705625,0.6027942973574429,0.5923869569605866,0.5063582689721899,0.5613291031791525,0.5951132541022539,0.5524548432344618,0.5638694383271265,0.5604684976477872,0.5465835547763485,0.6004489590924651,0.5840282866648776,0.605482842450932,0.5988930356792941,0.6036154763911248,0.6413240575856931,0.5372104658609382,0.561727156563383
0.6225375057189626,0.6252337051565577,0.5463201903023602,0.5910342294452646,0.6178175306519162,0.6253236675128804,0.5786817108180644,0.5958386039998871,0.5656531274244059,0.5869532201748342,0.5911558462271023,0.5709092960783027,0.5523519845834275,0.5644749787470973,0.6012704376612152,0.5836228232864591,0.5582113633371621,0.5390347990137285,0.5418637723261832,0.5856933239088962,0.5659883877990417,0.5708028576067381,0.6149460890392913,0.599786154375511,0.603306596698872,0.611251338958545,0.5970952416363362,0.6461537197360476,0.6151117485223727,0.6269060389354792,0.5455672924527799,0.5640404921412259
0.6184392451832048,0.6153613412889363,0.5749870977925569,0.6130918225014623,0.5666439918119299,0.6149366025322913,0.5580762755049808,0.5557092972500661,0.5311530058982772,0.5578184588790496,0.6042847199346131,0.5642521170520389,0.5288346711974916,0.5775708877879024,0.6041459665274398,0.5917083030105501,0.5420380068832911,0.5538987783441298,0.545332617270534,0.5598838489528255,0.5523456509025104,0.548183929892458,0.6071392289997175,0.5659886859428349,0.6077949386973045,0.6027246819816661,0.6056388457053576,0.6154252783536309,0.6155032741373372,0.6180177184754596,0.5366588333299118,0.5532508310405393
0.5873230878974995,0.6060126581990137,0.6053841154223516,0.5774298044165875,0.5727281755102918,0.6157417712992714,0.5618936102734775,0.5738547026936982,0.5425206954042721,0.5796824535082581,0.5671994596917402,0.5756553299692468,0.5594470144707042,0.581311750108017,0.6128394463479045,0.604244851157949,0.5630805624433739,0.5668203197729569,0.57153574012926,0.5981047342863031,0.5691351343239268,0.5630465999038443,0.567576284276579,0.617864389081975,0.641918695336452,0.625506127765894,0.6193216549045575,0.6131555676947529,0.5824287523017082,0.6409294776091183,0.5760781637529808,0.5712920259866263
0.6149473532338385,0.6258576597202534,0.5751867542810811,0.556080849948049,0.5999083890825516,0.6185784776862842,0.6056562136833783,0.6072700402080224,0.5483823912177765,0.5881227046390749,0.5672336558217816,0.549482632325633,0.5543328289890441,0.5711915177742544,0.6340199365032939,0.5942365243474796,0.5754550410186776,0.5138511770667598,0.5645379208512082,0.591923976156155,0.5871660543105728,0.5659771695376716,0.5945891032027237,0.62860307353291,0.6376385447674786,0.6080729062611057,0.5827621663495077,0.586046822355673,0.5875553750853482,0.5891391846139067,0.6004493598340868,0.5903402583032307
0.6057577086140431,0.5958034478560563,0.6369732952498133,0.6036350902878258,0.6204257787615028,0.6141891130230697,0.5933449147087777,0.6284926035189708,0.5721196200966387,0.5943123197801579,0.6026687361714069,0.5376733760386139,0.5512340754061928,0.5700745018484712,0.590771464542533,0.5948151525154657,0.6021698867930971,0.5503359595247335,0.5720237539989204,0.5909839975131836,0.5978264339098827,0.5731413811168125,0.586308244713349,0.6444175070754641,0.6076222409206955,0.5979931120412059,0.5658603006529126,0.5814365982139957,0.6229653427909048,0.5771496632309612,0.6212519424838194,0.5758580659455119
0.5849903476596992,0.614947073168242,0.6161359830880708,0.6207432200611716,0.6024072197307353,0.6210148955637349,0.5898294690411867,0.5788949042631573,0.5418508460762754,0.5867141110943903,0.5871605952404368,0.5703311467088414,0.5599820704851388,0.6052359135976819,0.5878386491568195,0.5953071968738572,0.5915258987614691,0.5480918355179782,0.5487030277790055,0.6133580300466863,0.5711322560601508,0.5406028541807566,0.5747394057756936,0.5967601851097193,0.589737795937443,0.5572452410533533,0.6155972632641853,0.6088046630082893,0.647201544632829,0.6038735615530237,0.6194670904897404,0.5512502384623064
0.5795739165401872,0.6332321879385399,0.5925055718354857,0.6511820922282032,0.5864459234327439,0.572955579975404,0.5751197570035709,0.5740663191679825,0.5452406961452367,0.5691133054359061,0.5978406966617134,0.5405345594949251,0.5882522434933439,0.5706146465353514,0.6009652941077026,0.5844813381542515,0.5472599768273203,0.5598934843965457,0.5585527215450226,0.621588394422576,0.5745058815930495,0.5519939897219204,0.6095978755319225,0.5824100482072576,0.6232086787665247,0.6181021820090091,0.581508865119039,0.5927774943703015,0.6327293303071451,0.6233947981001129,0.5858402217808041,0.5399783325028293
0.6103387941214407,0.630974646254542,0.5824266683813146,0.6010499177802422,0.6056025254275919,0.576472491751022,0.6161280494495451,0.5921287221304508,0.5774129975025306,0.5711034839577316,0.5926104766475286,0.5330189138106842,0.5357153976701303,0.5503203640281082,0.5690825454254318,0.5952625603497417,0.5809491542262495,0.5755105820484885,0.5641380741395858,0.6186177686660166,0.5645367320427299,0.5564748261577783,0.5854968137561163,0.6017237766714025,0.5785479005847152,0.5934315379150901,0.5769382690575897,0.6083666160452958,0.591580238380145,0.6160655327679869,0.6062146837302027,0.575464839099094
0.6050297792679142,0.595842497469746,0.6210845222999986,0.6230547151775068,0.6149813919298146,0.6200436324914431,0.600976695256525,0.5812806863577094,0.5468035144662857,0.5907495221424663,0.5777527533671347,0.5978055130697091,0.5288031198888259,0.6001727431044981,0.5800060919931869,0.5876875918276441,0.5631020327818828,0.5514846492335796,0.5502176164770058,0.6081426041630817,0.578696901540559,0.523975402035314,0.588059778829404,0.6256168260715258,0.6183005049729235,0.6097486802182281,0.6150567213115923,0.6505214382161446,0.6179739255058485,0.6112145277898162,0.6141036158578173,0.5532327532133294
0.6207929958296012,0.5857896212958491,0.5964505971016676,0.609460886482494,0.5780559260003719,0.6205872648051471,0.5752876715202535,0.5793591726353151,0.5122636663208686,0.5952387527254501,0.5555174974216777,0.580777918371123,0.5161584890305115,0.578852532382208,0.6022810210643459,0.5760972492402492,0.538917593866953,0.5227242198283761,0.5474126266037707,0.5627814515284246,0.5525640946718964,0.530885000856788,0.5835486841390134,0.6007403553701933,0.6180551998125727,0.5929135902041538,0.6074820590807883,0.6096879865610525,0.6014691511108285,0.5886589316978315,0.5816174744781191,0.5519504469029193
0.5680069172724731,0.5447404022127507,0.5229967157986821,0.5938297407717679,0.5170257593113039,0.5710329944536832,0.5675993289186003,0.5562906369434075,0.5613754536189797,0.5675345740141475,0.5322923252157437,0.5230253161493015,0.4861372339274115,0.49741986056135357,0.5364708527280886,0.5186842654157782,0.47428316124917913,0.4443983946369121,0.49314716060295005,0.5330552715923376,0.5339306204276606,0.5355350426128949,0.5621867611049551,0.6004855059995635,0.5981642067555071,0.521274743955531,0.608898286640414,0.5908941981310751,0.6067181992262256,0.6019415523493787,0.48422691019657416,0.5155405389167917
0.5472204785949555,0.5783831039770777,0.5428208056255177,0.6056163449821796,0.4899215114059614,0.5844998917682829,0.565604737669458,0.5646311465965539,0.5454973591330581,0.5688712025274274,0.5420654868641948,0.500545536838159,0.4596055504902088,0.45323277590265043,0.5297735089054307,0.4825048753328107,0.4641904865117792,0.415605175911705,0.46767249358165186,0.5399841881309855,0.544117632498303,0.4929171854280403,0.5702820927386245,0.5734208982674316,0.6042309651623552,0.5125926280734392,0.6212077186816369,0.5690297501878607,0.629051261583816,0.5876902392505952,0.4806889949100386,0.48591765797767206
0.5621036775641528,0.5786601497073569,0.5379425694649314,0.5802180666432109,0.534716251000098,0.5841787356332819,0.5554481487079994,0.5769829233813444,0.5461268197720237,0.5722072051457778,0.5671603989324856,0.504543142421674,0.4533369691937046,0.48119054785886606,0.5535600590898331,0.48366275683143556,0.4864752385588278,0.45054698447178465,0.4931938266601348,0.6163795695988301,0.5470898809045668,0.4984572404493175,0.5722933780790229,0.5713389704334637,0.6288353840073793,0.5343062635679301,0.5922616760767174,0.5611654151385705,0.6180184976347403,0.5825166534036454,0.5324858060760937,0.5160656780493671
0.5662264421394028,0.5636394898628847,0.5398872496159108,0.6050618372637602,0.5452833047185042,0.6000707269806433,0.5750464751803928,0.5672147102264669,0.5379006523289562,0.5799232582593778,0.5611633433128276,0.5358775850094699,0.4852359092252718,0.5069578105544443,0.5553064306569082,0.5351740543720531,0.5229452453724313,0.4694823992536956,0.4858405688711196,0.5926358879286333,0.5673099548639233,0.5037348500844936,0.5907306834306238,0.5906464372887101,0.6030857126064668,0.5717483866587281,0.6107548490313093,0.5527139639840928,0.6240457562891035,0.5782344199735627,0.546964749162917,0.5457100993183
0.5345077551178581,0.581827734051962,0.5245601730422855,0.6006103042662736,0.5322909456926341,0.5817185130511389,0.5764809807474629,0.5582801287581773,0.49533623279563743,0.5612878143219375,0.5597117344765001,0.510637367314188,0.46380862043875837,0.4878930381794202,0.5850132205617671,0.5459914540622037,0.5315671594103253,0.46139375768404944,0.46055673847988343,0.5809327008985767,0.5335672508735994,0.4577703020244366,0.5628491388751677,0.574141101297875,0.5695416552588402,0.5753224045201839,0.5987158996510953,0.5737238526316615,0.6228438964979808,0.5895101504768459,0.5240672093069549,0.5292216302884349
0.5523279703559996,0.5787891287262301,0.5547066461470185,0.5828497369166201,0.5027889344234899,0.5963129030171013,0.5974900734889723,0.5587294007754076,0.4788894513312054,0.5598255129802641,0.592969513113391,0.5120870947701364,0.45280231836616247,0.47297789820294556,0.5887244259141422,0.5693756435706776,0.541984240565712,0.477691583529789,0.4870995705351384,0.575206543889899,0.5335822412044386,0.4717526840179662,0.571443329448698,0.580779355313755,0.5854362186472333,0.5400353764754735,0.5874332863938987,0.563770231086842,0.621985775211074,0.5513554054505883,0.5069795918621072,0.5030986818499548
0.5819542080972093,0.5629902133217661,0.5753654859106487,0.5858297849727752,0.5242477746860184,0.6009017335858386,0.6002629497063001,0.547000561495107,0.5067002271309531,0.5574991530779281,0.5548953590741901,0.5014355436518376,0.4936467491052823,0.48990223518747333,0.5851708969986951,0.5802343806540198,0.5579636608798992,0.524977931935843,0.5554636029380409,0.5685812430804567,0.5490573224548667,0.5642380376072431,0.5573846827934505,0.5947098494490675,0.595392319083786,0.5503785036034206,0.6234052139470747,0.54565594041537,0.5921353272749381,0.5757985637052494,0.5491243805042885,0.48320501625474943
0.5706029838358209,0.5940793559779713,0.5689414084933082,0.6162639035948478,0.5135015693913703,0.6092729065875044,0.5627202966100091,0.557149602071215,0.5115233017479035,0.5684234206989016,0.579101457309104,0.531372049770205,0.5027946166450556,0.5218845463372754,0.568908685758772,0.6058703476407947,0.57225674903043,0.5690655569021286,0.563354681436623,0.6050142726124115,0.5748327632899759,0.5475233869264486,0.5603191916502093,0.6004514053106922,0.619223279825345,0.571895929937777,0.6283804330428073,0.6092173660951539,0.575641870435085,0.6084054875863476,0.5427182520779823,0.5156194972550705
0.5649163946272346,0.5710351621721936,0.5874106459168136,0.5920491995313153,0.5694794017913156,0.5963184075802292,0.5701431213575203,0.5418996754921932,0.5296002071792536,0.5675603778768683,0.5790112051955658,0.5505271827393328,0.5105341111837527,0.532563137737085,0.6018418610040102,0.5761339336130584,0.5499076478365446,0.5447790470161378,0.5562138326356654,0.6221542403083098,0.5974864043270127,0.5138081327399289,0.5803025061669009,0.5904877244354965,0.6102838000135531,0.5836223920495578,0.6028765901838558,0.6216021089876222,0.5969573925056229,0.6347628815689581,0.5236545455675103,0.5115172319796777
0.6052469011439792,0.5948932778709848,0.5883793657278074,0.591638339771642,0.560948324074634,0.6131099837704741,0.5874179278844602,0.5736741213091512,0.5504634067296874,0.5959862911420051,0.5900618100787889,0.5787367464450934,0.4925148968311319,0.5758137607258602,0.5926362596250465,0.5780329976306859,0.5893786464475692,0.5745000764464909,0.5735922974933771,0.6084745900334783,0.6040921250038105,0.5089180632545203,0.6103746386139282,0.5854690200549673,0.614141701915107,0.6161614251108274,0.590056886083373,0.5913987700018994,0.5918974808117823,0.611322195171593,0.5426897889743834,0.5607937397792773
0.6284012829673431,0.6169788187180787,0.5755099604553755,0.5843576122564267,0.573140374582009,0.6179092210826931,0.5787285913266005,0.5786306637177492,0.5632525217162838,0.580874170937355,0.6079131414812,0.5709284081905817,0.48129719522476444,0.5959433251755732,0.5988076213733362,0.5823108008492586,0.6111409431960708,0.5791755111982542,0.5581998000403505,0.5894780177447059,0.5832981649137121,0.5271692818338254,0.5977748318183624,0.6204865307033427,0.6052114283573164,0.6034181131993863,0.6085534451468559,0.5903910915633341,0.6295831554502156,0.5962413110294293,0.5756780170249458,0.5274500499614971
0.6074194036044704,0.6051544816217254,0.566478968819387,0.5718289853434664,0.5625297612509468,0.6007810305735877,0.5839255131790551,0.594665090873169,0.6009625255103512,0.5996653447100573,0.5956366526366792,0.5706197527617758,0.5404866639197929,0.6245598151151066,0.583443592356828,0.62395527570835,0.592194743449526,0.5448492802785148,0.586991500542692,0.5612085526409736,0.6250733637375463,0.5568545039844914,0.5856927152728,0.6303248103843329,0.5919136498430184,0.5981503896089495,0.6246228496721389,0.5929936639590774,0.6421741428289356,0.6080606094971235,0.5923456310920452,0.5532052351441843
0.5868647015443411,0.5917264045228539,0.5720213101018268,0.5947897314619861,0.593661587102889,0.5674408395340231,0.5854487420919043,0.5648120134754655,0.5864614691670473,0.570069163236484,0.576270454592243,0.5549651612859812,0.5763123522386056,0.5886969422136308,0.6033829070351953,0.6045098217251743,0.5953347242823583,0.5665406494418197,0.5856946963297949,0.617469869954093,0.5782589767886774,0.5444327685740982,0.5681795340920006,0.607963155544808,0.5980275688894428,0.5928200353844333,0.6357151349387613,0.5966144059302092,0.5848304344545645,0.6196470544618169,0.5702518759963562,0.5517188837573053
0.6195027934160513,0.5961191974228117,0.592114547396049,0.6021702452525886,0.6057920314859664,0.5887489336186378,0.5681715219738375,0.5905668724782078,0.5714581288503164,0.54971406931478,0.5913752079140595,0.54980273152113,0.5734434517091493,0.5564333379843682,0.5975691267322207,0.5891215681318949,0.571572750127566,0.570206295615868,0.5412230710281078,0.5882087573526924,0.5399094317651283,0.5588234471729101,0.5431345640702081,0.5778132366661817,0.620181857296954,0.5909040833942791,0.608743245198772,0.6049449831037927,0.5954460370173256,0.607218281145121,0.5637889944379566,0.5296974615990129
0.5938685119953111,0.5774180118121119,0.5940226297476796,0.5792341349326957,0.5954878996103186,0.5820820593811509,0.5806538291683214,0.5878118523185467,0.5523594816818549,0.5758581299204373,0.6140634938538665,0.5657829576318432,0.5441821482441664,0.577356818441253,0.6263736532081552,0.606571625391473,0.6235251271048972,0.5721101676427081,0.555170469218556,0.620060888884975,0.5913330482357169,0.5703513669999674,0.6086991990907222,0.6136725276720165,0.6024821928819297,0.6082245915743236,0.60521603025445,0.6157058294161106,0.6100153068455638,0.625916505662548,0.5501852224499033,0.5375154717929336
0.5595795625597404,0.6018559881705752,0.5791393310688755,0.6190176624486696,0.5955358354891893,0.6088733511263431,0.5687313423718026,0.5737864126263754,0.5254697575774241,0.5955276087420809,0.6266881945285405,0.6078489549681532,0.4968062363373953,0.5951990062906929,0.5891840278673488,0.6057348511516003,0.613681903773446,0.5539870463212142,0.5607570136706959,0.5927728411381512,0.5894977222244115,0.5015048158049522,0.5941440090187045,0.6131746280672008,0.6229600018096968,0.6017867775439862,0.6011645920999129,0.5977163545672712,0.5935574430435375,0.6362232225818718,0.577790152851271,0.49587776284885043
0.545774742307374,0.6198445000118382,0.5797774166191036,0.6345070717174082,0.5524562068138041,0.5990278225909225,0.5212147981394084,0.5821870059598226,0.49750896119032095,0.5993503731995209,0.5934334118290723,0.6165585223671375,0.4865667860040168,0.5781667626791962,0.5952545999567529,0.5958820051973288,0.5902681650346127,0.5300349349215061,0.539444987213133,0.6113508818760263,0.612947925579749,0.4460950430096364,0.5471892887580996,0.6119740475360302,0.6572639201089485,0.5644209778548963,0.5857075068623789,0.6163318551707362,0.5845436851132049,0.6022512408481258,0.5897284003393106,0.443102280856277
0.5317351221143798,0.6229706293086985,0.5745661174157948,0.6154820336762921,0.5364535403275985,0.5973529477152728,0.5738424193386584,0.5961155451460138,0.49612088095977347,0.600487579294203,0.6096655736333481,0.6051658095525876,0.5072747323254427,0.5877479761263777,0.6013265427530081,0.5790937727977581,0.6055474134616059,0.5587918417732247,0.5674320128867785,0.6171131742587188,0.6106597949584067,0.46595085090141497,0.5745920056393437,0.6128773237208889,0.6446651089935269,0.5869664099728364,0.6235862134493186,0.6087870757382774,0.6111008919431091,0.6031010290987409,0.5536527510400333,0.5092692396709073
0.6014568179380588,0.5757449823841627,0.5871566194172573,0.6191569962073751,0.5230970775949451,0.5962855425598983,0.5625595739165163,0.5936564731312775,0.4898636506793146,0.5837309160779713,0.5896340902062378,0.5676391005740866,0.5163040553013367,0.5507701091975177,0.6117091767973988,0.5908392994338625,0.6008970208860034,0.5678048288277897,0.550242952539655,0.5764591215622805,0.5756742589732067,0.5136855014530455,0.5707942082408377,0.5964225970044397,0.6253535029041926,0.5364589895287022,0.6163184238589792,0.6363575456816712,0.5979277353774517,0.6353240864629419,0.5596741887405128,0.517950329174615
0.556705074306258,0.5861961670003195,0.5942711143955579,0.5811344314578872,0.5510881660093698,0.5954759056457757,0.5620498520561443,0.5951182500616037,0.5064920409306777,0.5615140336509112,0.5747473072834408,0.5437816549260766,0.488019730035838,0.519686422125738,0.6004504892458424,0.5549247377607789,0.5576872443541876,0.45542093392065075,0.49649332783292,0.5624343634256492,0.5672051517875687,0.5192645808722465,0.5684762061268893,0.5677645635305111,0.613544285568298,0.5468004672102813,0.5307575877059327,0.5519142360103908,0.6186794551630066,0.5464043196796893,0.5487725455036778,0.5187188021647868
0.5593948757092182,0.6127116278831899,0.5601670285991664,0.5770171161409494,0.5515858862978575,0.5860041047801849,0.5265466364232934,0.5614665697782768,0.5586781450781841,0.5526353086617499,0.5584975042610112,0.5693747484928373,0.5296102181927052,0.5364760603559118,0.5670079626590514,0.5635116653314318,0.5754969578414446,0.5189728767611941,0.5293562739144324,0.5872572708738062,0.5842673241671719,0.5493195828724868,0.5791632383779621,0.5892106354386972,0.5973290787835,0.5765503778044354,0.6046933444515479,0.6048810200527397,0.6282230127833257,0.5712990317439859,0.5556212139159129,0.5739583451181187
0.3978845226515024,0.6064063578142918,0.5881207544932123,0.5956285028551438,0.5488639273415195,0.5915557922493311,0.5687077512002507,0.5428644444043806,0.5321729536970028,0.5468620710392509,0.5687745377848294,0.5570013603585755,0.48994755352843766,0.5800082256234802,0.6031097615935193,0.5930033021749166,0.5658787806762966,0.5304916590632898,0.5224127979202602,0.5925969940270317,0.5368161932740065,0.522677280986926,0.5542296005018765,0.5587869966070707,0.6053915637740457,0.5845433029405518,0.627486300658572,0.5814077781679372,0.6214446000774103,0.5455702343434048,0.5717074618845666,0.5430002321376586
0.35285242421091967,0.5994645230479558,0.5496109817826311,0.6400476100430281,0.5558347360194063,0.6140066292999489,0.566864062439115,0.5384132351635134,0.5223293533683853,0.5815685113397797,0.5432201320098979,0.5350936673825131,0.45453516335851285,0.5523729928368053,0.6116511946450851,0.5934574914512316,0.5645604426453672,0.5153375926273327,0.502382201758043,0.5512480020268655,0.5116044367931667,0.5152673752257693,0.5843355977345035,0.5647921406651286,0.6089341429639212,0.5354852208622378,0.6223203253599681,0.5990608273858817,0.640931167034962,0.5621491283593558,0.5261893945722749,0.5297834973885025
0.557926520466951,0.582810567749307,0.5739182891809111,0.5919536947709347,0.5583238920176461,0.6174062526002126,0.5736768598540665,0.5450273672199684,0.5372412688577142,0.5630405940648706,0.591061678609778,0.5305408077751506,0.5291617568214075,0.5825721795777716,0.6060805690816244,0.5877161740383077,0.5788470163015318,0.5118130884904071,0.5646987405462185,0.596385031095827,0.5860227307404235,0.5541185853848556,0.5819891973300764,0.6015795320257573,0.6117791348791983,0.5758966218536457,0.5713191179000625,0.6091454645840741,0.6160200112076253,0.6470433595501457,0.5422649398015711,0.5202120587238261
0.622458658912918,0.5968787477630313,0.5948155012063037,0.6006362161925911,0.5798893656234503,0.6115748859446173,0.6067248293375482,0.59533009314092,0.5429291308829436,0.5672357711877045,0.5975226229741817,0.5570055712685025,0.49787967431015145,0.5696308424468812,0.6017694275174255,0.5702134010918392,0.5904567429405749,0.5562939343384268,0.5775877490743149,0.6145042582102267,0.5958701000724633,0.5400218881236567,0.5846557198711979,0.6079155716853486,0.6077422230686071,0.6067170065305834,0.6196409422944513,0.6040853411813254,0.6094002780904821,0.5982379461162401,0.5732430157195929,0.5505811594152097
0.6107984815433145,0.6096188867832932,0.5866867168105796,0.6176429352694872,0.5792604281036078,0.6153820737273232,0.6027868472542375,0.5909603539481085,0.5332353143966762,0.582064814488295,0.5518894867604125,0.5451233901047141,0.5004765786526835,0.5437414159539165,0.5950084229387373,0.5861651158084906,0.48914666272454177,0.48971877124642527,0.49554282647296155,0.5843964261181633,0.5666744635130239,0.5263012093783375,0.5705067296260946,0.5986005172966156,0.5992884442575228,0.5622759947788714,0.6281545260709156,0.5814378449871302,0.62676654693044,0.6159388144883637,0.5367162644347352,0.5034572323311619
0.5702176648754276,0.5720830575002416,0.5403537133961138,0.5926787183960611,0.5139182460431742,0.5666371135073263,0.5524494141276577,0.5360391667854292,0.5353111200833918,0.5762951675098278,0.5476716559567802,0.5267463625170157,0.5284395948402341,0.49954342571525556,0.5348379130349339,0.531202049019424,0.507805280989801,0.5030981349211476,0.4858249147676492,0.5424058802861897,0.5646600688762904,0.550023035173782,0.5621314993846824,0.5982079062647259,0.5716619224818205,0.5443811274066106,0.622095641800517,0.5756343204627856,0.6159172572557456,0.5929025788202904,0.5039956344169472,0.4899698059704427
0.5810242629393172,0.5888958564729401,0.5443943611754722,0.5895529094476522,0.5294273461225232,0.5487391023803996,0.5650865169345343,0.5020033258285341,0.5109064279162148,0.547798328259598,0.5485288295595119,0.5298157055015591,0.5191498569668176,0.47325754922999996,0.529040125695432,0.5344256228974023,0.4897492454091017,0.45141463578425567,0.47275497855118687,0.569967173728616,0.5354499416713274,0.5196610966711557,0.5745746369014659,0.6124327861946299,0.5935153518616674,0.5522279742270779,0.60390052090903,0.6091350071106523,0.6113789077203959,0.6035934809562611,0.5159867664093296,0.49330873008301923
0.6089150500345784,0.6195198860049427,0.6208978596335228,0.6184862978305503,0.5537822773773908,0.5606446358798731,0.5477796654217695,0.5533399083314694,0.575039855150492,0.5311101448139182,0.5512304170118543,0.5346112298559969,0.5336120442896641,0.5032492721717117,0.6256638438348534,0.5742196276411433,0.5396786819421422,0.4841478373714927,0.47292492107308304,0.5842173999213642,0.5574456368696294,0.5283411438097354,0.6079940692103731,0.6141812178028947,0.5924257815201233,0.5940164389424645,0.5830948191706131,0.6433691073274006,0.5941841142614575,0.6042630987272672,0.5649990234994196,0.5197488302632847
0.6334360116972362,0.5922058754536468,0.6306033849489725,0.619696382769984,0.600226015125533,0.6079299125447242,0.579401659373147,0.5915262560917163,0.5877812818108215,0.6011827852220106,0.5766092851960058,0.5827190587217421,0.537117234954529,0.5805941636762588,0.6183292026315477,0.6010395413554619,0.6251663258901861,0.5796690100937045,0.5893483732125637,0.6089336686503954,0.5754863922205118,0.559669597927638,0.6345904515234251,0.5996522269992939,0.6215928092236545,0.62070489290037,0.6196343252353231,0.6113723029184102,0.5929750889650531,0.6227562358071319,0.5921375561373208,0.5708631160008646
0.633702871564664,0.5964862502769765,0.6194335961893729,0.5963005833450405,0.5880059910392119,0.6246143980341818,0.585815826718826,0.6031390661200096,0.5621067416123595,0.5748192545235042,0.5776035039343133,0.5596342717496863,0.5265372325016298,0.5918372623238413,0.6137524004286563,0.5960474884264526,0.6056552603109902,0.5657363353400653,0.5828639517975258,0.6021861281215051,0.5757293404906738,0.588067644215216,0.6078456764091698,0.588424153015354,0.6324799014141305,0.6183770535960709,0.633084015772821,0.6246468928631557,0.5748433408767033,0.6292579539473566,0.5587111654693184,0.5588884865684496
0.5866447337737939,0.6270669771035893,0.5968719733919867,0.5839201703043528,0.6082247088005426,0.6145171496193207,0.5784534095000926,0.5755170760682455,0.5628177951525273,0.5649873026927619,0.6182530961527135,0.579451606145529,0.520986953402379,0.5951293980188259,0.6180451199237136,0.5967046069107611,0.6287491879853881,0.59971946039916,0.5716987871280632,0.6089759945641076,0.6026023502646969,0.588369752888481,0.6229687481175996,0.612030649258628,0.6120604575870048,0.6169098167161979,0.6424051241559816,0.6093279676509629,0.6003571208942584,0.6254860040106012,0.5784237793261333,0.5585856188300005
0.5646958710998278,0.6393743316588982,0.6076190749344841,0.6309792580651306,0.6017258225418587,0.638465678101618,0.6126138534548504,0.5821082933451756,0.5781511998030031,0.5672552702257754,0.6094536369717609,0.5658348375221669,0.5372007175230697,0.5619007586190516,0.5969512123013345,0.6130448504167343,0.62040548897799,0.6000991294373721,0.5753606370047928,0.5982964094558421,0.5884194870127866,0.5437708811108943,0.6279630365124036,0.6008506840994401,0.5988856574361217,0.5769951548628964,0.6057885542955499,0.6000748576879995,0.6210086864585889,0.6068580165635846,0.5533949404263607,0.5546841788506329
0.550843892559477,0.6161826193073141,0.6184457005053976,0.6422121673346743,0.6115250229205196,0.6129054540528207,0.5950276655880544,0.5895635357530091,0.5745765473494324,0.5508318457058436,0.5825117584644088,0.5755484280675747,0.5383606589481622,0.5693486150195635,0.59344286176536,0.6018757314957206,0.6352588363526936,0.611371548768306,0.5632615992635173,0.5808196831104291,0.5773921509833166,0.535598597170281,0.606092008138305,0.6187511399072814,0.5836271226375325,0.5996373658966463,0.6016106106862931,0.6202636160832351,0.627210710435512,0.6039711412154816,0.5641500222398048,0.5586561529724245
0.5674850156539484,0.613673817198428,0.6455679526639901,0.6402072010178337,0.5751372325126067,0.5915595524089068,0.5918292559711711,0.5982728346185335,0.5600824924155399,0.5639369356522885,0.624390747229048,0.5751662304058187,0.5245877324996413,0.5934390888491428,0.5945753837242225,0.6171629083758408,0.639812883182536,0.5909119095220126,0.5452385042940491,0.5749168686780228,0.6035900553198097,0.5518674652831415,0.5873899840092025,0.6047825984756918,0.6005352690231631,0.6084621467877143,0.5909563591163343,0.5961866724490066,0.5895203014545549,0.609849702547546,0.590775609595366,0.5840785830638717
0.581484827318822,0.5877954698419265,0.5961783994094301,0.5950509613316952,0.5634465368099488,0.591249275341089,0.596059004830662,0.5757035262731076,0.5402969065066316,0.556530727297393,0.5958769694326413,0.5578731021743759,0.5135909821666731,0.5591969758396238,0.6132459134482846,0.5916598422067394,0.6032426680563492,0.5268911758447468,0.5323894313712936,0.6026890779345608,0.5901738230181244,0.5348369673909201,0.5878891888510807,0.6260254510494527,0.6326198150240088,0.5899144679959649,0.6039783829900247,0.5770544910575341,0.5949944503751143,0.6015789340119584,0.5429639745357058,0.5446179703873448
0.5964765718423766,0.5987668789174334,0.5365961726415143,0.6090927989019619,0.5709572789530739,0.5729082854008163,0.5653890858554167,0.589389062705953,0.5265319719985211,0.5469648665009275,0.5832877081072403,0.5014747512637587,0.49526806279256874,0.5089872864694773,0.6182991707810173,0.5945000477343769,0.571051181361343,0.49740495544676566,0.511829312756872,0.5803203989691266,0.5775858784866013,0.5327433617559385,0.594699908750079,0.6096815587597928,0.6181773722077142,0.5872304159774604,0.6013082731575721,0.6169443274499473,0.620952852528267,0.5886756824431729,0.5722095427737761,0.5603194159379101
0.587119278750047,0.6145069902307405,0.5582744198450937,0.6092604748852164,0.5899915967235758,0.5834188470700306,0.5444459654437517,0.5734805558017979,0.5312895621295248,0.5260652108162467,0.5596526183243151,0.5511855633587501,0.4953302012211882,0.5423811983742137,0.6141982947509552,0.5859215754975513,0.581451831865365,0.5068446422776662,0.5097651676912949,0.6094824579450013,0.5970883031748722,0.5346391138074269,0.6068281465494878,0.6037189832621652,0.6056011862276649,0.5764919543442724,0.5995020693466713,0.6077956843607604,0.6265951477137159,0.6036750131039001,0.5604125380596656,0.5890899899920972
0.5205724352937429,0.5784892981951564,0.5993236147125565,0.6322739131898119,0.5957819227537464,0.5656988394113367,0.5490255726680591,0.5579872790694553,0.5512299216832366,0.548425340151991,0.6035413789965367,0.5486463368041012,0.4938072227031687,0.547757684780315,0.6200839062927348,0.569032831244749,0.5660024251994522,0.5187658253733578,0.5196078558894879,0.584758883125013,0.6039255375902486,0.5466627125884038,0.5973805651839736,0.6109986593861807,0.5783115600065178,0.5965768345926628,0.6054393712306352,0.6056331767932019,0.5873497169325486,0.605512785949148,0.5616253172829202,0.5559471316121702
0.5662965264415285,0.60391315805684,0.6189674745073126,0.6323824057383307,0.5695121591141499,0.5946727755197356,0.5943833448864022,0.5529404273791942,0.5283010670188788,0.5710568579203583,0.5737102755140433,0.5814901295052475,0.5330745275687434,0.5758574457803718,0.598616480431343,0.5978262086404604,0.6022641861266855,0.5498635344720819,0.5328760227502021,0.6042326330680567,0.5688468852918134,0.5475376581865916,0.5910612012799432,0.5765674374157408,0.5785533925324109,0.6268945875229184,0.6201000801026324,0.5891612891872473,0.594729791819804,0.5996273675978201,0.5723263533239442,0.5387515234530427
0.5863760429638551,0.6208180761811302,0.5934585362323936,0.619858623528422,0.5534307914324263,0.6174642575527902,0.5668561399030634,0.5610530198150676,0.5505764416629351,0.5725198895117045,0.5270629594689367,0.5539128088879401,0.523673670375632,0.5578213572562785,0.60981448280029,0.6205090734994498,0.6005168816994133,0.5018219183941404,0.5522265454628559,0.570159526640595,0.5708470248432733,0.5437348307258625,0.5805762506286163,0.5733435348162699,0.6134693861672207,0.595851327530664,0.591205617763261,0.6024246699408393,0.596629686078681,0.6073545633395692,0.5774556051284772,0.5438331277863484
0.5755542558750344,0.6274525810130691,0.5758851766717648,0.6307553174194527,0.5637419018200251,0.5947498037939796,0.5715164039173892,0.5721722697442821,0.5548491545104635,0.5835671481484463,0.5833865926723596,0.5347059922690636,0.5267123098594753,0.5376120814171079,0.581843364938333,0.567842899874599,0.5714912288364458,0.544204000420951,0.5723967953719451,0.5971013070439981,0.56943329344959,0.5449049106370962,0.5846028335778075,0.5588173026841923,0.6122758534475916,0.578569151513832,0.6082066858798583,0.5759870040744093,0.5931428279086948,0.6436629653739478,0.576735770859587,0.5603151477768202
0.5952565849160676,0.625075228046081,0.5939836162289418,0.6169024247961352,0.5637085862728837,0.6183296934045148,0.5975896586092988,0.5694912859430503,0.5543145170947343,0.5993233997435268,0.6029128923176121,0.5540753123320892,0.5217772075368305,0.5425454125960094,0.599880704660642,0.5801328954473495,0.5965894299608072,0.5469479855275958,0.5578674497409977,0.6042275683829779,0.5486333856879568,0.5653976676491075,0.5931487598517458,0.5692047618891825,0.6196098669202668,0.5883344950320435,0.6293326320542483,0.6159170182780458,0.5907068873187495,0.6344471862124204,0.5668635170975431,0.585612151528832
0.582973464963398,0.6172892018490486,0.5956429547477664,0.6215008738533676,0.5929644552070688,0.5849440860136537,0.5805027347314167,0.5734301630881431,0.5702244053618575,0.5937718384991881,0.612381322234159,0.5726505316440864,0.5201270452078464,0.5785173987805035,0.6147917197552113,0.5925862748177524,0.6085104917726998,0.5187695333349001,0.5221768451668036,0.5990897457296565,0.5773120716387878,0.5436071447376363,0.5772981774200114,0.6045175749585971,0.6183430548497308,0.5827406968443563,0.6182047173605456,0.6423416239261055,0.6132113170358595,0.5897107159081854,0.5570225938178321,0.5505884045839711
0.6025638743329167,0.6271668673002773,0.5800774241403746,0.6406349546880912,0.6125631028124991,0.6056488507386764,0.601339255858294,0.5604712656733564,0.555428450395214,0.6071542534641972,0.5878713697745632,0.5503231003103735,0.5220550563999935,0.5434370319104778,0.5764808829102974,0.5600249337839553,0.5740976338801422,0.5531683661954525,0.5191423431932893,0.571406856942807,0.5747258603881793,0.5677467168202628,0.588360161928771,0.5783569350222111,0.6110439738023596,0.5628795726215925,0.6078803027505146,0.6504681875239333,0.6426917126391287,0.5829104624921455,0.5702535402068043,0.5284367905360154
0.5895444764835083,0.6181263786697522,0.602233335458501,0.6284833451853977,0.5879719805517034,0.584634527889099,0.5988415348712866,0.5772539920188486,0.5454545094601042,0.5338556003484043,0.5494293377343324,0.5155156359826782,0.5276608097898476,0.5436803807749411,0.5852494234045218,0.5891520584806957,0.5730323792800838,0.5615281759589434,0.5304863721325837,0.5720950163165597,0.5704041919749616,0.5769168802704012,0.5969986312267186,0.6223195285577461,0.6125933243642421,0.5702953300342588,0.6020331712089293,0.6249610162902228,0.6287991775591668,0.6187013339652951,0.5796296193896233,0.5815893831977377
0.6004010926487897,0.6194556410201977,0.6220435120364747,0.6058135708061263,0.5671564311658734,0.6134244822255743,0.6019616085540855,0.5632915979978974,0.5431528350091339,0.533280290573114,0.5748002341298499,0.5198515217901569,0.5748204522190727,0.5464370388472077,0.603841982685799,0.6068588726896063,0.5683903241624582,0.5735940829975332,0.523544905162936,0.5798974094652216,0.5869115599192201,0.5560897390371435,0.5866090267984232,0.6196786768419305,0.6109460380341809,0.5900322621181551,0.5812057961716004,0.6031551961766874,0.6209527611458827,0.597629824613533,0.5719379017981217,0.5940510382364033
