Fp1,AF3,F7,F3,FC1,FC5,T7,C3,CP1,CP5,P7,P3,Pz,PO3,O1,Oz,O2,PO4,P4,P8,CP6,CP2,C4,T8,FC6,FC2,F4,F8,AF4,Fp2,Fz,Cz
0.40252824843485474,0.6008396239433561,0.5142992519457164,0.4916361993512148,0.48965763825005576,0.5856409280043755,0.6071966595224345,0.5860903588266456,0.4580151234864647,0.6022615869617011,0.6563155305133164,0.5732531857623114,0.5532667758260625,0.625920781887047,0.6363885268692341,0.6091888825036325,0.5766424725721994,0.611924160360035,0.5893063541053307,0.646579192940682,0.6368828213168773,0.5479271781723428,0.5210517955526371,0.6265307114932004,0.5386120802418357,0.4869337023412605,0.5265793306021218,0.44959032541281013,0.6452328385340879,0.4285933386206824,0.4268978278808837,0.44087809826858854
0.5450987878011745,0.5820224516652412,0.5327115103192559,0.5687045852533027,0.47395340521944396,0.621596295618946,0.5667886769006151,0.5610786371838901,0.5212389681109135,0.5946559298882703,0.6413858499826192,0.5571655570005313,0.5291076686034397,0.5470545620624494,0.5832456969057338,0.5817415407036551,0.555638623989694,0.5894874770631856,0.6016735951597084,0.6140263949395466,0.6026124652982391,0.5236201915883735,0.564717304992034,0.6071431573373787,0.6046777765998711,0.5353997550801287,0.5724695236915643,0.5815835947047026,0.6471672002481781,0.6198520183347409,0.5104608155902417,0.4758130870357134
0.5270124452994523,0.5868246319529362,0.26585830443534086,0.5433304407444326,0.48014526085768794,0.45439806430125695,0.38474730124812945,0.41145152054391204,0.5039795962033736,0.44188888758760164,0.6061358035703156,0.5199087842879945,0.5715190426654564,0.4879824235533002,0.5733840272496668,0.5258166569634998,0.5452874631015235,0.5343528060154574,0.5870592334304551,0.6242031145587402,0.5947763677040762,0.5373517047098558,0.5345108867311666,0.6147074191843589,0.588268777130166,0.494224199601019,0.5259429767394163,0.5112463462674635,0.6656669498204766,0.5146052367273675,0.49602828227470064,0.5042729697435964
0.5143770671804943,0.5280110251217685,0.130163938107529,0.5422404259107236,0.5394074535235691,0.2719864951233802,0.3399236626298457,0.26434660266766064,0.47298928733432644,0.3297503912497365,0.5409747766485161,0.4570110659913951,0.5384817296514537,0.5335670162251004,0.6008980691953624,0.5789634289332086,0.5652848197616005,0.562212371730545,0.5596522211260635,0.5841959967713904,0.582942712644013,0.5525720463622467,0.5038907107119603,0.5657479549360096,0.5425116975973726,0.37103902017429286,0.39380030013499284,0.32760954936336756,0.5644725240483724,0.3193602882888978,0.376466653668001,0.4352992204057864
0.4906900593028181,0.5641394682584494,0.3846358863791916,0.6291970200435323,0.5496681323060706,0.4767529780805776,0.5698554842041068,0.5258048200724761,0.562173161965338,0.565253112864797,0.6094493894838963,0.5377826250525632,0.5167016648393759,0.5896014636961399,0.6287985749105529,0.6399276257935335,0.6031324117730541,0.5416413906743764,0.5354247827793585,0.5547230877158609,0.5121484548169267,0.5294862663227765,0.5242182375546408,0.5837150204424226,0.5563947742487269,0.4914117112616146,0.5323811852404017,0.44819623130817904,0.6562066346260504,0.5473374503658304,0.4697396957554425,0.5313403729234684
0.4668667425018494,0.5883168132001299,0.30503795550202073,0.5871126659182386,0.5340905539273374,0.46129989501760466,0.5523478339075513,0.5201699266984221,0.5637880760047332,0.521907444088447,0.6283260415090394,0.5953404486409689,0.4639343669438123,0.6034854746641474,0.6313834415326134,0.5868628773075553,0.5523789849553391,0.564933821382074,0.5077206338854134,0.5633822707308994,0.5237524852520554,0.4576082274276208,0.4339237239105539,0.6470414151381014,0.4884989133288798,0.41306756623683016,0.3917316711551812,0.2924040800323127,0.5418344627345759,0.33967983213890485,0.4287072687390049,0.47639969308183144
0.5399061511151275,0.5489073103594093,0.29136180403146716,0.5952685585502799,0.5017287956569367,0.4808512571925838,0.47609295793986667,0.4928057709620579,0.5634468099302213,0.43295050578376726,0.5739586632948269,0.5900116855817613,0.5055966947242959,0.5856843055442293,0.5807393352096513,0.5613308907855767,0.5628621926911693,0.5364125713269744,0.5086202706519688,0.6223953750886768,0.5694369687660975,0.4918036224625421,0.5108256237659907,0.6728808696201781,0.48431215172165615,0.4528692844897308,0.4357937996069063,0.3604628272556694,0.5585401448186462,0.35708157864863993,0.449347732138052,0.5250599091365413
0.603623922612638,0.4890751753355334,0.4577033511640839,0.5728845910229461,0.48173631090160685,0.5831522961349836,0.493630577754466,0.5136819965730699,0.53378497926277,0.498644584838442,0.5709396386021404,0.5440196736546001,0.4650743158530713,0.5321716597286797,0.5862162551034578,0.5738348587819944,0.6015913112719091,0.4964451852412547,0.49426967699686253,0.625540310680871,0.6089265794110129,0.5533965401100698,0.5942293931243178,0.6241678730849575,0.5880687921433753,0.5803433505110307,0.5773876386918299,0.5382062991901861,0.6092753475518201,0.5479040408314054,0.5211007217219031,0.549921858173857
0.5671138778145678,0.5643473187355205,0.5594421918929765,0.5827991233910799,0.5066039816121624,0.5908909889374605,0.5704023744968186,0.5551022396510279,0.44026092963776065,0.6027806507406861,0.6370123737443091,0.581224234567035,0.4580103010808784,0.5885900891948962,0.6376097105528331,0.6240227781122096,0.5863482296713586,0.44839419354215615,0.49453733511401826,0.5926072746766659,0.5808408234222903,0.5470892632849274,0.5686446307422335,0.6505709395169357,0.5938666992384669,0.5675560358000512,0.5657148328455814,0.5252474887751265,0.6026708274235707,0.5363001592797918,0.5216116512123812,0.5292148772569736
0.5396983498639404,0.6146032999050858,0.5426392183946241,0.5909705359918068,0.6008670874834889,0.5736871362931926,0.5983191995916132,0.49945378835413384,0.4438727547604281,0.5847571245895431,0.6729704926615873,0.6243294174217319,0.5387673915259008,0.6499750086947366,0.6492386194962724,0.617592734262874,0.6022112702313105,0.5591046711341092,0.5699563912965361,0.604052176179844,0.5767177175746938,0.5685258961941093,0.537787024603864,0.6187097191116445,0.5769924197712385,0.4819073701573936,0.5947530714445722,0.5179903621916033,0.6363642125663442,0.5580748236719301,0.4799916829721724,0.5181311998766379
0.5767138297941824,0.5731106228231183,0.5983103977718246,0.5832976637628369,0.5983325409045122,0.5847814902764855,0.6161926223849744,0.4984688910770853,0.4629195728206334,0.5483557194413645,0.6452271491406497,0.5302822458173798,0.5592948402617267,0.5804831217721971,0.6603573577369544,0.6260233097020087,0.5991799490203988,0.5510201086679307,0.5123453808974069,0.6249803546961317,0.5632720991385333,0.5013593736993803,0.5137018841119343,0.6331135683232482,0.5542583805071081,0.5001227593412118,0.6144251643231881,0.5288593493896692,0.6610823007039385,0.5874355413030059,0.5347853514587005,0.5023550192464002
0.5879363991241552,0.5782404391829629,0.5686659446435314,0.6092519639938777,0.535305384351557,0.5705795664290443,0.650181144676502,0.550290320413737,0.5041242528643659,0.5530294482837167,0.6104346478615068,0.5059623922964828,0.5406666550941001,0.5756312032573991,0.6721259593399059,0.6460470624240121,0.6348782724359695,0.5382305106531043,0.5394508396773494,0.6438322767126775,0.6184713492200383,0.517108018417433,0.5789389877204345,0.6474261582360401,0.5847402301237613,0.5947172407422596,0.6514992817490529,0.5864368202227175,0.6151954066706574,0.6018464317941166,0.5728164158117602,0.5095381349483364
0.5185291468821466,0.6479055124516817,0.5680934592286027,0.6006410633426824,0.5566330138031584,0.5518557131782672,0.6410100754734372,0.5096232489311212,0.5335418362478087,0.5636721872645447,0.6283096610646376,0.5597213678331083,0.556065259536407,0.6475628812841464,0.6431910827166443,0.6372201227572928,0.631855415521244,0.5926272123273425,0.5641081428290652,0.632665745530919,0.6179290008383089,0.5476337225697608,0.6057618588810065,0.5942272110998355,0.6393880189016403,0.5694161719774844,0.6173533411904116,0.5853355023264297,0.6472462066682333,0.6046753849438392,0.5151780470898502,0.533710653951932
0.5709092275886012,0.618986592058312,0.6283471873330299,0.6186891296349254,0.575573303042817,0.6015799870344549,0.5353306480455894,0.5137619007744537,0.5429872161791021,0.5674175966422627,0.6399750013878317,0.6089692841059873,0.586953118652542,0.6410669384821024,0.6587347449749699,0.6448720864218701,0.5937302188029671,0.5859094813563129,0.5381987344358894,0.6141010551132265,0.6040835585743232,0.5453905253830779,0.6007257559845512,0.5973474845510179,0.600889889900546,0.5512630711596943,0.625729047287436,0.5539958104978631,0.6412445910177514,0.5858855236450947,0.5491176161652651,0.47490248690649806
0.587244651737899,0.6029003027121671,0.6387108409830626,0.630727327420323,0.48142718114416855,0.6228431421148246,0.5471186129615858,0.616186139423817,0.5198858382746838,0.6016014244105208,0.6243340197393055,0.650918308661115,0.5489337204999948,0.6277236680133921,0.6560611086884414,0.6473320016813832,0.5949438034754401,0.5616500960242833,0.5606465876072667,0.6025769442805904,0.6012402938873282,0.5356813684937549,0.5883804984274067,0.5953473853598836,0.5885922232983143,0.5663099426964838,0.6179140392129093,0.5519314551143604,0.635060828385726,0.6034754584699646,0.4925354804076841,0.47652763997411646
0.5759236407137106,0.5767157367863599,0.5513959709428136,0.584765884550585,0.36708885005619146,0.5916658456451974,0.6150623611290947,0.6078017434264794,0.4171681674102421,0.615500263902743,0.6218514173213536,0.6180285317044537,0.45661935911395585,0.6089031409799006,0.656456445956058,0.6343987516773779,0.5978645409988026,0.5289129847754154,0.5591763389297874,0.5774883664365664,0.6237069818456733,0.5817710518303664,0.5582638883108416,0.6453087731717942,0.569144711281301,0.5402830241264432,0.5929003888704738,0.5686293692407842,0.6499723416831363,0.613917278552626,0.48185529667133503,0.4172235088814907
0.5539233841462838,0.6026713111171711,0.5226667545080751,0.5708264002758241,0.4167096214595064,0.5987104586122226,0.6339802032242852,0.6014323448411562,0.5216233246806672,0.6056139903950516,0.6602389140863827,0.5685003823881911,0.47118611468940297,0.5844411191404065,0.6076974061505096,0.577469464707791,0.5424907863719903,0.5554381529031486,0.533852326933923,0.5954538897407184,0.5761433716750509,0.5988305157706891,0.5760141286768519,0.6275832262062601,0.5581674594416138,0.5294902783830298,0.6015953269281498,0.5735922558378441,0.6543107449695833,0.5888767317766473,0.5449229604703366,0.5416012068407965
0.5611520551090724,0.6338586223346633,0.5551825753424706,0.5546941624720813,0.4611549506662667,0.591030787779743,0.6054591239816886,0.5119138900322047,0.5833176894311671,0.5920697435806074,0.6351150771986191,0.6264405300621589,0.5128149318943586,0.6166486009443083,0.5744568176919641,0.60181046626765,0.5817727396162578,0.5978917337952334,0.59704158543519,0.589437511335644,0.6141587692413149,0.5226630941372344,0.5844865816758373,0.5915174871938071,0.599158808814793,0.5738470078633721,0.5856621934018532,0.5794300703111777,0.6678771200868254,0.6172126846317381,0.570000965782359,0.5728045685899896
0.5691952708825178,0.6221700813456839,0.541593396591003,0.44793164160420046,0.5141314119004903,0.5829263880198662,0.6324601815485927,0.48099841878026905,0.5241180103170057,0.5974508854567967,0.6058272092151431,0.5558465699937272,0.4973322913183404,0.6054481638664104,0.6457831643122843,0.616070170898909,0.6413778996814241,0.6063383659855522,0.5936360959043796,0.5872985028226178,0.620846654086885,0.5217354476360093,0.5938085122299943,0.6416385608835652,0.6130286894753613,0.5267026149210826,0.5933568283688514,0.5631480144842776,0.6323431740325863,0.6069205481762315,0.5622818181572552,0.5433234757839877
0.5598860582073382,0.5727928055562268,0.5147611841279409,0.4979621393833323,0.5210187755549547,0.5674646654385719,0.6006931868041195,0.5436004983472683,0.5079524025866782,0.5795916264199655,0.5821585815514289,0.5774251953471018,0.5325521288821902,0.5815806500555748,0.6106753992429015,0.6079415100920105,0.5993813239787709,0.571122092378815,0.5789407422441449,0.6155575756712491,0.5947845940897636,0.5513734245532563,0.53911293550024,0.6393717846594155,0.5872679926913211,0.546189051519514,0.5895854576266379,0.5772667659047385,0.6324049969744623,0.5838598601979712,0.5519385179179873,0.5236141357900072
0.5094738807775052,0.5555668367421717,0.5317286205829294,0.5178059317480602,0.39634563766862735,0.5851020176324111,0.5770477758208948,0.5581419483171222,0.531794551523119,0.5752819046798221,0.6022529318418933,0.57168279424126,0.5161559154550559,0.6009835432161091,0.6066637667760025,0.5602998084827084,0.5962413589620164,0.5516617026941024,0.5749537403209697,0.6153984276855676,0.601229824801461,0.5509160074407036,0.5532648070411473,0.6311886866538025,0.5517974197995212,0.5186950585208766,0.573403840428712,0.46171977132175623,0.6073941402155287,0.5291549778878957,0.4445511794410586,0.5202898983485773
0.5576195579279478,0.563176455179414,0.5247863967937428,0.5780648217138367,0.45496421334272974,0.5765115739242277,0.602685725931407,0.5821907086643265,0.5365032155051912,0.5659301126702033,0.6016111096955337,0.5743624215161475,0.5138525039865511,0.5949576619630336,0.6144979682764748,0.6177769472135654,0.621969630887565,0.5116013760074762,0.5283919474838898,0.6407941188565595,0.5835529583242661,0.5440072280538594,0.5078945029571319,0.589507835722892,0.5836958270906121,0.5532985578555948,0.5838115624824852,0.5100030861913407,0.6190127193925403,0.5803061811928689,0.46944186789310616,0.5065395806606249
0.6095338349915064,0.5738599750950957,0.49535315383352585,0.5888672994032373,0.5157890138961734,0.6076022492466093,0.6258305290839881,0.5659388330570739,0.5505446910495322,0.5133475853925021,0.6338663593741382,0.5726721856957062,0.5275761917785815,0.5958613662638307,0.6129937983248438,0.6375773294051346,0.6010346192385394,0.52621115268223,0.5625297283356738,0.6329800433671745,0.5642886936348152,0.5170646240661239,0.5741939245345703,0.643794777827117,0.607228614544734,0.5781296196530146,0.6114354543979293,0.5802081270558223,0.6749629612446416,0.5982120643868826,0.5971016195395135,0.49289254501642343
0.5958529366147317,0.5950119010722857,0.46457269117496675,0.5578239938706603,0.5090871407750502,0.5703304705128727,0.6309173451765501,0.5363510458299398,0.5742120444973184,0.5371227118854076,0.6218689540454607,0.5698391012503923,0.5776936321086354,0.6394207328489394,0.6541218880502199,0.6403555858863371,0.621406013180898,0.5672609242428497,0.5632017987213883,0.5862889750822494,0.5543057435309635,0.5243099516122623,0.5715118390042675,0.658521107841461,0.6097854426578649,0.5852221545712603,0.5690154732152122,0.5757725582235129,0.6272694731497657,0.5939710165591546,0.5403010857291304,0.5379924370323785
0.5397311228197621,0.575726135857741,0.5232968969030407,0.5302695066637041,0.5075368232682292,0.6085703207999684,0.6196407411296948,0.5276155524202343,0.5752463245794196,0.5641952012472743,0.6001090957034552,0.5876236125619567,0.5929215856940033,0.6129807436882225,0.6393403774320954,0.6446917335846053,0.6309376131593024,0.5939424458569061,0.5646269146302505,0.6128067170569332,0.5895006159779609,0.5500642341711494,0.5700647154370632,0.6507965743977363,0.5784047611606175,0.6003564633112581,0.6150759157757478,0.5654613436419206,0.613935709946193,0.6041201519511898,0.5552547999722119,0.5248599004538258
0.5428563865560233,0.5957681574994332,0.520151452111847,0.5607957290752713,0.5576480932590778,0.5840614496814763,0.5888283809866629,0.527436334533821,0.5528381584298574,0.5595816028230357,0.58399551784885,0.5482304657102973,0.5662978996658086,0.6120820824487166,0.6281357343721786,0.5925651275132781,0.6046098488949859,0.6010818844572396,0.5652507195575944,0.6046195030523517,0.6172547894747108,0.5894357777111002,0.5887705538020523,0.6323083316858139,0.5780343734594406,0.5938946318970504,0.589859991288367,0.5259991771364377,0.6336387814753779,0.5896628380603469,0.5509322786929932,0.5247272224294337
0.5364866564240423,0.6177164722384274,0.49821336043668574,0.5837261093572227,0.540635343642261,0.5604329991589305,0.5851468496391325,0.5220018172506526,0.5240351432442216,0.5357674486687402,0.5848728037983528,0.5631826706979939,0.5454494647050632,0.55437150834701,0.6118664782793005,0.5534265028079434,0.5653427237372778,0.5772380763228014,0.5721322660528412,0.5896884721917154,0.5847529002408591,0.5576155416243082,0.5754170647564569,0.6138859317864811,0.5444819066493306,0.5642038144860652,0.598069531857703,0.5365484296487326,0.6278915564873774,0.5685705454641967,0.5346563873900698,0.4807642114771446
0.5381611894288076,0.612467443242989,0.5425410325784124,0.6095093205723123,0.5622335904775015,0.5940054222694553,0.5969490326641237,0.530412317568847,0.5069839931661829,0.4829398879312963,0.5739802089824585,0.4889240834934263,0.4727931578556227,0.5162061947149222,0.6188971427716615,0.599657772051609,0.6136256471928726,0.5573663946856986,0.5273482153211202,0.5896908625150677,0.57029268345682,0.5092334478354177,0.5762869095717892,0.602162171078128,0.5570256327197524,0.5556634010850764,0.6068759656173471,0.5856671414620053,0.6218802325541194,0.593427646976491,0.5708021593824507,0.4347860714580981
0.5516942263820804,0.6048256726546567,0.5156243753733245,0.5978222644254085,0.600102309206523,0.5840270896151039,0.5358617019273155,0.4843305866186394,0.5343953071331485,0.4784556106732446,0.5872892034085471,0.4796075987292698,0.48141281737177427,0.5437857179501201,0.6267769174474309,0.6090535232760449,0.5790820278083377,0.5637110700901848,0.5369252489565748,0.5592129140966291,0.5515162260776147,0.5074693333634696,0.5586963415816364,0.6064683737009087,0.5710856389392309,0.4939591863393163,0.5691036556029527,0.5279200571252908,0.6057046064526551,0.5873829099758708,0.5580538570717236,0.43514326136316034
0.5492517838921938,0.5954872178684559,0.528110208890299,0.5786625140125098,0.4321856332048187,0.5751282680301956,0.5312611175161869,0.5200915634822185,0.5737381001577351,0.5424215693312405,0.5728569712263449,0.555692357346167,0.5490854283500298,0.5990000589179129,0.6213589166478298,0.6250982042456222,0.6173183824567822,0.5333925928363202,0.5492936833265463,0.609516381487534,0.5354425209812376,0.5244426771602867,0.48032652731764647,0.5536367602645726,0.5774448162245982,0.5017856619542921,0.5626110975266992,0.5428821956849647,0.5927454635107312,0.5759961705667839,0.5535762806112592,0.4947314581523331
0.5632429744447955,0.6376418114531066,0.5884775329110076,0.6207322176119365,0.4266011606206764,0.6360338066929804,0.6451965495165332,0.5236076620139711,0.5610108125745873,0.5335717907845117,0.6494751212827268,0.592766240184345,0.5062557187214218,0.587635892191694,0.6415619863892469,0.614888805157063,0.6233440338635957,0.5922062743319038,0.5805207174587891,0.6320049357832981,0.558161706498931,0.5333924359526697,0.46552170946059057,0.5833125541551588,0.5985118784596563,0.5792745406899544,0.6257362197923094,0.5556493236696723,0.6383677195754234,0.6466442693217379,0.5715473753964984,0.5508843843179956
0.5667185787082761,0.6487135416468286,0.5527898228650229,0.5989124052976288,0.5523253546727435,0.6353862965742506,0.6210872034232789,0.5078497717358502,0.5420390323475529,0.5143700729575963,0.6319461228206484,0.5420965389850034,0.5053819521848141,0.6021819023395936,0.6729117673177446,0.6437754519658638,0.6106548558057783,0.6067033614826254,0.5497883516052119,0.6287495938176465,0.5557806921514803,0.5155162331238445,0.5247553030551191,0.6331198731007585,0.6177128309900861,0.5708497381213604,0.5766165374012064,0.5432173050782214,0.629645107951846,0.6282511334979366,0.5428076423348879,0.5294983654712654
0.5634913664732775,0.6237679442344123,0.5107422000569242,0.5797171309819178,0.56365398513444,0.606271358192258,0.5960265432198104,0.5094453612970322,0.569898565886487,0.5039904803418203,0.5973500551836479,0.5557332930882108,0.5662244031557789,0.5897992527793513,0.6547590847962357,0.6416088682031847,0.6285851766997862,0.6008005785130669,0.5434955766477241,0.6003853564418777,0.5724357934134573,0.5151874626509688,0.5190538437718382,0.6195821635764021,0.602467501085666,0.5698057788411727,0.5600425608275962,0.5401184575428507,0.6375826361199862,0.6291537076726365,0.5194287652181665,0.5314407022233743
0.5125032473964847,0.5680885253548458,0.4496573759508457,0.5786653219105808,0.5314738210203591,0.5722294216884568,0.6115582222354142,0.5186937483948251,0.5829122960612584,0.5596157879354228,0.5552132994261121,0.5720244471429443,0.546051599210009,0.6102288205482646,0.6257677484207704,0.6570110761979268,0.6131170647281549,0.5985538555243576,0.5884646610075047,0.5898839472712636,0.6160620132437536,0.49548484630685546,0.5137528684707172,0.616872947066267,0.5672093354231416,0.5059527947108086,0.5927229623783175,0.5038186828734667,0.6525169110232931,0.6300732758881677,0.42201884112102794,0.5623259108547437
0.4812274979768456,0.5718201364688326,0.5110201195363208,0.5661981778894817,0.5222089164005556,0.5959893646943,0.5917334521248458,0.5158441946773891,0.5939756872758258,0.49910963627451965,0.5325103176490799,0.6236842738116959,0.5613466984268309,0.6179021178139439,0.6606175372622937,0.6750209251447096,0.6138377720319764,0.575403851866183,0.5256059937732074,0.551479468556652,0.5283789913468916,0.43946060297718853,0.5299821280609518,0.5474211503919385,0.47017261001049404,0.5086193349504529,0.5526021527884657,0.426371484894391,0.6233514186244034,0.6008642611094623,0.43179427303174256,0.5508030597076647
0.5299874307903211,0.5594850775241523,0.5005234304624739,0.5753485897800926,0.5194560113600036,0.5896161676107634,0.585883714756033,0.5204422991688235,0.4948006622236016,0.48822759020613005,0.500303166662985,0.5128943046857674,0.5416050358432759,0.5244906371942216,0.6562584859395996,0.6113663729627916,0.5844158075599275,0.5550999082992658,0.5044003104529137,0.5833583219580661,0.5186300554253555,0.4686144989650523,0.5444656743797729,0.6153683496854647,0.479836911622412,0.5301436746107545,0.5756400450294671,0.46920474763743963,0.6235859107919102,0.5395634823026856,0.4978679521295446,0.48051682092791226
0.5532796687774608,0.5708873409798896,0.46108556122226124,0.5473477687818895,0.5472063530028798,0.6095970370287703,0.6046255832598428,0.5596894609011612,0.5065081145682868,0.5936804934612528,0.5818136826676693,0.5779522171101962,0.5062241609935274,0.5245901433862752,0.6332003368895471,0.6008314918594817,0.5471229913986589,0.49384780779499937,0.4723679950102577,0.5130422493587314,0.549797002168884,0.48730340149878415,0.49962210692749726,0.596340396074,0.5046346895776037,0.4992672309288202,0.5339559066558629,0.48341321675207966,0.6510494856638693,0.5900866707752082,0.5730056726933584,0.5148044088557542
0.5144325563347968,0.551324525717415,0.4492608630238298,0.5380490823766471,0.5062224830637573,0.606055704247112,0.5304226431044181,0.5410645116926972,0.513827042180328,0.5568325966036309,0.580669197133255,0.5794251146734273,0.5087065472160592,0.5433728753324858,0.6130369395417943,0.537916126476975,0.543079899648882,0.5366388804841078,0.5367905895198466,0.5310486214010636,0.5393339060887246,0.5395246542615864,0.49282948187324727,0.5640023257393412,0.48524344036707434,0.5610074746643432,0.5526727337014912,0.4537746732542848,0.6111522138583309,0.588278186170309,0.5777533893616991,0.5660761785312176
0.5004397737338678,0.6013928054097958,0.4285875255290185,0.6205278946676599,0.5191387994561953,0.5922757912074068,0.4655638960578489,0.45042600692657675,0.5600694213724962,0.5195696110279517,0.5554968385848963,0.541588294840116,0.4859835154656098,0.5408929549327847,0.5988182163774648,0.5505743446342396,0.5664090494278774,0.5201624307820429,0.5091535297391633,0.5311621014000764,0.5127093393766426,0.5150578744954148,0.4351025356794608,0.5654045645361584,0.49509533837938635,0.5347219006043517,0.529165028335012,0.42899162266851004,0.6023679336226319,0.5832174015139077,0.5552703793403385,0.565667020332946
0.6252542285733556,0.6685978557633523,0.5768675096439128,0.5967334508919252,0.6268932799689549,0.5564797602770748,0.6509116327165185,0.5965411975363664,0.6073980061468159,0.6379564210477877,0.5803378408891284,0.6204659965919109,0.5899148477467767,0.6431653874418795,0.6343127557050662,0.6331869744747398,0.6407752620838448,0.5734578970340591,0.6070075252757765,0.6235067858266996,0.6592601723291701,0.6439113533625107,0.6499880863169636,0.6444330013455287,0.6829497966950032,0.5911822539032572,0.5249396468224239,0.6157785328525723,0.6595945837679389,0.6292037204336852,0.6265478259639283,0.6522664752448548
0.6413807780583681,0.6516455032626279,0.5975367028262096,0.5721162137626039,0.614086225179541,0.6130873752159661,0.61368020053646,0.6575728724084663,0.580793095497629,0.43285380189842737,0.6466659576940851,0.6435320078246092,0.6473905431651314,0.6696813538144141,0.6962538863685057,0.6620058740811995,0.6894430691235606,0.6364299561739015,0.6647840467374982,0.6850681420024096,0.6772630254020017,0.6492529870027199,0.5929434515035311,0.5768659834749219,0.6354660861032811,0.6425573343099763,0.6473376445286511,0.6696856938809473,0.6364169497319552,0.6229022610119401,0.6081396179507678,0.6774930855749306
0.5941492276764357,0.656191049318802,0.5889797567516589,0.6399253189197487,0.5692428611524917,0.6053866837510293,0.5833779256271155,0.5955804256728905,0.5835823104534292,0.5791742011215018,0.6180515783908811,0.600855548930298,0.6122030991566042,0.6426470124532307,0.6227512376759314,0.6641101277054,0.6571072440767485,0.6384531228342768,0.6150089762508022,0.5976379607402651,0.5157421817355019,0.6094481616832985,0.5876511956703611,0.5854257166489966,0.5916596020851094,0.6039714121044014,0.6455652019939478,0.5819975201417433,0.6487743290169686,0.591426167051873,0.6008925285413295,0.6145087946634011
0.6331903879524666,0.6742521460557707,0.6192258974761207,0.611187832982315,0.595829975495853,0.6374530489605025,0.6440746678764573,0.6156368234568296,0.5984149498980884,0.6395446587370734,0.579841378286318,0.6074571270194573,0.6015278429827757,0.5558588908304272,0.6030724928017984,0.5669475293938281,0.6160037717701227,0.5947739140704134,0.5738280934817606,0.5866460887875944,0.5677294915715057,0.5831641605232519,0.6017623925393649,0.6435640191244475,0.619329168538737,0.6232453134504977,0.632042773514754,0.6141881481995195,0.6332621261854776,0.6252453625436543,0.5620329473279408,0.5811358090322094
0.5837849026928731,0.6294059019435562,0.6168397454602607,0.6648273721758913,0.5989690458348729,0.61852574275863,0.6276799884266033,0.6399526866177898,0.6054323919953141,0.6343663303923787,0.6268887410252544,0.6059536044261475,0.595414941949123,0.5750970865497246,0.6290875345104312,0.5670257787173422,0.5867903767960564,0.5932468607823786,0.5430498992519291,0.5927055139737154,0.5276958389465956,0.5718402099010983,0.6130637951960825,0.6150736423753533,0.5951531807188817,0.5871099604269636,0.5834718591723571,0.6211839671487579,0.6223161092085383,0.6030831357186476,0.5582658957218013,0.5893063541053307
0.5568777650674606,0.6328849019693273,0.6227373723462998,0.6004949082412694,0.5730643114490866,0.6422348074623381,0.6281857370223296,0.6257745745976886,0.5388668915043286,0.6176718772737905,0.6207294896935701,0.5883340102907153,0.5936616293451398,0.588167327259209,0.6593458280301501,0.6412281878279591,0.6117808459559007,0.5565985593895524,0.532978428407124,0.6082934195598123,0.518142632591089,0.5548958348614178,0.6131177976030924,0.5990194740140367,0.5562316899511821,0.5795022397158344,0.5506035952229099,0.5967553348848793,0.6329336584409754,0.5704977902304275,0.5333749360393967,0.5734693293084879
0.5083686200729386,0.5872673192659328,0.637609775342095,0.5079824049538041,0.5231546901875442,0.6313507887619244,0.6444431304917505,0.6316343803389111,0.4880179780491657,0.6329465833639754,0.5888045046939936,0.5578523056599037,0.5311396292374668,0.5665068056008686,0.6252425012193363,0.5970780727751857,0.5758580940368453,0.5220609715012016,0.4959631909410152,0.5847806790297441,0.5678418474026047,0.5613034914439065,0.6334357001706901,0.565394866033164,0.5881819999537198,0.5914433342285131,0.5479169556912656,0.5452750916065339,0.6335107946127913,0.5312627017549126,0.5283383257285847,0.5890291343975232
0.5252536377444794,0.549119608807336,0.6074989116673575,0.5628733504790265,0.5361103186192655,0.6480078837014527,0.6321682629027805,0.6527564775106102,0.50840129243549,0.6177571898208484,0.6278310776623466,0.5458016099746879,0.547095962111759,0.5935094052756641,0.6028245422666596,0.5836477038426302,0.6006387672819999,0.5704077297149268,0.5537721412151333,0.5832606615290082,0.5317141117133461,0.5443972034862941,0.6223056876286805,0.5866837080177267,0.5854791447427004,0.5939405304764972,0.5667611773561334,0.5392408501535728,0.615951833307972,0.5533292831726018,0.5246978696061124,0.6034338294865853
0.5759102945621399,0.5255549137860323,0.6101564365541189,0.5931031751819078,0.5362923984706296,0.6436626187007616,0.5838651499456146,0.6121407005785179,0.5398300551324833,0.5881891603794788,0.5367514277228775,0.5639006086057567,0.5692047473613242,0.6149138934424859,0.6082886569314165,0.6182862054679384,0.5927773804910321,0.5996154473251634,0.5552753427032031,0.5979867798317635,0.558695683592025,0.558973045545861,0.6057053720560837,0.6358502091045496,0.5786114687173827,0.5848654040277022,0.5888359829417367,0.5647822102691782,0.645203271761225,0.5870758967349164,0.5389779696885547,0.5809650652237641
0.6119195096871642,0.5423481610192485,0.6296785799633332,0.6029556184480188,0.5337142748183962,0.6010318916521395,0.5806317238149739,0.639456176574056,0.5621349693890854,0.5548257877134729,0.5261115694288265,0.537302419760212,0.5221699673910171,0.5709731842710003,0.5998678510256865,0.5793445003287404,0.5902065087931543,0.5724431037471356,0.5766961957184467,0.5924723559301402,0.5277924052173273,0.5648775004348806,0.5934911173247814,0.6194984975367998,0.5732112202358007,0.5704081966598201,0.5690444830923784,0.5773422586838901,0.6632147829833418,0.5968646058867141,0.539206242274675,0.5785184740131707
0.6117967081452003,0.5936807783627959,0.6572300071386135,0.5845637537941412,0.5580899020807762,0.6578913641258489,0.6339326117131108,0.599770168990914,0.5451462626402337,0.5681014567336501,0.6016868472633562,0.5680007584760938,0.49085442472592605,0.5835257398516125,0.6154900721755069,0.6180763262613982,0.5943987852389098,0.5575453938211142,0.5464540185456942,0.5566045514400734,0.4762650326822623,0.5503309246591332,0.5881056487961371,0.6126675054335308,0.610750486424988,0.6080138794707226,0.5942554243148918,0.5623626125619605,0.6269911904081935,0.5978660363387295,0.5748930467651087,0.6005818841237016
0.5925964686652817,0.5921517950513715,0.6235456663274853,0.5903641607332049,0.5329725439080715,0.642080883752062,0.5935646421820077,0.6019814949250174,0.5307641452461085,0.5950293246014219,0.6156397717047596,0.5633971433538166,0.5317936768981902,0.5553705574369501,0.5854706087654494,0.6029460937024708,0.5760456003753001,0.5876081094155272,0.5778740472919607,0.5449562899152379,0.5283213837976137,0.5473928556855931,0.5813443718682475,0.6031792505228408,0.6235637238750589,0.5602887807598008,0.5873883378703637,0.5131632305674986,0.6282614974678373,0.5959261363513243,0.5610713664297485,0.5880250723415603
0.5810298824392393,0.5800204413765285,0.5556311083336429,0.5647308886021931,0.5389406332503406,0.5705741035069253,0.5660037021439982,0.5794012302959166,0.6006777196087748,0.589059779079883,0.6514337944314935,0.5818514036463465,0.5537635618010975,0.5845359260237918,0.6011608049265705,0.554112266751293,0.5669375368542244,0.5709677680920893,0.559086939226709,0.560737937299025,0.5583859500243926,0.5405402629234208,0.546722752818313,0.6261788719052139,0.5658045836658306,0.5239759988079626,0.5859356694638675,0.536913400327137,0.5748313325297101,0.5821802902156258,0.5578128611589961,0.5429000355396166
0.591652394934132,0.5897539551783276,0.5327059801599627,0.574765019608545,0.5128626992310679,0.5719993466107198,0.6343014486465467,0.5888140225294736,0.5488682492118411,0.5685112986618017,0.6104960891943364,0.5457305329140312,0.5388933601003436,0.5869363371815135,0.60392864517784,0.5898686071422526,0.5820306162445656,0.5220199079123977,0.5479836092992909,0.5551001367829826,0.5233828663956718,0.5405378801391849,0.5621579703565787,0.5712916287211206,0.6034942128541807,0.5655919013387644,0.5733407304250862,0.5759701687994503,0.5937288128483273,0.6278757902067215,0.5463653161166241,0.5097990512432544
0.5651941846704692,0.6169485089049742,0.5537663025214533,0.581657100122251,0.5388004492097189,0.6276667819501345,0.6131194823799138,0.6133822120910827,0.5251997184825341,0.6026135184619932,0.624318122653506,0.5544818333955949,0.4377859687461638,0.553073424870185,0.6071421078550752,0.5955237100210931,0.5788962264063684,0.5073015321767763,0.4822853140916058,0.5475371990731043,0.5397236311168232,0.47195242957904016,0.5585511085694798,0.5833639756523313,0.5461313635679178,0.5844868268995638,0.6354079116850779,0.5587915894217751,0.628958483840995,0.6029429164288334,0.5232332274080169,0.510426632121386
0.5189949665989702,0.587343893143723,0.5810670305767287,0.5792759752342104,0.5333424830503241,0.650979970933523,0.5859071478382428,0.5950671507611255,0.5549078518141362,0.5883848036529535,0.5937747067467416,0.5938857524643777,0.5196881875228219,0.6160838324003506,0.6297845855996381,0.5975534630991742,0.5894541870945703,0.5735041856493699,0.51747273434354,0.5835403740206678,0.5349359218302081,0.4986022243427619,0.5404316171682104,0.6022295486032504,0.5224920000612238,0.5548587283359634,0.6150439614695508,0.5411118502429417,0.634619841112655,0.6309405687573529,0.5151590779188313,0.5408872296951531
0.5400104471910104,0.5820836443999063,0.5546823102571482,0.5998995749742305,0.5607945489441941,0.6116057037374212,0.5259903452622037,0.609274627662539,0.5194196608711414,0.6094149837333609,0.6219173641498387,0.539796279298189,0.5661420644366983,0.5931475752902513,0.6078210716343967,0.6055762064656174,0.6428611046560686,0.57745525843628,0.5435773067454266,0.5752773837829007,0.526528023795773,0.5517340076431309,0.514919795298654,0.5999059563626391,0.541093709946879,0.5184418666123096,0.56612998943012,0.5235890388950308,0.6342365321731936,0.6132526459797932,0.513047052040713,0.471440022467435
0.5549651859908684,0.5773665120056555,0.5176685471488426,0.5404615639688171,0.536535878097624,0.6009704167626081,0.543277254560326,0.6226814533214108,0.5054684304335102,0.597205376947376,0.5960919802746537,0.5312157540515541,0.5365818359659826,0.5718868245312774,0.6000786515486036,0.6243899080845678,0.614755206667807,0.5395842508989144,0.5201256243670771,0.5790148001970555,0.5244987702116782,0.5501206200867403,0.5420373413400371,0.6051981569943521,0.5300609211446152,0.5645846972032559,0.5725996109458813,0.5000513533269896,0.6432025040436884,0.6031125112323193,0.5159385807158346,0.5528900661023738
0.5849257809470063,0.5427108923268769,0.5549254772262879,0.524973901599764,0.5059920430051267,0.5980133281281891,0.5760460405999467,0.5655841952925748,0.5296576003946306,0.5927433822911367,0.5790747243000975,0.5772788906489571,0.490561467324486,0.5678565249228087,0.6261436396865484,0.6217791083167128,0.586220033816988,0.5528790607733455,0.5274251006633708,0.5429394704002954,0.5299047492821477,0.5613589812088371,0.5457411884250882,0.5898015021072242,0.6107901927514301,0.5842483242288791,0.5703535538256413,0.5765140725848416,0.6386302178833932,0.5994520751309187,0.5322301243638562,0.5390901082737789
0.5454735281743386,0.6105110994115714,0.5780282758798748,0.5468424096086235,0.5218441262327905,0.6063101823463694,0.6194114226197983,0.5963706736416517,0.5160086470842246,0.5808361590755958,0.5800315367575967,0.5436624689010773,0.5117925080569313,0.5853471816131339,0.6292712212761967,0.6004133701582635,0.6116886908468818,0.5461082164991351,0.5330980674654312,0.5803594519271831,0.5298321945613581,0.5536770012395315,0.564520093434397,0.5670657680702373,0.5626171328943955,0.5710280775949211,0.6139785611511039,0.5363918071456886,0.6377970854767804,0.6058856785064802,0.5381095827144591,0.48545129465691544
0.5730364927264621,0.6184109650794923,0.5991609927844121,0.5550187003370697,0.5642499791624953,0.6060364987042955,0.6128340262362411,0.6267881024624934,0.5022398040484455,0.5670403510039544,0.599060741475337,0.526184590460541,0.4962043552118086,0.5558676055782418,0.6198377556080197,0.5964303237158414,0.6078914057768346,0.5682105980419043,0.5256979245095716,0.5759467257531299,0.506116962917853,0.5874229420549156,0.5721637325194067,0.5968587056851525,0.5648576393470234,0.5806660815141894,0.5914784088273521,0.5558148050746387,0.6590368153459629,0.6211085025088919,0.5764153933577996,0.4752806863465793
0.5903376866937243,0.6018391945603303,0.6031188850014626,0.5935953579454522,0.5599393811169022,0.6477513921373333,0.5943461048591516,0.5947377404655022,0.48343267837745174,0.6125635277288296,0.5992759649498748,0.5462292821548154,0.5098750533522087,0.5639178106846799,0.6030020962704932,0.5853795582080834,0.6063468296855803,0.572073958146679,0.5439400404806138,0.6197629870613924,0.5313149856662451,0.5266819662641739,0.5554340143477361,0.6268197501796496,0.5580213151022652,0.5719400757155917,0.620446420599744,0.5847842688462631,0.6588384982769593,0.6409583904557062,0.5237129357784929,0.5243517814062101
0.5737214144123748,0.5942840297560726,0.5444236113206197,0.5806550449148237,0.5555575801147744,0.6006841260426531,0.568440978664622,0.576377734891865,0.538232479164006,0.5662656328950835,0.6099063439922026,0.5678294542078884,0.5417873182233901,0.5717610095566131,0.6370774984551932,0.595554267007153,0.5999256185520366,0.5643309108491439,0.5524234498477791,0.5933397236607247,0.5594210522884472,0.5316327714881759,0.563103487653708,0.6171112264543009,0.560864880817644,0.5636249369664086,0.5903733954419016,0.5295392711766552,0.6563307650739494,0.6371885269119006,0.5462151449945439,0.5620374484398621
0.538829820175588,0.5204344828726274,0.485212093633848,0.5032801438142158,0.5109519581733346,0.582344474599434,0.5288930002549141,0.5348996158602961,0.5890626561433074,0.5517967693057053,0.5854863896243689,0.5585072632680885,0.544419123945997,0.5587455532518588,0.6223727506005723,0.5898285888480426,0.5998760022218088,0.5465201520164022,0.5184425724566057,0.5714082921088216,0.52564502663875,0.5394626426992823,0.5198089426511824,0.5403999032653632,0.5196425806065239,0.5781025932982782,0.5936381714400407,0.48762583241624324,0.6567795363890705,0.6006581297341275,0.5161921709377442,0.5275719631570115
0.5083951885929635,0.5233683866553319,0.5054863176066439,0.5032367636131694,0.5268398336800171,0.6179799627788851,0.5564541022099512,0.5200778690001898,0.5700448611167568,0.5650376256938235,0.5666696615288224,0.5577809250353123,0.5547725843519297,0.5702246270148351,0.5932477900752021,0.609113388823555,0.5956366313398601,0.5377472189071631,0.5308712939604381,0.5789106517361935,0.4904045400759269,0.5586210872068518,0.5215862945167027,0.5887296450933653,0.5441366110907142,0.55629727423757,0.627801970400834,0.47958224654280535,0.6528789725691414,0.5388205115262374,0.468728751248854,0.5305591529082152
0.48752523966631006,0.5030989643279826,0.5417152298115007,0.5453318578046868,0.4882158715161067,0.5813368388410509,0.5522868191582953,0.5269839645525807,0.5064179429424646,0.5372399770637887,0.5619432440035405,0.5226170298275381,0.5513243493383624,0.5938956316271832,0.6280547561967779,0.5837907529528993,0.6057448884330127,0.5340691048711468,0.5589174417177897,0.5635479272769884,0.5230116085315222,0.4910899959003408,0.5703073031268996,0.6272971838245633,0.5643663906940205,0.5684754839083765,0.6306726827268315,0.5109072364323217,0.6627760826836465,0.5946735962438664,0.4444786764559178,0.4784998570748211
0.52977208662631,0.595681813765616,0.5104850436412249,0.5340896938387752,0.48820323520337316,0.5335131159122404,0.5768475327484155,0.5709682583751448,0.5535423947662953,0.5530342367861011,0.5743839888307732,0.5381040419496673,0.5478349539042731,0.5528426609295768,0.6086633882339264,0.5751500808976069,0.5706960382098156,0.5305632505746438,0.5665395126589378,0.558351884834916,0.5307980832118044,0.5063395940314802,0.549375221610919,0.5771527718205148,0.5317752500775279,0.5867555691359424,0.5771334840208812,0.5407408388212037,0.6642758889643594,0.6196027950866806,0.5019998135618703,0.5223059496183127
0.5688588354178288,0.6266298363864963,0.5579880067838122,0.5626043807756776,0.49979854530352047,0.6178261854274789,0.6291216519557716,0.584881901639673,0.5618321386849856,0.5527429086476606,0.6225613503100367,0.5297608913295049,0.510703961864265,0.5062923376179916,0.5895307168826975,0.5996834036805071,0.5872658874001903,0.5320443475933634,0.5645344381510177,0.5495913778577393,0.5312060171332309,0.5020235379944429,0.5605674807867249,0.5749166328907231,0.5614693565847455,0.592265955706165,0.5586152505263542,0.5711028319225535,0.6485386022703206,0.598393404297874,0.5632802547142965,0.5486419655833922
0.5378633561355184,0.5677924483726681,0.5180405963857982,0.5679139703413366,0.5231741557357771,0.5629656360485191,0.6066961846441002,0.5554879854921977,0.5310438313053003,0.5486622305723848,0.6040461570048884,0.49925993917162786,0.5135925730850717,0.5062893565621718,0.5737735608239852,0.571298077954273,0.5543154502073006,0.5209605226401336,0.5547841157241896,0.5925218193696024,0.5429506379526675,0.5370395002427583,0.5798510768562858,0.578039369502706,0.5831945327583588,0.600159232259612,0.5703110770521707,0.5781103705715871,0.6844020439345867,0.5899569572149618,0.5656735570155923,0.5411446067588231
0.5532301963088139,0.5740664157471413,0.5038348104207017,0.5299243726632916,0.5209496411154704,0.5692790769514255,0.562473670572655,0.5489557393195494,0.516522346475265,0.5457883052141551,0.5533381339194866,0.5026566162887591,0.49872894353303365,0.566102600422086,0.5906075412437604,0.5773109536950336,0.6016661382298559,0.5150767934934971,0.5647977452362701,0.5669495798131797,0.5454016467299473,0.5574690965922594,0.5548336321693473,0.5695896803970215,0.5750472952913149,0.5422160654088017,0.5786296700683468,0.5778670125166039,0.6441081339670283,0.5819546476195712,0.5226355073128651,0.5437150272014846
0.5531635219295186,0.609425150377843,0.5603543759813939,0.5732235202712902,0.5307410535138632,0.556638572865582,0.5443015529623801,0.55095657176915,0.5009941712954241,0.511054955265677,0.5543931621462389,0.516084700366296,0.5041867296091377,0.5322201463085983,0.6034929302930103,0.5945765815955931,0.6242284682928729,0.5126598556226771,0.5154926304390174,0.49549125976588404,0.49169300750831557,0.5465315511951321,0.5447653912719476,0.5835397390308897,0.5315038792506119,0.5185403537796268,0.6142419137673352,0.5421642035774699,0.5915519780477861,0.5747971322220392,0.5299112814230026,0.5708289154854471
0.5013205683967165,0.5613022582469853,0.48464245519876614,0.548143386773186,0.5299101724584014,0.5577951866342806,0.5060492640755572,0.5196116902543039,0.5207593420816763,0.5139126773399081,0.5629265118527057,0.5398168306939818,0.5162027775227513,0.5425714946619618,0.594102683135382,0.5994426507137345,0.581531757879009,0.46745648518751953,0.48185784602886955,0.4836298809575007,0.47256823476780213,0.5019738325040485,0.5543252886748994,0.5793600568527816,0.5376676736601842,0.56026789099081,0.5943013459233126,0.5047088735100957,0.6515279208584818,0.580790323609632,0.5529962466404476,0.5282380988642175
0.48513851683000575,0.5847053635781991,0.4786884417186952,0.564833127175994,0.531217337610895,0.5428553318441641,0.5311192360424382,0.522207148665762,0.513141211841224,0.5344598101470703,0.5631236166807722,0.5096950413957047,0.4861754567343732,0.5213616809194028,0.6013396313068224,0.618987214437512,0.6383923810505594,0.5541220232595837,0.4965944038380413,0.5410229548588068,0.443643495751434,0.4881914180093305,0.5479790379368031,0.5562971826455734,0.530677910892344,0.5756394374035798,0.5690889446891261,0.5032560631862519,0.6388165321004341,0.5785776539880515,0.5431434752417525,0.510209457073411
0.5297436866524361,0.5870519784883212,0.4965388231131638,0.6038857347310307,0.5212901872450005,0.5710181739412066,0.5922309151085822,0.5063703874694598,0.5368105581995732,0.5632720991385333,0.5798598380675668,0.5476206231767843,0.5059241337059496,0.5588243083435275,0.6394944670676254,0.5931427215527064,0.5787506117449118,0.536765331353884,0.5465679490861647,0.5874836387706834,0.47796016941974484,0.4775891131256828,0.5351592482571044,0.6432153567707158,0.5333137946091286,0.5540411316369265,0.6097045047832215,0.49092758041019596,0.6501045427384357,0.6285058686528948,0.5043258416147964,0.527690675434205
0.5059001020795683,0.5946055034141966,0.5564142090401436,0.5731347057016428,0.5476503830371353,0.5953786839981353,0.5681357590456675,0.5564926622737438,0.5568940245330567,0.5716188801372084,0.5691759177475431,0.5706077317779135,0.5492310665056485,0.5259855169606311,0.5753484135943233,0.5561098082485487,0.5407612671734451,0.4854519514203555,0.5626857558506996,0.5742109758988645,0.49753639164730795,0.4985388919747938,0.5198479979994554,0.632121959747281,0.5397053877140632,0.5498114695530127,0.5893367524048991,0.5489321306758685,0.6450450387581445,0.6207150162328998,0.5264157216429611,0.5362428586254468
0.47289863182439246,0.5398057586873481,0.46488416413954453,0.5080316163603679,0.5194511421481409,0.5194502246411021,0.49953364845199894,0.5197416243623585,0.5134537461722601,0.47848788430147443,0.4599581589921991,0.5286533703911263,0.49976467640656574,0.5242078721612725,0.557802002673963,0.5538711468435211,0.5707254703173036,0.49628830634481946,0.5607476499691062,0.5857322214471048,0.5255246415443425,0.5261030639491713,0.5263610920725066,0.5719015547757839,0.49588281699143477,0.5607001907165476,0.5640101223295999,0.512739422016913,0.6596738944154349,0.6068487769737044,0.5130971535627411,0.5514916785887279
0.5051658987182507,0.5191490963146239,0.43378159441146474,0.49805965958322307,0.5357027294620789,0.5143405658734351,0.4626365837697147,0.4724194747127014,0.5044946673683502,0.45419852605442923,0.45037481743695335,0.5049699547575965,0.4772914387294559,0.548027624678631,0.6020925111074868,0.6091615244868525,0.6212505429743151,0.5652527422123877,0.5714529771101281,0.561788914469736,0.5123964075171997,0.5481863541177636,0.5108256237659907,0.5875698694477803,0.4967998267956368,0.5420215436534743,0.567055418981499,0.5101011610441334,0.6307409092570795,0.5647204442471058,0.5109023079422486,0.4940215887907797
0.519847497973179,0.5791799935817873,0.4983877022179876,0.579310160673127,0.5758797658866969,0.5935567042655858,0.5414968697364788,0.5027216585468643,0.48504349347906034,0.5251804497977998,0.5326693509404882,0.5147974211571943,0.49224821107666916,0.5668869994985091,0.6181953977072657,0.6291871611191548,0.6078792870411204,0.5534516932023158,0.5280896444009252,0.5551104158762938,0.5106188626776909,0.5235435170532726,0.4882177285835219,0.6224482006732504,0.49000059256417516,0.5457553836744116,0.6033967379731976,0.5259826067982577,0.626945876102694,0.5674030917934796,0.56593464229654,0.48673484253011884
0.5518871105637645,0.5773153650348236,0.5442460527528525,0.5814331290487575,0.5071664745925398,0.5591763389297874,0.6016589493938912,0.5436230852205971,0.4836211075269577,0.5808198011632733,0.6008767367576452,0.5825320621844057,0.5104662777718263,0.6135984220196923,0.6249554306860385,0.5912050347627801,0.5828334351823303,0.5450977313483875,0.5003543238986952,0.5771412854800276,0.5151613884041604,0.5075291575284763,0.5037819477764743,0.5705950051466596,0.5240679938261437,0.5465437063680699,0.609283912676809,0.5360868306465439,0.6208951225545923,0.6135670432438975,0.5494591788869972,0.4950789274432946
0.5211362105614042,0.5403864516132165,0.491346579025637,0.5460072873353213,0.4945014196771271,0.571323735366557,0.5867734202616199,0.5435691642202416,0.5195664050996276,0.5755549663906403,0.6164974234730232,0.56863561771069,0.585338683263479,0.5966349894409865,0.6251520365544634,0.6275585988332733,0.6106576891846818,0.5463344871856,0.5413701446041055,0.5815235964125568,0.5068506523616542,0.49437590479997995,0.5267044523893478,0.5286676521354273,0.5659721998393822,0.49632899399032526,0.6217785192045393,0.5260155750145526,0.6166298387193588,0.6278442130874995,0.551043770212831,0.4979633352687688
0.47443475861263495,0.5351278436435766,0.4958010371158927,0.47688094460854713,0.4542405794675227,0.5547887471871067,0.5450278175295336,0.5410939828048531,0.4773633680778158,0.4933833211026482,0.5782238894756734,0.47267965152758856,0.5407782383978079,0.5672025493893955,0.5793782516443723,0.6192790644937215,0.5474076115709725,0.5776315882166176,0.516263717210761,0.5465208277847108,0.5259688671500874,0.4958925040231146,0.5397997214950474,0.5063247320655065,0.5374016977724777,0.4924655467517813,0.5629511255614637,0.4766946456274787,0.603746433891933,0.5815764798838401,0.46990099672139846,0.5437038209428016
0.46227056335446126,0.5398177596513751,0.5172860338589443,0.511295166692646,0.47002445195081394,0.5140751083889884,0.5489809148352829,0.5267444572163092,0.46141708662521436,0.49906316813507545,0.5624509037576236,0.4897970336192633,0.4674113793053175,0.45763346478658334,0.614259846114406,0.5741262728390832,0.4874595119367171,0.47306614689644566,0.5064049557943822,0.49675612761241056,0.5165857713525623,0.5281759033834633,0.5532995985278639,0.48951326473675844,0.5110949736723848,0.5456841407442314,0.5487146014714185,0.48154038382368486,0.622220828412243,0.5601398969620951,0.48315825198054235,0.48392434958829883
0.41051340171866346,0.5032215777396459,0.4654566277483304,0.4975133835426724,0.5090908127801024,0.4801801526739132,0.45476027442152744,0.516420043951315,0.44494063079270074,0.48394911952908026,0.4655515848264003,0.48723305760428953,0.40430879799574676,0.4675760227127921,0.5497768087603706,0.5154761189952105,0.4569622721630941,0.4393070543716567,0.4408930230227495,0.4258774432195704,0.43668036617828526,0.45863014848479594,0.5031357174710257,0.5340753833800873,0.5226753974302932,0.5760233460078796,0.5927832685294342,0.4503695894111027,0.6203084178094783,0.5593604253191219,0.5187489346082548,0.5052783511666439
0.3820856338803158,0.4999197191906059,0.4273215960544245,0.47089085518007096,0.43612460034621253,0.5217839617868554,0.48147572627407814,0.4588713878295964,0.43448557807783433,0.4714693081987787,0.43797132482878937,0.4542652994009652,0.30868611721667716,0.4049509692793581,0.4865450684203945,0.43544757977321147,0.399509164355313,0.35269006307981104,0.36780643610870495,0.38454335838061726,0.41690348742675426,0.41951731238883583,0.4647048495776625,0.5208662564868357,0.42777895908577696,0.5168493680853322,0.592432292010833,0.389928215647518,0.6092678318690715,0.5534936686538545,0.5211381203743095,0.5121877687354439
0.5421878530066857,0.6213425986974169,0.482117459629247,0.5602931904307662,0.5063570558451136,0.510453114914598,0.570817269992305,0.5098344206121077,0.4567990096303941,0.5613387974247173,0.5627665118446428,0.47537024969031394,0.5048921610281785,0.5393431812700473,0.5864648273557316,0.5705651042514291,0.5453546597243685,0.523364973018726,0.5286010481427214,0.5351302349271855,0.4768629994888474,0.5290571989645724,0.4411624897766308,0.5945681667547085,0.5520311334645068,0.5022845052028007,0.5652812945404576,0.5710957224545194,0.6469370862849887,0.6231834780537122,0.5700343221329063,0.4837404453890357
0.5051113225025521,0.5625734738331988,0.45804404480512806,0.5405954632563925,0.5436082605385426,0.5039341271744298,0.5942996783547694,0.516770406140363,0.4872542473612217,0.5489510691074135,0.5792249023289479,0.4658790168640281,0.5510209916624795,0.5527714845039217,0.5410491870504291,0.6034584257995991,0.5879564586031807,0.5375809182019674,0.5256081542403954,0.5540361290779957,0.4473874144944278,0.5437307296667063,0.4543045031894063,0.6231571793683656,0.5590271871532482,0.5334607017004352,0.5739676077346503,0.42842822961661303,0.6530334013667421,0.5911399330263624,0.5350380591462593,0.5645789316816876
0.5057676860495678,0.5456056493279561,0.4070023874270508,0.5467600512226105,0.5422527004450327,0.5316360059435101,0.5079719732359171,0.5198300007226438,0.5239226953838485,0.5138097629366705,0.584259145351409,0.537878140877074,0.5364203514067631,0.56367654743066,0.6180537924809963,0.5529321646058837,0.5954645832904422,0.5418189382022434,0.521225123238353,0.5737971858485836,0.45778874190266455,0.5621822553926921,0.5209296719830839,0.5657303341407576,0.5495427250674545,0.5669284347817092,0.5916570946391141,0.4095606769729014,0.6488348928664253,0.6131171644496922,0.5592192510192492,0.5222245825289498
0.5252792811181595,0.6025180253420905,0.4458445844323991,0.5924005633251594,0.4976986868304286,0.5666360975793621,0.48382904352697675,0.5515214965566756,0.5544277940301734,0.5112876776034823,0.5513876062963088,0.48053528877037893,0.5160037369770842,0.5357848729425324,0.5984113873335685,0.5597207472637793,0.5756098362730818,0.5317406377193661,0.5100248458246694,0.5450133980949449,0.4794478470148001,0.5358406719356791,0.5488272300410308,0.5832480561578356,0.5090353366337784,0.574183312043116,0.6202098111457607,0.5159436993792492,0.617320969027694,0.6418145787688403,0.5261846969923922,0.49514822124772045
0.4915067751355606,0.6000202444861702,0.5090727749385763,0.5804838669734366,0.4854352031049478,0.5975160078147089,0.5092290191315708,0.5216295317933978,0.5394436974969911,0.5511915557563152,0.5309004851332974,0.47647891935105596,0.4655997637224645,0.544653227514029,0.5630679029052441,0.5742161282088052,0.4864927806633247,0.5275416217579204,0.529503107875712,0.5505920087206396,0.5232481437645479,0.5333586462797203,0.557205567438684,0.595066654721383,0.5718506660292392,0.555142684831731,0.6487229769538149,0.5137648483972455,0.6185148462531553,0.6523098897895656,0.4437659189713362,0.49915797642825166
0.43376045821596865,0.5863114183986117,0.5382867271206624,0.584290779372248,0.553700094140789,0.5712748868271903,0.5386139357127602,0.5141293641238125,0.4881310138382922,0.5234975203244437,0.5481782797145195,0.5421407193585274,0.4538677916136065,0.5430798057120578,0.5775031831523114,0.5642377384062517,0.4641437172452011,0.47965000629754095,0.5135502596990172,0.5573906428886615,0.5293888271090991,0.47204329000951156,0.5499141579487538,0.591930577405794,0.5771672037873217,0.576105475705106,0.6505215878479839,0.46966594910507115,0.6399163480841358,0.6360740763941656,0.47438400141864406,0.5337504494609415
0.5189294910062755,0.5744390263541699,0.5181876202070598,0.5778664286966201,0.4951301045976613,0.5338151419906895,0.5115456525982505,0.4828276300603033,0.43564004603926937,0.4739036363800176,0.4930083830284859,0.47755227719678506,0.5014524894431435,0.5534867861946822,0.5647587428501999,0.5820320060706219,0.5349204829716028,0.4915367219070675,0.5319927683712867,0.5437439565165503,0.5129208978424573,0.5159726052519774,0.5717159428581762,0.618061702874623,0.5930708516956373,0.5803265331489801,0.6376064537807827,0.5326646757079334,0.6477689347921921,0.620059546309292,0.4810734556371209,0.600830188407991
0.5808198392455423,0.6022247546059251,0.5817469571550431,0.6046986515949856,0.545683997791639,0.5911423201294224,0.5954645832904422,0.5194370871009092,0.5156407451132962,0.542977732135892,0.5928081962573538,0.5683045823614962,0.5734143008955658,0.5982857850643883,0.5743879376571259,0.583614413621311,0.6344803510640276,0.6100522576625508,0.5770710421473405,0.5989845355944717,0.5642088044303677,0.5643251782231209,0.6123723688949475,0.6264084385127716,0.5753126184318255,0.5717312741488213,0.6697233668859168,0.5690159533752565,0.6048025384120438,0.6380016663849807,0.4390674898043652,0.5746602665046832
0.5229811891088507,0.6092675555900079,0.5570703740885632,0.5816085279218234,0.5480748591037511,0.6021305341545476,0.5686837500697427,0.516142575728535,0.5446482493930174,0.5403714289513681,0.595138752978554,0.5607337713542472,0.564918619228569,0.5932549174530936,0.630336272866752,0.6053896895460655,0.616425283418726,0.568591002330858,0.5602984284152049,0.5992402583343277,0.6126764665942971,0.5756285449890881,0.5735875546736732,0.6251886218884523,0.5780346266239657,0.6071428139966353,0.660960494064044,0.5534309096698029,0.6242787413508873,0.6214341896726758,0.39443932505180784,0.5402967853531112
0.5010308571944527,0.5940105496240697,0.51881378861632,0.5770787809635707,0.5029964022794479,0.6009026070804572,0.5296426204382063,0.4866990011518539,0.5372097011292594,0.479182684004732,0.563883826851396,0.5291587430828104,0.5133698890745709,0.6048545734142671,0.6648931400520973,0.6337739722354733,0.5921704283277966,0.5670375815512623,0.55964972823444,0.5918039045462552,0.5466299031800725,0.5255775845164958,0.5747771181769891,0.6017676218975627,0.5336130097006054,0.5669041374545316,0.6552958863384625,0.52401423842608,0.6316969146384556,0.6347436479898899,0.49547756735672727,0.5465563186966212
0.5249601347008954,0.5854183375839361,0.5586220416016083,0.6016523430412726,0.498420226908503,0.6088722237889059,0.5382221487415882,0.4977810457809812,0.5375785228378267,0.5391461005534461,0.5429269784034401,0.5133885617982352,0.5254989850033617,0.5656961385828261,0.6317007411294991,0.6068838698539476,0.6021754023542185,0.5689831447862502,0.5392214979211714,0.5720332727921228,0.48866405196313817,0.28236885390422384,0.5373528418373184,0.5484954025230862,0.5134196589430373,0.5877271340055661,0.6734166295736416,0.5162395136100708,0.6357808881203499,0.6223935990189399,0.5947682300393217,0.5624723785467939
0.5068940049528065,0.6193707184374379,0.5366596551229356,0.6610769216016167,0.5629033088202908,0.588477451562867,0.5073649850385105,0.5218126636324194,0.5117171783719747,0.5254001594288914,0.537970056192119,0.5072735057248384,0.5103521389086602,0.5426250112824804,0.594717099803008,0.5785774153542681,0.5591309394410761,0.5275274733839221,0.5285576689249408,0.5429019689670078,0.5205251851876919,0.2568710027710347,0.5311930987252256,0.5194093674573822,0.5638358549260336,0.593848115048336,0.6652818900318044,0.5060201179833828,0.6410406458842944,0.6261906095638485,0.5563364045071449,0.5441542189706885
0.48771597007571976,0.5930425676076075,0.4826002820515888,0.6503478557102008,0.5082995468034406,0.5618315072141858,0.5138830256827375,0.49375028668878135,0.534517914547853,0.5407408388212037,0.5436010391316813,0.5317514738080916,0.5078551942539411,0.5215611859340318,0.601259231882439,0.5757779665523393,0.5391822880067931,0.5285508120113637,0.5063914911931688,0.5507807521156111,0.4740487201859444,0.49562852910036703,0.546319430777285,0.5677744247600967,0.5465091100779421,0.6192892521651837,0.6403589869938228,0.5207800990183141,0.6312860371930906,0.6372391198050907,0.49076924116579096,0.5050282694053295
0.5167965334073594,0.554897298464877,0.5349723504329615,0.5629073468003981,0.4587669659914267,0.5675817688045052,0.5200527087295139,0.4923706593926316,0.49233074133588967,0.4945490246997665,0.5448999881611182,0.5121044444164433,0.42756109485126986,0.5127561262960485,0.587484686944215,0.5601547262400332,0.539705856067591,0.5059242252267279,0.4882966891793741,0.5059895566948944,0.49594269307428035,0.45521438996291835,0.5138695051326998,0.6171532160512535,0.5521201543259109,0.560461573156409,0.5652015856064654,0.5539562317290403,0.6494440944710773,0.6341807749058529,0.4416624162908916,0.4543506966776878
0.533694652804448,0.5448865587126381,0.5245869600685708,0.51868723576011,0.4907042205665696,0.5778174649292082,0.49219154422109784,0.5339944812998036,0.4599380554130947,0.5114122077690672,0.5281373896240595,0.44795156027133526,0.42278113932118744,0.49466983082799726,0.5199685445986648,0.5373999837027218,0.5138080785332763,0.4317059098402479,0.4040342880042813,0.4771761994159437,0.4745916783719711,0.43572083104334813,0.47230873170206766,0.577958255689804,0.5543390663240472,0.5773928888335287,0.607405294564598,0.5731745113494289,0.6335807019834667,0.5949671249092905,0.4956301093439509,0.45237802532626636
0.4941544942544617,0.5579739440108388,0.4768093443722688,0.528027605316197,0.5248605060698267,0.500902986689491,0.5412611549579569,0.48149163565228464,0.42704812119429114,0.5400478662681213,0.5334661249515048,0.43287278101191345,0.4202698894181449,0.4415104661936369,0.5046283316359327,0.49414593456733524,0.48159179250252726,0.40752215421394744,0.4045478171097373,0.4579701864224717,0.4086573351322922,0.3947090334360552,0.4573446014874452,0.5674428632443956,0.5417153144957202,0.6011231315587884,0.5747436050139626,0.5110971678838802,0.5857787973392541,0.540456781366013,0.5131602723166772,0.4735693007372914
0.4523815432869748,0.5180157672739081,0.46435474938764965,0.5275524175713041,0.4816676681735338,0.4341047745248653,0.5271233623207948,0.49601935647853085,0.4737742891419285,0.5453946375618028,0.5395412602536213,0.45604856842510855,0.4414673219808013,0.44887348543452577,0.5632644758509141,0.4997074244164235,0.4962887233168926,0.4440998962210588,0.444225097917659,0.45708911484171205,0.48099907772931694,0.5126414376308779,0.5073609822043177,0.536198560743701,0.5109500715292028,0.5312247156715469,0.5668293320530323,0.49616166957897656,0.5587616272671282,0.5816503630929909,0.4802542884790762,0.536175409311172
0.46276681361855293,0.5126443572167017,0.4769550089512723,0.4585918646032113,0.4436455606572613,0.48708462836740674,0.4872053843062305,0.525359541241574,0.4519552876921547,0.5233220672537702,0.5092628416964095,0.44513333030633845,0.42870205921795573,0.42607013772479463,0.4945563262516146,0.49174465700167813,0.534809738784326,0.4509249047955852,0.4001506580446718,0.5054364716084215,0.4761080733300687,0.4692398123064235,0.522354341517581,0.5025034609384567,0.4560222836633338,0.5102440593413411,0.5323549806185665,0.4777597464316725,0.5499652481675888,0.537997263225473,0.4539129741803769,0.5369582929081768
0.4253788218296972,0.4900105996189327,0.4866263162992168,0.4432958103307997,0.4525658438522923,0.4295029400113656,0.5334179467945847,0.5076114438716447,0.43602564041500785,0.49273350495399276,0.5536747492027029,0.46600419213994143,0.36755540163809747,0.45837816393509223,0.5338516509992913,0.5025910074331655,0.5109070868428961,0.39747545210461216,0.4116658903650914,0.4877685444699556,0.4554204701831559,0.37143163901259646,0.4815655609159196,0.5440250125664764,0.4960222572180617,0.46596797554252506,0.49903477235468646,0.4832058746570104,0.5458652342611695,0.4947969143725053,0.43231033352703035,0.48255811572499824
0.48499365909154823,0.5112194796198414,0.4479761742313271,0.4159706818313106,0.4443372981246949,0.38646589366227874,0.5277590842129536,0.463045050797911,0.5180815789067588,0.45071124799620416,0.5484951133766739,0.5224774765064383,0.41943941413122093,0.5344297339928785,0.5838688481459624,0.5567654297110662,0.5266266853657117,0.3867365660884193,0.410395101834908,0.41494385206270823,0.47866710503731286,0.4134398371721103,0.44936973168465394,0.5327149597206033,0.48640401977787,0.5096636828192797,0.5268177548981041,0.4906800805380058,0.5371916787911788,0.5170702519218252,0.46286637979542006,0.4671320505641703
0.4127150663849746,0.5219393740520478,0.45087060290874964,0.47922206369584275,0.39064084178167546,0.5112700592392563,0.5106670383475875,0.4796553631174769,0.4778280694580817,0.4549508266194429,0.4739416003089771,0.4822681481830997,0.4295796802395423,0.47554332052226905,0.5481800574339855,0.5322370210744857,0.5074377040940546,0.39780674961748363,0.43919846535068496,0.4109730779694174,0.48506896782131714,0.43943771451658836,0.4601473871293849,0.5102863948502556,0.42686069899915,0.4944441818966576,0.5684477280751042,0.4437522470252315,0.5351471481215951,0.49344804826976807,0.43768921440408376,0.4786737531048654
0.48475380204569035,0.5444493590765014,0.5565012136712774,0.5884617134468658,0.46931999601939645,0.6231257925343574,0.5147702509822499,0.5006129270735669,0.4995969721037272,0.46246750353762417,0.499325008779476,0.4971426026452271,0.47578422102432666,0.48855805542368275,0.5052314559694312,0.5002697267288192,0.5411799077136304,0.44510993945540467,0.49347041006729436,0.5518123565045843,0.4972273935411036,0.4869844065190138,0.5247026894755421,0.5958808732630713,0.536116183422645,0.554416273565136,0.6118954225227877,0.515253736941928,0.6209952282344219,0.5956808317391553,0.44827514287671094,0.5021366806328083
0.5184567158742283,0.5832250669523009,0.5678420881919893,0.6185187109799868,0.5557659275499811,0.6159697571758166,0.48730041538819463,0.5079477142734294,0.5189441989037958,0.4783577462187016,0.5215918769836365,0.50633019806387,0.504208118780939,0.5479898210764884,0.568418765930711,0.5608997598644386,0.544664214383066,0.47233915274658905,0.5214589567756501,0.5348738329772169,0.392160746501085,0.5312560631577103,0.5241197634265838,0.5975538349601562,0.5726782764496808,0.5827093789851747,0.6292094805626486,0.5433163941656454,0.655477067434591,0.627969477553377,0.44080880062693434,0.5106359244388545
0.5030581373783466,0.5679335465807083,0.5700024532125106,0.6336077246337364,0.5301509180882413,0.5710748031740851,0.5017074358729173,0.5117649169149103,0.4908045749914638,0.4935498611829895,0.5527653498006879,0.504589002498963,0.5203865731519537,0.5536833485609542,0.6121274332385823,0.5747558678665508,0.5512501310913331,0.46467802963377824,0.5298911502916964,0.5146786482043616,0.40097487952455846,0.5185257802758626,0.4700886307333128,0.607590584397486,0.6092675086970563,0.5425847486229732,0.6408588709211976,0.570330354965787,0.6490995149157026,0.6153927558012401,0.42264175850875446,0.49057329746500145
0.5543992920165315,0.6228645238773853,0.6148270355908603,0.6223274638220396,0.5357371553353227,0.6283129259443268,0.5739802089824585,0.5547917868116524,0.5041325656194066,0.5728823141668017,0.5766041970427284,0.5543449890680673,0.5012875118704669,0.5635043216751151,0.559771055383914,0.5484993827167269,0.5445069407685033,0.5253547936549096,0.5318280112540744,0.5565437897026533,0.5134771479662429,0.51154253391409,0.4810991103983522,0.6117453544915026,0.6014959428271525,0.5925483472872228,0.6620694775143683,0.5913886498861483,0.6128961178486722,0.5685155936465051,0.46568818876601614,0.3608291156178706
0.5678536169992986,0.6406430304409153,0.625636414787037,0.6267212127677451,0.5886089206699759,0.6006544895135119,0.5929198681582206,0.5349746193129359,0.5182642288845861,0.5487268916381365,0.605803496976084,0.5800090966007697,0.5259708987926984,0.5451533379516329,0.5599112089124604,0.543677770468396,0.5072453702305364,0.5876092970407104,0.5665759396178849,0.5469155918316345,0.5420286223661042,0.5449214233357591,0.5117995192127294,0.6271483756063249,0.6232124677036299,0.5984850189228053,0.6856366526556821,0.570544858467613,0.611245280132704,0.6321755421849453,0.5280887930430375,0.24055417742379628
0.535079423989044,0.6281550418142329,0.576976733627102,0.616381310338394,0.5923139854365773,0.5495347494522386,0.5255953686714908,0.5369059459744948,0.517486868782896,0.45855027141024146,0.5403325062754293,0.5483092892158807,0.5632557549161337,0.5514558933026428,0.5880547973611594,0.5440613112021492,0.5123571761070892,0.5793764628791525,0.5743604070195737,0.5518346915259645,0.5669215264381574,0.5523459659340503,0.5518822170666513,0.6209276025181736,0.6178331684124815,0.6060573629694204,0.6367111535172856,0.5406107390709336,0.6077327227955952,0.6658340880392147,0.566205384750037,0.42905858948895875
0.5956022323947286,0.61467556511845,0.6012638741409702,0.6100974116770338,0.5677152499587786,0.603187036229063,0.5233054623206272,0.5175338425011091,0.5338396771167239,0.5000849185374685,0.5775667889659041,0.5435887535852162,0.5223641360056238,0.5394991395972529,0.5834540174241905,0.5417102066042833,0.5713744500450619,0.5471932679368654,0.5371088173028696,0.5401201295803185,0.5674757021435952,0.5467727227437416,0.5775526123856657,0.645545914056732,0.5993056000533911,0.6084685187842348,0.6503056576185973,0.5959959446970923,0.6137968818046025,0.6246246390965577,0.5651628377577458,0.5425658532100219
0.593904411417756,0.610099393326114,0.5631289659528599,0.624471819791648,0.5699634570662543,0.5960141483161654,0.6105901539196957,0.5358522934832368,0.5688093925554009,0.5782580427111246,0.5880031720245026,0.5268763346288112,0.4738890370767798,0.5713607761361816,0.6070638778828694,0.5820528048841812,0.5719467401697055,0.5516388941478635,0.5258617482959786,0.4900045425892345,0.5057606262281712,0.5133024052178886,0.5837662481677056,0.6100117774150086,0.599475509152432,0.6164094712160256,0.6074672934991938,0.5830933094231611,0.6448039019692625,0.6366662276225412,0.5175607046045031,0.5398287307788296
0.487886255952091,0.5222290519689375,0.5132257350871416,0.5617431767307861,0.4523173476157827,0.5639666668169678,0.5852314848696698,0.5272183918907337,0.4609121556159487,0.5295049040511157,0.5096873615123392,0.4127330346954183,0.3619691241806456,0.4365971382250943,0.5696413411425144,0.5626772667482955,0.5414979232990743,0.41735392687610684,0.39241166278691314,0.4927224178524648,0.49673073197789286,0.42303651495427147,0.5391118077377154,0.5898206624070833,0.562145636280942,0.5569510842566844,0.5947818585329457,0.5634430776704579,0.6687680140631439,0.6129729482163762,0.4486523405751814,0.5121273220741639
0.4847359021696227,0.5481673352958376,0.4790908458470925,0.5588479823194282,0.4366562953316672,0.5116266766210936,0.5110671404921979,0.4419396755616858,0.40050694768452144,0.5134385978933316,0.5051547039675404,0.35923178727343347,0.3603186338459301,0.3902066538824265,0.5149646036867916,0.4786239727507904,0.47348172789933657,0.3875949407661117,0.3461406903204172,0.5139164289999156,0.49816378528357047,0.32930559608579063,0.532113937322379,0.6211685110658864,0.5711700942989012,0.5066764026412035,0.5947260645536088,0.5089006953564063,0.6336537334400857,0.5903665807554549,0.4615306195076168,0.4565921529917714
0.5152900050820209,0.6003053286367848,0.5104249426026616,0.5981312482198592,0.510086889430499,0.5785185053329399,0.5457496808316957,0.46436762171209195,0.41133679974981785,0.549028406234217,0.5786207468764298,0.49345201095486074,0.30591360248875193,0.4684936325867383,0.6035753436379698,0.5316940815000302,0.5115221024798485,0.3469832109277442,0.3467722367992839,0.548259357786337,0.584764051710654,0.3975882662123713,0.5468008906910413,0.6174075761404002,0.6227388806696632,0.5441773310534145,0.6192653532655327,0.5751448817953878,0.5969222270982938,0.6449601922607866,0.5580041840410812,0.48792593083116365
0.5964623567120393,0.6301547223122629,0.5932466747817702,0.5736675413910731,0.5959166571832915,0.6133519381879418,0.6101219975469195,0.6076047434919586,0.4899924525926806,0.5948219161125219,0.592143222913451,0.6117705549722852,0.4719776387697878,0.6069232671908171,0.6461334932747598,0.6081119512832879,0.5869835165174478,0.5231643977281607,0.541651787468634,0.5946595441898811,0.5502288280828422,0.5058218313974284,0.5702471634751959,0.6130630950028818,0.5994072874151947,0.5717778479379113,0.6189146893608746,0.5645872408417835,0.6173132214195169,0.6418938789736959,0.5503896845621299,0.5546462723998147
0.5665400643200216,0.650707498978904,0.5679507951353558,0.6066571347142806,0.55617682605934,0.6091457068327685,0.525199465235021,0.567520967442536,0.5219033706940264,0.5554013736902733,0.5547657465200864,0.5911225558376865,0.5226667093943425,0.5993238230176563,0.6135137921677607,0.5901851362168943,0.5845903814893996,0.5506533930727524,0.5603105613724974,0.5855433029986714,0.5430619818859004,0.5656568650287249,0.5887949473065894,0.5886557983067185,0.6000179636988197,0.6136687958778606,0.613588208997067,0.538850291214187,0.6287772995808137,0.630604599380904,0.5715952676985523,0.5250330121453587
0.5232555913613947,0.6228179830847556,0.5622661660342873,0.6422771068883121,0.5341959345022511,0.560686108063289,0.4901094159465486,0.5241313248943317,0.5155702949218991,0.517621928684688,0.5208412076675374,0.5829050133585367,0.5708898645086409,0.558495339638933,0.5728526904913814,0.5727788496157723,0.5926677551006216,0.5581806714998994,0.5547001627660957,0.5840431355226853,0.5412050178845065,0.529692071503821,0.5615063836793264,0.6212233256367612,0.5996422742597672,0.6083597832654006,0.6053969127595332,0.6085354641250076,0.5993812038677764,0.674850268420599,0.5463309695075675,0.5072526568930831
0.5279180138257299,0.6183042385069032,0.5898278046238433,0.616885195726315,0.5302158826650291,0.5990888264980645,0.5561382082357269,0.5668437866272077,0.5382257601562691,0.5505440970091908,0.5667314919129821,0.55472164049223,0.551301213369511,0.5538772205977581,0.5887622747355998,0.6064536170164992,0.6251168747367686,0.57892406434071,0.5135047948260392,0.5844156578691326,0.542527993514158,0.5458379096992734,0.5682066679847739,0.5863015001310203,0.5675320857311201,0.5919282941365636,0.6331609374858994,0.5647774402538644,0.6291578219633216,0.633866750008599,0.5313904245447161,0.5439402951891884
0.5379417708870605,0.6058589409754519,0.5564973345741415,0.6116444305434758,0.5836479095912339,0.6134890959274178,0.5601142255356046,0.5740142066325304,0.49916931053977026,0.5803662903912641,0.5467349937892548,0.49175880317948617,0.5289420612712936,0.4590203722851251,0.5772137695955899,0.5690131089599387,0.5765518997799807,0.5676999063353817,0.5073486104914174,0.498373080927174,0.5265110271432225,0.5236475845527627,0.6177563345933343,0.6151355568719146,0.5685307376322034,0.6382634798075862,0.6070001681071158,0.5465198585173563,0.6308084403314397,0.5830795432401213,0.5539468781883173,0.5434718350188644
0.5077571954609762,0.6159739153143616,0.5359221779816606,0.6255585529757246,0.5875519162288383,0.6385279305701583,0.5830062902756492,0.5666081480393543,0.481442142640796,0.568988188998773,0.49683650446187283,0.4566238039357164,0.46872185167225194,0.436103448325937,0.5692658798123411,0.52083340552259,0.5363259708699347,0.49480826968551767,0.4844482385501693,0.5075602826267174,0.5749275971164743,0.5425119395869368,0.5975001491916898,0.6474188522499258,0.5999164586571816,0.6255004246419853,0.6153803138512656,0.5635136285459126,0.6222766213057308,0.6134237067279069,0.5607345127059951,0.5083084443975581
0.5174134236068885,0.6219867614722133,0.5894851135463457,0.6458456968417438,0.5492737859512679,0.6615180379764113,0.6231840157652282,0.6121443690176522,0.4724614005772975,0.5794554529545274,0.5226513343815172,0.4574004570924102,0.4491724881358838,0.5040697338666982,0.5998243773736904,0.5494495575847764,0.5836606621894255,0.48642084308377315,0.49478525336315854,0.6034862940718516,0.539182578402043,0.5330560259861185,0.5628761392332987,0.6152385972444776,0.625637920082758,0.5789216392971342,0.62850870440205,0.5614823977099341,0.654197413008466,0.6590233877778958,0.5591169767583607,0.5054480620728892
0.5557560941893875,0.6446417747038208,0.5688136437709638,0.6774544301200268,0.5145217348765568,0.6219626197526207,0.5935307571169242,0.5574854897612262,0.5210905465816816,0.5547858650686345,0.5436576682951669,0.5450431726937903,0.5131514597528618,0.5811817677155193,0.6287689580361344,0.6084380398970569,0.5799567467965282,0.4993888428549075,0.5262577025598476,0.5418885758390598,0.42105673263393445,0.49203085660894696,0.5410549067453406,0.5587991280288668,0.58692743529176,0.604671078758034,0.6849422337646645,0.5682175945494812,0.6309478417755463,0.6283717206699329,0.5409491862949444,0.5147622288704532
0.522853972851576,0.6336972900069534,0.520770201557811,0.6796672922571229,0.5548447544589845,0.5852411817578098,0.5246608946729705,0.45457431426400174,0.5188649703254079,0.5088878733715978,0.5312139464051894,0.5178933891841492,0.46362841580727165,0.5713046791864873,0.6432566536796852,0.6224634731066138,0.5467209759734445,0.47925056983797276,0.537505076146017,0.5354725891937058,0.4987619502654159,0.47343282214367854,0.5360293685252195,0.5967916784772052,0.5569993458772127,0.6044786716069578,0.6194676574273448,0.5344471931403717,0.6363158741122692,0.6416249365299089,0.5242881028950035,0.5074320924521148
0.4701663764183626,0.5647522012323892,0.5440409241940047,0.6204525007737398,0.570323457886639,0.558701840723162,0.5490594309653172,0.5046739283281466,0.5435959078974871,0.5273512343249742,0.5742241366764251,0.5175454806523656,0.5104244494138862,0.5962859332429835,0.599575994158844,0.6045590135873624,0.5959888932001001,0.539889440670208,0.5515199606980197,0.5978776283160089,0.5353241306975728,0.4725290012093871,0.5416499819663657,0.5838147593928662,0.5464094331218124,0.6171932194019154,0.6118572566890988,0.5441443556567913,0.6456767952653479,0.6317453551292519,0.5251153153804734,0.5404493963300427
0.4965210125369257,0.5238868572157158,0.5158365957295901,0.6132990367720743,0.5252617890250223,0.5570933442802769,0.5647581914564418,0.5775135277837063,0.548051156470527,0.5980760048127977,0.6012057176809109,0.55386781981782,0.5753336119508702,0.58997990138097,0.6004925822992628,0.6024666731137593,0.618550170985115,0.5808370216422103,0.5300271780648619,0.6102446104026658,0.5653554332253874,0.5289120248452983,0.5672013961145195,0.5992184714891385,0.5626303147455322,0.5777412841553506,0.6454291869683282,0.510259578386384,0.6439539919495113,0.6182312907698718,0.4361150604521244,0.5036954687813994
0.4263990310067623,0.5748927372869215,0.5183942865941299,0.5966028429115919,0.37523121465584036,0.5940625567788634,0.5014904011453841,0.6079799719122483,0.48073362548566806,0.5332095254278649,0.5842887466308829,0.5387493735845121,0.5316260636329652,0.5797530266614754,0.606749865609875,0.5954250174816301,0.6033707268325114,0.5770750093071912,0.4684541221953544,0.5639120070929953,0.4980779240463842,0.45207053421158555,0.4740672333798078,0.5263311533491016,0.5394423322157738,0.5088788998044188,0.5889735399419362,0.4804408487338659,0.6396220672847187,0.5763268363128146,0.4298020430368623,0.4635013815993633
0.46677829292088785,0.6216826269097429,0.5285416224400569,0.5847462247368522,0.37613199887726145,0.6130527438431259,0.5557071637801244,0.5619359745911198,0.45882071700599,0.5311506123901556,0.592241685665557,0.48496553275693344,0.4887445406907355,0.5520027675684852,0.5968493463543479,0.608934061867204,0.5519618468847173,0.5428744761863337,0.4881530283899118,0.54379588491024,0.509042297390563,0.4902198014636261,0.5253253120669782,0.4572447246937497,0.4886953314342676,0.5356763966363193,0.612803064784112,0.5046875368203209,0.6209374738435123,0.6080794387788866,0.46972774668506884,0.4684950707931223
0.5368734902568629,0.5937785327771394,0.5330374949587373,0.5607614274707218,0.4617030040594243,0.6114722339995678,0.5455191730274102,0.45950407799765197,0.5299867581111734,0.538347360820246,0.5521067273810455,0.5286189975850918,0.5509574525927482,0.5957244260125759,0.6345685377608578,0.5935617128119167,0.5961668005857699,0.5550238366397258,0.5352165963079533,0.5344295410918488,0.47979462554110863,0.5262622893342583,0.5687815078516364,0.5033278544400946,0.5062313022311397,0.6066620204589851,0.5714502455824255,0.46510903270742027,0.5887305064068253,0.6413201868611602,0.4777597054971747,0.5076535939596554
0.49379487685105233,0.5579148070544785,0.5353549286322862,0.5753809368098634,0.5154893762729783,0.5957445120239282,0.5114739220058766,0.4515136554248521,0.5133344357861495,0.5242895639770143,0.5666227354960804,0.5470316883343229,0.5137356237409332,0.6140944945914291,0.6179012203016774,0.6027182550929796,0.6421192202738056,0.5502184297955044,0.5712687016807214,0.5356718984537132,0.43054855431491923,0.51724123327295,0.5365817805857963,0.5842264803940664,0.5229878247957784,0.586778346188002,0.5665230530625862,0.49979610019049103,0.6204905874708704,0.6837427225319669,0.504986506829496,0.38602342649357896
0.5351564845298957,0.6222838575863409,0.5644445085739409,0.6032086427006584,0.5201920084802962,0.6147446577748703,0.5799129541869907,0.5777726082321526,0.4358213847488833,0.5146866324234503,0.5706454457858723,0.5494969885920445,0.46883907804855957,0.5829181972765665,0.5880645777782216,0.5731313493758798,0.5970837050514488,0.5433380794105646,0.5346124998744601,0.5454126075591169,0.4937928210142306,0.5308747785934077,0.5393549811568915,0.5646957440402683,0.5525283524230816,0.5884869557036458,0.6082740346849682,0.5531285556879567,0.6094255985064021,0.6618707110350959,0.5579059322669351,0.4493296439309827
0.5803831116507318,0.6185640988581426,0.5880447627226253,0.5479114404948718,0.48802904538353575,0.6268811044985425,0.5865506799297284,0.5617707643889399,0.5162354923051976,0.5267361138162665,0.584977315589199,0.5488184451222281,0.504270408914243,0.5416713568116852,0.611010905812043,0.5893333148942808,0.6018121402566234,0.5320990045274224,0.4938352024250787,0.6065237410031556,0.5153550728786865,0.5600334116625199,0.48208380634937104,0.5602724755495577,0.586232520968146,0.6100199069540954,0.6611854937020905,0.5407657010333271,0.6485345988834551,0.6294545638856165,0.5443488106935452,0.5330583859154622
0.5783373505318589,0.5954115171512812,0.6042028211604964,0.5723548137128524,0.5337952143281038,0.6244066750049326,0.5385372584743285,0.5286092496433966,0.46115491613715986,0.5275857926234557,0.6060680092582323,0.5031811076486766,0.4529012078174153,0.5343179961642661,0.6058733294881242,0.6122212174018411,0.607186668067069,0.5628711775083909,0.5302407292592196,0.5842205566535799,0.5322233904880072,0.5400606088310408,0.5202618631674588,0.6148304764022594,0.5642049350270736,0.6078081646166069,0.5874691541834649,0.5061476530011677,0.5564238556842492,0.619632152390391,0.5484778421404279,0.527302947693498
0.5728742685837462,0.5961720295079843,0.6047795882458571,0.608453768830903,0.5613263271722293,0.5871585125730049,0.577750242188883,0.5807437409172292,0.5275543723380027,0.48960338464643793,0.5784244892520332,0.5067720505076504,0.5201019016835204,0.5837734841855677,0.5911903549853189,0.6074003336741324,0.6182773036074617,0.5672122077797186,0.5517311221065941,0.5271620430856842,0.5307408136752427,0.5272772286579958,0.5351944416792084,0.6207997929054044,0.5610262777576277,0.5997489795273685,0.5949538634709952,0.5415325763600569,0.5858408401292304,0.6532816181178344,0.6056630275785293,0.23178193192378047
0.5744011719265728,0.6059421846946363,0.6502747239674731,0.6483089288314237,0.62204197636771,0.6121781180262782,0.5758062641355811,0.5418217241349547,0.5513358380770949,0.5173303339021685,0.5930311201466102,0.5604260849847758,0.5558844403225646,0.6125196321791497,0.5983314541156157,0.6328531389147163,0.6153793624538768,0.5729433338919326,0.5354871654992701,0.5348720440654797,0.5539565035530787,0.4860182063795227,0.5688350179210976,0.610172779200582,0.6186438181858173,0.6243378542485654,0.6225467532159008,0.5763313758636511,0.6305530686887705,0.6730948290848688,0.6008304684748356,0.14759041138362664
0.5070403335376945,0.6258875693080135,0.5893394602451798,0.6432997566574291,0.5255349153549529,0.6086264648827675,0.603967832130168,0.4976857806844731,0.48153807489000816,0.5028405258451112,0.5474544636117755,0.4980894115572774,0.5042661078004338,0.5323564892574787,0.6017264444984588,0.5834006929588647,0.569432263782304,0.5274024969670497,0.4953831166484642,0.5374149493796146,0.5385362721443687,0.5204584496068017,0.5730920124919913,0.5896260277750889,0.6284001740677151,0.6528594116361777,0.6189243226599715,0.5396432894493686,0.6620212399991953,0.658145073854826,0.5341399966211003,0.3722449116604335
0.5313422453805482,0.6103633948588563,0.5870896020431852,0.6294763384355966,0.5039745651365358,0.6363198788458643,0.5368140928827684,0.5173830243121498,0.5399430223367179,0.5436764240578258,0.5398305745059054,0.5426053490112749,0.4934438472189919,0.5366449970389527,0.5576469244999794,0.5703722194496154,0.5779902472934896,0.4951103477966801,0.503421571806323,0.566753772943898,0.48228193954094833,0.508630814741429,0.5644870210740663,0.5843870607115191,0.6076716662589545,0.6023056879197908,0.5969222270982938,0.5549227096600607,0.6329423606794926,0.6220028180196967,0.5347000386991817,0.5485274042197296
0.5956419444586228,0.6272739836748236,0.6240418168067187,0.6046946215518197,0.5142344412864941,0.6232276420592073,0.5554177245917806,0.558813307498413,0.5217946551365646,0.5322655825781828,0.5301933468895548,0.523263492605327,0.4974671974925109,0.5422773924983206,0.6130061106180956,0.6087531778765805,0.5865922220619271,0.5103643981556005,0.5056568679594532,0.5836864376357216,0.46305257440169295,0.4621075526884332,0.5482236985445356,0.6232010641245026,0.5872295618236434,0.5708281668821937,0.6169906045810072,0.5840771265221568,0.6377391092231555,0.5625810651764747,0.46496592817897997,0.5621189181535413
0.553419919664302,0.6576257391051031,0.5849453633251763,0.6341262219461292,0.546368447129999,0.5935378317293238,0.5513776377106916,0.5408597464545103,0.5086991158528836,0.5343128098155141,0.5749038251959778,0.5054749072661743,0.5178094843784842,0.529241725346881,0.5951459715840427,0.5879973084188391,0.5780245373454926,0.5304806109547959,0.4885288986738632,0.5750800136330042,0.44411221531299394,0.4926711701952649,0.4940883347170789,0.5916086733766943,0.563438801441223,0.558546459728021,0.6315757854143457,0.5637011637662138,0.6387013865045312,0.5822394599334032,0.4377653784168719,0.5430131548507799
0.5023701609423589,0.6288535473873546,0.6083239882508684,0.6268138366620404,0.569043372787472,0.6086511199193986,0.5953318367791469,0.5322723122627371,0.5087285404094055,0.5567545556543906,0.5511563547095786,0.5175367837095871,0.502179078376649,0.5468042248012225,0.57622967818789,0.5855665881617068,0.5621164496242046,0.5027333279367504,0.4739751331225853,0.527435678331611,0.4486649143339388,0.5086045223985635,0.473689692465787,0.5763525802909465,0.5687051330313982,0.5229841061163559,0.569651070235909,0.5474264768931463,0.6504005088075313,0.6414255927289791,0.5375343818266327,0.5453442689509184
0.5209819780957203,0.6345128761739917,0.620633061704755,0.6038848520495502,0.6018547069200153,0.6781208912851662,0.6047589347454012,0.5567726741050565,0.5396886782196574,0.5483873788703366,0.5289500041002844,0.502480416162313,0.4805905468580571,0.5341544390168765,0.5707231295946992,0.5709741036831466,0.5396737781036489,0.494203591366671,0.47422403410334824,0.5614341971505868,0.47965538365969135,0.48136045504894104,0.5081273165060323,0.5447363245306515,0.5881629475237492,0.550037782270034,0.5645250790834437,0.5552981990742206,0.6511680755544473,0.6557875873998965,0.5136733161296989,0.46174701877921126
0.6061621460488809,0.6431886253710443,0.6135625311201621,0.6325696563533154,0.6058920497604553,0.6510615592631825,0.594737311166729,0.5523973371767917,0.5548379479817095,0.56470357201737,0.5170561735166267,0.5300673611020857,0.49911944196353947,0.5144117472168352,0.5970497319751509,0.5927664005963343,0.5342758563020572,0.4435297295753492,0.464421724884099,0.5528419775435395,0.5577283195108423,0.4405312336571357,0.5337289935216615,0.5748083681913205,0.5562849249333635,0.5789946588751647,0.6239121922058227,0.5756095978882753,0.6592172242315799,0.6340685144150168,0.5098904172408382,0.4389872264577377
0.6061870475171356,0.5634857324397277,0.585401259864104,0.6230781548586803,0.5804643020309497,0.6089521507631908,0.6165193162680797,0.5996814525542682,0.5650661795255971,0.5897823114280117,0.5703436480272894,0.5536037457787949,0.4677044001165632,0.5080554816269979,0.5606162882690062,0.5557419315885671,0.4987814182554482,0.4254942303409409,0.4022533595340537,0.5211600983527362,0.4743375829503003,0.4624569559147062,0.5004428963521745,0.5726136188027692,0.5939471236512428,0.5674480174968942,0.6225854673065176,0.555628900781829,0.6407706881328917,0.6314590682678634,0.48270748603767666,0.5292645709437084
0.5021829277891708,0.5805753065907804,0.5258912688810676,0.5502662568884134,0.53497694342635,0.6008650510048619,0.5714622136754895,0.5157527368393886,0.5154758118117405,0.5393833030428514,0.569432263782304,0.5487061275294959,0.49137119838874854,0.5374951014197341,0.597337359358802,0.5568469813672895,0.540009340045939,0.4884631296032571,0.4400545224188693,0.5218254111549876,0.450346525288118,0.5493788869646672,0.4624520394817748,0.5734131785567013,0.567902792937576,0.5704770273670272,0.5658386820333655,0.5130376276948793,0.6274427388953732,0.630422836413404,0.5065449586013232,0.5532044717345475
0.42413139498237473,0.5126742759823822,0.4056893686101022,0.5697113815427894,0.46224391843287665,0.5552174145235587,0.4851546638974967,0.467669810347057,0.5228128987681268,0.5098488043623246,0.5901632100834574,0.513939678442865,0.5555721107716135,0.5771745682611081,0.6285391401481273,0.5991092655582773,0.589279634512624,0.5830921586349739,0.5470425776820916,0.5681599457320918,0.5296364874560064,0.5895785507009155,0.47191933864387453,0.5256219014100593,0.5040024736539211,0.5363298324857718,0.5602820844620162,0.45167267256101207,0.6138198930831869,0.6121404667150668,0.5104129122454814,0.5570270904624282
0.49314371435503823,0.48112625865055664,0.4741256371316149,0.578683636042813,0.5014269465262339,0.5613456945275798,0.49101933077394266,0.48032476941264735,0.5249264360977426,0.5252868085460548,0.5359526778630916,0.5043130759620832,0.5022345390307227,0.5490866121873025,0.6100078103808709,0.5850887457207646,0.5897612776734794,0.5155732588705337,0.4836367499244012,0.512863561452037,0.45721166763119886,0.5296981002855539,0.44640064765362597,0.47641603375003244,0.5365517025111435,0.5129712915340005,0.5963896085320713,0.48547999511372475,0.5974796959295783,0.6446894079508281,0.4490574663873002,0.4903744125703464
0.5441648367797036,0.5659833926633526,0.5502714962204281,0.5801640757530749,0.5129820272146628,0.6001571105100303,0.5172815919420956,0.5059450592361056,0.5227026452823131,0.5128904603451685,0.544051271394311,0.4781385050719731,0.4935824720353294,0.5056509679759732,0.5960046296622201,0.569631649945949,0.5653138090500603,0.4888296821634234,0.46777874744303904,0.4880081012074251,0.48274209253510053,0.4848590128004001,0.5349231753450512,0.5367606138314032,0.5766505025453881,0.5792627853192192,0.6128528478064483,0.5711876878411118,0.6436313066983513,0.6427754159769771,0.5376612800894207,0.5396516173048923
0.5401186778738738,0.5875455485321633,0.5611784474917849,0.5916720510430358,0.5353746601929492,0.613052110011675,0.542065798384826,0.5373608207431214,0.4818957450792996,0.5235168815050057,0.470861988951132,0.48994438029038845,0.4065373300076259,0.488284309929993,0.5587574187840065,0.5373715505430142,0.5507074712609472,0.4702225194731609,0.48561494524776283,0.5262413566135207,0.5013161733498639,0.4735958148306009,0.5159288591511683,0.6015062917480538,0.5673673455058195,0.6083075764383749,0.6095099470145977,0.5809289895369693,0.6552559270801053,0.6086595807247452,0.5539429474358916,0.47838680506911124
0.48919310237548713,0.5845259789858479,0.4946270799627148,0.49700468053340713,0.43582824667413317,0.5663556992555482,0.4531445979355203,0.5150812031992594,0.4143971799157057,0.49792175896847585,0.44569192477846326,0.43737254176923784,0.3421255133733385,0.42715420175434166,0.5047454005535923,0.472049643497998,0.47574973950742944,0.4612415461145311,0.4470320137198691,0.5024173953641539,0.5080031760201347,0.45763654359510647,0.532994663467884,0.5649762183193462,0.5529366287209252,0.5463610600507393,0.5961343686679473,0.5299589109243324,0.6388492376542978,0.604987231455197,0.47680059678962244,0.4665113919223063
0.47969850217768595,0.5972783497362546,0.4566752596979119,0.5078598119468956,0.4346905668223132,0.517771272559287,0.40712210931579396,0.49638107184118374,0.4339541120393874,0.4387054828648864,0.41392415082522704,0.38113280221975065,0.41972703518864196,0.3838600388350783,0.48006211768299467,0.4187846180256534,0.4689640200451268,0.4089687204091292,0.4461912973047637,0.5251322595109323,0.5197626052061137,0.4939610490446409,0.5191773477887015,0.5519757115581857,0.5731638919340618,0.5263893015051295,0.6069644184499319,0.48666426310368555,0.6641596436866931,0.622864818243122,0.4859743922520491,0.5292944645470725
0.5458930176996285,0.6486715945683054,0.5663448849148462,0.6259402271677313,0.5165236448806284,0.6201019918680459,0.4212089295072371,0.4870637519910438,0.41412934864009826,0.43431484652304053,0.46918630186063653,0.45489163313619363,0.4335254206433256,0.49048438990887355,0.5876090607812366,0.5408680584338307,0.5694795174577628,0.5306936811011246,0.5169381122350678,0.5932870563862193,0.5116032128698134,0.5195017439280866,0.5100537523458154,0.5849823514351898,0.5980313017583764,0.5932656130497806,0.6435277601857654,0.5649460605858625,0.6855686086560294,0.6519261333507653,0.5212264516955027,0.5474239773527417
0.5246756612158057,0.6129397689413771,0.585825281015824,0.6345121037094679,0.5206686474914236,0.6651290803103745,0.49596908586052435,0.4671284752138024,0.4630303041218712,0.4648786361590318,0.543242791614138,0.4960762010079068,0.4919192636350726,0.5084973340063996,0.5766424725721994,0.5873311877819695,0.5507268405181767,0.5198698531662683,0.5365403199734846,0.569578685189804,0.5312560631577103,0.4873446468540351,0.5452923577689677,0.6273137282695992,0.6161689423713914,0.55919010506273,0.6686188255257907,0.5729548455085383,0.6402652251617453,0.6368724292184457,0.5126481420593964,0.5559253754537195
0.5050062549010054,0.5936461897410109,0.5555340034719933,0.6015316945753129,0.5769911957158574,0.5968194326553672,0.5150368875060124,0.5488469521119729,0.48544822990353625,0.5602331822262651,0.5438011489372214,0.5129023049582144,0.5398880501772096,0.509638316324572,0.5809774069059447,0.5731771566070578,0.573061303142787,0.5468802325486201,0.5288398242587136,0.5415751038284431,0.5732699033004471,0.5468543098971116,0.5328540284182374,0.6010953521532872,0.6006449303641024,0.5484839475665785,0.6348525320789493,0.5366148894479688,0.626902944866438,0.5941524366832192,0.49765730263547137,0.45575328331616993
0.5293338852167493,0.5666078455082734,0.5348923497851795,0.5816939197681558,0.5307996566543679,0.578168001152984,0.5457418888722185,0.5111337427023368,0.45406891214457196,0.5354596426583641,0.5643573805080051,0.5169759091100937,0.5229282563621848,0.49392381296338744,0.5948209057553505,0.5741431919329916,0.5744727998048829,0.5496279049868109,0.5591702544016549,0.5456861086462941,0.5432713380675237,0.5796635645841064,0.5557016529289033,0.5995515064817053,0.6013564412784982,0.5995586571535111,0.5965416637869355,0.5338817431814157,0.66396244329547,0.6106126356385346,0.4992847930813912,0.3859782204346677
0.5450300923556612,0.5834308732391598,0.5515804806277099,0.5850270385810276,0.47446213871471343,0.5888311569864979,0.5533412328161245,0.49551779773146093,0.43883924625545007,0.4868011185023847,0.5352317327219457,0.49403059464368343,0.42167808782982885,0.508953685764095,0.5315446257501499,0.5265058585228566,0.49739391443065234,0.4018237345743816,0.39130151068931424,0.5079300392717127,0.4861288905144179,0.47522198214051287,0.5122323220448091,0.5807344103359875,0.5723220814059505,0.6071995150337716,0.5919576824194572,0.5699661988099306,0.6732318708590038,0.6467433494261707,0.5149560898339972,0.49038332853852834
0.5147877863036425,0.5874322748922081,0.5321467979937351,0.6111631688831611,0.5183823846179845,0.6168163323168603,0.5389783924997784,0.4902683693786342,0.44167055943138833,0.4832424048766189,0.5391612101033755,0.4984502989154072,0.4355792517953531,0.5067707211420304,0.5723731698327722,0.5472160883063283,0.5188315032942176,0.4239358199331576,0.3810793093048394,0.4875079217171714,0.444579484340407,0.3939317541784354,0.4598370680673748,0.567725262350803,0.5129680991436376,0.5825146246888029,0.6103308805144391,0.5476986675025064,0.6138652184537181,0.6525596801197893,0.48615999616233074,0.4470318303294723
0.5300974856101226,0.5352055599765151,0.5403345919225272,0.5572034102249952,0.5334112764147398,0.6085578623768131,0.5511415833924055,0.5120367489626942,0.4065492869489722,0.47673468914215045,0.5186404416328495,0.49023677251138975,0.41957487959230266,0.4864495241100757,0.5842167036755167,0.5516608350976525,0.5535446787764212,0.4512460026475381,0.4318871449170195,0.5271119356594146,0.47948358206196073,0.3954709038152384,0.4925685958149412,0.5741732363320496,0.5262888006441757,0.5782062460272781,0.5777143222485154,0.5228101220359755,0.591987272459849,0.6305565639693262,0.4779649557788051,0.47672282619458906
0.505238698567198,0.5058281496718906,0.5357629900619313,0.5350011216400933,0.5247764862392884,0.5742718455049529,0.5253288620040232,0.46363707750019395,0.4144285352284267,0.44068217770268175,0.4979901914022151,0.4753027631074779,0.40090163195266937,0.45098693381042554,0.5374510510197102,0.5231948954256932,0.553486318413314,0.4667743476450203,0.47937094909564826,0.5459353342127498,0.5201722875903756,0.505644875100753,0.5210875916110024,0.5614784767197236,0.5665072321054255,0.5757775286204769,0.5791260689004866,0.5262690096069289,0.5835091553723476,0.588332911079929,0.45914212700034934,0.5323138814655065
0.5145114967933113,0.5449595476209335,0.5076017053816089,0.5565610179404656,0.5002840790955275,0.5278999987554339,0.5062748639283589,0.4556931196040504,0.5100308691046466,0.4559643005175761,0.4941718796830389,0.449031223504682,0.42481687876911445,0.4557402452721747,0.5237016229885421,0.5239467117286878,0.547220185901204,0.47849805768862314,0.4848039596265804,0.5165957885956708,0.5140084725874996,0.4985090666002375,0.5362716286609105,0.542536327437811,0.5491705971114899,0.5537969314058409,0.6003111214264993,0.5260151429413482,0.610997098870141,0.5574658074949853,0.51237987987666,0.5297379186335055
0.4980123100347733,0.5403934741845536,0.5204093247696728,0.5647540901387159,0.5536840644638009,0.5722652889994955,0.5391307109060197,0.5402318085643548,0.48819708954512697,0.476660810274915,0.5611191206053422,0.4559458897555038,0.4335989040899854,0.46067940037680694,0.5411344580493488,0.503596427767109,0.5067356385144657,0.43579043782307664,0.48106661009591595,0.5358527298010202,0.484791996137678,0.5277148236715176,0.47588454037434136,0.5344406841968262,0.4999904561803171,0.5290454471270172,0.5808977901442738,0.5151147687292996,0.6062474792642168,0.5663327652352699,0.47654136152185367,0.523850909270857
0.43744196586154954,0.5756995947689334,0.503905180921417,0.5844060187773827,0.5172603221621453,0.5327752911461577,0.5310068716257899,0.5372905008875867,0.4953214372300254,0.4643535009788423,0.5188876829369189,0.43892577348772993,0.44106643709738264,0.4556304418375652,0.5223135978498679,0.5041611154035869,0.48990443775790893,0.4473122180436648,0.4851126815720495,0.5142533920178824,0.4746880937366452,0.4871099985567191,0.46838899544992024,0.5307435093368815,0.5574484180322032,0.4969863092401951,0.5913692532281917,0.5403209681910973,0.5776005903647663,0.5161812632408483,0.4676861311053731,0.5646640940158351
0.5581690855064707,0.6119541358319263,0.5038083357578097,0.5847525983075998,0.5150102166443398,0.5787861569151326,0.48232879181907057,0.5093028468184992,0.48496052031971354,0.454632927046001,0.46372021370489724,0.4819995910700563,0.48235856112625813,0.4704218965246207,0.5569494751972938,0.5437175885050484,0.5011361117587123,0.4306067596650917,0.4200517388964019,0.45959836431094336,0.4330133446208262,0.4390748512894091,0.5271420011981386,0.5848389840647765,0.5993435576363718,0.5635251349494118,0.6161138040771182,0.5885171918271286,0.6329005115039151,0.5873216567560974,0.49025002107372745,0.5067730657652512
0.5597866142225872,0.6561059088795962,0.5479193692156165,0.6045266654307846,0.5702884810786941,0.6029146828216001,0.47700895314262415,0.4867752153788381,0.4996394378152898,0.48190706393667504,0.4928384837602228,0.5341531303486718,0.5002791775865066,0.5152805304821403,0.5830588066684884,0.595512234076611,0.5592256824246681,0.5171070514545941,0.4934443051588214,0.47233391790678764,0.4548793116816667,0.5156646430726872,0.5315835683435615,0.5537883827175598,0.5642455144043937,0.5799378317422043,0.6320290711940559,0.5101375108883315,0.6615643584869897,0.6585639191298654,0.5140425383048909,0.48092253225188014
0.4614548023976446,0.5886436364174159,0.49039398073438056,0.6178410582065753,0.5615809714596603,0.6217971093958535,0.4996998182660704,0.5047881274974465,0.509712828424666,0.5130283911820922,0.535826925971408,0.5311386432245532,0.5463533389583956,0.5132701858354624,0.6213682031008179,0.611578174473557,0.5696186396330425,0.5418979646585955,0.5144001025708664,0.48583456486465365,0.435248005045246,0.5027332081442286,0.3983692851266952,0.46424074466866344,0.4723198493293986,0.5334207962960809,0.5752735348258471,0.46151663427697975,0.623054257508042,0.5772684301194622,0.4790960695200998,0.4990496405218347
0.4508018423210574,0.6190392084062235,0.5066435362809214,0.5958626664519029,0.5727644307760421,0.6354420353117414,0.5823709853152339,0.579173441133993,0.626855953489347,0.5833004425506961,0.5951285247001672,0.6018508478978143,0.5905388937705734,0.6067811368512237,0.6377155846244893,0.6097517117030833,0.6215337457504122,0.5547856822831685,0.5131889559189171,0.5142815208165042,0.44664304263278193,0.5217494464557002,0.4021519153155796,0.45592775457292745,0.47528451130866445,0.5841092244562318,0.5863007805276945,0.4507925177579341,0.5997743414225819,0.5293568982528691,0.535394420346794,0.5284481384833551
0.5476737271639709,0.6324429630893911,0.6116897119807795,0.6048595928520397,0.5811897673224641,0.6173317962723751,0.5845004885919352,0.5706931651236756,0.5756957805811246,0.5800488719198097,0.5770439705967438,0.5602159962610305,0.5582858495328672,0.5979497975523109,0.6265185913419125,0.6296920831469864,0.6164997906142623,0.526974693149969,0.514236142141769,0.5617480690986923,0.5209351218565108,0.5394584683676331,0.4726566838227681,0.5503054005496265,0.5681370049718577,0.6194845644053806,0.6409838768500278,0.5411589164667564,0.6186078717952332,0.5819729782827384,0.5900058382951158,0.5007632484954377
0.572800117381563,0.5871993796114175,0.5960358938747957,0.6434427604657974,0.54416335472172,0.550523019219551,0.5574084097518828,0.5208246202350183,0.48642139427300307,0.5280471844166805,0.5558832396802209,0.5034400916740357,0.4978637517011875,0.5045230818951884,0.5871317553965574,0.5750621669456578,0.5255455595282965,0.5141422371464628,0.49993284330833626,0.5746130140898463,0.5222684577619721,0.5396025909804796,0.5202210884195565,0.6121965966788153,0.5742615221250782,0.6318221715290059,0.629639963358532,0.6046965729313963,0.6473842388705533,0.6340192829204337,0.535595077272651,0.4734380916943703
0.559146267620044,0.6141798243995136,0.5745668678689035,0.6012050786270028,0.5453849111558217,0.5680008300761961,0.5393831983399806,0.5209012757547322,0.44846743397147065,0.503028313305959,0.523263492605327,0.48245120936009456,0.47453352195950854,0.5101140487834042,0.555788764512121,0.5095437777324353,0.5060119050262684,0.48056255667484554,0.4576802864578626,0.5036931048634508,0.5321140168423993,0.49812512042210494,0.5347495714893237,0.5942958148121954,0.58839680284433,0.5913644862500029,0.6679251626039867,0.547386161104522,0.6108881429842367,0.6238406327843491,0.5199736505452327,0.4850810714578272
0.5525447012801776,0.6240574849056061,0.5801936593916512,0.5907952120592027,0.5203535909038076,0.6063628612817925,0.49588102410642804,0.5460057890306532,0.5017597564314077,0.5085850294576928,0.4960331208213822,0.47088767232673834,0.46304182926458753,0.5287534266371839,0.5168800590667764,0.519089218951342,0.5009044118070453,0.4797853395076346,0.4916667124811342,0.5002395975287134,0.5122226737528401,0.4786107038984803,0.4741183352243555,0.5662295183793878,0.5765073287948517,0.5847719701340933,0.6547117049813661,0.570157296908868,0.6267808308242754,0.6479689067069155,0.5535174727691315,0.5281173681941649
0.5549027212682752,0.5613595969293963,0.6122363025950197,0.6274265263791973,0.5313423521255002,0.5661399140123659,0.500278759417453,0.5143705525868588,0.48056992638891577,0.4614174475735286,0.4969058232266266,0.46390269734090483,0.5124988188173324,0.5101223888565593,0.5483095438390805,0.5722306528109607,0.517671506515093,0.4508918690151678,0.4697580597278641,0.49414672328022285,0.473253022844045,0.4927943637221082,0.4912810276930205,0.5589282166632883,0.5388540404432517,0.5892534894904531,0.5892061115563452,0.5411164930467225,0.6336888020213433,0.6416905897618312,0.5056374442485934,0.47351857135318
0.5231917446846437,0.5709911475811033,0.5273162063974174,0.5469360993614479,0.47055969573139445,0.6130440670801843,0.5292275951279893,0.48169643843129417,0.4463428890779055,0.43278250414543856,0.41846807762524324,0.44461259542647696,0.5097314652470086,0.44659662165807884,0.5404010078305411,0.5617861631769723,0.5381975705618415,0.4489077084634901,0.46345158211012116,0.4759272365180619,0.46832704907575345,0.5056093809686899,0.45720615892370287,0.5473916117665435,0.5538524740202202,0.574413845487753,0.6340717457303399,0.5556787075832292,0.6333189837225572,0.6382150537172794,0.5120646853354966,0.502963093194173
0.47082028915229146,0.5773297726997015,0.5265404809387148,0.6094620123865679,0.4638983314488458,0.5775432974873579,0.5563518644163736,0.4997128925197919,0.5001707712914629,0.5342712423406715,0.5333971149281612,0.5093594930970095,0.4721998233934787,0.478362217705915,0.5382578573407385,0.5367252854398822,0.5388821300572034,0.43254012615794774,0.4575756344599423,0.5285656940726615,0.5151835839278175,0.47464577790028867,0.47856178740644106,0.6212790094109649,0.5424130096987946,0.5143853384592336,0.6149879143882818,0.5540145960948926,0.6443385524091244,0.6219155513064323,0.512842657170589,0.562757480748867
0.45131228940312423,0.5754904360047175,0.5786531578764836,0.5805216207321697,0.4576613219028061,0.596732242719606,0.5939568034722749,0.5606570479540111,0.5140146366489258,0.5296323922946445,0.5421158935096424,0.5143055771018404,0.4664327054463688,0.4782826385674647,0.5533542049326544,0.5379109414202539,0.4885639059025715,0.43237350017203074,0.44685964871504885,0.5283343855760421,0.46227393493393476,0.48722243710510693,0.5074572341204386,0.6350686010252576,0.6067884854632886,0.5021615457011439,0.5717571567067163,0.5704231871459464,0.6212537065430934,0.5890243477373182,0.48724664424972436,0.5411241611098037
0.4751163524442482,0.5533852381847867,0.5412167673110402,0.5281637962373253,0.49065907910811823,0.5434200270523536,0.5868711018458502,0.5667752204958328,0.4739683127594564,0.5428680762247959,0.5679180941194831,0.5033992726245715,0.4585645781857286,0.48537799154910416,0.5558978757295803,0.5411751301950694,0.5510009080856079,0.4890881779381462,0.47642195740449295,0.565082621903036,0.504126091318604,0.47778722928717426,0.46722354592167964,0.5872533901118098,0.5826053061601215,0.47532467357823793,0.6045095225158365,0.5407585176773301,0.6415393053487445,0.5808386569564951,0.5030044913890797,0.5151842857100284
0.45111122698203193,0.5021075892096104,0.5268675356472428,0.5828537965820944,0.5069391050767098,0.5618047709328042,0.5805813687800861,0.5593502189523188,0.4388329794237751,0.5421906277896751,0.5385842455033872,0.4728774870556845,0.4121796625435283,0.44453598768346064,0.5038188852848405,0.5185444479457296,0.5612445374507912,0.4906926457824682,0.5038652618772331,0.5344372791126951,0.4854928994251697,0.4974947068792418,0.48765762773341803,0.5413835569836417,0.5659730884308891,0.5460413913404728,0.6632821684190657,0.5518902325832117,0.6214693432595152,0.6042383480655805,0.49403425439876114,0.5519947057772263
0.48653601905102656,0.5631976695910577,0.5439214535071257,0.5869272655397083,0.4973289575966476,0.5848797673636505,0.5237273123336492,0.5117210358126577,0.3951389293959466,0.4670385969871667,0.5144308552509513,0.41725719089870567,0.37983669383944213,0.4162040137311498,0.5300424608206378,0.5525394699956641,0.5344380678289596,0.45361957840349143,0.4658855214795786,0.5413268251196004,0.5170612191416915,0.46556351157082376,0.5406937475042062,0.5265430396614004,0.591930577405794,0.6182628565151601,0.6492150707294303,0.5612918328626721,0.5861445970556312,0.6402922761308604,0.5043916685317621,0.4978500948766797
0.5620243829627461,0.5814531727133718,0.5624524904396493,0.5754647030010874,0.45736842545679934,0.595932024832157,0.5198265846249669,0.5082248420659333,0.5238063352387118,0.458358215009151,0.5102358272286929,0.503599297023819,0.5458398279691911,0.5678965064228993,0.6143663027068309,0.5920274751667501,0.5818798612409437,0.5619184816177151,0.5684290952482494,0.5946028675392552,0.5465672338422789,0.5411272641656898,0.5979358659247956,0.5947835632687302,0.5986385927319962,0.5984548204601843,0.615945890937085,0.5446288169591359,0.5852044227369583,0.6439680940325359,0.4554398175855984,0.5129055875387402
0.5509742017683572,0.5991635541228262,0.5563585096512058,0.5915620351249967,0.5283257707257448,0.6220545127552456,0.4930819219389555,0.5309414263489366,0.5635827689120821,0.47369299361779016,0.5187124472801407,0.538942573480537,0.5321373764397077,0.5853766292282956,0.6022573979786798,0.5934298641141278,0.5545274800399641,0.5404082481901029,0.4706288970312376,0.5682990156664909,0.4922174512924344,0.5025057236823363,0.5805354268166887,0.5977796102996376,0.5366842421683666,0.5570608823545594,0.6221346536981701,0.537484784647365,0.6020708927653687,0.6315754704247762,0.5137311270089551,0.5458495921712748
0.5482068024158169,0.6160954617375903,0.5446564682518997,0.6350854650913476,0.5816820427432842,0.5634894518971949,0.4967505807285755,0.5430095137983,0.5138499989586661,0.5413251687585364,0.5808680635950817,0.560398455448427,0.5046446219142696,0.5634880096179323,0.5855100560645269,0.6088060321261943,0.5704181588204748,0.5362330712676582,0.48894371731404224,0.6007066138404684,0.5453659490181669,0.4845557639077375,0.5737484492260603,0.5859707027261282,0.5731804269695613,0.5955449469500717,0.6581921655263687,0.5485283135966514,0.6089442306920417,0.6165111344083727,0.5752255543690735,0.5674641600370339
0.5933397236607247,0.6190392084062235,0.5980738074876102,0.6707973335031707,0.5746911697536214,0.585309465121657,0.5277371114968986,0.5868914511486506,0.5382639850446438,0.5645763392573938,0.6113798820491896,0.5305127342687882,0.5175620861469391,0.5498743478654455,0.605836626305556,0.6029682707901257,0.592615660998417,0.5965551547220651,0.5820099315201338,0.5801715818216667,0.5790711872253645,0.5696775181122723,0.5756891292375348,0.6092526328928387,0.6116181152499859,0.591698208929556,0.6305726372317513,0.608011683438836,0.6214525655170164,0.603448237923407,0.5695126383656401,0.5510206936994887
0.568027450747104,0.6369010506860188,0.5949034914811397,0.664890573386158,0.5669391720054568,0.5618323211163856,0.5438785283299955,0.5949824760535409,0.5643710416513039,0.5948784596181793,0.574558958804568,0.5682930837131982,0.5747206028258784,0.564326563543847,0.5885731645066674,0.584369527088361,0.5814531727133718,0.5565135303465906,0.5554683473793208,0.5822789989547842,0.5309638001798741,0.5625832515532588,0.545793331145267,0.5890580026134745,0.6329082868100097,0.6076278826640028,0.624487625502058,0.6251071438282657,0.5595706218370884,0.6166543077615358,0.5457972755537273,0.48318649436061395
0.5067527237698906,0.6075082700019706,0.5734215502412896,0.6280304576138401,0.5389787964473644,0.5144912136591977,0.5794594322146238,0.5955305887649354,0.5008860683021413,0.5344659020157384,0.472109738825387,0.49882014386594486,0.5988684876427225,0.5099072446404849,0.5816629470515898,0.5750631619543498,0.565195121731661,0.527106707336009,0.5529681989856274,0.5536414364370525,0.5042502180163273,0.5487959025778077,0.49788245386209923,0.6053279092451106,0.5583026302136276,0.6524719432841615,0.6535422599967577,0.5186499188735195,0.6327769511617761,0.5997243483556651,0.5471671089192737,0.5162732044039058
0.5797345022243141,0.5946786170417834,0.5971058650973923,0.616957409354892,0.5434689134471645,0.6368889457187913,0.6302693296075146,0.6287904374718769,0.5328229845848061,0.48774945446631485,0.5029697608136329,0.5264464215783985,0.6085808933199073,0.5448846433579095,0.56522852484038,0.6213753548288541,0.6150912445524607,0.6286282613080763,0.6149848237793994,0.6045484353436072,0.6144932242255686,0.6466757546094721,0.6542886659557928,0.6562372549581784,0.5708729424600572,0.6606291735729458,0.6372395486216492,0.5814566589027191,0.5992478071305928,0.643922678903463,0.5786762053180664,0.6136648539601938
0.5906646235393213,0.5958152933208939,0.6082775906387904,0.6353584612042885,0.5637491121231005,0.6198216282818305,0.6394889453022065,0.5881001936709517,0.5797252508125744,0.5862144498994931,0.560808477591663,0.5743791657547328,0.5899990551850597,0.5877287626989239,0.597421976885791,0.6311899666550804,0.6241769773566657,0.5904850113351704,0.6097865618709238,0.6546543201957328,0.5878185837006981,0.6151274432445689,0.6145388503735519,0.6159295357905288,0.5768494903466864,0.6396753239681104,0.6488395552079932,0.5728880603520531,0.58327688883704,0.6356210520624245,0.5932837294841045,0.5846442540888499
0.5594302901515893,0.62303065719781,0.6317575843328477,0.6674561487169869,0.5514021182333032,0.6306268235786113,0.6420001194472247,0.5985334200281525,0.5359330246565469,0.5705237982987096,0.602266747410231,0.5646737912190221,0.528832022657854,0.5579739132028085,0.6120529805984042,0.622913134716029,0.6237685022212716,0.5383411497688031,0.5668309599315471,0.5562420806737806,0.5845703662302949,0.5659875958161376,0.5760351235432426,0.6074324806725289,0.5923534702919852,0.6343945964894181,0.6361069267324228,0.5811094088361973,0.5892603330506122,0.5869165321519826,0.5645908437487099,0.5381421162646856
0.5726713534533041,0.6699536431567362,0.6082672829503253,0.6365018174591413,0.5629546892009373,0.6279350319128999,0.6224384700230535,0.5587422787248328,0.5585845410666771,0.5642530030100692,0.5660510809046548,0.5787368293822012,0.5230013589318057,0.5881669097258649,0.6325524340142572,0.5786462603368275,0.6340247973611408,0.5622264146628672,0.5345279811602759,0.5047280438978722,0.5617885754727232,0.5231060114960197,0.5546819944942418,0.5738757383105816,0.6070092581384443,0.6180198403261086,0.6414360879628496,0.5631532114515909,0.6243126747396484,0.6243647836940395,0.5859442726214822,0.5060543784532525
0.5242225150343881,0.6080874932028895,0.5777335983041211,0.6103798417707947,0.5376149670107626,0.6222222619843515,0.5231652159606923,0.5626739435162031,0.5381820956502805,0.5728121901364505,0.5758892171130526,0.5693357269602697,0.5091849343085307,0.6278832951083603,0.6449200041165616,0.6213085084336473,0.6196223653299898,0.5752388865580609,0.560354940899817,0.5336666713624407,0.5492050519175841,0.5448836227471863,0.5756250711933658,0.6111363737546728,0.5822185129568052,0.5867776729181289,0.6088439975071951,0.5231367814694785,0.6520416470109425,0.6663837633611288,0.5337698100475279,0.5762742405264131
0.5075360366969224,0.594086047883178,0.5910832318535489,0.6539588293425579,0.5213170198943774,0.6011615527737191,0.5752951427437668,0.5738423062290839,0.5165225098783499,0.5659433480611509,0.5651353066844301,0.5623928532326409,0.5507057941014114,0.633737447563053,0.6445467517103122,0.6268482866369657,0.5984184098246946,0.6036354697766886,0.5884888799614294,0.550091584764351,0.5167582036697248,0.5634185558594436,0.5277064659062589,0.569893439062815,0.5429354607011004,0.6167161634700735,0.6104673103192245,0.5020186108386828,0.6567795363890705,0.6440453199802907,0.5689328480955613,0.42478431622750806
0.513955409127651,0.6473514669738142,0.5459758337455641,0.562869092906466,0.5161223060087827,0.6158201072088957,0.5552407338119196,0.5198754592859085,0.47854379494784544,0.5474248433176035,0.5456094067253323,0.5016447683196719,0.4981341233832054,0.5461346352095517,0.6215419589447195,0.5835265651274643,0.5986688322190853,0.5241748600849855,0.5129910641963955,0.5645399150349107,0.526497361396253,0.5551561007090227,0.5355182363563622,0.5459240024589221,0.5937007753632464,0.6099802389393121,0.6138587707052233,0.5501046355163743,0.6794531055899424,0.6424887564421119,0.5310523692561294,0.2763150297238236
0.4956852058771798,0.6127578095178264,0.5824803331072732,0.5708748466298559,0.5080837730883951,0.6330558446862886,0.5740759829323134,0.6008537434801857,0.5347151971187175,0.5544068222038805,0.5679670954886825,0.5129063480989251,0.5041580007968924,0.5730358551439706,0.6702322571919657,0.6181230379344439,0.6172921486456027,0.5454685105356109,0.5052366584527486,0.5272955811776233,0.4513414584597787,0.5177481239645986,0.544147426501314,0.5933283889652488,0.6137416423763039,0.5957055303220944,0.5886382305241282,0.5304699283775917,0.6495317113286666,0.6072602836168368,0.5324208251657396,0.45188169508288334
0.564998025696975,0.6119585122717248,0.6086824821052985,0.5922395568122771,0.5358744712808672,0.6580558607486751,0.5705755340983831,0.603649128154046,0.5696429418337571,0.579841378286318,0.5910415871425808,0.5955887883278954,0.586765398443056,0.6313853591572136,0.6639333737456891,0.6577935340511756,0.5990680093661589,0.5726416092732278,0.5618535029581696,0.5155529215139043,0.46103495926297516,0.5187835659041856,0.5774945017275217,0.6233895565839365,0.6073536821765783,0.5828693116529691,0.5830705306393194,0.5864380470308255,0.6352987258850304,0.5906388297258022,0.4999970845866236,0.5225363916119541
0.5794584516202366,0.6371563773377905,0.5999307975119941,0.5954974053652599,0.5489620872323515,0.6523171329213214,0.605706134945627,0.6378271660517045,0.5516009116075158,0.5849335959197125,0.6179787754145787,0.6269834641510815,0.5696646962871023,0.6131180229301079,0.6320762028698376,0.6404282856653618,0.6160732887152272,0.6002020113252586,0.556207095693853,0.5463599200008252,0.5411683560895219,0.5434561705705453,0.6313080225150346,0.6809349238037566,0.6211638550978175,0.5832724151200449,0.5974719706365827,0.6361855473888988,0.6540122270225135,0.6549977776534132,0.5289311273982641,0.5818521028806266
0.5809877892870873,0.6175583318653596,0.5517163375015803,0.5602072260169211,0.5794190972670281,0.6270355318134473,0.6119409486242671,0.6368305530401704,0.5449248777971228,0.6130549421897497,0.5950511462406954,0.6045581014286979,0.5480586462932898,0.5713860957283444,0.6421283798313541,0.5928446026185419,0.6021567182739886,0.5836433169725825,0.5608327616644833,0.5554600255561288,0.5495570534609747,0.5495884594755589,0.6212441578740175,0.648933683417925,0.6330130527661185,0.6447023340197533,0.6703275442677123,0.6232276420592073,0.6402950051769473,0.6305285907864617,0.5545705382572529,0.5990901337516878
0.5400324926088595,0.5925782409120184,0.5758959183805974,0.6402600184295597,0.611508549872706,0.6304377514092012,0.6024313116115763,0.6207904143490941,0.5518346915259645,0.5847238753715733,0.5812258072047564,0.5758606164198414,0.534802533147439,0.5631373751753955,0.6040180499176845,0.5663291758456491,0.5600107066531205,0.538240201064474,0.5529856629909864,0.5530744978165769,0.49004801708254553,0.5514611491485261,0.5980880853026858,0.6067845223734746,0.5899261360547414,0.6229917347997319,0.6559193212822625,0.5697080049876749,0.6410734100423612,0.6258758839562921,0.5949691573504384,0.5957838213466149
0.4729577037105958,0.5753477060519796,0.5399512736315524,0.6369258411552252,0.568409768805694,0.6269074965511019,0.5736184359935387,0.5729885467280418,0.5276981849671177,0.5302849977034987,0.5500920689751645,0.5585620649670392,0.5068375825880351,0.5187328196643485,0.594590473802195,0.5890950985371055,0.5560826479894383,0.4786574279303254,0.5169298073354839,0.5324507492885004,0.394904103433699,0.5430678360527501,0.5039743794867276,0.5888756930522218,0.5843472321184768,0.5692846188553253,0.5912517809854209,0.5609314298214095,0.6379184226121594,0.5980837315735512,0.5673857214207328,0.5623950822362124
0.5018588685548315,0.5850564606927299,0.5664780840999992,0.6496735509288396,0.48076396698635276,0.6257707222319026,0.5587186483700571,0.5515728491359624,0.5003524651090833,0.5543479970005637,0.585148755078553,0.5910037642471367,0.5237005008758835,0.5937295395356655,0.6181422669163661,0.6163093983910629,0.6382039031118595,0.5086353246232567,0.5328896115245075,0.5074887857195725,0.4692699534974915,0.5122151561803955,0.5245877799666538,0.5604297599868052,0.5531134621265843,0.5110614450145781,0.5463970895508584,0.4818227999959018,0.5710667596910156,0.6290331977433333,0.4700257216139279,0.48271717810434256
0.5237907998937102,0.6372426080575286,0.5926894938441638,0.6222494053675715,0.48529775381264767,0.6111434685926168,0.5123317353870767,0.5119015997201175,0.4909802305784047,0.49734801764251785,0.5906113968363937,0.5814195867089187,0.515797536491933,0.5933223204010938,0.6197545160189836,0.6184052662486076,0.608523266678248,0.5347128817935971,0.54632534456596,0.5245526752774886,0.5667802689280703,0.526605508427038,0.5805718058904216,0.5935381564644292,0.579541640323156,0.5626538399924054,0.613980739018095,0.5123508709108437,0.5673338161013383,0.6064525098279113,0.5001951298749576,0.39992654271832495
