Fp1,AF3,F7,F3,FC1,FC5,T7,C3,CP1,CP5,P7,P3,Pz,PO3,O1,Oz,O2,PO4,P4,P8,CP6,CP2,C4,T8,FC6,FC2,F4,F8,AF4,Fp2,Fz,Cz
1.2418261378149358,1.233024813467809,1.1933334126377972,1.2329026897381734,1.1483347147600418,1.2302714138653514,1.2399486413980148,1.1556339617685791,1.153083583258751,1.1770776627927997,1.251743455537053,1.1661966993044035,1.1380608039272524,1.199560882287704,1.2510064143693462,1.235181216399974,1.2367751847979214,1.1684345933520939,1.1961516045657368,1.2921041883332864,1.2251851721379439,1.1375175223875766,1.1969911007228904,1.2520525508985878,1.2981286262584448,1.1720928075282524,1.252161524336891,1.1983010184297005,1.270673707727764,1.2420445059667395,1.1400196815556773,1.1154429525096805
1.22703646492747,1.2366746475832218,1.1937218697314718,1.231466620570658,1.1140177838654484,1.2239135473407896,1.1894319358009644,1.1336843248077229,1.180071752201333,1.1800970386193872,1.2577454742365402,1.1790159730851026,1.147571914878548,1.2329151319734168,1.2644180434863688,1.247669703115211,1.2395044160514312,1.1532945334704772,1.1550981543179637,1.254620824080822,1.1902893836333153,1.1034966984956287,1.1617935823404844,1.29685909613203,1.2427355321894658,1.1992907869448504,1.2663652845760835,1.208444076996035,1.2935188942731064,1.2450540750781591,1.1378811391857335,1.1096472816025973
1.211146535728656,1.240401157262101,1.2242512476058351,1.2322850156275738,1.122289905123766,1.227206561304782,1.18383214471202,1.1226320443160478,1.16292623954932,1.158459997843537,1.2560409711343798,1.1501314878929658,1.1330508371672539,1.1924093051130606,1.256018893168956,1.2225232806524078,1.2264747945923105,1.1406958072324598,1.1195152402933808,1.2409811038205485,1.1513396439462131,1.1242383674731855,1.1323668728317362,1.296490836693818,1.2196662378444343,1.1842616012398834,1.269685461232999,1.2551709300504954,1.316437393781578,1.2801163033050997,1.1379905638177292,1.12507965550376
1.2139820457252197,1.2072376375285603,1.206174007563177,1.2164330804932413,1.1463817598159554,1.2086484624667373,1.1843758797914632,1.1538112878888094,1.1315102441849365,1.144208897995761,1.1922677588157293,1.1271478318602033,1.1139288464589348,1.15515334213653,1.2561880539594452,1.1955123778340955,1.1929725469430201,1.1234604369298908,1.144754462296492,1.2222832914131205,1.1464924256424627,1.1329176041892406,1.1446465256507523,1.2539577513156734,1.1984286733245926,1.1439343638753143,1.219120186021676,1.2106496235084716,1.3521758792646124,1.2555935134412752,1.1310372509583668,1.135081896457678
1.226608467494295,1.1844330335551365,1.1983672434775263,1.1866357943907337,1.1399221765165801,1.2613774992498972,1.176868372755928,1.1849188910948474,1.1247259847435132,1.1551279645271635,1.2075592849822385,1.1373574088861387,1.1032914878837219,1.194226531088706,1.2919670029822043,1.2252458877367458,1.2009692510872292,1.124907256656388,1.1561042595672177,1.2275647446266396,1.1817630544599829,1.1110463540142386,1.1820230014450732,1.267285544968204,1.2332874093738064,1.1190035940021228,1.1881985198336475,1.1656586467434074,1.3603041642252738,1.250385611337028,1.1004251437159112,1.1252138188411158
1.1981272250741053,1.2097812803309256,1.1937184036623563,1.193615041403488,1.146232037618588,1.2706179666960336,1.2108706812676446,1.166274188553525,1.1460146082715221,1.1612909452830014,1.233590743136421,1.1651537212641156,1.142751050443447,1.1906603011222436,1.2508833253086875,1.2134227394752357,1.2019551449510228,1.1530850136942852,1.152390035292438,1.2924231215432338,1.2271790351219078,1.1155387639286771,1.1774692883558813,1.2909669841266391,1.2504874340027465,1.1724265863833967,1.234159042843779,1.2360067036871354,1.3833104080329381,1.2754330203514956,1.133944517397017,1.1310085895737967
1.19527652488059,1.2027412188906745,1.1673235519975955,1.2141802169732803,1.1328485237712536,1.2546034369835795,1.260568101595202,1.1572515394658283,1.140469366105154,1.1726345031811398,1.2061733263916579,1.1329446142843296,1.1244356803654922,1.1312380912061333,1.1966351738262857,1.170891927121983,1.1877455213594226,1.1313728637380551,1.1399733928557694,1.2608020354054583,1.1719385583664341,1.1106210953956932,1.1650031549850528,1.3235950312286118,1.2580885070170076,1.1525655998522824,1.2777375151599353,1.2846106858346524,1.3506160770139615,1.2880647845448616,1.1413831229085096,1.136482239749076
1.1871020299261947,1.2251237802151482,1.145511011800768,1.2112260145337195,1.099859258918088,1.2214606839391406,1.2179480682019892,1.1260302703263756,1.159781504059802,1.1480507661053072,1.2058118492795948,1.1218986778726217,1.0939958777872467,1.116427591302989,1.2096347306979582,1.1802859282211804,1.1305494656424575,1.0786101389609288,1.1064601532793445,1.285957945557047,1.1916851042368286,1.0957166976432569,1.1727215260578665,1.3588270791564494,1.2599764579682573,1.1217473660244728,1.28082743809079,1.242621885993271,1.2982196354593691,1.2558853914503736,1.1143405129309196,1.135249048009631
1.1758737191885273,1.205475866414523,1.1378554869087127,1.2277403099716562,1.1335399082339104,1.1945219963365672,1.1675430301651246,1.1362395420858815,1.133233534423547,1.154103953102217,1.1843592603007647,1.1754729307854854,1.1126649530357335,1.1552252716427227,1.2176482801723771,1.2067582148951919,1.1808857320540926,1.1226529005006276,1.1295872856291433,1.3000670832196912,1.1884696329421411,1.092454606164566,1.1420445822665788,1.2947722358299185,1.2365604110410036,1.1300816699326452,1.2605876546013006,1.218597432697223,1.3220288164618692,1.2346817096260634,1.1401085693830395,1.1092173105454868
1.2293623361565436,1.184542733025752,1.1585191788155804,1.2566244523755405,1.1512649756104956,1.2259542974719155,1.1922504161822387,1.149379563026789,1.1161834404010675,1.1532989869223012,1.19373999978442,1.169590577412407,1.115380403759804,1.1709136719251931,1.2243501378813342,1.219111933532264,1.2116477104688146,1.1394994757393622,1.1471189649693918,1.3002813670989197,1.2394774500385315,1.1236788741068713,1.1596381090087957,1.298686773668501,1.2808272213318457,1.1378416593349592,1.252271182040568,1.19335569350238,1.3446662908933724,1.2742727863495968,1.1454593504439112,1.0975071776559087
1.219599792141429,1.2030032723594632,1.1973089989404082,1.1942437268059212,1.1338396300110551,1.2250138404117143,1.2134399416694501,1.1523247281468105,1.127997631858948,1.1598134837948786,1.2283915381791402,1.1486554087765874,1.1016897129198633,1.168250575649846,1.2155770129964485,1.1776178388677496,1.185457396210374,1.1229333304565394,1.1616083088155997,1.2894281981700875,1.3017588233080497,1.1272352573079754,1.199222275299235,1.2952261710179243,1.3283216952978119,1.1564599221271668,1.2451021310563424,1.1992771849357193,1.332606449522029,1.2565540771471475,1.1245269617158398,1.1131523352860602
1.2076430214007152,1.2011674639194891,1.215058513397914,1.2340901562389763,1.1704592885659202,1.2302207259434474,1.2277864563894054,1.172715807185949,1.1357474550382274,1.175320087339045,1.2422097163247077,1.159646853983603,1.1280376984376999,1.181131461971682,1.2283098579545333,1.185513632832685,1.2136427921442159,1.177032554275177,1.1751562798429123,1.2431361268715344,1.2232135617669484,1.126046453523547,1.1672239850046162,1.284011821900091,1.284829319028979,1.1638064631085252,1.2506588360713915,1.2090385212482055,1.2889554925033093,1.2444146884399505,1.1591948892045227,1.1306361469118427
1.2142542907851925,1.2218550758353517,1.2161078794971965,1.2724121394090813,1.1644476810640614,1.2157623326699458,1.2027459278527457,1.132718379882747,1.1388788644539976,1.1490005725699943,1.2327462129662,1.1557461773694828,1.14280545799346,1.1681674538696694,1.2047400250900868,1.1864099567969448,1.2157543182351984,1.1653520210476407,1.1447281131044447,1.2463323443623737,1.1613283421430292,1.128879442578397,1.1426441810793306,1.2863183942320302,1.2287157840119618,1.1556575410380008,1.2383876171353998,1.1742734883713797,1.2724029623099857,1.2787576229400566,1.1570610842969362,1.133994170043478
1.1802344540167258,1.2335261306849579,1.1848562876558784,1.2202527999590396,1.1643773231712333,1.2382246201363696,1.1865406746181197,1.1272214720100802,1.1109032149342812,1.1128193984864676,1.1963985705964082,1.1183140913810619,1.107852309963096,1.146320945195733,1.224012826293823,1.216901576163991,1.2312966160944094,1.1649838135731256,1.144321263808797,1.246236805396248,1.1704254156422103,1.1440616316504253,1.1819188979994841,1.242378299754571,1.1698956427381204,1.1403915342535562,1.2109721037451422,1.1611094466823872,1.2747933299446768,1.2427727200400407,1.119964849266934,1.1341936455399968
1.1956967217949424,1.24314430912505,1.2136556837996673,1.2336890427286578,1.1719041719400198,1.264918911377016,1.172070892609342,1.1722057306408882,1.1321099109588402,1.1384968351049238,1.1937753048535333,1.1393358209085762,1.1132631171039853,1.188098099551618,1.25780234066046,1.2292598634187353,1.2491102322431977,1.1856005014648106,1.15654567792218,1.291889817089117,1.209000511558245,1.124998472252985,1.2181478071511036,1.2786061900355778,1.2573040592006,1.1812648814758544,1.2573912772700622,1.21211359288778,1.300586844834764,1.2614421066989536,1.1610375936380586,1.1306907720363597
1.2065493331941408,1.1910464986091083,1.188777035752175,1.2448997234341304,1.1513556578329514,1.201434116301814,1.148334524110834,1.1354867548411958,1.1199674464300913,1.1343274633273974,1.1770736322794335,1.1194426129337631,1.121935394630266,1.1641004827713237,1.2031642593241871,1.1939387192253523,1.2172172001063597,1.149396218772907,1.1376607847352571,1.2618980521782976,1.1681895268657352,1.1171749511560638,1.1841728027777412,1.267135729919192,1.2475173900921275,1.182016379040349,1.2584724486712116,1.1874904409593958,1.295397856971626,1.2845765435459786,1.1428067819003882,1.1319526700855116
1.2094761727971206,1.2140041874456478,1.1835826814317771,1.2476369235381708,1.1538670152903603,1.2079395015469685,1.1538497668886576,1.144475998797964,1.1334163241197497,1.1466721453363071,1.1931729030766878,1.1454138715309268,1.1309288608148882,1.1728229672527228,1.2380181676499529,1.200411882651677,1.1948155676787608,1.128203817082943,1.1460934620430752,1.2372567051103538,1.1768564501943972,1.1265093158639687,1.184444621995894,1.2699318899405638,1.2486697727533789,1.1801182469646632,1.2595119157663712,1.1954657137679727,1.2991744269559296,1.3108728582477855,1.1467210143190987,1.1176636714082915
1.2110776178667262,1.2680331713049178,1.2217292084285158,1.303707739177687,1.1975940673736674,1.2609504192361802,1.1950836460996652,1.1416525843016498,1.1434170427853898,1.1620287657036463,1.277114472907845,1.183425040309128,1.1502764102514322,1.245201598390092,1.3044558133503992,1.2668266378976214,1.2327230017075055,1.1484902076714218,1.1741472741291998,1.274644728146063,1.1960963320312163,1.140948022551993,1.1952380115701768,1.294601878816503,1.260639859243241,1.2190658380421575,1.269270341167972,1.252746673965743,1.2834086704877579,1.3050788910147122,1.190589197499317,1.1345250821037303
1.2371321279386682,1.2619089431639217,1.1892327347940481,1.2625816827746097,1.176383880258749,1.2854213856137435,1.1702893884199037,1.179552431556968,1.1693427060303216,1.1338847485059997,1.2083229205128723,1.1543981513066468,1.151601611548125,1.2096321721832102,1.264995202292413,1.2501199879856775,1.2230773882044648,1.165156644618745,1.1476140125270886,1.2422681836952247,1.1781179941215894,1.1374218970319863,1.162174797028676,1.2898642065092416,1.2465077818741443,1.1732235176665016,1.2623276008502875,1.228013633916644,1.309829119581193,1.2284601948834273,1.175636514824616,1.1362612948921726
1.2009351233163676,1.2136156267548273,1.174167428794577,1.1988891605536411,1.1421296464300625,1.2408196197752013,1.1598302048512337,1.15830983375115,1.1350065216217158,1.133616325949701,1.1964665025999859,1.1227369796610254,1.1419414504314205,1.1348258657732393,1.1950128159923694,1.1737595518168316,1.1858026254416008,1.1610803250491772,1.129623919660068,1.2263404080955465,1.145172944874756,1.1203091330347326,1.1464013958022696,1.2820619844261,1.251484519635973,1.1530979741818257,1.3020940781867818,1.201232462395282,1.301635286111006,1.2371523972845484,1.1561167147347566,1.1073458315244329
1.1573772956050543,1.216482743081286,1.1642461634498011,1.1945886310970284,1.1089621905918003,1.224922181005847,1.142508077077579,1.102352799301354,1.0984628769355353,1.117422085603141,1.2290506502973684,1.1018668949302488,1.0922338254569763,1.1269204220386553,1.2267397125870796,1.1878604231030832,1.1647841258207974,1.094888440759683,1.089187097878035,1.243742440422938,1.1326570108957577,1.0973113496122486,1.1491337933253647,1.289247751663888,1.2129092865574391,1.1789656938657622,1.2773875746252636,1.1812218570844795,1.2424208942399153,1.2439771489481715,1.1412477963728729,1.1291725187520223
1.1904984432988457,1.2007017340964818,1.1456777729102594,1.2151814968359602,1.126964975734201,1.2452317766082792,1.1582365705895472,1.0956689657073615,1.0878561294110967,1.1103324867856266,1.2462157865593937,1.1130661713794816,1.073754295226184,1.1567382849251733,1.2346791615510564,1.2106635891593505,1.1857872273901013,1.1112040589383974,1.1252304055518638,1.228265516677356,1.1451687418171497,1.1120441334589142,1.1310409060624216,1.2716936480494752,1.2048416577804648,1.1691334141975191,1.282219200391681,1.1937057058358918,1.2802439838674282,1.2463662778693154,1.1596648307987685,1.1492750640597635
1.1563651909296588,1.1963882046359726,1.1430660929168013,1.2246790491593225,1.1169326668640045,1.249771237382629,1.166911904504966,1.1213723427375155,1.1079121253554576,1.1229931953566186,1.192014082811585,1.1014405366879445,1.0838962693740364,1.1160320907338828,1.182937555865557,1.1750808920401248,1.1631588624870426,1.1014408301318752,1.1342721905440547,1.216170468902306,1.177284091123512,1.1223349938964673,1.1325647601921818,1.25696841180058,1.1821257948363588,1.151021935795598,1.2703100791863848,1.1848790468296175,1.2808471352981738,1.234853359773661,1.1351159433870794,1.1200398272705685
1.1841917475811263,1.2233030067300819,1.1745811261688874,1.1812761300722368,1.124510487885663,1.2454097051870652,1.1775650734626406,1.1343525298577515,1.1402567299812172,1.150122081026161,1.1878508533250116,1.1024090980650778,1.10401445668731,1.1021424622350262,1.159825337754735,1.1568777316144452,1.1479895956641024,1.112555836174058,1.1091774075844192,1.21609698637064,1.1628408851090373,1.1081530718788661,1.1367509077127531,1.2839150497790257,1.2365979132251754,1.174591728491943,1.287131928912674,1.1810394880773931,1.2843928895791286,1.2583262716135397,1.1305579576495894,1.122658067633269
1.2211243884720586,1.2415810531792204,1.1713201937915758,1.2140645809386001,1.1243485990598896,1.2119326224550504,1.1879641383439667,1.128831336193292,1.135284252477637,1.1594355383171355,1.2522200529304996,1.132476582749042,1.1145523400252895,1.1443412352603322,1.209549677798121,1.1798523754311747,1.1480535401782708,1.123904751455509,1.1060691414952344,1.2227146202629005,1.1550731752421288,1.1204496901009107,1.1724940336135836,1.3281629467037956,1.306089049500924,1.169174777504473,1.2651522254830214,1.2295090251458045,1.3287979868579316,1.3321240915555792,1.1258082631782287,1.1340832063767137
1.2250780287149774,1.274749461428971,1.209157950626291,1.2689751322391047,1.1616546574624256,1.2545857209863958,1.211679358926034,1.1535435799688498,1.100096561172014,1.1799206697813691,1.2782452048765705,1.1531250451562363,1.1158785074636377,1.1693250153516228,1.2451005685866101,1.2043900221438246,1.1629809087741234,1.1057884575899646,1.1241687049375888,1.2014611412812706,1.181541796634059,1.1417358543873437,1.2070498588456602,1.316554079770319,1.3164077334305329,1.1678946783470843,1.2936996385673338,1.2392813930624644,1.3294593384988576,1.3295714250460486,1.1288401804732806,1.155279485279587
1.1823772362628409,1.2138347289132496,1.1829402959920843,1.2658629473895182,1.1549148911023404,1.2054435443662705,1.1908302170852845,1.1557203763585857,1.1353240984154749,1.1499178590049228,1.1927392954314808,1.1221670034251754,1.1194698968789387,1.1382675804556655,1.1969838569409783,1.171382130255035,1.1496149889619267,1.114977798075668,1.1282675733439305,1.2243146715319795,1.1688153399366983,1.1233950290054953,1.1790113606224972,1.2572291128704671,1.2418431294508354,1.1567470667199038,1.291045237802535,1.2369877997285892,1.3153930557122613,1.2611022385054957,1.1415104602753183,1.1257009589780587
1.1867706811958303,1.2152234413666652,1.1585225775567505,1.223773374987749,1.1301445700731998,1.167208393969668,1.1766579809959703,1.1316633194894277,1.1424063489664718,1.133200077966571,1.1471632785638974,1.1128258514403733,1.1076957840642576,1.097620775963121,1.1585405939266809,1.150077014586499,1.1325866517516472,1.1241313231489365,1.118913387585201,1.1955955487786665,1.1424964218140765,1.1246415380668875,1.1604093833195366,1.243296995673812,1.2224561761590218,1.1600955238447437,1.2370981319463508,1.2536108536697252,1.3193920896382034,1.2867849562119842,1.124540241095156,1.103213269671726
1.2465586934595052,1.2352779102881266,1.1722096507213262,1.260509346530051,1.1608371709799028,1.2089450722716142,1.1987305047566155,1.1389910594252715,1.1484791296714727,1.1663388549929854,1.1982353840541822,1.1446736850857386,1.137706200037187,1.1357069690151995,1.1689773174899531,1.1827302854849209,1.1752245709316576,1.1329314920989413,1.1196070147253452,1.1703515230290782,1.1753189817687213,1.1261601567425767,1.1933009689736243,1.2804715371375734,1.252768509280206,1.1775174675689644,1.2534181397018629,1.303988650266164,1.340148460968073,1.3034267089780829,1.1426508278296117,1.1496127221009949
1.2616065450786433,1.246888882007591,1.1659195122779462,1.2389972963939813,1.1566251406573906,1.2295566650488174,1.1810502284492082,1.1473212899965433,1.1686147674756338,1.205173789341298,1.228269417285152,1.1732593132818914,1.1598613073737103,1.1755392656217207,1.1859179245438252,1.1645545531823296,1.1782981511093191,1.1345254208468283,1.1263097528672437,1.1754595177781557,1.1765708556841592,1.1222626138606981,1.2178133646381128,1.2790087914058532,1.2844370870100752,1.1992586659982556,1.2898890567981236,1.3031234324095133,1.373976365952958,1.27115140394068,1.1518062869370602,1.1633719585332787
1.2198307076083068,1.2376593295425886,1.1652817150195278,1.2376124110259181,1.1579725097503764,1.2570780822590368,1.154347267842266,1.1386973808387963,1.128480850576666,1.1387549606902865,1.2043127775517257,1.1345232373419245,1.1210516851707888,1.1624769979356704,1.213041343785912,1.1844077778670987,1.1824441938385315,1.1190575092092985,1.1024899707761993,1.202693891481705,1.162361727534596,1.1079216925499626,1.1861079084740929,1.3256555943942454,1.2781660760100382,1.186771985123985,1.2745024871237003,1.2724038362226198,1.380509233684507,1.2867700556382011,1.1358828351207462,1.1099870678246
1.2331970033014588,1.2335443583152954,1.1635857531564626,1.3076063064639698,1.2271456429763812,1.3331493044439842,1.2277413651688496,1.188291447921659,1.1296634916960997,1.1554760028903277,1.2240456839449971,1.1448535329833849,1.0943241369666634,1.1705379950248807,1.2697379091844585,1.2364863531203192,1.2157063523410232,1.1280245947776313,1.1113054212166753,1.250550445190257,1.1833777155168912,1.097328210658969,1.201368997385976,1.3626686712064953,1.3012277576040074,1.2347786698107717,1.2837406669515559,1.2189126715741505,1.3310368368579903,1.3187545788778228,1.1828969954454853,1.1205559977102457
1.2955370574029221,1.262721412767292,1.1867845555765808,1.2551056686873396,1.246501956369801,1.2917598823248149,1.230607509682687,1.1707860247649724,1.1712325472088274,1.1692172263735061,1.2367382838239664,1.1844898759025535,1.0992209451719799,1.2087197701048678,1.3028403891699347,1.2889507204814565,1.2759933812465019,1.134310503934243,1.1130758611318505,1.2430244706822942,1.144402538893969,1.1114973916513322,1.1760888962415412,1.3276813365147175,1.2946238689661331,1.2673942810300258,1.296608889073662,1.1958885149199967,1.2854912547024846,1.3134482878334637,1.2070409226036871,1.1373404250902772
1.2909493944947614,1.264339707855944,1.1890725904581911,1.2430846933442232,1.2026918758139156,1.278168930423831,1.1909793944547482,1.124899365269777,1.1758261022810992,1.148676263089035,1.2333533994154402,1.1902119890446605,1.1157184151538841,1.2217903025665509,1.2758607897674399,1.2717270104216358,1.2390663265985762,1.1111739234484068,1.099530718284115,1.2611259117583387,1.143905605409439,1.0897999878320805,1.153162596190785,1.2206873821847435,1.2741534254954088,1.2452970596355155,1.316397617354121,1.228283995674538,1.2807459922155893,1.3799399155012408,1.1809515075009884,1.17279207788171
1.2696036845317815,1.2221408939423053,1.188011105515642,1.2610004330419715,1.1838119089026382,1.2989154121480035,1.197131613297778,1.1501255127274157,1.1427632433739296,1.1560669139157496,1.2432903417635286,1.156477684088936,1.1346243083613772,1.2019435598010584,1.272999903647382,1.2470875600874087,1.2013539792133383,1.1434712099053517,1.1295721336651194,1.2518813862344187,1.1811811289880987,1.117384995341277,1.1578841319668471,1.2460844832879143,1.3174229778291373,1.2136509876880666,1.2908648064513462,1.2405033157640715,1.2994460704152413,1.3632068464381506,1.179621766524513,1.1521050032423832
1.2490699393294662,1.2713274818851392,1.1852416915036892,1.28019214586563,1.1558986752933844,1.2115543474929877,1.1780248999139498,1.1282861098990231,1.1357716674529692,1.1402648802799193,1.2206437085014483,1.1421067948833101,1.1309673511127905,1.170805448403238,1.2489613002156732,1.2106595984161326,1.1894467096962238,1.1361322411697572,1.1113847702698318,1.196103505967098,1.169858730479549,1.123995279061971,1.1690181606090413,1.2670868026281343,1.3018770821947494,1.1886210809129787,1.2300331795701047,1.2929527777660246,1.3354010608189282,1.2968516005693107,1.1631922720108543,1.1476091314744603
1.1497817152701622,1.2577314912117348,1.1390251206525366,1.2677702395358967,1.1250058431934389,1.1746727097290013,1.1735005180095393,1.1093764960167505,1.1130700775486122,1.1011189308930216,1.159507094865501,1.0880151455270253,1.0814085443350059,1.0952515364970765,1.1906562850273086,1.1715379626944125,1.172905932879629,1.1010359185920047,1.0836212419876963,1.2132312153635705,1.1477019253806742,1.0993424693981744,1.1599054671799265,1.2689130483543767,1.2090218963286075,1.146623823704888,1.2354400356634248,1.2598235283266717,1.2817428175087076,1.2817388397182519,1.0906880510897423,1.1412133875882506
1.1439227828456666,1.2153468336249418,1.151874544387213,1.1995641739464697,1.118260707473376,1.2017208581565693,1.1953787492197345,1.1121000378374455,1.0941054856440158,1.078667740087024,1.1155383730511703,1.0649265283030875,1.0761980263172173,1.0699235376708103,1.1571214259327196,1.1344040355179879,1.1152550856090702,1.0782252791100075,1.0903014882119395,1.1768336405523407,1.1463862580699602,1.1110081224848023,1.169784138718016,1.2613119789678329,1.193817886666656,1.129762243364396,1.2660216882217246,1.2163229722468838,1.264942572959801,1.2775180201186491,1.0850856922448278,1.126989543454094
1.1534328889000498,1.1851531890218385,1.138723082768269,1.1850553817236769,1.1203352300960483,1.186138174568962,1.1428706521679883,1.1178752928140785,1.127888791872276,1.1157942664550013,1.1593608167058942,1.1293941810100891,1.0792090132551038,1.1030278115835632,1.16479341946115,1.1193835988741085,1.1004467543316203,1.056954910442655,1.0679811063479214,1.159468032856583,1.136162681971855,1.0960897621341634,1.1630686696839476,1.2747971439544659,1.217129253017127,1.1628850311084662,1.2542536090153398,1.1908350965928687,1.290818548906377,1.2386254477802718,1.1077081440122845,1.1260350612567236
1.1566869338337864,1.177350888803581,1.1303904874491306,1.1775460745086992,1.1090255384570338,1.1997633018968121,1.1430562335957735,1.149883158034413,1.1493134933786153,1.1318563858504371,1.1801056975676967,1.1267011222167966,1.078994609565679,1.1161383855155131,1.1812191443467774,1.133589484656003,1.1278045450704,1.0605970221492675,1.0677957164747827,1.2115632821411546,1.140815541970178,1.0960110778351229,1.140027083672383,1.2750734724094475,1.2269067612533209,1.1431726797848956,1.2283072465904064,1.1749534631592977,1.242185148048567,1.2076720375317673,1.1120241245004279,1.1403361449170704
1.1432258600083212,1.1968822010650357,1.1241667337313792,1.1323296689659854,1.1144255906107434,1.2172426638632237,1.205582233819553,1.2025233525776626,1.1258353175069555,1.1975344140121422,1.2177051523791176,1.1040641851338653,1.0847669077662228,1.1041897367159,1.174188074368102,1.138434608685806,1.1097198751379211,1.0580545176918021,1.0688354434888094,1.275250540550592,1.2408440677909232,1.104412237373022,1.2003203383039873,1.2392963409492586,1.2169414142128547,1.1350669483571603,1.2274514195059532,1.1655140726174955,1.1986734138507922,1.1831352618322353,1.1090258887550246,1.120247557910555
1.1646069793584737,1.1934327848272723,1.14014878058688,1.1957914607056157,1.1451906974381323,1.231209819546724,1.2635935471123203,1.184458678358138,1.1083395488385537,1.175396650318401,1.242392230194223,1.1141419727267798,1.082958848360838,1.1357295983600026,1.2133405948553047,1.1756282856795892,1.1516733074009144,1.0725368745906647,1.0952927345908847,1.2565898416371069,1.228110174084194,1.103529846597196,1.2224362918346778,1.2320368746118886,1.2489661757977584,1.1802044685178887,1.2357794809988252,1.1920998424107352,1.2353333511141358,1.178550749701739,1.1271627810252725,1.1138092790637375
1.1943412598621082,1.2086700886634185,1.1972569624960059,1.2318639085596916,1.1770397480913815,1.215980209069784,1.2057815129123104,1.1488810281185917,1.106751488085377,1.1313298915466878,1.2163668950906943,1.1061859391047777,1.0742049304576498,1.142266381606768,1.2485653772670224,1.2301137932803279,1.1921266914383615,1.1087689092999327,1.112566197419224,1.2194414266668052,1.174263166201741,1.101208127975457,1.1251933157913685,1.2133887507428047,1.2193245009298639,1.1612733121092056,1.2387677677345315,1.1885660199030437,1.2302987818540996,1.211821193877842,1.1408170505893034,1.090145684703121
1.1714254364162249,1.1874386592663702,1.1836644243459014,1.189652064896371,1.1514128138541517,1.195943513430117,1.1625434228961136,1.1407273491779713,1.1062382809870035,1.114643720837477,1.1856532126263295,1.1014465105836686,1.092148239566272,1.130809253590131,1.1977920750783269,1.1965595013011687,1.1709370591898676,1.1251045963146247,1.1074892634646905,1.2404594367462556,1.1806482869763126,1.0972677482931208,1.1274327345722481,1.248405668008937,1.21105348039717,1.1450537896577937,1.2593871007240198,1.2079199179028248,1.2513057069825828,1.2231251634258438,1.1242891297948647,1.1035514856103543
1.2295766778308352,1.2114667112937987,1.1652516161670556,1.208370450471753,1.1488235420202537,1.2233033532186748,1.1673458954959839,1.1248743753111201,1.1064772804726812,1.1289604796606425,1.1749006563565787,1.12126411325687,1.1114291213839693,1.1382766124400063,1.2068864180326582,1.1803124749169167,1.1764011181590892,1.1425697513546103,1.1363401719930561,1.2406939134287236,1.209341427351211,1.1038633411667866,1.1644464377767871,1.291661296699583,1.2344196645140841,1.148641109865825,1.266506459679429,1.2173685008888349,1.3040278352710946,1.2585644284441146,1.1360167323723829,1.105998018548825
1.2258479108191718,1.2156044666949122,1.1536140760688447,1.2286832660173364,1.1542872769723702,1.2191253417149703,1.147185665312732,1.1285840518257666,1.1259808548197938,1.1521393280664802,1.1848675226671432,1.1287093791687162,1.1078869758822578,1.1303257306046113,1.204442343363663,1.1742971756662395,1.1606553733575813,1.1139598395573842,1.1240128479126945,1.210482665841391,1.200619348509501,1.116491966673176,1.171811909168207,1.256373812021452,1.2331952461987743,1.1578757547713885,1.2993750004318194,1.2296474724251867,1.3230514663042088,1.290761135398766,1.1358868145923244,1.1260100688310524
1.2141395834964,1.1816629266144685,1.148419342848842,1.2524808657884123,1.1603447637245934,1.2228374326426634,1.1316859544686824,1.139621666611576,1.1389491097343778,1.159350178454418,1.2220740421746885,1.148620098583461,1.116101344321681,1.18609602907769,1.2551753803613204,1.226222765132023,1.223986088961616,1.1190666333595585,1.1113902037714265,1.2362573052378818,1.16104139995127,1.1048945536543628,1.15502496139151,1.2109613709420826,1.2423166698333672,1.1631113560119832,1.3027492407748806,1.216512580966683,1.3213086269033947,1.2977189659861714,1.125687310518795,1.1334793401201524
1.2134041722732307,1.227342371155231,1.1773432706311844,1.2696030700593743,1.158596862081887,1.2677309389281401,1.1778819141557766,1.1377547614320167,1.1844644516617353,1.1555043663194207,1.2121531816286903,1.1677149721118985,1.122998329497485,1.207988141434291,1.2526757306553298,1.2469573366554225,1.2719443628567935,1.1453613102033624,1.1347160801069802,1.2765894587038786,1.1704531707434567,1.1211424660746845,1.1721700200095801,1.2508015261634877,1.2613379760722403,1.1653938551983736,1.287601754573733,1.2575663641145742,1.3204220180301263,1.274123981755503,1.1351806540678557,1.1630326485542488
1.1425299237019257,1.2273012386473106,1.1887964947292498,1.237593320707813,1.1186403234892919,1.2694279012387335,1.1618000621465974,1.1187351453412075,1.1582005835786235,1.1373938153926628,1.1980123892666614,1.1179829735850288,1.0928590094200954,1.1553242078151065,1.2288337756803613,1.1858609076142181,1.1761243420813117,1.1086875492678179,1.1137679277159396,1.2125916012528688,1.1490371263263988,1.110925492958242,1.1651293510920282,1.2544572376765974,1.2471876339891037,1.1435621359532233,1.2460745996930267,1.2544972732489208,1.3222383398890754,1.2196922487376822,1.1244738400773326,1.138625738829307
1.1919510290216362,1.235414386853062,1.208287680027751,1.2411693062737577,1.1427596343011925,1.2366919896165172,1.146037375862686,1.1127069451659473,1.1202126865992006,1.1139882813024278,1.1970085151130794,1.11001621602635,1.100252005227845,1.1485699427873923,1.263485614237551,1.218753180458134,1.186254038019178,1.1259336317093522,1.1229707804722757,1.2082935853804981,1.127052798531886,1.1121977533587268,1.1399650553503737,1.2150905296333487,1.2420668454869126,1.1580966096726564,1.2487057429321422,1.2423758770060138,1.3070293844845489,1.256057684730285,1.1599558794783158,1.1096729174924191
1.1797918240596463,1.2088344363378225,1.199605097573366,1.2567142904834498,1.2157851949531586,1.2491460873113165,1.161979189455726,1.1655331476879276,1.1214273512789623,1.113242345306607,1.169981602511504,1.0913143453367056,1.0925985898574953,1.1519624726224862,1.2946166318837318,1.2463259327004808,1.2117295527547634,1.1231133568952054,1.1169610848992457,1.2698253587206385,1.1504085343185235,1.1042704861003005,1.159170959238433,1.2320042173716161,1.2499814678422734,1.1890195593544741,1.2662883833592815,1.2510211686503228,1.2912413636178235,1.242898024205367,1.167168688718711,1.127102249513887
1.16151675890249,1.235650994763223,1.1978665748821162,1.308461717881009,1.2060168928355863,1.2836083204007902,1.1989237512665751,1.1936937535219467,1.1318775813825184,1.163700679583098,1.188430361414573,1.1155168982056392,1.0914779893130966,1.153856620493843,1.2569982833551312,1.2014623560977578,1.1895347522553426,1.1215765167029335,1.143400627211835,1.2574463972186958,1.2233279776323962,1.1118983240337026,1.1971956880856556,1.291359018056385,1.2495055173530183,1.155948224919489,1.2424385915060063,1.2538657013245005,1.28909682852801,1.2612512112303247,1.1683443802907945,1.1572664615434842
1.2415329571041018,1.2180754957256925,1.2641755312677803,1.2699469906282614,1.158817093206644,1.3074091461723274,1.1976890792215786,1.1614753553742059,1.1261987038516779,1.1748232373744418,1.231467924349127,1.1425742639426635,1.1167887192834998,1.2141140438056102,1.3130363564386018,1.257988140290619,1.1882875463115958,1.1325968673851288,1.1521014375980116,1.2342876714719606,1.2122186490263758,1.1430903190254738,1.2142400120087709,1.2322539822262841,1.2474292602219454,1.1850487632780033,1.2707398029763266,1.2878159696101197,1.2980521198157606,1.3150004243283504,1.150604530791895,1.141649872297062
1.2893905204089298,1.2480496880359804,1.2712049777269112,1.2403023065683971,1.2060597008365608,1.2983935812206275,1.2057444072886474,1.1826543287322417,1.1665860738268972,1.1988723022381136,1.2695776242685073,1.192289919289513,1.1787862696360114,1.2866671319387186,1.3530293565118725,1.3073324505345427,1.2194293658194002,1.1660862452267042,1.1881468832888151,1.2649658478143586,1.2450427088681164,1.194399528515419,1.2240106001768138,1.2394354726640118,1.2443945756414436,1.2391005486168023,1.313770626954015,1.2814453033074167,1.2941641564709252,1.3142831465493239,1.1959274626268526,1.1909155815534098
1.2137167948168193,1.290492548921561,1.210391153183857,1.2725042475875252,1.234537567013318,1.2469588275835433,1.199419487044352,1.1814157013080664,1.1736681734418444,1.1979798217515203,1.2421144124011843,1.166679003502673,1.1457348252414539,1.2260776958798119,1.2839136167447993,1.245879291979743,1.1916516886022386,1.1595495825913167,1.1434603438132478,1.271559900175505,1.2013029163232574,1.1453585326828537,1.191079446839843,1.277410036950172,1.2320135628593436,1.2719561493392915,1.2507592375846626,1.2505868647283356,1.2955239536154215,1.2996148180462364,1.213429364379614,1.2397040784555358
1.1944021990080829,1.3089871832202715,1.235873803671407,1.2960134487247326,1.2237501550644483,1.2465799069633194,1.2026182262191827,1.1795389511992136,1.1509974262782754,1.2112109025040156,1.2584696532273367,1.1588639490186294,1.1275560015259145,1.1963207160524056,1.309349525241374,1.2438374405663883,1.1992740217366915,1.1692956613349252,1.160708155483541,1.269676467809243,1.204647299466231,1.1445204965105702,1.1968140870829882,1.2497936402079646,1.2637732656162783,1.273153603698411,1.2577378151911713,1.2933632629075096,1.292730162807254,1.277684504837739,1.2084673900252092,1.222237635404102
1.2702803553576316,1.3196370193141362,1.2626262887432804,1.310700087312828,1.2026411341574303,1.2964820430171393,1.2227618064476946,1.207906195475714,1.1357203107750324,1.1920735184973439,1.249800114678715,1.1848446764025293,1.1632024716060179,1.2096254019116346,1.319275249685515,1.285719762075566,1.269537605509824,1.2019320116998855,1.2091164211340817,1.2843703412110599,1.2510635182249228,1.192323412651237,1.231175748531449,1.2738690186720742,1.295129878590132,1.2546724943034315,1.3213003987755583,1.2901160360752908,1.323581795854959,1.2904947070752464,1.198059663624866,1.178872475289038
1.263633470354001,1.3069129288522872,1.2404872013720527,1.2392047450264971,1.1650388891930186,1.2854911254108012,1.2037362772846352,1.18183405667448,1.1191170227421052,1.15905372343446,1.2537933471971003,1.1794404477612954,1.11624285885321,1.214101911021048,1.3113084570040165,1.26522172777815,1.206581763371054,1.1530453754331742,1.1542259076327153,1.2828439741910815,1.224405860393307,1.1227573188518922,1.214681589283018,1.2934639276890245,1.3049449729569174,1.205910825227534,1.2804387383633586,1.2365873583683145,1.3446520343351351,1.2884759757968192,1.1591463017423147,1.1549550812032658
1.2056053103794007,1.2744955687219697,1.2254699612887563,1.2370581463699768,1.155666146330968,1.2524864423144388,1.1783187002678361,1.1415150344200817,1.10966061695552,1.1269123357957014,1.2149927204316657,1.123484698023179,1.079675456341091,1.18790837932526,1.2680168289469411,1.227841814191454,1.1849141269171795,1.1139984337757638,1.1045676007607805,1.226074338082418,1.1814374933146703,1.1056731853863446,1.178010168824899,1.2776957694875133,1.2931093088043542,1.1680356012462751,1.24340376560444,1.2227594797133945,1.2684021962287804,1.2902659813907005,1.1437977696262154,1.1360644200467587
1.1819235245614443,1.2663989868602497,1.218304218136259,1.2483138680648311,1.158904496778262,1.2294407954564999,1.1862538882103402,1.1252588294292807,1.1212270235357522,1.1353917017723438,1.1676438944110938,1.1130394177602188,1.0860912640892897,1.154935160634152,1.2344271877623385,1.2082322009763558,1.180471374701118,1.1030826340485422,1.0913285891409243,1.220263718627481,1.1740246937044525,1.1103273077084381,1.1656094491986095,1.2655562716920146,1.2525483932939423,1.1631024558366534,1.244779337263014,1.2327566952608973,1.2738157113612119,1.2971269718769358,1.1627561289282056,1.1038698401767928
1.16926775129591,1.2018533945956176,1.184587060681124,1.2295237472528135,1.1194129464131108,1.1952651529393896,1.1966759522753627,1.1180469712173058,1.1193455608158216,1.1797725835401291,1.1792660841728082,1.1287303461953722,1.0940964677277063,1.1223661132938527,1.1961406461577604,1.1555050070692579,1.126978521400326,1.0898726589273058,1.1099958064589235,1.2168088789341847,1.201156264994761,1.125114071209417,1.1743764790617095,1.2859065970589967,1.239885456763745,1.1420070604614008,1.205727425738234,1.2198235765183967,1.3009584638050835,1.288328712787573,1.1169062870273532,1.1028008230036794
1.2397829251750956,1.2306651690703079,1.2199855357785805,1.2698543835111626,1.1489108886156267,1.2456012361349122,1.2066751939699802,1.1269705064902906,1.1152766705888024,1.1727709843017338,1.2289182139087513,1.1314576030200554,1.0831842856415925,1.1386139245608067,1.223237074837103,1.1779245806575172,1.1502379731601118,1.0952825459856634,1.1136857074423554,1.2165516539438823,1.1719678308666528,1.1212879198930419,1.1851219734324878,1.261668360122979,1.256767501002152,1.1738940784571301,1.2378460140520033,1.2204406374598213,1.3078666920612796,1.3248056155996966,1.1369861402604517,1.0995707599106075
1.2339841920626098,1.2504867638390411,1.1888990103384942,1.3042745006652028,1.16313880705074,1.268301813955531,1.225008892609049,1.1548298969887232,1.1458038445165288,1.175095112980009,1.2620384744822115,1.1389872267151673,1.0809287133491159,1.1560032449109463,1.240481022193687,1.1738912806793997,1.1365745047506988,1.0841607003441838,1.1106853074703567,1.2353194107629302,1.1795370285667617,1.107626418871131,1.230299565077514,1.2699912652496537,1.2606453687884163,1.1979280779351784,1.2724887401328417,1.1988917258540928,1.303621330417072,1.2808113029991037,1.1506336853359902,1.1131275388835655
1.1993081817244946,1.2916261532200075,1.1801402265970526,1.2627077171016818,1.161962237254701,1.2367864174782317,1.1949502329389665,1.139364748555539,1.1630022731340148,1.1731403972149135,1.2442459336236813,1.1642591434959508,1.1211628640339,1.186239119345369,1.211293134856237,1.1742734833023443,1.1493564702602668,1.1294954511588302,1.1404126623485824,1.2854000976350617,1.2063702437706811,1.0984088450349767,1.1832989755266605,1.271613552263826,1.264884243413449,1.1521743331663106,1.266509128229472,1.2213543505989752,1.321051871760237,1.2668133304600608,1.1276004908892758,1.101055425373844
1.1949024311710659,1.2601044091330325,1.1816889237478483,1.2193445651455386,1.1292902765194046,1.200769626926594,1.1541830574038454,1.1096996380469404,1.1605103354614084,1.1450499357139148,1.1929208691612798,1.1179486193937944,1.1085627142804708,1.1327963447066163,1.1914692689779487,1.1753704169423764,1.1877351821882045,1.159624616498483,1.1374816182917347,1.3271864769097863,1.197806384393459,1.1186794474402444,1.1286955551308446,1.2226155679960877,1.288206593438629,1.1549467227741022,1.2296930978080793,1.2270421097293802,1.3040451153137815,1.2361501913945776,1.123224504989083,1.1371825184420543
1.2069852343154892,1.2267505227858548,1.179954877744376,1.207310449573011,1.1274233640540472,1.1911631007151713,1.1732144280206416,1.1289268464228677,1.138662041429873,1.1308353361187484,1.1646440443026753,1.112234535391721,1.0962661545594699,1.1191422970864824,1.183299001717846,1.1805684039201902,1.2034928369761364,1.1499377331527543,1.1105369696258858,1.2809753036129912,1.1695871112151495,1.1056124029027576,1.142734733752982,1.2451249989339053,1.302319197117875,1.1793909236140252,1.2540456750752935,1.2331130311904777,1.274997105528783,1.219063307968472,1.1332070386291375,1.1273511885857612
1.2140766650711152,1.2797334275531278,1.2142883996783225,1.2514719219287782,1.1841993351026519,1.301430870760443,1.2376094195725067,1.1581764288002883,1.164848963738649,1.152938082798349,1.2016669704794976,1.1722441063501363,1.1195562877434766,1.1821247656299425,1.2529096561285615,1.2548625709419394,1.2350031229715033,1.172218160359341,1.1373076125280823,1.2629040129521156,1.1822009134362332,1.103562874824332,1.1818880708293054,1.285878638305476,1.3296278617802426,1.2494047389232128,1.3140961027097793,1.253529610113654,1.2925025568003985,1.2737966284304865,1.182924204324889,1.1320342103561312
1.2465991393154237,1.2531074093342824,1.2265679028440684,1.2803696258555752,1.1843254103907461,1.3023339551164335,1.1933108118217963,1.1395331056333649,1.1650436250638452,1.1541829068050162,1.2347270666575056,1.1877131577021216,1.143341860146623,1.217946103416969,1.2958930594604436,1.2561013991895265,1.187807097688222,1.1541147731899914,1.169643724700117,1.2857809088601266,1.2405223203331872,1.13947256130846,1.243275738007126,1.2936784009012752,1.3026503243216667,1.292151523354244,1.3392373228186998,1.2629504436959622,1.311123937178628,1.3176019702057462,1.2276614592826498,1.1324293276495487
1.2185707785448452,1.2574369485423544,1.1890304090104664,1.2612567185962291,1.1460190759149451,1.2682708172558967,1.1604749534971721,1.1311882253088978,1.1477307136177994,1.1457148179444088,1.2765981542458766,1.1625006551247634,1.1350143932832046,1.2244082317938125,1.3055819831509183,1.2745802037655307,1.1948406824107887,1.1073518166838319,1.1300868921089817,1.276108009633724,1.2307057282268399,1.1411189241853106,1.2129736422177517,1.2724351095298212,1.2288654853099117,1.2105435527713766,1.288838309506531,1.2434505450331754,1.3120764797969122,1.2708199741716115,1.149007168701097,1.1344305322684316
1.158863463728773,1.2776896438305976,1.2199994029741885,1.2751012650045126,1.164239729950854,1.2861993419017244,1.1848289333785749,1.177766776441511,1.155337513640331,1.1726702839678502,1.275236259187858,1.1567970089771251,1.118319195328558,1.1978546580493408,1.2757996184108145,1.2768949879749474,1.232362169987037,1.1166988554665247,1.1282016927065808,1.2516971240648598,1.2177938778611088,1.136492331551887,1.1832931152509645,1.2467810455444022,1.2583185124939207,1.1994087397943731,1.2766637137967443,1.2749163820019018,1.28913259386371,1.267829518941362,1.1406391249508732,1.130086408720695
1.2122837787651164,1.2681347342815354,1.2202460056154938,1.3022436390809586,1.1867829600343962,1.262785893810692,1.1999935798761527,1.1667131567062865,1.12568766497065,1.1667703465473094,1.2215157748790293,1.1336478532892278,1.111020586759831,1.1725508862123792,1.2356275431161683,1.2371433115443318,1.2116835422773395,1.1452320926672739,1.1344173827557078,1.261936256162429,1.1978720582968623,1.1104097117890532,1.1870252674311823,1.2590080253425362,1.2888135321072909,1.2002408251877945,1.2469287663964013,1.316962242149527,1.3272568122245048,1.321492527188845,1.1616150450958886,1.1194395120611018
1.2499798317538613,1.2812232487182438,1.1976564999673571,1.2683694437473723,1.210669399380795,1.2838593818957276,1.2014893312945838,1.1548514333057731,1.1609879564257524,1.154530619714214,1.2178292134605824,1.1697461328738545,1.1386511242831738,1.2072893619359408,1.2604016805924678,1.2281288527249534,1.2009850858753834,1.1662865506504585,1.111517204499885,1.2745253684831062,1.1739904302563717,1.1059473447177093,1.2108391282771895,1.2647017219211267,1.2711944956485848,1.217373894244831,1.2487254948529405,1.2537225293498222,1.3107968502023992,1.3132096876776989,1.1963561190804568,1.14341587098497
1.2004250902534936,1.2725539706310736,1.1882019790145233,1.217533390054686,1.1982357386615574,1.2916059472439203,1.2130633635351726,1.1577225995731357,1.146614237052467,1.163274654784305,1.1945187870546807,1.1505384618650105,1.112686259760121,1.169317472810762,1.2545022814930409,1.1986333734940269,1.175402908752766,1.1606153991201527,1.127381319659355,1.2848282888585587,1.1923912499123581,1.1247163120898855,1.2387623284849187,1.2454692692421236,1.2404024855526687,1.2555062983478034,1.2949218307872439,1.232772474155845,1.3346915591510478,1.295025622875499,1.1886695397380604,1.1461305748756951
1.1975614096110423,1.2100728481169971,1.1794519950254592,1.192719415272525,1.199099934526955,1.2456007375173035,1.1990423503494032,1.1723299438613977,1.1100941712946604,1.1466558754256722,1.1830108183950867,1.1238357473134026,1.121287268943,1.1441156329273923,1.2246340908479358,1.1762300114885345,1.1673116957358178,1.1347987267248676,1.1229393708687165,1.2569434562142647,1.1898573090452325,1.1061378428449828,1.1961976547347186,1.240192685270399,1.2997476440596016,1.2699811553795506,1.3113195127883157,1.2567659446141788,1.3309347900221002,1.2977867919745294,1.1720963146392653,1.1322625474033006
1.207855051650843,1.2167549986793138,1.1819515948952946,1.2374642390764483,1.1658364259184884,1.202050588188002,1.136324581189266,1.1558676901965494,1.1089221204401962,1.1321636665834478,1.161177012456917,1.1336416600053387,1.121922107793824,1.1765979309351355,1.218766959572096,1.1868235353719354,1.1591772257037183,1.1113699193997548,1.0998695687461852,1.2122850727800203,1.1515874620326982,1.0960031731005657,1.1838928918497542,1.2320030586933068,1.3082985696358755,1.2141668634646345,1.2622813877464594,1.2585379073654588,1.3078146670880972,1.2533452358722614,1.1606397867405298,1.1169407090029717
1.2425310063577109,1.2644381483171185,1.2067061353366242,1.3108487090742527,1.1506567060467672,1.2380910384561037,1.1399353107758992,1.1536862631312834,1.1118265639295053,1.1618832167013788,1.1499788450691242,1.135525354035088,1.1154897140905273,1.1767618535919115,1.233908917616523,1.2189170497726538,1.1870821164279375,1.1358718034003399,1.1263967090625606,1.2391423255083092,1.1459996380521495,1.09995310815882,1.1562561932824698,1.2214200138501268,1.2541238497032903,1.1619766871027026,1.241749339203046,1.2282744265220273,1.3583829941991106,1.268766117004085,1.1576763351105734,1.1159982799770274
1.273530856281837,1.283010650510232,1.1816625017227353,1.3021928016916455,1.1375377968641698,1.230116632635271,1.1694999003499,1.175567550745122,1.0990931523765282,1.1773313276781872,1.1788408135419206,1.1348203186643677,1.0834568386171421,1.1510086095645475,1.2127016172135296,1.2199201677954445,1.1975372765371337,1.128477856873664,1.1424139967917277,1.2382108935490475,1.1851884903119507,1.0841181073189083,1.157074274041207,1.2110468591834749,1.2215131575564753,1.1495978650610004,1.281653535947541,1.2438484664511449,1.3469543048118608,1.2701281379987304,1.1572277007876912,1.0855420541125835
1.2620288883307549,1.2524249680264006,1.1827696781786758,1.2545846602619746,1.1537568517090895,1.22934841950198,1.157885915779468,1.1572564220971937,1.133106145138023,1.1601302283340302,1.191943063261476,1.1279916527130762,1.0876460122095053,1.145835521453168,1.218236462776739,1.2019059569795099,1.1719184463504242,1.1329049271108016,1.1477482444775342,1.237763867313384,1.1778917635630128,1.1185544402817096,1.1639069442338041,1.2223580217040186,1.2789986776982731,1.151330335649515,1.2992106259930656,1.2568137453955022,1.3306395644217275,1.2483731543953605,1.1258061457862765,1.1099627633344906
1.240327248291645,1.2370046174650196,1.2075952611217233,1.2715741252212196,1.1788607424268729,1.211105533994798,1.1310629797277516,1.1463398201254789,1.1318546177348519,1.1357752763324402,1.1550810776285136,1.1159477665517505,1.0877156400924266,1.1533148426982713,1.231030394173446,1.2293194106978147,1.2194294534159316,1.1263588953625254,1.1062578233429992,1.2138213394723654,1.1728976049929607,1.1011891870469235,1.1708063574780874,1.2548871064414584,1.2860741114010328,1.1960371748159648,1.2718227698430546,1.2168990455917674,1.3303440462480416,1.2778211132768615,1.1498608311899738,1.1251406537227204
1.2221526576386166,1.2259686021718272,1.2083615025585839,1.2847406591447383,1.1677273370539438,1.261600156517476,1.1764114728013237,1.1365394995852458,1.1151898334601014,1.1390228193007503,1.1639897223534796,1.130746661610515,1.104747672802179,1.1748426121215754,1.2249572283158094,1.2284394693907277,1.261166467583953,1.151694488318275,1.1196322788724422,1.2348354405839188,1.1881619352382213,1.1220259462502786,1.1804003010194433,1.282388253126434,1.2861938045726062,1.1846846881831752,1.2224479815694658,1.2560882337882502,1.352802592092564,1.269750837100539,1.1501728741405828,1.1157521349041832
1.268890920287303,1.2452448398840166,1.2264266911243438,1.266973091199136,1.1688502427296141,1.2934978545295466,1.186478708026509,1.1414481925270203,1.117494538589943,1.1385088228299116,1.214438028867336,1.135503944634824,1.1302770102940185,1.172695794872853,1.2482442130464724,1.2522488692569762,1.2642479946182161,1.1711768877259006,1.1332279718211842,1.234408780798766,1.1551043648409844,1.124891533905928,1.1752239889878398,1.2590196892914973,1.3156977606995546,1.1839321855473512,1.266940324856433,1.243005378933539,1.334270936797281,1.2878534945419797,1.1689339351451875,1.1282694096071963
1.276895016118021,1.2400405863852861,1.2439163848612638,1.2799829482241332,1.1624116794765906,1.3108121535723865,1.188044381089773,1.1662197785209678,1.1427590152812372,1.1611417807950728,1.1980994996941525,1.161960748187193,1.1560812700539354,1.1617915613187368,1.2181316926470511,1.206502958240132,1.1725634960355384,1.1150074015595681,1.1142867223736417,1.189728004941045,1.1516014560285872,1.1471843349921793,1.1656844929423502,1.2322013059534929,1.2692391091310515,1.1606036706093399,1.3153364986858738,1.265832896999983,1.3159850851149906,1.3111950499825424,1.1641841060309783,1.1201921727963908
1.2891466037346102,1.2350676670714171,1.2811306055689655,1.276764545031539,1.1703442960064867,1.3297954172204374,1.196749517910271,1.1714007419420485,1.1684775681818502,1.1803621054548383,1.2065802535811032,1.2098927249157352,1.1604668824057731,1.1676510208152944,1.2083604505934065,1.192955191191533,1.1270108222908644,1.0964928330572246,1.1089611027299484,1.2141381736301862,1.2014271689446614,1.136967002020038,1.1633440909880346,1.2485649238532575,1.2583346756951852,1.1890190710633315,1.3015327576724303,1.308981015571781,1.314507374872557,1.3432183965030629,1.1439444780701247,1.1295599319197431
1.2567780961477946,1.2667716997581284,1.2425187182722808,1.2763602758852213,1.1876509930601,1.2868899417993074,1.2160300905119241,1.1625501509636926,1.1424551241780327,1.1816045936103734,1.218721294715732,1.1715946025264432,1.1308858845087335,1.1547853906425285,1.2031215581321713,1.1925176152533157,1.1675894469992245,1.1228923753365012,1.130837464204281,1.2371421524879767,1.2065672770091813,1.1124581463729857,1.1579342654439866,1.2474729044095285,1.2743819307304212,1.2086768572502415,1.2832595630910655,1.281746057087779,1.3150489427151575,1.300195546208352,1.139995645878281,1.1550662673997807
1.2308848275735886,1.2861679130035228,1.1998792084068173,1.2976754182917727,1.170835540472884,1.2857638352666327,1.1596993404876588,1.1779651138947107,1.1234115277812453,1.1603062699209052,1.2021817898652287,1.1251553842483157,1.1039443476859334,1.1321308454709607,1.202601070699239,1.1652722845861037,1.1278569218048486,1.0976878744599814,1.1129351731947208,1.2419574798821686,1.1863249963087883,1.0936735579909636,1.1390045498697863,1.2340770353893045,1.2492716543929874,1.1679977594181978,1.254295127378566,1.2520604193534597,1.2903446617114318,1.261594686216937,1.1382008790229532,1.1271215241931598
1.1779971845093864,1.2662123889774899,1.181466226890124,1.2649844935772439,1.1575417051436077,1.293593112204836,1.1445051792508565,1.1618916999029403,1.149989515351183,1.1479941861870373,1.1589048843724472,1.1009065319583935,1.0843742672614645,1.0843363901304945,1.1625212498694908,1.111872110308724,1.0650546044555498,1.0517841416145004,1.0896546143899524,1.229739028506775,1.202938187814796,1.1047954423075916,1.126855636406285,1.2157476171898145,1.1989010242650358,1.1411933961585061,1.234127610929608,1.1948858952956558,1.2327232503677006,1.2821414690053519,1.123270362364375,1.1106203209682388
1.1718168646004496,1.309824271200713,1.1436103407001657,1.2863530631485895,1.1659929346150757,1.2376812079538344,1.1297806053216086,1.1741667889222123,1.1227282193289094,1.1410192857729848,1.1718804376767653,1.088028139204633,1.060282438525701,1.0824169274777555,1.1699997642652478,1.1305692658909325,1.117599237700739,1.0597736044279997,1.0760789927863021,1.2282077466791128,1.2031399752707894,1.0717600422533244,1.1697856970610088,1.2067088363668703,1.188372500948996,1.1877761262613948,1.2901582548895716,1.2171583676110198,1.2848229904331323,1.283361410263988,1.1560461083223164,1.10373547542388
1.201462929317807,1.36087489060626,1.1472611508886619,1.2845628966846918,1.1559561173011923,1.2504302248891188,1.1533527931447412,1.1953476929441895,1.1346347631262292,1.1714739624807555,1.2049922845026282,1.1236590663994181,1.0940802401325795,1.137733734031865,1.2080404504869906,1.1853745909456508,1.1898160467294872,1.1303610536721969,1.1337282195634797,1.2674606998164704,1.2051214363208314,1.107540531586206,1.182750972675779,1.28054344051581,1.2832313295641575,1.2209272934047335,1.293667749568857,1.2467517537581971,1.2988069982399613,1.289260047158975,1.1590659460502912,1.1363911511936127
1.2509802987975402,1.3000982568976838,1.2096826959454425,1.2521881633335954,1.1675076464745864,1.2760840930111277,1.181441582892037,1.161813512310911,1.1517925735455254,1.1579240196434364,1.1895027005212053,1.1488394452645625,1.1472434472976973,1.1675816315058876,1.2128572590432696,1.1827480158486283,1.1706183098190504,1.165282189564663,1.180225668820631,1.2750825103654229,1.196635365241111,1.153318335827718,1.1738797274847752,1.2718617856609267,1.2965188126609584,1.2156796211117145,1.2513213751712418,1.2367086156666325,1.2739702890329216,1.3083410605355321,1.1794173669697459,1.1591319433553473
1.1768405979419343,1.1990651836020736,1.1990864812679405,1.193012600096529,1.1360798864078252,1.2110479786478787,1.1241356138440928,1.1162363998019778,1.10881886194353,1.1049732715338774,1.1657773329435013,1.1136936172383405,1.102902249052266,1.1147627543377743,1.1590905966399174,1.095241906980253,1.0855853465399625,1.085567476890728,1.112233891672927,1.1622802865179278,1.1189789939369907,1.1169356183489705,1.1407319554456552,1.189414257888551,1.1905641428815759,1.1394373169637353,1.201298362795293,1.1915513231413553,1.2539088342976648,1.2541698797628178,1.1165430606425912,1.0956250400503174
1.1189397456250547,1.1715367561618668,1.1630715491729042,1.1645087721222533,1.0846211387032862,1.1665141465948194,1.1336040347648637,1.1246784823780596,1.1086927346582716,1.1280536298376314,1.1475366887256508,1.0930070930562348,1.0858746164894513,1.0629901979176302,1.1409562221339455,1.0757927600276158,1.053576941919199,1.048397278794997,1.0822204148393957,1.1393765366609097,1.1261342870941922,1.1186310982334433,1.1298610459420029,1.174096337231316,1.1967535512598015,1.0953804041551878,1.1984198667596975,1.1695400727393213,1.252171569048859,1.2246665712443678,1.07797776109009,1.0835467128386749
1.1338028286450006,1.2090950455375977,1.1577034470489493,1.2000565284750977,1.097999482596969,1.2090198789818816,1.1525785202337282,1.149541482901815,1.1174632875810773,1.128643319913548,1.1109687392665681,1.0747212451686166,1.090437421490437,1.0613521962798955,1.1662224747027528,1.1257422703045115,1.062102380284042,1.0620265653447032,1.082225987202023,1.1795173871709805,1.1693811716944247,1.1042240522685332,1.1554041598626608,1.2124794351158574,1.2231995095807513,1.1322991998428564,1.208918652482475,1.1595763244370918,1.2887515530247022,1.2311309129164734,1.1001744687454027,1.0767673646125615
1.1674161462689632,1.2018558324224524,1.132300172194164,1.2000890532130357,1.0956761128090153,1.2389057482702575,1.1144613846672093,1.120987616328601,1.0984002386688818,1.1042943423440883,1.10599169627741,1.0625940874310182,1.05200605574749,1.0658940075870937,1.1711061641608227,1.141342078982325,1.0758205890696273,1.0506839217752857,1.0612851390319984,1.1629842173405411,1.1525111805184143,1.0942345308748596,1.1654324154657985,1.1733572842195816,1.2004076808011748,1.1327509211839462,1.2058260294007135,1.1900737940477035,1.293565992353639,1.2438767742000498,1.083623544136522,1.0778845966307464
1.1982377926610968,1.1865678320322521,1.164244995729987,1.2154744212222803,1.084684494647008,1.2504520719046013,1.1373092290484346,1.103927287422862,1.1057546525306161,1.12163783649492,1.1380944292191335,1.084369291169223,1.0600449875150055,1.068092378696988,1.1315289228674477,1.1051829353179938,1.0825193287674941,1.0501651574777915,1.0798941971181795,1.1560353470882418,1.1622454561012676,1.1152369208196422,1.1906466696512346,1.1965596295788636,1.2066157498997463,1.1326468108257763,1.2624153405851373,1.227439177613558,1.3058309778640262,1.28661288404047,1.0802197148595287,1.0919498265572443
1.2234810810989518,1.2183665369453682,1.2211417636815134,1.2421449793835502,1.140475184537879,1.201060418518657,1.2174419499570117,1.1292688470708045,1.1398754733132848,1.1664078622645246,1.2020308883067823,1.1029890518982552,1.082481554004759,1.0871794537026926,1.1602533621440783,1.1049376332791494,1.0705452791460228,1.0458798598568517,1.100279900291039,1.170551565921309,1.2023386676220913,1.1541255400791959,1.2088545465814389,1.2669641678955423,1.267577792880572,1.1720401793598225,1.3529116349083006,1.213375762223378,1.3355636333433476,1.2961787183378708,1.11008441670115,1.095189281481277
1.2286297363152314,1.2574368631700097,1.2627658535933108,1.255315086506603,1.2142844854734758,1.2458477968067831,1.2638520421292854,1.1640134146096526,1.162391968552891,1.1889968553269241,1.2178379478369588,1.123700305290768,1.1016547346178973,1.1144573481724855,1.2017234966145323,1.165130731283717,1.1079371394876996,1.0666407531985853,1.102240233490105,1.1714503139236385,1.1989818786257667,1.1368095528368234,1.232651725973776,1.2478362527322726,1.3061302550981142,1.235014646213352,1.3181568447625396,1.2575138934224415,1.3374115214942635,1.300882259863017,1.168006561254334,1.1296838433927643
1.2546984171430797,1.2959175947927346,1.3019939498648792,1.2431137434056974,1.2742042631777362,1.28699298350352,1.2917768419032425,1.1979601426207191,1.180822803406933,1.1677079965161414,1.241221573571118,1.1651019874567952,1.1428835415864593,1.1707382181059185,1.232516743476014,1.227127230139667,1.231690476955681,1.1714284135899684,1.1704241498375778,1.2553452930528128,1.2080674268824487,1.1540502083908473,1.2965408916144734,1.3202410416022252,1.2946397787276132,1.2981077044176856,1.3151225984750166,1.2972061959554904,1.3295928869061873,1.3232964759128008,1.242155293815292,1.2052142572410873
1.2583404230350408,1.308266424701961,1.306569424053515,1.2535320201996563,1.2583242242251602,1.2749784327244535,1.2442658722013855,1.1902820739776918,1.1435367642359184,1.1531291902361673,1.267452626173524,1.1498290509992675,1.1334045276389741,1.1913012029275645,1.2706674149539416,1.2669969379635804,1.2614671713332153,1.2126393515756826,1.1815704665053532,1.322008468190769,1.2514232632461886,1.1370255736294317,1.275706262703676,1.3827266212668112,1.2872212575888833,1.3012455832187149,1.3260946054362628,1.306742654817357,1.3298559266523267,1.2986281781506221,1.2186258215067232,1.2123601444980692
1.246237300651169,1.2997665537996212,1.2853591333237955,1.262617140945808,1.2339202029848473,1.306978588760414,1.2355117759794774,1.2049962937333023,1.1346081986107726,1.1722592742844906,1.2114655609750404,1.1329570931561792,1.118608489243574,1.152470272829947,1.2544890065705003,1.2525323817503973,1.2337938206846264,1.1870855100270346,1.1834662997738652,1.287985707312009,1.2359729376310622,1.1273452347094808,1.2389827541224976,1.303093218663134,1.3107173728145718,1.2597145238983631,1.3073691765423565,1.2729017045536224,1.317563074606969,1.2971894035048914,1.1978539725476223,1.2137754205199247
1.2197206875271176,1.248287256761462,1.21826791742171,1.259452380019663,1.1914908055050173,1.2590313071881662,1.1708810862739165,1.1818136540365374,1.130357437701078,1.1520044194107322,1.1698146288461597,1.1028475129579067,1.0873364287356972,1.0890474489109667,1.1881267404054456,1.1424077552487277,1.138159886870608,1.1048802985205692,1.1301510539190882,1.2337294569890254,1.1958193317741834,1.1448728298283375,1.246721776021269,1.2734951919341344,1.2901165204795877,1.2229457508895938,1.269329297556328,1.2321805397583871,1.3041016384052142,1.279705043832918,1.176799687194462,1.1754677130627837
1.1878978376911702,1.1971348665541737,1.1898396771864936,1.2531044743424982,1.1532583835858867,1.2477765259643105,1.1150715789357093,1.1498724649479486,1.1120064518927921,1.1332398131114096,1.1810830821898726,1.108977396601277,1.065427064360754,1.0977094759629114,1.163811422114781,1.1143465686846876,1.0992303016320228,1.0898006039561634,1.1036944104074562,1.19826860121429,1.1671161952390752,1.1082015036275694,1.2031304792003126,1.260649688776455,1.2326185390472808,1.2055920613227065,1.2547043221616108,1.2129516012935075,1.2756850428190887,1.2406525972609799,1.157100273298099,1.1177520438797603
1.1507786861663982,1.2382030898017866,1.1773759345079637,1.269242232198365,1.159108215398324,1.2544312077502338,1.1377002295400436,1.1485870608853885,1.1210113158603645,1.171241456616601,1.2266588260709577,1.13507627520697,1.0684722878888666,1.1100738305436568,1.167305194389149,1.1058301532150374,1.0844950028195754,1.075236512633874,1.095632698416694,1.2094122454108165,1.1627549662257213,1.089465195204999,1.1647650748412086,1.2420642942246225,1.2114745011413888,1.185752181522534,1.2411671103673647,1.1966198785579008,1.2810261081926198,1.2364819565182814,1.1528555735592707,1.101982469761632
1.1508932000602574,1.2592664812238474,1.1543706190753535,1.2242810437473934,1.1442592641547906,1.233451608423048,1.1245830160130799,1.1652955454213965,1.149951729081085,1.173639725405775,1.1939350143791214,1.1450576767391598,1.0671480670823925,1.138279699920525,1.2213284587838389,1.1454413818269644,1.123335080787665,1.0873024078617504,1.109644778305021,1.231125731442477,1.1654032240380001,1.0997077824056218,1.13763880436153,1.1996585989894963,1.2411905699034924,1.142163497437667,1.1972754247572068,1.2011127863548543,1.3033039731074978,1.2166219617078233,1.139633037196889,1.1291915145047395
1.1621990537996496,1.2197739445186757,1.1510264735551825,1.1591744006238354,1.1198592650502854,1.1934995465602498,1.1036763618767607,1.1487001449387977,1.1200220053446779,1.1375031250623735,1.2025618022787652,1.1494671133928078,1.0722248805230914,1.1701272798078803,1.2530963105439308,1.200905075093037,1.1616852970169131,1.0917225138112467,1.091892663861636,1.2129030733927144,1.1311366838686852,1.0903863678435202,1.1310448537917162,1.2538261511154754,1.2955202620476445,1.1280999620636405,1.1822520501934355,1.2094591950827596,1.2961942441975978,1.2355802004414096,1.1292955097946702,1.107884444371697
1.187734425016272,1.200527015360475,1.181329630236295,1.152813374126314,1.1185979467354343,1.2210487504644363,1.179495885874162,1.1642437372172132,1.1411345678680491,1.140168933534418,1.2424280120961322,1.1307433099765645,1.1192453068436772,1.1633853099306883,1.258415390646248,1.2104739061731369,1.185133440070072,1.1107562425987814,1.1024125911250464,1.2410326461346652,1.1413076920094707,1.1192218355828945,1.1569009613374022,1.2548225519710323,1.2894930553573234,1.1262546704055127,1.224449694071008,1.2536087049784381,1.2964370185361447,1.228351735389137,1.1181689506739494,1.1185059171110012
1.1944848241382997,1.2280311458514603,1.1925694858102822,1.216346139688677,1.1378056056737984,1.2616278181762066,1.2259592594657565,1.1652759083063047,1.1416519290734906,1.155930112115499,1.2561778409211013,1.1446424136307431,1.103839143118493,1.192111487646113,1.2698130452659442,1.235104366168825,1.2156404676378785,1.1240766459718028,1.1221734592531796,1.246669166662752,1.1503223704275078,1.1329928645248808,1.1927395124334503,1.2234575334030768,1.273273007521108,1.1618986752022507,1.2504657445387992,1.2644628172538344,1.2663605660514807,1.219500160416836,1.1373562541876574,1.1357950225601279
1.160669241041581,1.227750499198315,1.2097100539693757,1.2277250545565561,1.1503527037905394,1.2676745141637797,1.1898788523735346,1.1569522841546018,1.1266762990923809,1.1363389040446843,1.231154332077015,1.1632527196246383,1.1108480995073782,1.222397195451669,1.2649463209044836,1.265197294413042,1.2419249610088432,1.1513554059009634,1.1319252803933522,1.2705831559736802,1.1865839093823813,1.14255131123889,1.197220177320179,1.2815383895438672,1.2884320555170958,1.1786748403720484,1.2274443483441304,1.244438929091557,1.2409782157782763,1.2220488462478296,1.1428298240721435,1.1159601473339673
1.1718063151720652,1.2033745758105496,1.1958625311150133,1.2084471690794223,1.1869090930691395,1.2520761782411038,1.1779597491279865,1.1785444678152333,1.166684650200765,1.157056858339962,1.2093599394408938,1.1727971517523414,1.164359818806959,1.1931923274998528,1.21208161385015,1.2236952925390054,1.2271105934153896,1.1824995169102974,1.15584497507559,1.263851073947635,1.1980451362141278,1.1405855983092308,1.187621933456481,1.2669571869904566,1.2684105212342978,1.1808923826146371,1.2803354266022178,1.2347474915944514,1.2415133451699636,1.2309395697181438,1.1593521693802582,1.1362115620710713
1.2035837479058171,1.2382163467013587,1.1992789342782442,1.2122120483364363,1.1476189119630902,1.2558908255014125,1.1910443725952182,1.204265985970211,1.167891177306805,1.1727902605964597,1.211920635136794,1.180725110045083,1.1181757550148657,1.1787058066184128,1.192323993126899,1.210169884427153,1.2291054488766142,1.1889882780274765,1.1633604934452102,1.2492468530736582,1.1889858149527914,1.121021231230594,1.1890579318982128,1.2628750339153636,1.2579194212091487,1.1580641957822675,1.3062931259212824,1.1995286593849845,1.2506470763555146,1.2659305839248647,1.1487025809049725,1.1147498865059269
1.1856445080795661,1.240157119925244,1.1623157494277823,1.2053253242165285,1.1469541185290573,1.2400660098499547,1.1650039028451615,1.1968058576802714,1.1545776942300219,1.1672729190550994,1.194219447369399,1.1731037662751067,1.1021932772795973,1.213448781483128,1.2443118028137943,1.2248333347990246,1.215714737028932,1.1769417837199536,1.172259072254995,1.267051673147545,1.2209722263548113,1.1121658337603881,1.15469751660379,1.2686672859229242,1.2459025318291244,1.1572815371609033,1.263593885970734,1.2169165058602596,1.2521075539908186,1.2525991939847034,1.171226076580284,1.1111547418061218
1.174799000480989,1.2291710070125166,1.1859470875902454,1.2372485154177766,1.1560763374220362,1.251721662572059,1.201073487275037,1.1860027198131189,1.1484330225254886,1.2191940471661908,1.2332027210763734,1.1892883209158722,1.1313362099739728,1.228089177312392,1.2553470121921453,1.2238909291153262,1.2097661049206618,1.1912718052336222,1.2081851688008203,1.2801581887031301,1.2315811376695964,1.1256071636197502,1.1721530628445196,1.2408795992270445,1.2246894690637327,1.1921869839130093,1.2616156741652125,1.2749789030132546,1.2406264963394587,1.2532199268803699,1.176382690891818,1.108986358659126
1.1637655775411884,1.2846150334107256,1.1599438096698107,1.2593184542683704,1.2095211821504501,1.2075441217012313,1.1851155852904034,1.1980479917796947,1.1694277767268921,1.1922011756284687,1.245035002580442,1.1934523581866123,1.1236349135585557,1.2377937513517003,1.2769474509731402,1.2567307955504372,1.256494290495511,1.165290106120666,1.1703265966880447,1.2833872233745065,1.2000201093497922,1.1248634870827743,1.1781737379082515,1.2246452482781789,1.2107746230418253,1.2291342861672094,1.3319641574830292,1.2809883144546854,1.2878002357911271,1.2831972456066802,1.2065299055182344,1.1795754261357456
1.1522521743918615,1.2645009091898713,1.1232357947598821,1.2437397829598444,1.1354914051238758,1.1918185112009039,1.104017660995762,1.1482435216348477,1.1294079805891661,1.1586058829342687,1.1875969790432388,1.1608386242385513,1.103867794203971,1.1868874725103045,1.250190936009357,1.2120639979982932,1.2230726596910206,1.121566181305352,1.114733629234841,1.2522745447115728,1.1541636216996092,1.09285283513727,1.1436452212726167,1.1722888425688995,1.2298885960703574,1.1748754615957686,1.280826895532365,1.2508674547280594,1.278226996069941,1.2930492064141328,1.163652817114501,1.1284076167170245
1.1418373522459844,1.269489984025382,1.1335195954133195,1.234074466486314,1.1155013078102776,1.2154185291282484,1.120824490327874,1.1172318364263778,1.1196395580076262,1.1450579816408355,1.1975284482703181,1.1312027084868774,1.1180652959546578,1.1545062013169958,1.269009065503125,1.2035779603435972,1.192478371070169,1.1152304739251058,1.097898753629302,1.1886658149407543,1.1292628172034578,1.1118339301201363,1.1268950458877356,1.170871136085749,1.2640149498418691,1.1582015014368838,1.246037563207952,1.2252593318314873,1.2741223672466668,1.242148595921411,1.1300538152392494,1.121554409031652
1.1785642981599163,1.2823060037333454,1.171729738795681,1.209573083212552,1.143844954447275,1.209632106422454,1.1250088162151146,1.1147171996818783,1.1260366055473416,1.144036097982035,1.2279473102511578,1.1194217760494487,1.0953943632948195,1.1467004402952015,1.2674340231693595,1.2001153730563296,1.182013709046275,1.0992409622614638,1.0852685179236534,1.21976650977494,1.1443933962105466,1.0972555743818273,1.1442057786067463,1.2192693810362505,1.2551592888220136,1.2228357719946135,1.2451074755728504,1.2701617520800341,1.3063674869003556,1.2776026296833287,1.1568289070092128,1.1486649056792306
1.2818155104850095,1.3117144547743655,1.2604964427041554,1.2468379891392551,1.2407999739410285,1.2430596042525117,1.1553418697127293,1.2103531789483126,1.1372149865052952,1.1788453467106585,1.2090761480877528,1.1367215623150546,1.1107440797788612,1.1468200203154149,1.2369485084938032,1.2063591555297677,1.2002779773457517,1.1354845131312765,1.1400503549026983,1.2523255225961365,1.1757897936350483,1.1215325507440692,1.20822230300083,1.206047578501369,1.2623663248264794,1.3083193048038178,1.3057472760176037,1.2991094179046885,1.3298161183287953,1.3312803266832998,1.2199847293814787,1.2079091406848974
1.3233115440403085,1.2751328269857078,1.293387036170466,1.2583694560909675,1.247976737680628,1.2744601874301809,1.1607171390283035,1.2266986228373957,1.1518131215358312,1.166791859605673,1.1779172488680074,1.127527962342997,1.109652548356097,1.1205259797705498,1.18285906919074,1.1545376268497074,1.1388281939247005,1.0962448569055925,1.137648872836877,1.1623897274529138,1.200714836168344,1.1529021313658605,1.2333304747776974,1.199353974905416,1.2440016339359568,1.2623277724732347,1.2959558727020308,1.2959532822806625,1.3688335293721154,1.3246660855285182,1.2085933246445153,1.1757469178466335
1.2526866040465423,1.2470880722818034,1.2430749436317432,1.2355859007759333,1.1976946562870063,1.2415760515677332,1.1979599636273326,1.1967190723146566,1.1513831280501743,1.1658978728629514,1.1977805727967226,1.1300231381472303,1.116614597150694,1.1679275303485073,1.2311965706714618,1.2078399182355959,1.1562069936935677,1.10113115585955,1.1268137062692893,1.1815905435091436,1.2144479349785895,1.1324993389199387,1.2152636948645692,1.245244955129348,1.2921563521334183,1.245196598241744,1.263641256944759,1.3070119622957868,1.3911055122653637,1.3091358195709475,1.1788144607344182,1.16138378647221
1.188414928452544,1.30645154802738,1.2218242571776394,1.2769074642762541,1.2149762368629842,1.2555855449611737,1.2641839706426516,1.1821007050672538,1.122772252803997,1.1557293997395515,1.2097786314078556,1.1159186722725116,1.0949300088730218,1.131369772374565,1.2449842267496256,1.2412096928312784,1.2026844711817108,1.1360411692939758,1.1363091202403277,1.206281274155562,1.1961880663172766,1.0999267620324962,1.2372814623471553,1.2371492344973438,1.272546236279917,1.2530042560463552,1.2894947173519087,1.2848184428656355,1.3376750023283255,1.3262482432088647,1.211396219204038,1.1485324176467875
1.2382428375343657,1.3144763514101572,1.2253368313427595,1.3035098733957262,1.252835089280583,1.260724548319386,1.2348234917498482,1.1975314336908218,1.1269571012484385,1.158216804473426,1.2023920709837532,1.1446735662284975,1.0941841907630234,1.1343192028176718,1.2290006919735947,1.214653930424267,1.1615527877180323,1.121249038998982,1.1478583136175347,1.2154155159532585,1.2166210088994867,1.1100275189944504,1.2377263434017702,1.249066050193967,1.23454802396691,1.2262159933592613,1.2686638299238684,1.2711840915503758,1.2651046708347622,1.331307608370041,1.233316300373344,1.1142762214716118
1.3122814960652938,1.3177755188220703,1.2363683131135843,1.3095667402996976,1.271651259229924,1.2795713261353683,1.1876020449203897,1.2209941207909658,1.1414433592776236,1.1526784789290319,1.2128598957267702,1.154933939438575,1.1174153732944725,1.1829980858511002,1.2648243551737142,1.2314393829294132,1.202464188050269,1.1341832998228984,1.134545403152312,1.231038602956552,1.2332172141243662,1.1071423365983564,1.2166865501352317,1.2685375205843614,1.2576259347976482,1.2811258583532787,1.2991946645916763,1.2914747915262483,1.261539740814083,1.3148945275458626,1.2617412670724546,1.1297776187325788
1.2955977535898575,1.3285791313641222,1.2102230621687724,1.2890508246869523,1.1761700283828607,1.283097546436668,1.1957838639806233,1.1731951381276566,1.139069103971203,1.1558205503155783,1.2353375327414478,1.1468855698570164,1.1294637628265236,1.1897793664198,1.268915203287697,1.2158927227678542,1.2007676564125553,1.1424101603488315,1.1436135679342352,1.246803836249988,1.2135501926427725,1.1217579430701365,1.23491048751041,1.2278386043593477,1.2730071087506383,1.3086426516648983,1.3436510910267285,1.309034011241713,1.3182085019539331,1.2825443803752448,1.2293984418406105,1.1490656929805958
1.308163742527022,1.3470492336590616,1.2352089216297126,1.2762231823339594,1.1927575077417099,1.2876411657582263,1.2248455537720884,1.2118347572042973,1.1881497838894932,1.2040687627925928,1.27074502870959,1.1720677510069148,1.1131246212039028,1.2180485145668847,1.30892752441372,1.2611995100644784,1.1920752167982784,1.1230138145360722,1.1547905050499834,1.2544877094271323,1.2065676527374984,1.1440263070023349,1.2309601260205267,1.2229685578479597,1.2774540636322915,1.2827581368373437,1.3276456379617272,1.282290152473111,1.3187850891427428,1.2776716462925046,1.2250413017180428,1.1855397759978619
1.27139079988938,1.289360503134196,1.2531235535897811,1.2888143789430813,1.1867545965829887,1.324083651365759,1.2456387848874895,1.2124696241692416,1.1471427600549915,1.1915599792766378,1.2404618844505044,1.1458400446391392,1.1035569437282997,1.170141261210932,1.3000097185377826,1.2480845120655815,1.1738707112862765,1.111733183698843,1.1321034295244523,1.275585783322443,1.2155862181134425,1.1530045540102327,1.2079588635804577,1.2639704458306535,1.2745724209319151,1.2403850246937185,1.326230061065488,1.2663837082815004,1.272228897667056,1.2884177059719728,1.1816773381379566,1.1647933896950016
1.2184062986228206,1.2434542512892557,1.2121135170483974,1.2290573727837717,1.1390085333704765,1.267213828929796,1.2076530029507744,1.139671337575919,1.1241075298479033,1.1361410793650621,1.1822309788025442,1.1176089819641253,1.0975702240669645,1.1223778239089175,1.2343968772159657,1.1880381548763324,1.169747588460359,1.1033394437571216,1.1145843208830124,1.2513578214690109,1.179729263362862,1.142267341437232,1.1657966518387946,1.2133469147027875,1.272460997655309,1.2126768949814344,1.3124248789897563,1.2299319003035158,1.279408768923638,1.2466126656021945,1.1694246543810702,1.139210262261722
1.2537580496520189,1.2823661373612847,1.2195560713998086,1.2623497864204913,1.1059827918090015,1.2490906343158552,1.1783159227646725,1.0957824065680106,1.1341496651756877,1.12078108402769,1.1578255997339788,1.1119132803442031,1.086161090912178,1.1111193423857721,1.169418561965866,1.144068164410179,1.1512222758384663,1.10274945921202,1.1156260448027935,1.2367842861103273,1.1632973804405078,1.1432744864820563,1.1793708477399998,1.1854861897963607,1.2812623936991823,1.233050752629019,1.3275007423097693,1.2224923139490687,1.313139300441731,1.2736911437354232,1.1470685055985013,1.1656149222849053
1.2989760422960916,1.3647200833070667,1.2322342729430324,1.2777278440364754,1.131384585848827,1.2561950148824665,1.2145289387346045,1.1315806809567148,1.1544914813028058,1.1584147202989135,1.1829441248441643,1.128621523319008,1.096779696072576,1.1169407470474761,1.1981651407936498,1.1752831963971218,1.1899131926122928,1.1302032181735944,1.138490793117221,1.2530748855649705,1.1970514775721668,1.149332301158904,1.2261631563238562,1.2172351088494962,1.3357251667711523,1.2346304291171641,1.339771597739302,1.2572261446596478,1.3287220475855095,1.3260234969868983,1.1362865876472406,1.1354655907914752
1.2080126091496326,1.3371567368281039,1.2344471974475728,1.2446872184391502,1.15937215526819,1.2295257371577444,1.1947368470271058,1.1443160111148423,1.1294906999881738,1.1251524478480501,1.1595785506777954,1.09358157091614,1.0878398245721592,1.1023799976271493,1.2280317583433218,1.2112073652270863,1.183811966829619,1.1314059771132894,1.1283923801974616,1.219973703746137,1.176327352378605,1.128647745876639,1.1710549240201604,1.2122361708644611,1.2590689242850193,1.165816845096404,1.3520666917840007,1.2388283933717268,1.2834123548327545,1.2670386400239855,1.1575791080747169,1.142398153952092
1.20061534840392,1.2698012573307873,1.2337516555382604,1.2677331417521824,1.1323962487752448,1.2230894114024222,1.1400782102605203,1.1110187320076275,1.1192008200614891,1.0961155571061159,1.1443005359741028,1.0847720203655176,1.1084278008665214,1.1154880012110617,1.2523912032994615,1.2105415566533615,1.1564635405653094,1.1020749888320802,1.0860938352838716,1.187366847983808,1.1440448085283377,1.0941034851455114,1.1394906326127037,1.2440794971985984,1.2369641939762939,1.1473488687482227,1.3409763493494529,1.2567705296537208,1.2686901304296119,1.2793938923215646,1.146875537491508,1.1175398438379025
1.2309133720168515,1.2964319700189797,1.2189411553091236,1.2661640278799624,1.1164195436194353,1.2600556117737383,1.1869449024024155,1.1147349879787116,1.1234274834836278,1.1386888320163187,1.192245427867754,1.1222829869863173,1.1061004150851768,1.1520636733881517,1.2650279102734328,1.2215914723558883,1.1859066563963425,1.104014370843359,1.0930679703913921,1.197751772603916,1.1346179138238504,1.091055438988243,1.1621673863873403,1.2167744215627054,1.2376177952609584,1.1905425949437753,1.3167781048810863,1.251161975652526,1.3130381126573676,1.3415320429230368,1.147242382670628,1.1113569020700307
1.2181873092953,1.2964917949987456,1.2236334511025306,1.2320662995189882,1.1234306883380778,1.254567409530803,1.179010300369678,1.1211015266558053,1.1281119613625588,1.1691324666262732,1.1636379424409813,1.1457994703950438,1.0989142178475342,1.140946100209664,1.1984195143070309,1.1765428948811554,1.1527084680978172,1.0951801900869977,1.0777621168832043,1.1889211713864958,1.1142123634722714,1.0795536885729833,1.1276477679812404,1.2363279330312293,1.2283645387358515,1.1647154368962866,1.26366878276689,1.2509638990092542,1.3109922046832931,1.2912083609543559,1.1379571898199985,1.116259866844755
1.2095181375861475,1.2551893452378362,1.1936908376626028,1.2239751835216535,1.1321525080589898,1.2208003370786078,1.166897845200495,1.132950248595729,1.1211306967922652,1.1368632714943983,1.1429618794792116,1.0991353421419345,1.085629918109139,1.0960829025729162,1.186846373933789,1.1314290550771846,1.1048791862561937,1.0741368343021351,1.0882396676815729,1.1886709883691697,1.130656213726896,1.1012310764522164,1.1508433069999195,1.2336739577917837,1.2304188302255374,1.1605165879860988,1.275724991743336,1.2835350380477113,1.3070874010218303,1.2690824895226231,1.1202581138837526,1.1194570080743824
1.2405429671577406,1.227460976152755,1.1714636332031303,1.254695237118347,1.1393377664786775,1.2195505027121745,1.1844467410629789,1.126542263964342,1.1118427779480717,1.1450103287487956,1.1881261015010112,1.1186272704267124,1.0858899819106858,1.1168073013548077,1.2110568331424736,1.1516349170002502,1.128462436738686,1.0842810051603926,1.0907541862053804,1.1819313814295924,1.138560096530849,1.117695754324586,1.1818873512134198,1.2089907587723867,1.2639635574383834,1.2148512488045558,1.296301417056418,1.3147449664179416,1.3017246261364483,1.3202902756078723,1.147661254880232,1.1584161159479458
1.2391321746220512,1.2154089373010917,1.2025232129591228,1.2604761987246573,1.1678295620947334,1.2377757104258276,1.1783958806559822,1.1248188968425703,1.1069572452223388,1.1413190167906793,1.2106240089242817,1.1212753355633251,1.088300218226671,1.1312293283551753,1.2074866388835257,1.16834891213707,1.162389517992956,1.0986228458920877,1.0952242113963193,1.2082982438271117,1.1422318974485535,1.1060561416530739,1.1876767811917142,1.2263222013153192,1.278633284243581,1.2072676786599328,1.2595707716763598,1.288972992863095,1.2807531729105577,1.2712928672225938,1.1564022943110757,1.1631771224361716
1.1950126233110472,1.2332647616493397,1.1419798611637495,1.2558861281628708,1.1355602065210089,1.2233262967296026,1.1636057716835881,1.1179795167702957,1.1091633221856334,1.1153695153746073,1.1519348771619642,1.0867524768795598,1.0755545228183105,1.0919856172863518,1.1767689927429226,1.1455864585697875,1.1106760080942388,1.0640505411826362,1.0895402701703447,1.1957988596540943,1.1469388008216692,1.1075849846305938,1.202289392580664,1.2022860055837368,1.2407837540906255,1.1524997591049573,1.2495678688629472,1.2157435344058622,1.2586065271561255,1.240807675183717,1.1040094884543838,1.1189990445486044
1.2068311181250402,1.246141084906647,1.101064727071494,1.272888198073347,1.1414579506795641,1.2019201000939743,1.1168976422447214,1.1381201862166002,1.128306494973901,1.1269934500980985,1.1710977259816775,1.1267350887157954,1.1010871848830737,1.1258191169079903,1.2089174576194142,1.1729856689169866,1.1026231806143636,1.0538937017350007,1.0928975619149621,1.2053749879921605,1.1553201438687044,1.114893445271902,1.2218999560132446,1.2028255220834112,1.235082064996082,1.2103060857083094,1.2772674783274407,1.2098056073983876,1.2804924718551942,1.2542770426987533,1.1409857657763647,1.1124033054428932
1.2179613759295453,1.2349515154769983,1.163090605208547,1.2798686861013722,1.1550343382173809,1.2304992912270543,1.1482099878498382,1.1515174744716827,1.1419276040745585,1.1602449783232465,1.2059940313597335,1.1314668898072056,1.0969120086676427,1.1442133809438473,1.2271233813275406,1.1948527226870582,1.1736669107767113,1.1081469362013534,1.1165367170515614,1.1812877643380593,1.1300627735753177,1.1192589263473587,1.214937859906234,1.2029026216518337,1.2047035715436212,1.2533972495108239,1.30818353354105,1.2173115107686963,1.2891398292915346,1.24842838289391,1.1628614067150511,1.1152485230990883
1.2590836165889427,1.2645325400141532,1.1867086251594643,1.2779365558041276,1.181684291066985,1.2259253356304087,1.1882797882625418,1.1852030341329876,1.1407169784849873,1.1861612290487915,1.195920654343276,1.1322400246752287,1.1257643390747998,1.132935392391305,1.197041728526492,1.1900468430697733,1.18814639690677,1.1399818044552454,1.1135547371284593,1.167851865864307,1.1218052457195253,1.1230675917365365,1.1823141768000176,1.1849369246873545,1.2359618151252239,1.1981343895607726,1.3173639207998313,1.2523170979120513,1.306232937909292,1.3182736349904676,1.1656595048964111,1.1196029652881843
1.3227016889119383,1.2371975834109143,1.1620536871992466,1.3056345096071469,1.167169222003213,1.219998157769391,1.163505915347445,1.1295058387124297,1.1027618458837594,1.1257489363688766,1.1485240413070463,1.101590361740829,1.096774836556521,1.1376239244451924,1.20601750653325,1.2095025544757048,1.1864698618126772,1.1272099474686432,1.0956098036561224,1.1764855194172636,1.121235137816681,1.0758634400029212,1.1476398762592495,1.1516665095873395,1.2355467436968688,1.162841853815532,1.284852355544208,1.2397518946246495,1.3050132096133764,1.3379774805734386,1.184407235406494,1.0874219403263647
1.2775291744565893,1.228483541571788,1.1479987206578979,1.2801389584184415,1.1614433095974614,1.2146090279508033,1.133426273149937,1.1096433802992918,1.1179913002223663,1.1164264172634637,1.1599519742307982,1.1133885567774082,1.0995954978555973,1.1437958739847813,1.2339007249642988,1.1949970960212013,1.1531279763651923,1.0950603397070198,1.0909845392516542,1.1872278824873121,1.1060230615421103,1.0917422233746488,1.1326029048063027,1.1382828428434113,1.2034721331376155,1.2056363712854798,1.2608381378684927,1.1945673364451141,1.266048400084783,1.3158725989648359,1.1700837745144632,1.1154318939341896
1.2770630315523204,1.2466858419197375,1.1979893109358402,1.275369562167827,1.1968807560316368,1.2589847970499144,1.1526156856431653,1.1516336806222232,1.129574795850883,1.1354050368619957,1.1847202332333817,1.1312860291598248,1.1093414247675817,1.163711956129222,1.2462791549909809,1.2145189749631204,1.1877357660309595,1.1364174245025136,1.125166636323308,1.2021019912030408,1.1121971822574552,1.122573012053427,1.130752255357275,1.1895501274977107,1.2059392783180864,1.223475040033506,1.2834407309801605,1.2146077229873937,1.2860064457451568,1.3234578098504703,1.1722457334798368,1.1351002511913912
1.3068418198829725,1.2532843908821456,1.2138319985178174,1.237087240011176,1.1859201740270502,1.2932189295362169,1.1497984140283652,1.1781420479895581,1.1234458308301165,1.1715313945636472,1.188795048349287,1.1403791457960093,1.1093592306734723,1.174289714325645,1.231843048761063,1.2052627137504577,1.1625168592077313,1.1129124573430027,1.1223430353060206,1.1906295311204385,1.133380577883564,1.1348628470045345,1.1579545806531193,1.2152575909680172,1.2374040341601253,1.1837244980022668,1.2753530358709297,1.272361184567825,1.274678220863889,1.3662535957877198,1.1517040223366721,1.1401000319839651
1.2449767108675318,1.2504178750367811,1.1805486641259308,1.2754495135989508,1.1764396640884502,1.2830381896557144,1.1625052671051879,1.1714829161872677,1.1323279713273282,1.1615260029410237,1.1764051429735427,1.1479071270494512,1.106985509564417,1.1758442277201764,1.2304996159367916,1.218214900724077,1.153334699969158,1.1175604500608136,1.1073332645406344,1.177116098045173,1.1541533464280078,1.1258022350034065,1.2081512055134225,1.2028875767124056,1.3047770262513714,1.2296271293799588,1.3244568072492986,1.2395006862982378,1.2558250138423863,1.3365011632857773,1.1740496342895004,1.134873076423368
1.2380590301971477,1.2620894171761234,1.2415858360627747,1.3143525147103778,1.2134007422825555,1.2578694849409675,1.1802587592527336,1.1695543340831664,1.1034098634739131,1.1327481363721008,1.1458096974318193,1.1495307629183587,1.1043816077887096,1.1846841084392639,1.2577021256221363,1.253942473597851,1.1863447544666545,1.1225929975929718,1.0873465907494198,1.188316545352163,1.1226148303452472,1.0952215792175148,1.193175414825316,1.218687900504064,1.32650683839759,1.2615097282123684,1.322590639098896,1.2494839291259705,1.2354277225148393,1.337014477920149,1.2059502257805477,1.1541810380797803
1.266330118660533,1.3137902132480344,1.2922482877437884,1.2968552460079357,1.291299104511965,1.2505037128547014,1.2121439963978071,1.1918390371990724,1.1432229694077027,1.1451468483311618,1.195313693735889,1.1589505281539891,1.1300767233297169,1.1470129307323447,1.243774342764772,1.2014462150094565,1.1662512366564346,1.1040059966582936,1.1274844426861832,1.2339611181289594,1.1701493462132768,1.1244706751725257,1.2066381612093284,1.2483552896342982,1.2969824080909655,1.2408517458297292,1.2484454164114571,1.2952249369064044,1.2645355157458213,1.2892143841068544,1.2116573465378515,1.1937100610512843
1.273577116240136,1.2669440449000984,1.2550366857108182,1.2523330540392292,1.2558590794180935,1.2549546024749811,1.232463539363799,1.1939844005698057,1.1302916175688689,1.1563935921064663,1.23372896642988,1.1301782875030575,1.1051818374802072,1.1307478769812565,1.2413161736797096,1.2048416520201657,1.186589918000367,1.1189927328815255,1.1393303573755358,1.2267843551653261,1.1904822316247796,1.126640401438764,1.2018786966717905,1.2511220081193664,1.2340872864585695,1.2139022997203386,1.2359727047261528,1.2866996043064354,1.3199170749389326,1.2599699888139542,1.2096059344822478,1.189228457148017
1.2979836040218435,1.2441158295338814,1.2378304817105517,1.2676084618168904,1.1893191449392313,1.253425086929054,1.2303933230256712,1.173700285089141,1.131394756196593,1.1406402725998956,1.2094276650113394,1.1479142736688912,1.117126163189055,1.1630913716614928,1.2233647913702295,1.2204050334185246,1.1982526296299278,1.1176751563340381,1.121627423681725,1.2346443258029596,1.164504754099851,1.1375004680448715,1.1835551529205015,1.2483877419412566,1.2265201840210072,1.2158771882243986,1.2513580901316246,1.2927964089227129,1.349639462900253,1.2694369393223526,1.1854169074170486,1.160785781120973
1.2739285858777187,1.2924488495632365,1.2515352848643293,1.2735982024733934,1.1915924770885553,1.2585418797035905,1.245163037039948,1.147930301675691,1.130367644533729,1.1365526437434146,1.2204558828296352,1.15372979971734,1.1242708424420016,1.168626063503789,1.2015220447142079,1.1860781974807084,1.1888075473861095,1.118903329858158,1.1269143314408923,1.290615947772477,1.1866191871568275,1.1203831525535028,1.1740538574726789,1.2524828028389097,1.246457899097905,1.254978611928844,1.2597564853164507,1.225586090835458,1.2991636400417192,1.2624245820466071,1.1913016956213465,1.135237645802921
1.2527091901822847,1.3117177837248495,1.233406050292708,1.3021431193944224,1.2182621841769494,1.2483059628634632,1.2417959933059335,1.1682057781199136,1.1325662273347408,1.1500171206449363,1.2179198762387526,1.1300707320016325,1.1132532074558905,1.1327143945442897,1.1946677099251308,1.1671908866294127,1.1988797834548655,1.1245289752843686,1.1083401107352204,1.2725315005507638,1.1642526783134213,1.1019188571875322,1.158190118859695,1.2740338276830088,1.3072560087794027,1.2641288917709954,1.2749237741955064,1.2504377408395622,1.284292539510667,1.2843408906140026,1.1992544701795704,1.1391618517355466
1.2394517971715326,1.3241130628929358,1.2461605791343213,1.2753581915006325,1.227971323040278,1.237628253081002,1.1995625953447506,1.149599348028243,1.1163201396731712,1.1514842322807395,1.1960621051774496,1.1389324351024788,1.092985524595567,1.1713309184166483,1.2668992405428092,1.2140507459585985,1.1620629410794376,1.0878148537214654,1.0914139575310975,1.1971918864600295,1.1328635491244448,1.1224531105331497,1.1711866799299937,1.2521847949921612,1.3377998466355976,1.259773219932205,1.2790978782384805,1.2746811865085994,1.283615755803686,1.2816661296490857,1.1932360433555107,1.1465786854169746
1.2425084926624692,1.3034446234734598,1.2273435323171376,1.2757967746690582,1.2022588689473828,1.2432874812635097,1.1668724480567054,1.1733392639741602,1.132138500204218,1.163053529016699,1.175833529885972,1.1655899120705644,1.1069876477460288,1.172270592971551,1.2345272095990936,1.1924483732631168,1.1404150314804036,1.1055524636854237,1.1091511547206272,1.2076325359660391,1.1612629764544091,1.1433760559719663,1.1685078132829465,1.2857564789382807,1.3009021342679037,1.1908133844723297,1.2787337554103078,1.2746513556649783,1.257558212285836,1.2961513176907784,1.1677914551809192,1.135192337788623
1.196565015252547,1.2363119754913574,1.1315571806265812,1.236907744225022,1.1338483968231043,1.1903709015822315,1.1468103801008265,1.1356101723914815,1.1305579756801276,1.1474675853149803,1.150231997100896,1.1205521554604747,1.1291258434830047,1.097311019858099,1.122897671958714,1.1105859756755003,1.087784374469688,1.08214211573817,1.0983054348531793,1.1484684489980637,1.154297522847763,1.1513453348842528,1.152660739284504,1.3019686046675356,1.2083540580178156,1.1459039564952034,1.2403085708600305,1.2409936820054317,1.2325076808820363,1.2661439126871448,1.105996891627723,1.1272773626440429
1.1341418504553125,1.2327248313602983,1.0876742047243722,1.1827149236789298,1.0816876401082742,1.1605305656932063,1.1201141735089561,1.128796481514249,1.1239068213498493,1.1174043677073915,1.1219611492106651,1.0626114672909286,1.0650402397208862,1.0465406117034757,1.092216889044168,1.0730568563040908,1.057093369504237,1.0405285792157968,1.0548014356346658,1.1545800645906978,1.1448324280721176,1.085014486578681,1.1481603603625476,1.2402335555424338,1.2082783579859626,1.0973002735431099,1.2203135732269257,1.1674786374845743,1.2488816396389422,1.1706334177085818,1.0576169842386296,1.0938038208882634
1.1465884526977523,1.2052021280160572,1.1265364566669662,1.190758022966118,1.1105463598879644,1.2072962108071437,1.1270857689936502,1.1440048811270664,1.1151970919688947,1.1093567438643428,1.142948836170479,1.0696810603451812,1.0583285095531574,1.0596564001592212,1.1313100308081512,1.1028016370465705,1.07817987575019,1.054089702012321,1.0592976116012744,1.1630338101505568,1.1157486788877027,1.0757259911109347,1.1504660145910477,1.2215704198872872,1.2241665521074852,1.1280591089972654,1.2306457823869161,1.176302313050806,1.2777622874236991,1.1421100823095938,1.0878916655138617,1.0975337002166192
1.1673313052429115,1.1743371136609342,1.1523622356429724,1.1632843357343996,1.166766679356234,1.2049540284400673,1.1327624564749663,1.148959262254065,1.1237719898426306,1.114304835341841,1.172322712832465,1.1077795067317524,1.113516398913707,1.1001501840912693,1.1856123876284204,1.149038128967209,1.101721177143888,1.0755551655462718,1.0729508258995746,1.1576834876981217,1.1235249063822412,1.1036935128561436,1.1623075006111017,1.2453232633947433,1.2178731813711938,1.1627196171795269,1.2215741140177643,1.1854875825270745,1.303909120387397,1.1720533346984254,1.1334762308607593,1.1376538611997573
1.1621301666929422,1.1921213803753232,1.1517761668372157,1.1850647549088913,1.164730833717013,1.2385126949068006,1.1603427456626247,1.1391235998837599,1.0907076599827426,1.10854851128741,1.1703898254925535,1.0906762473831022,1.0612746260277846,1.0891811405957823,1.2017454370805043,1.164887750803642,1.129811224115456,1.0702974305422956,1.0709125715540246,1.1895909622680385,1.1261949201444106,1.0812358651603926,1.135796425788927,1.1900557918348373,1.1951440323709281,1.1670906890140693,1.2034510623736818,1.1456903991974963,1.2540361855588782,1.1955554094643919,1.1373869808424235,1.1580468270747644
1.1623712186140822,1.2042496545296564,1.1712851820893688,1.196733841919381,1.114361887619595,1.2576263060281667,1.1818103878860389,1.1016900352468655,1.0904547812672654,1.110707543527182,1.1712171720546032,1.081066012138705,1.0583422689105422,1.0799257960178614,1.2005577937855683,1.1568783812786185,1.108485891027231,1.056602132854844,1.0862523579202537,1.1877709056091186,1.134315587422205,1.0860995679265513,1.1076205775368377,1.172394511806097,1.2021321881295972,1.1480128826841816,1.2056250257271797,1.1436731612968924,1.2313446062769824,1.2080287393408562,1.1069615834762958,1.1031792925129529
1.1997502105970075,1.2347862865154449,1.2102390225628026,1.231830310585855,1.1432287284400486,1.2539135609121672,1.1773691768787022,1.137483555273671,1.1200763024660458,1.1465864072052114,1.1811848549827249,1.1251581684076306,1.1051138967100183,1.1104344001823827,1.2177691413306704,1.1945869812440513,1.151286191647671,1.12061858224749,1.137795558423241,1.2308410489251673,1.1528432087269602,1.110542765453151,1.1113968056285384,1.2189975586656074,1.2471396461312885,1.1482250362533428,1.246151948040585,1.1944232416540879,1.2653195023167432,1.2121300973336258,1.1247390203823364,1.097894061797032
1.1786038056970671,1.2513830856874009,1.205070759729908,1.241457440287689,1.1732890281372352,1.2448780176929726,1.1600718102799203,1.1329876398159076,1.095387599110321,1.1504207589325084,1.20718713055258,1.1501580292038722,1.1068381707677148,1.1344031047455292,1.2210225996214326,1.2059478720427421,1.177131792532951,1.1623782668909624,1.1467565624675982,1.2769022081582397,1.1828380411545845,1.0966344976913533,1.1525524526569957,1.2785482826715309,1.2569717178432422,1.1806130422775445,1.2697684729548002,1.2399011155524404,1.2800238415786411,1.2745067712334295,1.1515957550916445,1.101523744626066
1.1681864609117047,1.201446124538648,1.176407382342723,1.2524191859042044,1.1633465718167422,1.2415342209568365,1.2021859114417324,1.1401599740648043,1.1215818338699233,1.1917915121818043,1.2374259325839596,1.1747926325500724,1.0813557375326914,1.1814977006760876,1.2485478704051536,1.21810631948839,1.195831319245727,1.150040509625066,1.1333126692437385,1.2742571844468207,1.2023678956451955,1.091870943167578,1.2269148276903477,1.2874337582442466,1.2710612181920935,1.2197517044328654,1.2430627454406376,1.2295543375133404,1.3109476409679075,1.2898332302336712,1.163412289643269,1.1139335179434222
1.2061840208265149,1.2225889622842665,1.1634916854255661,1.2380385615023644,1.1461991387861465,1.2666743124664335,1.1867639113196973,1.1823862045029825,1.181579422429371,1.2194320183510603,1.2601310862339818,1.2015803513553007,1.1102342262033795,1.2199806347918787,1.269273065999545,1.262655425256156,1.2553141040157434,1.176907728049161,1.1468436503546737,1.2938329916112397,1.219221784152775,1.1071979840857638,1.243609166151398,1.294152836920648,1.283193703969578,1.2323121506182424,1.2533934369951258,1.2546717396306548,1.3710187712380602,1.2640206211028528,1.1464209908698542,1.1428762967800503
1.2298361934002502,1.229834335129143,1.209573113273666,1.2418271375346157,1.1520966310505913,1.267484264368372,1.156503270811768,1.181907843044018,1.1787441149292923,1.1641032640349966,1.2082289834316386,1.1871476650413155,1.1172851904380903,1.2020035995592886,1.2426942725427277,1.2353298746861825,1.2675516337294594,1.1915002884181765,1.1742075483604508,1.2539509080506597,1.2011733414095853,1.1129251702687195,1.1867740143121392,1.2578200868740808,1.251257500824376,1.1777467938262138,1.283348651049071,1.2308503164087325,1.3228878346740611,1.2137848855629325,1.1528605766021933,1.1360867422686944
1.231800314649233,1.253110623425013,1.2285319488732773,1.2476524771126778,1.179845647855984,1.2191481496853405,1.1610052720946022,1.1781899640376718,1.1733808220323345,1.1624881179889428,1.1990795554768978,1.1877143372314296,1.1567919561900613,1.193587968663069,1.2398684626102872,1.2255583509717618,1.254873531332521,1.2000507144154942,1.1890212029633636,1.2484449988239905,1.212254451332752,1.159456794224964,1.2144484459935356,1.262124604914322,1.2537195404971953,1.2067161034889786,1.294296526111184,1.2282580392798477,1.2997696085558488,1.2539920934581927,1.1630007399231712,1.1435719503544182
1.2413037126339137,1.2759351928036922,1.2021689558353557,1.257163699307628,1.196199889746519,1.2040356694351613,1.1971248594564792,1.1950917927079099,1.1930890442542363,1.2115526366846003,1.2268201979552786,1.1932974125723508,1.1406243010229107,1.1800355996747613,1.2170808277616725,1.1937361014533576,1.2065922132138527,1.2429420068274804,1.2153907398128658,1.293323800147338,1.21380830139999,1.182682913301624,1.2276149044687605,1.2616675835482776,1.2514546008151888,1.2209710035989751,1.2820739329150372,1.2447129197929288,1.321752542120366,1.245632077452578,1.1760421582638514,1.1378198405786373
1.2380498670772864,1.2508811163897398,1.185169023265053,1.2508773297366156,1.1839699229845249,1.2398396132842684,1.187738758870439,1.2067377510305044,1.1879798774857868,1.1884915248080585,1.20813876169033,1.1712100445477105,1.1391586259067095,1.1700751491724968,1.1972237973829007,1.1899485479936063,1.229072981370049,1.2161522383117809,1.172875403850083,1.2704543992064918,1.183148837850608,1.1711645106241078,1.1835507319882814,1.2323354591894844,1.2672312616855106,1.189250291299516,1.2758367132051853,1.2644248801707512,1.316401492049603,1.2265653746434604,1.1489137549507358,1.1308547147790153
1.2404798437269793,1.2895163014621331,1.202553805334539,1.2538254066028394,1.1673896827946713,1.2607184732261116,1.2389557567059353,1.1779808780829573,1.175900241279277,1.192617377327232,1.2456548346775458,1.1709687330805916,1.1650779075450037,1.2169185595936833,1.2196685691925064,1.23362896006212,1.2751872301252343,1.177211824604332,1.159271771214775,1.2557296086716292,1.2072557198709064,1.1900616862078826,1.2472955134433044,1.238944953526476,1.277282048067139,1.2218485959913614,1.2639795109231993,1.2600301360926947,1.322943434135998,1.2500484776288092,1.1451740621768298,1.149746354287573
1.2301542641440384,1.2595173306566836,1.2162468874198427,1.2683288902828416,1.1926766880988628,1.2503446717234015,1.244320357886204,1.1965905693931427,1.1664277168211779,1.2267380686621419,1.2719453062230344,1.1984254270264274,1.1596130323724887,1.2577071996218923,1.2683978931695519,1.2727379380618715,1.3102155330245933,1.1999372252146243,1.1657513845483614,1.2554874666725941,1.211955221613301,1.1699129609925396,1.2318284370036525,1.2426949451155922,1.2950560734684091,1.2458632453102376,1.2508164966726822,1.258969386382229,1.3214761816354228,1.2845535797773684,1.2020269052375594,1.1475452143520792
1.2195039600141278,1.2572024158051929,1.2291323793388194,1.2652776894743787,1.1931509510662794,1.2597550085519862,1.2200956185591325,1.2174902066457358,1.1543560606550178,1.2320317703223056,1.2452919469554207,1.2297161302673447,1.1743764510896109,1.2409875013162273,1.2543617756684053,1.2549300520090774,1.2845100618000223,1.2030665305157067,1.1959159131760178,1.2727068283047287,1.2662738328935847,1.1676995021585617,1.234293730438002,1.2705113565523738,1.3260638178540294,1.2491273225389514,1.2440261957140668,1.2720189722525008,1.3008867200562917,1.2640932812626904,1.2446367773919205,1.125358908127031
1.2113683984049546,1.2497591972259818,1.2426972373768856,1.2429709732503127,1.1694474914234805,1.2851402539928505,1.1961019865110727,1.2146227699630836,1.1508170873862553,1.2198227123460967,1.25708423993077,1.2295283801158847,1.1505333136952312,1.2131181388119774,1.2394850313688264,1.234832608559497,1.2344277586531776,1.1804340551222472,1.206519961303361,1.260469189694125,1.2583251755414324,1.1617440507294305,1.2661921151401212,1.286673199905966,1.3120386480662636,1.2366531116303143,1.2892967253028809,1.289244713654305,1.2821981161933123,1.2188356107627953,1.2105287337045607,1.1430152903147281
1.2668569037368738,1.2417617272210764,1.214551740964362,1.2792694565815437,1.1615232377122884,1.2778297868254997,1.1923635335813438,1.2091074064392753,1.145413671183118,1.2050655281154863,1.2373670556615888,1.1876167193064011,1.127790408965227,1.1962654599361768,1.2643154687270106,1.2595991746081359,1.2505022249147344,1.195234983972585,1.1965734084097601,1.2499841095095237,1.244036899321834,1.1551255561436489,1.222834722104981,1.2784424046174085,1.2886770330738677,1.2028676981670456,1.2969092533694642,1.2795489560504225,1.312682760294534,1.2802024904314528,1.178215048310355,1.153385693329755
1.2721545402769616,1.2557637304593605,1.2008568251950098,1.289465301601893,1.2011353055921248,1.2479255704246472,1.181389000995058,1.207309723015746,1.139171003306411,1.1757018877422367,1.1886990923704672,1.177519639851964,1.1178416118855712,1.21640908733604,1.2825298745699045,1.2595778318360107,1.2420666970525154,1.1508850233297896,1.1378988500281308,1.2237517010631773,1.1786286996675663,1.1187455656955585,1.1864606753836937,1.2380507844958135,1.2742057007632954,1.2030125801927547,1.2535940571038968,1.25807882040379,1.305118320920001,1.319284375567959,1.1785766446906176,1.1455436666054197
1.2152525221520434,1.3004234729468895,1.1623594480831876,1.251630736834457,1.1608045759765127,1.212616788162686,1.150870099705759,1.1940505203997334,1.1159814578992453,1.1483973077688847,1.1611129419748787,1.1149970856723084,1.0831945449536304,1.127470205584202,1.2206875875808387,1.1837786859317811,1.1770482457884972,1.1181244322570916,1.1093272899179416,1.222596382959411,1.1586874958060671,1.105970313841293,1.1701081358569496,1.2164015534068437,1.24807025626897,1.2135523280552953,1.2662113779689668,1.2399430038507204,1.2637630936376514,1.2733465246648543,1.1421353557675367,1.118790627215974
1.2075701590173726,1.2928790562128967,1.1818818176665518,1.3052722226455515,1.1579533069674164,1.2794031550384137,1.1702634716037694,1.1659240717389059,1.1384036990844468,1.1389887862520574,1.1819354886948512,1.1236313472921446,1.1246396485511176,1.1743806612063432,1.2659217470771953,1.2313770173420726,1.1803835690090438,1.1550330468278658,1.122447105887361,1.2136169945812965,1.1414109544207467,1.1085023554850768,1.144155550401331,1.2143066761229038,1.2754127966826643,1.2034688312923743,1.3168343611079,1.2747625596381733,1.2915924402285885,1.2857312201413098,1.1380397582898163,1.1161746801946486
1.2061229527575792,1.2743003168681806,1.187805278337084,1.2802112691957652,1.140989773879324,1.2986511935757297,1.1774404153983729,1.136585160295786,1.1241789420146193,1.1299839227438948,1.1830910159795534,1.1199265848282531,1.1286888288639967,1.159646485666306,1.2573876016606687,1.2139735511474277,1.1791180025632402,1.1186864716570684,1.1149392774637576,1.2107402400014429,1.1510823891673254,1.109953443577631,1.1653397453333028,1.206697249185943,1.2995818237286796,1.1762601132690438,1.3008518001416098,1.2653842812988256,1.3139028261401209,1.2860816358304001,1.1275840855948451,1.1065784990859955
1.2689897717334546,1.297028680022911,1.1946046496498697,1.2576154189720619,1.156596229954547,1.2559785711907447,1.2183868811991394,1.1589418294955822,1.1281023751423762,1.17733551077421,1.186012235373888,1.1265924830720098,1.1156635328314477,1.1355571153878443,1.2220550052628163,1.2057634154427646,1.2147369268194617,1.1113257852357077,1.1240740108594602,1.2254474396555246,1.1951380390124124,1.1344510453013732,1.210281397311891,1.2377279775117005,1.2648555299017579,1.183479293561297,1.2800949760465752,1.3228468074341126,1.259630424601363,1.3185047039425255,1.1491249307055176,1.1128997382337806
1.2424862726973787,1.2832203390925405,1.1948237039804468,1.237701537522156,1.1568132305308716,1.2505906154425352,1.2049384817233653,1.1564952730467302,1.123172481775675,1.180274170016777,1.1962622839732004,1.1288874244819174,1.0956815800440043,1.1337639399416803,1.2010041815809185,1.2088329247571596,1.2331856073538732,1.142869673475158,1.1454741599145777,1.2321549992362586,1.1859638999993247,1.1030486512514575,1.1853707322592888,1.2150860009450315,1.2365778595086816,1.20114288676208,1.2999920249230161,1.2815708707005096,1.2747572601878363,1.2995868276797493,1.1811420138985216,1.1281097247310974
1.2584913220427387,1.2314763771607986,1.2100268162658552,1.2476220612862305,1.119238528017545,1.269254949962815,1.187027836744854,1.1427253645929392,1.1338204917865145,1.1584096754254325,1.1476744931044134,1.1301736815030123,1.1137956286460688,1.1218095074846395,1.1792428591261666,1.169512828917298,1.1602789797177715,1.1224353136295842,1.1344384787196373,1.1493484998358703,1.1481012218532483,1.095733559340213,1.1571338121392094,1.1629780891864727,1.243575639627333,1.16144704602976,1.3557623098755656,1.2637899139387565,1.3087653708202467,1.297137410513525,1.131168931069596,1.09517528438079
1.2131214672342128,1.183662347271064,1.1422405009232146,1.2178662397810545,1.0786521631031247,1.1900992862771602,1.1492144118925829,1.1086607722178874,1.100602241178873,1.1607853578552154,1.1083531762544547,1.1149095747209556,1.0994113108180534,1.0985752732941605,1.1479287712202872,1.1141195545729055,1.0821358202777795,1.0515751002728566,1.072365594653701,1.1131400796466608,1.128120590515583,1.0765035458151995,1.1387613017466671,1.1865999967091838,1.237770744421804,1.1038899770283361,1.319910253168595,1.213141598136455,1.2688547647579032,1.2534009753451996,1.074056044966018,1.0699969667586529
1.167627057441243,1.2162594215800018,1.1450412574783118,1.23737685609978,1.0987867907916757,1.1640318777071248,1.1451037922381309,1.1058526873038332,1.1324846746554431,1.1416542978770858,1.1167958320903113,1.1098122549425895,1.0801241702340605,1.0813296953443872,1.1654547017240644,1.1050893979246097,1.0627278212306706,1.0465925894804484,1.0700553432166582,1.1499183713849435,1.1691119691475553,1.091245569174319,1.1673470659481757,1.2207798948644508,1.2361670581407467,1.1378355967427856,1.2985285898877303,1.2166104954017705,1.2819585985941526,1.2540550959395707,1.0950079561089778,1.081856463063977
1.248439199143577,1.25792960967342,1.2413283827372892,1.2692540094951452,1.1527777718022167,1.242918118385619,1.16660406623265,1.1292796083915608,1.1626721826976507,1.1373668774677037,1.1637868873345438,1.1415655367072823,1.0964380647648388,1.1307659983657758,1.229588863644426,1.1740086710636755,1.1408667236288623,1.0811041684980232,1.093389634702611,1.2191348118860912,1.1979071068535792,1.110860560708483,1.2111485377038267,1.26363085300137,1.2019134602514263,1.2312028843579936,1.3371169599088697,1.3319093263111186,1.316674785521315,1.3266280650136195,1.1789161672595647,1.1124968150047008
1.2887516735072138,1.2556905101131628,1.3030590877896213,1.2762029592096307,1.183199902185623,1.270226739302816,1.1897323206051942,1.2151201777901588,1.1476385324336176,1.2092242934608257,1.2154160395679203,1.1784590048236143,1.1282056676254582,1.2115021401338892,1.2819199414662974,1.2395594641095304,1.2393872923252354,1.168859438578003,1.1585736515148701,1.228051667272483,1.2370116062131054,1.1386424134611968,1.2796545875944836,1.223449996336784,1.2264380611044732,1.2900768845414006,1.3303262022268,1.335918363396778,1.2657960959456325,1.3450756335691374,1.218247204515053,1.136778100055014
1.2573991439770837,1.2633924033952537,1.2558644119434361,1.298390773063649,1.2344692031319517,1.2337561239136314,1.1814813287406634,1.2234619637035655,1.1162649517326833,1.1672267968868593,1.2194766841652318,1.142796205469683,1.1078387047565117,1.192448112367612,1.2776507280883675,1.264714269716797,1.2910647309691465,1.1949856912794707,1.1564723897291447,1.2203394092630946,1.2130113063030383,1.114547966857756,1.2670204311945998,1.2117216921716851,1.2438498032852108,1.292409359948803,1.3110079266783057,1.2669400615282977,1.266954215810662,1.2955241187520175,1.215645646749216,1.1690254500971342
1.2427645880030815,1.3109098309610991,1.2345403778453783,1.273270237171975,1.2570833587287975,1.246496560391684,1.203584665550368,1.1896434910601867,1.1078183402116661,1.2018378353069357,1.250392871995565,1.160586026052717,1.1209445386976944,1.2218190178723436,1.2877264591724644,1.2429956982768064,1.2793233771427999,1.2016029617700228,1.1727266420171643,1.2587331397861572,1.24552510271225,1.1341149245308237,1.2851256166411869,1.2884868809873715,1.271907954453105,1.273960204551412,1.284974322885912,1.2998111013585005,1.345865470809638,1.2894767352169434,1.1843955175639191,1.16052646779403
1.2536900007889356,1.2942385147906958,1.2374268403594797,1.3212859663489946,1.2541216603551528,1.2647637093146642,1.2606646236483434,1.186906215439404,1.1482105706755579,1.212548584944905,1.2334672868513545,1.1681858022971374,1.137874907539928,1.203710602049061,1.2818059969876503,1.231458934671206,1.2594836705466579,1.2050681091341595,1.2045853634365105,1.278716406182057,1.2631746019251981,1.1630760958266402,1.2472342340203164,1.2989377444679087,1.2504040772909715,1.2211999029745986,1.3175500776711095,1.2560201115843947,1.3244549142101345,1.3253611568596264,1.1731944175898994,1.1462367427082008
1.2653891499966863,1.304321143199374,1.255637186132431,1.3078766580820342,1.2005498187293822,1.282505606281699,1.2356625741549432,1.163377973893801,1.1470334292915765,1.1546302832684028,1.1966435642058808,1.1611805747072685,1.1378461058963667,1.1938358919540806,1.2544892728330481,1.2525852610677073,1.2808747425620255,1.1668320711064633,1.1487675079189383,1.2419602679214081,1.1923391963332082,1.1344545426010602,1.2085544508709627,1.259969816484359,1.29324249353472,1.2057853683755335,1.2713577870623487,1.2806258688984957,1.2694573482381324,1.3202812536464839,1.1735611505397983,1.1632351840147328
1.3041162087140008,1.281859904837387,1.2459049075692794,1.259319258439499,1.221822623065866,1.249736625812866,1.2057924936795996,1.1823600911339653,1.160983203844212,1.1481511390383525,1.214171020211911,1.1623160316126695,1.1220684868583102,1.202243715048378,1.2579280803392616,1.2588513269881707,1.293302219235775,1.1800739456091158,1.148159342298585,1.2685108348737881,1.190601922375637,1.1141555960229566,1.2316271353865698,1.2557523056376132,1.3053128783359758,1.2701884340851655,1.2984798214713422,1.287655392226189,1.2700971014707116,1.3221353726222902,1.2071739088910913,1.1607047023721953
1.3066969297895281,1.2493853418827277,1.2364229601577232,1.2511841722986725,1.203243585073304,1.2680283625876303,1.2243411340776058,1.1901359178327577,1.1547402822061006,1.1613392924144221,1.2015601021394453,1.1506317872439273,1.109698699150452,1.1736090571861197,1.2515357092898631,1.2364450205930275,1.24093110421788,1.1488565464989482,1.116364552439888,1.2490960035052718,1.1714372976988165,1.088585700003616,1.1810959539394328,1.2458404131888416,1.2890597936290633,1.2161692858648518,1.295168188112813,1.2305901615240893,1.2571413433035075,1.3319530071183157,1.1921841722411797,1.1165672059213467
1.2500893462394782,1.2675558304179206,1.1760149217514926,1.2598774175741678,1.1882991214225935,1.2915534042825585,1.182335935291977,1.1837116227754085,1.1277216999010156,1.1599222436776526,1.169248755737357,1.1238111966068105,1.0933062456670417,1.1349887180152824,1.2222729921657143,1.1999077010351424,1.1876574974119527,1.107258981442645,1.090645247886295,1.202577004264697,1.1588009248104445,1.1095700535409228,1.1769659147989195,1.2450823531699449,1.2712014031317553,1.1816502678717127,1.2662471628559737,1.253169944876514,1.2970981820823961,1.304993617753006,1.1703615900773392,1.1258969567275894
1.2562254960655903,1.2752896976528034,1.1724171986961347,1.2445617682709895,1.1924872975493621,1.2104503898994259,1.1516016063538204,1.1571390922499836,1.0993136158435337,1.1402760474074751,1.2097108241692236,1.1194755026458272,1.0623009234095,1.1262201512259762,1.2287346891525215,1.171693853805221,1.1480498169339124,1.0855722764138533,1.1004509778563405,1.2442453055987444,1.213378353798683,1.1098060203126454,1.208236005557369,1.2866036993470322,1.2417768592447591,1.2111575708341302,1.2657802825960571,1.2526039768887338,1.3186400740138413,1.2495830711289306,1.1622204013089592,1.1360936849701444
1.268878597294827,1.267087873219743,1.2224547019544503,1.2737757896203785,1.189538225441989,1.2369130835350384,1.1826038943905315,1.1448593902222917,1.1017247639296914,1.1394526700411993,1.2279671702757446,1.1281155705312873,1.0717067701446426,1.1372932776468887,1.2231083298830854,1.160367179266888,1.1312946754322593,1.0946353251069638,1.1297765433536646,1.2783394647263728,1.2461217873560761,1.1143450124547973,1.2191795314522829,1.2871890699201614,1.2168089812650404,1.1964400908449129,1.2953696499368261,1.2403153535677,1.2816848044279094,1.2468553526946238,1.1517179955553518,1.1261860761494669
1.220294132308736,1.2897418307796118,1.2424479216538216,1.2403881215437942,1.1677596499136857,1.2298055427446986,1.200383256212693,1.1320066575162295,1.1039125962864258,1.1443631691534828,1.2009566960688915,1.1185998264380586,1.093934748061378,1.147210885080939,1.2345808872389759,1.2151226731542824,1.2009834989525694,1.1391054960975686,1.115384334047584,1.2416050827340042,1.188152884791221,1.105651442775462,1.2081510532745592,1.223089298467085,1.1906789729671483,1.1914928929222128,1.2795873430133682,1.2202800974008785,1.2792318554052249,1.254326213812218,1.1570029917197984,1.1320745416295503
1.2130208677044683,1.2722092929959872,1.204976624935992,1.2303613383054766,1.1645846473357486,1.245210338181869,1.1963756323654562,1.1453585686686736,1.0871062306581771,1.1212066617154792,1.1449754674457429,1.0999617297641953,1.0792137003896087,1.1379796543961473,1.2510421690953313,1.2369002314492707,1.2244328991969518,1.1296928527213694,1.0956027104174129,1.2187437428868906,1.1690446910641705,1.0870410594370021,1.200861865145906,1.1787036017267716,1.2250512169842127,1.2143573728724104,1.2936337002063691,1.2223006983503732,1.2887753184474373,1.3015856487922708,1.1520092664658441,1.1283559876200224
1.2410401215818365,1.2596584078539534,1.199923746278295,1.2783115971154355,1.1836341747373633,1.2625442757515541,1.2213943028557295,1.1669021638918042,1.0931331135342885,1.1585635913797636,1.148372302996641,1.11433964433344,1.0911339946507026,1.1299084453669548,1.196172875462975,1.1887896146412422,1.20546981520275,1.1353393759430963,1.1424148516588615,1.2665744487171118,1.1771620441963555,1.1070602859437215,1.1933519527514016,1.1857795040120829,1.2424777611222344,1.2572242488133762,1.3405102287450805,1.2231623586785758,1.2813504013305532,1.3429308811131224,1.2047724338941423,1.1293253302576325
1.2286125492104425,1.2675305890530089,1.1987646282236595,1.2703656084790116,1.1695191508794918,1.2172772597389745,1.2403256138565169,1.151732319458729,1.114243088903176,1.1550388746968612,1.1761266654887232,1.1240423562165678,1.0764256964801475,1.1244199722935277,1.1902337671211356,1.166758011023364,1.1754017486516022,1.1120545537657158,1.1197255416999563,1.245765791770956,1.145107845724579,1.1134258053789978,1.1861429106948127,1.206467494320803,1.2731079913066754,1.2145291669521638,1.3438410687085123,1.2509049659838603,1.3301002325855447,1.3241917792076447,1.1886616721505194,1.1073581885505348
1.2490288085454406,1.2894621836376605,1.2172463972497056,1.2742795808474219,1.1543943909365146,1.1694026464408098,1.240575894787037,1.1508870901142378,1.110898818363543,1.1492008754935068,1.1832642410744845,1.1342811774210324,1.0814040698513763,1.1422797819423132,1.2039945716070877,1.1962724491709902,1.198847737357037,1.1118342760383808,1.1063250461502614,1.1953033521530576,1.139432030230301,1.1180979969605538,1.1872465730744528,1.2122047721388152,1.293997710906522,1.1830938145056458,1.3670615658936458,1.2888665574405154,1.3386421077425823,1.3126644856770278,1.1526142168281914,1.1114120172308748
1.2540500904789786,1.3248554304593616,1.2484154568527075,1.308546490903809,1.1900280413708204,1.2478793732231432,1.2362246957236616,1.1585990071322356,1.1275662081298288,1.1463409432846563,1.1714740525974972,1.1285153232684135,1.0968416327801038,1.1396286411813408,1.2069395577989268,1.2089138066287222,1.1794560231900981,1.1174068492344296,1.1252086475232546,1.1909877028180895,1.1500454314349464,1.1145061724691692,1.1515430473263226,1.2071336831587747,1.2822007266385909,1.2018469852236373,1.3371081903400595,1.258374715333285,1.3010760859684625,1.2763623424434438,1.194687429172107,1.1253258049864372
1.2487487291031572,1.308564329048326,1.2201742065718901,1.3288320083595977,1.251089155315605,1.3392783223340463,1.2265267482570137,1.182780410044936,1.1274805032244963,1.1433756498991219,1.1668219492214087,1.1420226173256285,1.1013441725620094,1.1694008749280773,1.216868161620757,1.224054305239877,1.2023413604070536,1.1195830911484068,1.117605534154971,1.2020575677326446,1.1815630298382547,1.100607763271842,1.149065317340357,1.2580584710317981,1.28826324621715,1.2236556295704561,1.26140655713808,1.2875168395628234,1.259507557089366,1.2894167247524277,1.211067054540754,1.147571357873956
1.3010816262220724,1.2794138965002306,1.222790345518672,1.2942693264091005,1.1820652616825178,1.303749125095898,1.2331905241731485,1.1438633015411421,1.1225412359124733,1.1538976477793093,1.1759379737237532,1.154914432254894,1.1228813699682267,1.1605353204356335,1.2049460959795726,1.2000684343818233,1.1822952061401804,1.1248773193884933,1.1271302280734004,1.1601866201640716,1.1827833819397993,1.1347454372406134,1.215617878549979,1.2943691666261303,1.2905922846956717,1.2009832326171441,1.247991037828332,1.3272609201633159,1.317015191170752,1.3044500503286998,1.1565962470084756,1.1194525488722693
1.2720492042255434,1.3061121398226572,1.2165703641261132,1.2692137603045286,1.1542692565270343,1.2993318925581034,1.2039699703809756,1.1673561825756826,1.115701878146866,1.153213942132031,1.171840636998962,1.1215641626953683,1.1225100997249615,1.142704791686559,1.209552934672952,1.2079478855014576,1.1964169016741262,1.1567771890498075,1.1750453694878769,1.1490956425437338,1.1638440897747604,1.1463563616753056,1.1901008005452327,1.2160966144565921,1.2962875294837026,1.1955492393971785,1.2349435575333063,1.2627380175155698,1.3327885515111808,1.2613629184958404,1.1548528899074464,1.1356562256932345
