Fp1,AF3,F7,F3,FC1,FC5,T7,C3,CP1,CP5,P7,P3,Pz,PO3,O1,Oz,O2,PO4,P4,P8,CP6,CP2,C4,T8,FC6,FC2,F4,F8,AF4,Fp2,Fz,Cz
35,35,33,39,27,38,35,33,32,39,38,28,25,39,47,37,45,29,37,47,40,27,34,43,48,37,45,43,49,41,29,26
36,36,34,40,28,42,36,32,32,36,40,26,22,40,48,38,46,30,34,46,40,26,33,44,52,37,47,43,45,41,30,25
39,33,35,45,26,41,36,32,32,35,42,27,21,39,48,39,44,31,37,49,42,26,31,44,53,36,47,42,47,45,29,26
38,35,36,45,29,36,34,32,32,36,44,30,22,42,53,43,46,29,35,48,42,29,32,45,52,36,46,40,48,44,27,27
37,36,38,47,32,37,36,30,30,36,47,31,20,40,54,42,48,29,33,48,41,28,32,49,49,40,47,37,44,45,29,32
38,36,39,48,30,36,34,29,29,38,47,32,22,38,50,40,44,30,32,45,41,28,31,53,45,38,47,35,48,43,30,32
38,38,34,49,31,35,33,32,28,36,50,32,24,38,50,39,44,29,31,48,40,28,34,56,42,38,44,34,49,44,31,32
38,34,30,45,33,37,33,34,24,34,49,30,22,34,48,36,45,29,30,50,40,27,34,56,40,39,42,35,48,43,31,35
36,34,30,42,30,36,32,35,24,32,51,33,23,33,49,36,44,28,30,50,38,30,36,53,39,37,42,36,52,45,29,32
36,36,31,42,31,37,35,35,24,31,51,30,24,32,48,36,41,25,29,52,37,31,34,52,38,34,44,33,51,46,28,31
36,38,32,40,33,38,34,37,22,33,52,33,24,32,44,34,40,26,28,51,35,30,33,52,38,34,42,32,50,46,30,30
35,37,31,37,32,37,31,39,24,34,54,34,23,31,43,33,39,25,29,50,36,31,36,52,36,35,42,31,52,45,29,27
31,36,32,34,32,40,32,41,24,33,50,35,26,33,46,34,38,24,27,48,34,31,35,49,35,32,40,31,49,41,27,27
32,33,32,37,29,40,32,42,22,32,46,32,26,30,43,35,32,23,27,44,32,31,35,47,32,31,42,30,47,44,27,27
31,32,32,37,26,40,30,41,21,32,43,30,27,30,38,32,28,24,28,43,34,32,34,46,32,26,41,31,47,41,25,22
31,32,32,38,25,39,30,41,22,31,39,31,28,31,41,33,29,23,28,43,33,32,33,45,37,27,38,35,48,43,26,25
34,28,33,35,26,41,31,40,22,32,38,30,28,32,42,35,30,25,29,41,36,34,31,45,40,30,42,38,50,44,26,26
35,32,33,39,24,43,32,38,24,34,39,33,31,35,47,37,29,26,29,39,34,37,32,42,43,28,43,39,53,45,29,22
34,34,35,37,27,48,33,37,24,35,36,33,29,36,47,38,32,28,28,41,38,34,32,44,47,31,42,38,52,46,30,24
35,34,37,36,26,46,33,36,22,35,35,33,31,33,45,41,32,30,28,39,38,34,33,43,48,34,41,35,52,46,29,24
36,34,38,39,29,45,33,35,20,34,34,32,33,37,49,45,37,30,31,42,43,35,34,46,45,34,44,36,55,44,28,24
36,34,40,41,28,43,33,33,20,36,34,32,35,38,50,47,35,31,31,42,42,36,33,44,43,34,42,40,57,48,28,26
38,35,39,44,28,43,31,31,22,37,35,31,33,35,47,45,36,34,32,45,44,36,33,47,43,36,43,42,61,50,30,25
39,40,43,43,30,46,28,28,22,34,34,30,33,36,45,42,38,36,34,45,44,33,31,47,46,38,43,44,62,50,33,25
41,41,41,41,33,46,30,28,23,34,35,32,35,37,47,43,39,36,32,47,43,33,34,47,49,40,44,43,65,51,35,26
41,40,40,39,36,46,31,29,26,33,38,33,34,37,44,42,42,37,32,47,43,32,34,47,47,40,47,41,64,51,36,24
37,41,40,39,37,45,31,30,27,32,39,33,32,35,45,42,42,34,32,47,42,30,35,48,49,41,46,41,62,51,35,22
37,39,41,37,36,45,30,28,26,30,38,32,32,35,40,43,40,32,32,45,41,28,35,53,46,40,49,39,62,51,32,25
37,35,38,39,37,39,30,28,24,32,41,31,33,33,38,40,38,31,33,44,41,27,34,55,42,39,51,40,62,47,31,26
37,35,35,37,37,37,30,26,26,32,40,31,31,34,39,38,36,28,31,46,41,25,32,55,42,37,46,40,63,45,31,26
36,34,32,35,35,39,33,27,28,30,37,30,30,31,33,33,33,30,29,44,36,25,32,54,44,36,45,42,63,46,32,29
36,34,30,35,35,39,35,25,29,27,34,29,27,29,34,33,31,27,27,41,33,23,33,56,47,37,49,39,61,45,34,31
35,34,28,36,36,38,34,26,27,26,32,28,26,29,33,33,29,23,24,39,30,20,32,54,44,33,46,37,58,43,31,29
33,29,21,35,36,35,35,27,27,27,33,29,25,28,32,32,29,23,23,40,29,21,33,54,43,31,44,35,55,41,28,30
32,28,20,35,35,34,35,28,26,30,37,26,22,27,32,32,30,22,24,39,29,22,32,52,44,30,43,34,51,42,27,32
33,31,19,35,30,35,33,26,23,33,38,26,21,28,34,34,26,21,25,43,30,21,32,53,43,28,40,35,49,43,24,34
35,33,19,38,26,34,33,24,25,32,38,27,24,30,34,32,22,22,25,45,30,23,33,51,44,26,42,36,48,43,22,36
33,33,20,40,30,34,33,27,25,34,39,26,23,31,33,33,26,25,27,47,33,22,34,47,42,26,39,35,47,43,24,36
37,37,21,43,28,37,33,29,28,31,38,25,23,33,37,37,29,27,27,45,30,25,33,46,42,26,40,36,51,45,25,34
37,36,22,45,31,37,30,30,28,30,39,29,25,35,38,40,34,32,29,45,31,26,34,45,41,27,40,41,49,47,27,34
39,37,23,49,34,35,27,30,26,31,41,28,22,34,40,40,32,30,29,43,31,25,32,45,40,26,42,40,49,49,28,32
40,36,22,48,34,36,28,32,26,33,41,29,24,35,39,38,34,32,30,48,36,29,33,46,41,24,38,43,49,47,26,31
42,39,25,47,32,35,29,31,26,35,45,29,27,36,38,38,38,36,33,49,37,31,37,50,44,27,43,42,53,48,29,31
46,42,28,49,34,35,31,31,27,39,46,29,28,37,41,41,38,34,34,49,39,30,39,51,45,26,43,43,56,49,33,30
45,41,27,47,36,38,34,34,28,36,44,30,29,36,41,41,39,33,33,49,41,30,40,53,45,26,43,43,60,50,32,28
44,41,28,49,36,39,33,34,29,33,41,29,30,34,40,38,38,34,32,48,42,32,40,50,46,27,44,42,60,50,32,25
45,46,29,48,37,38,34,33,27,33,43,29,28,35,42,40,42,34,31,50,46,29,37,53,47,27,45,43,62,52,34,25
47,46,29,46,37,39,35,32,29,31,41,29,28,36,44,40,42,34,32,49,46,29,37,54,49,29,45,47,62,51,35,27
45,45,31,43,38,39,34,30,29,32,43,31,27,37,42,36,39,33,34,48,48,27,38,53,52,29,44,47,60,51,35,29
45,48,33,44,37,43,39,33,31,34,42,26,26,34,44,33,37,33,33,46,48,28,39,50,51,31,47,43,61,50,35,30
44,48,34,40,34,44,40,32,33,32,43,27,29,35,43,35,39,35,36,49,49,30,40,47,51,34,46,41,58,47,33,32
42,49,36,41,33,45,39,33,33,32,43,27,29,35,43,35,39,35,36,48,46,29,39,47,50,33,47,38,59,48,33,31
41,48,34,39,36,47,40,31,33,30,40,28,26,36,44,38,37,33,36,47,45,28,36,43,48,31,43,38,54,48,34,30
37,45,35,39,34,48,40,34,36,29,41,30,27,37,43,35,37,35,35,48,46,29,37,44,48,35,44,38,51,47,32,34
38,46,37,44,32,48,36,33,37,32,42,32,28,40,44,36,38,38,36,48,47,29,36,44,48,38,46,40,48,47,32,32
40,45,37,41,33,45,37,33,40,33,43,33,27,45,47,39,39,37,35,44,46,27,35,46,50,39,48,41,49,46,36,33
39,41,34,40,35,46,38,33,41,33,40,31,29,43,45,39,40,38,34,38,40,30,36,43,49,39,46,39,47,46,37,33
37,41,34,39,32,44,41,32,40,33,43,31,29,39,43,37,41,36,32,37,37,32,35,43,49,37,48,35,47,46,34,31
33,37,30,37,33,42,43,31,37,31,39,29,29,35,40,36,43,37,30,35,34,31,34,43,50,36,46,33,47,45,33,29
29,33,28,35,33,40,38,28,37,29,39,29,29,35,40,36,41,35,30,34,34,30,31,43,47,35,46,32,42,47,32,30
27,31,29,35,31,39,37,29,37,30,38,27,27,33,40,36,38,33,27,31,35,29,32,47,46,33,45,33,43,47,31,27
27,32,28,38,34,40,40,26,34,30,41,27,25,33,44,40,36,34,27,31,35,27,33,46,46,34,44,30,41,44,32,26
25,31,29,38,33,40,40,29,33,31,40,27,27,31,43,37,36,34,24,30,37,26,35,47,45,35,45,29,43,42,29,26
25,33,29,35,32,43,41,28,32,30,41,24,27,31,44,40,34,33,25,26,34,27,33,42,45,33,46,29,43,41,26,24
24,34,29,32,32,41,43,26,31,27,38,22,28,30,46,40,34,30,23,26,30,26,32,43,42,31,44,27,42,40,24,25
23,35,28,35,32,42,42,28,30,26,38,22,30,28,46,40,38,29,23,30,33,27,33,44,40,30,44,25,41,43,23,24
20,35,31,34,32,40,38,28,29,28,38,24,32,28,46,40,36,30,24,34,34,25,34,44,37,30,42,25,44,40,22,24
21,32,31,33,33,40,35,31,29,31,35,25,32,31,48,42,37,31,25,38,37,25,33,46,38,31,41,25,45,41,24,23
23,33,34,35,35,43,33,33,31,31,35,25,33,31,51,45,37,30,26,39,39,27,33,47,35,29,43,29,43,41,26,24
25,32,35,39,32,41,33,33,29,31,33,25,33,34,51,45,34,28,25,40,37,27,33,49,38,30,44,31,44,38,26,22
22,32,34,40,35,40,32,31,29,30,32,27,32,35,53,43,35,28,24,41,36,26,32,45,38,31,44,32,45,36,26,23
22,33,36,40,32,38,29,34,30,30,29,26,34,33,48,38,40,28,26,42,36,27,29,42,39,30,46,34,48,35,24,26
26,32,34,41,32,38,28,32,30,30,30,26,35,35,49,39,41,29,26,42,34,26,30,45,42,31,47,36,47,38,27,26
24,31,33,42,33,35,25,32,28,28,27,26,34,34,47,37,43,31,27,43,34,27,29,47,40,31,45,34,46,38,29,25
26,31,30,43,33,32,22,31,26,26,27,27,33,32,43,37,41,31,28,43,34,27,28,45,37,30,45,32,47,39,31,26
25,27,30,41,34,32,22,30,24,28,28,28,32,33,40,36,39,35,29,41,30,27,27,45,37,32,45,33,48,35,30,26
25,28,30,42,33,34,23,32,26,27,27,27,30,33,41,36,37,34,30,40,33,27,28,45,41,30,48,38,47,40,28,24
23,32,32,42,33,31,23,27,25,23,30,25,32,34,43,35,35,33,27,34,29,30,29,44,38,33,49,41,47,40,28,25
24,32,28,43,31,27,21,25,24,25,33,26,31,35,42,34,32,31,26,35,29,29,32,45,38,36,52,39,51,41,27,26
26,37,29,40,34,30,23,27,25,27,36,29,31,34,41,33,33,31,25,39,31,28,33,47,37,35,51,40,54,41,27,25
26,40,28,41,31,30,24,29,25,28,38,29,32,35,41,36,32,34,26,39,31,28,35,49,39,33,52,41,54,45,29,27
28,40,28,37,33,31,22,27,26,27,37,32,32,39,45,39,31,33,26,35,31,26,34,53,40,31,49,39,52,48,29,25
24,43,27,37,32,33,21,28,26,28,37,32,29,37,45,41,33,33,28,38,32,28,34,52,40,32,50,38,53,46,28,27
27,45,30,40,34,35,23,25,25,27,40,32,32,38,48,42,34,32,27,39,32,28,34,53,44,34,52,42,55,46,28,29
30,46,33,41,34,38,27,27,31,31,45,35,31,40,54,45,37,31,27,45,39,29,37,57,49,33,54,47,57,46,27,30
31,49,35,46,36,41,29,27,33,31,46,35,30,40,54,46,38,28,28,46,40,28,39,55,48,33,53,46,55,46,29,30
33,48,34,47,38,42,28,28,31,31,47,35,30,39,52,45,38,29,29,45,38,30,38,55,47,34,50,42,58,44,32,32
39,52,32,48,38,46,30,30,32,34,45,38,29,39,50,46,40,30,32,48,40,28,36,54,51,32,48,40,56,42,30,32
36,54,33,46,39,48,35,30,31,33,44,39,27,38,51,42,41,29,33,49,40,31,35,53,51,33,48,38,53,40,31,35
38,51,31,45,39,48,34,30,33,32,42,38,28,38,52,45,39,29,34,44,40,32,37,52,51,33,47,37,54,43,32,34
42,49,29,46,43,50,33,32,31,33,41,37,29,39,51,45,46,28,32,43,39,33,37,53,51,34,47,36,55,41,32,33
41,49,31,47,43,51,37,31,29,33,43,37,31,39,52,43,43,27,31,47,39,35,39,55,48,39,49,38,55,41,33,34
43,47,31,47,46,47,39,33,29,34,42,37,31,39,51,43,41,25,30,46,40,36,38,52,49,38,49,39,54,41,34,35
39,44,30,46,44,46,37,36,32,34,38,38,28,38,50,42,40,24,31,49,41,35,39,53,47,35,47,37,51,40,34,35
34,40,27,45,43,45,33,35,28,33,35,34,26,36,48,35,35,23,31,44,36,33,37,50,45,36,45,36,45,37,35,35
31,36,25,38,43,43,29,35,25,29,31,31,26,33,45,31,31,22,28,38,33,32,37,49,45,37,42,37,41,33,32,35
28,33,26,38,41,42,30,36,23,29,27,32,25,32,45,31,30,21,27,37,33,31,36,51,43,37,44,40,37,33,31,35
22,24,27,34,41,42,27,37,25,29,27,29,24,28,42,28,26,18,25,37,33,28,37,51,38,36,43,37,35,32,30,33
25,26,28,37,39,40,25,38,25,29,30,27,25,27,44,34,29,21,24,37,31,26,35,51,37,35,39,37,36,34,28,33
19,24,28,38,36,40,25,35,22,27,29,25,22,25,41,31,30,22,23,37,29,25,32,49,39,35,36,35,36,30,29,31
22,25,31,37,36,42,26,33,21,27,28,23,21,21,40,30,23,23,26,37,27,25,31,47,37,33,35,32,35,32,27,28
21,24,28,40,34,40,26,34,22,26,31,20,18,18,36,30,24,22,26,35,28,24,30,44,35,30,34,32,34,31,26,27
17,24,30,40,32,44,24,33,21,27,33,21,19,19,35,27,24,23,26,36,26,22,30,45,33,30,36,31,35,33,26,27
20,24,27,42,33,43,25,33,21,29,35,22,18,20,37,28,25,25,26,33,25,20,29,43,31,32,38,33,38,36,26,27
20,26,26,39,36,44,28,34,21,28,34,23,21,21,38,32,28,24,25,33,25,21,29,41,32,31,40,32,41,36,24,27
25,29,28,44,35,42,34,33,21,31,41,25,24,23,41,37,33,26,26,37,28,22,29,43,31,30,42,33,47,41,26,26
26,32,29,47,35,41,36,32,22,30,42,23,23,24,40,36,35,25,25,40,28,22,29,42,29,29,39,29,47,38,27,25
30,34,28,50,33,38,37,31,20,28,40,24,24,24,40,36,36,26,26,41,27,24,26,41,32,28,40,30,48,40,28,26
28,36,29,48,32,43,39,31,21,28,37,25,25,23,35,31,31,23,26,43,29,24,28,41,34,26,41,32,49,38,26,25
29,38,31,45,33,40,38,34,22,30,40,28,27,25,37,33,30,22,26,42,32,24,28,44,34,27,44,33,49,43,27,27
26,40,30,42,31,38,37,34,24,30,42,30,28,26,36,32,31,22,27,43,36,25,30,44,34,26,44,37,49,41,26,29
31,40,30,38,30,36,34,32,24,31,38,30,30,26,34,31,30,24,28,43,35,25,29,42,36,28,47,36,53,44,26,30
33,39,27,37,28,34,35,31,24,29,37,31,28,27,35,31,28,22,25,43,35,25,27,43,35,26,46,34,48,38,26,28
29,39,28,32,29,33,36,29,23,27,36,29,28,25,30,31,29,22,24,41,35,26,27,45,39,26,44,29,45,35,25,28
30,40,30,33,27,34,35,29,24,27,36,28,30,24,26,28,26,24,26,42,38,27,28,47,40,28,40,32,48,37,26,28
28,40,32,30,27,34,32,29,26,27,33,27,26,25,24,28,24,24,26,40,36,28,27,47,40,29,38,31,44,34,28,27
26,40,30,32,26,39,31,27,27,27,36,28,26,24,28,32,24,26,28,39,35,30,30,46,44,32,41,33,46,35,28,28
23,42,30,32,26,42,33,26,26,26,38,28,26,24,28,32,24,26,28,36,34,28,30,45,43,32,38,32,46,37,28,27
23,36,31,34,29,39,30,26,27,27,39,27,25,25,33,34,26,29,29,32,33,30,31,44,46,35,42,33,45,39,29,28
25,39,31,39,29,41,31,26,26,27,41,28,24,27,35,37,29,31,31,35,31,33,31,44,46,34,42,33,47,39,29,28
22,35,29,43,30,39,31,26,25,27,39,26,22,28,36,38,28,30,30,37,32,32,30,49,48,34,42,29,46,37,30,29
18,34,29,49,30,39,33,26,25,24,43,27,21,28,36,37,28,31,29,37,33,32,30,51,48,35,40,32,44,35,33,28
19,35,31,51,33,43,34,26,27,24,44,26,23,28,37,38,30,33,31,35,36,33,31,50,48,36,38,35,49,41,32,29
19,33,33,52,33,43,33,27,27,25,47,27,24,30,42,38,28,33,31,37,37,32,32,47,45,36,41,37,51,44,33,26
18,33,34,52,34,44,30,26,26,26,47,26,20,30,44,38,28,32,32,35,35,32,33,47,40,36,40,34,50,43,34,25
19,33,30,52,34,44,30,26,27,28,46,26,22,29,43,37,29,32,32,36,38,32,34,47,43,37,45,33,50,47,32,26
19,31,31,51,35,40,29,27,27,29,44,24,23,29,39,35,27,31,31,35,39,31,32,48,40,35,47,31,48,49,33,25
19,30,33,52,34,38,31,29,30,32,44,26,24,28,38,34,26,32,32,37,41,32,34,50,42,35,50,32,50,45,32,25
18,31,34,50,32,36,29,27,29,33,42,28,24,28,34,33,25,30,32,38,41,32,37,50,40,32,46,34,50,44,32,22
16,26,32,44,32,34,28,28,29,32,38,24,25,24,31,29,22,28,30,36,40,29,39,45,41,31,48,37,45,42,30,21
18,25,33,41,31,34,28,27,29,32,39,26,26,24,29,26,23,26,28,32,36,30,38,42,40,32,50,40,50,42,30,19
23,30,36,38,32,35,28,28,30,32,36,28,25,26,30,28,24,26,28,31,34,28,38,40,43,29,50,39,48,45,30,18
22,28,36,34,29,34,27,29,31,33,36,29,24,24,27,26,22,24,26,28,30,28,38,43,43,28,50,39,47,42,28,17
23,29,34,33,26,35,28,28,31,33,31,29,23,23,25,24,24,24,26,25,27,31,40,41,43,28,49,39,45,40,27,19
23,29,31,31,23,33,29,29,30,32,28,29,23,21,21,24,24,24,25,26,27,31,39,39,46,28,52,38,45,43,25,23
21,28,29,29,23,31,27,29,31,29,27,29,22,21,23,24,24,25,25,29,27,31,37,38,46,29,50,43,48,43,26,22
25,31,29,24,23,33,27,30,32,31,28,32,21,22,25,24,28,25,27,27,29,34,39,39,49,29,48,46,50,45,23,23
28,31,28,24,24,32,25,27,29,29,28,30,21,22,26,26,30,25,27,26,29,33,39,40,51,31,50,46,50,46,25,21
30,34,28,28,30,32,26,30,30,26,30,28,24,22,26,28,30,26,26,28,31,32,35,42,48,34,54,46,51,46,28,23
30,37,29,30,30,34,27,30,30,29,34,30,24,24,29,28,30,26,26,26,32,32,35,42,50,34,50,46,55,45,30,24
35,42,34,32,31,33,31,31,31,31,37,33,26,26,36,30,29,28,28,27,33,32,35,42,52,34,49,47,53,49,30,25
31,38,33,32,32,34,31,32,31,33,37,33,28,26,36,30,30,25,30,27,35,37,38,42,50,36,50,44,53,42,30,31
32,40,31,32,32,29,30,30,31,33,38,32,28,28,38,32,32,26,30,28,36,35,39,42,51,38,50,45,57,42,30,32
33,40,33,33,31,31,32,33,33,33,39,31,27,27,35,31,29,25,30,29,39,34,39,47,53,37,47,45,59,42,29,30
36,42,34,36,34,34,34,32,33,33,41,34,30,30,39,34,31,27,33,31,41,37,38,49,52,38,48,45,61,40,32,28
39,44,34,42,34,36,37,31,29,37,41,35,31,33,37,34,32,28,33,30,39,35,41,51,52,34,50,42,62,36,32,27
38,44,34,45,34,35,36,30,28,35,40,34,33,34,36,33,29,28,32,32,38,32,39,51,53,34,52,40,59,37,34,29
37,44,34,47,34,36,36,30,30,36,37,36,32,35,38,34,28,27,31,31,38,32,38,51,50,35,51,39,59,39,34,32
36,42,32,45,29,41,38,30,28,35,35,34,28,34,39,33,29,26,32,33,36,32,37,52,48,33,44,36,56,36,30,32
38,44,33,48,28,42,39,28,28,33,32,34,28,34,37,37,32,28,34,34,36,32,37,54,44,33,47,34,56,38,29,32
33,41,28,46,26,44,36,28,28,32,29,31,26,32,32,36,32,28,34,34,36,29,35,55,43,32,46,31,57,38,28,30
36,42,25,46,27,44,32,30,28,32,30,32,25,33,34,37,33,27,33,39,36,24,33,57,45,29,47,34,59,44,27,25
35,40,28,50,28,49,37,34,27,33,35,32,25,32,34,38,34,28,34,41,39,26,30,59,45,30,47,32,58,47,30,22
38,44,27,49,30,45,34,34,25,32,36,33,29,33,41,39,35,29,36,41,37,26,28,59,46,29,47,32,59,50,31,22
38,42,27,52,34,45,37,38,29,33,35,32,28,31,41,41,38,30,34,40,36,24,28,60,47,30,48,33,58,51,32,21
40,43,29,48,33,43,36,38,28,30,38,32,26,30,42,39,37,27,32,37,34,24,28,62,46,31,47,33,56,55,31,24
42,43,30,48,34,46,35,39,27,30,38,31,25,29,41,40,38,28,32,38,34,25,28,58,43,30,45,35,56,54,27,22
42,44,30,46,32,46,32,38,26,30,42,32,26,32,43,41,38,27,30,38,32,24,30,56,44,30,46,36,56,54,25,20
43,48,29,46,34,42,33,36,26,32,43,32,26,32,41,39,37,26,29,37,32,22,31,52,44,32,48,34,56,56,27,18
46,46,25,43,33,41,29,35,28,31,43,32,26,32,45,36,36,25,27,35,31,22,29,47,45,34,47,36,54,56,26,17
48,47,24,46,37,42,28,35,27,32,41,33,26,35,49,39,38,24,26,35,32,23,31,43,45,37,46,36,54,54,29,17
46,46,27,43,34,39,29,35,28,29,37,30,24,32,48,36,34,24,24,34,29,25,31,41,43,40,44,35,51,54,28,20
50,48,25,42,34,38,26,32,28,29,33,31,30,35,49,36,34,24,24,33,27,25,33,35,41,38,47,40,48,56,26,22
48,48,25,45,37,44,27,31,26,27,33,28,29,38,46,37,35,25,23,34,28,25,33,33,42,39,49,42,44,57,25,22
46,48,27,43,30,43,25,27,25,26,34,28,28,38,45,35,30,22,22,36,28,24,33,31,44,36,48,43,43,58,22,22
45,46,27,41,31,44,25,28,29,26,33,27,30,37,45,37,31,23,23,41,29,25,33,31,44,33,49,42,47,56,23,21
45,45,29,43,30,45,30,29,30,26,35,30,30,42,48,40,32,21,24,42,28,25,33,34,44,34,50,42,49,56,25,23
47,45,29,42,34,46,33,32,30,25,35,28,30,40,49,37,34,21,28,46,30,27,30,36,47,34,48,45,51,57,28,22
47,42,31,43,33,49,30,35,32,24,38,32,30,42,54,42,36,24,29,45,31,30,31,40,53,33,48,52,52,62,31,25
45,41,35,43,34,50,36,36,31,26,42,33,31,43,53,43,35,23,29,46,32,29,31,44,58,34,50,51,53,61,35,28
41,41,36,41,31,48,36,35,31,24,40,30,31,39,50,41,35,25,30,45,30,30,30,45,57,32,50,49,48,61,32,28
39,41,36,43,31,50,38,32,31,26,42,31,33,37,49,41,38,28,32,43,32,31,32,42,60,31,53,48,48,60,33,27
36,38,37,43,31,49,39,31,31,27,43,30,28,34,48,41,35,27,31,41,31,31,33,42,59,31,50,46,46,53,33,29
33,40,37,46,29,44,37,30,32,30,43,32,25,33,49,43,39,27,31,43,32,29,32,45,56,33,49,46,48,51,35,31
34,41,37,46,30,43,39,32,31,31,45,33,27,35,50,42,40,29,33,42,32,31,33,47,55,34,49,46,49,52,36,34
33,44,36,48,33,41,38,31,31,31,44,37,26,33,51,42,40,28,31,40,34,30,32,45,54,35,49,47,49,52,36,33
34,42,34,45,32,38,36,29,31,31,46,35,27,29,51,39,39,31,31,38,34,30,32,43,53,36,48,45,47,51,37,33
30,43,35,46,30,38,37,28,32,30,42,35,25,27,50,38,38,32,28,36,32,29,33,40,51,34,48,43,43,48,34,32
28,40,32,42,27,38,37,27,32,30,38,32,26,26,46,38,38,30,28,36,30,26,31,40,49,34,50,38,42,43,30,29
25,37,30,41,26,34,36,26,30,28,34,30,23,23,42,38,38,30,27,35,30,25,33,40,43,31,49,38,40,41,26,28
25,35,28,40,26,34,39,26,31,27,33,29,23,23,39,35,35,27,26,38,30,24,31,43,41,29,47,37,42,41,25,27
28,34,27,40,26,33,37,27,32,28,32,28,24,24,38,34,33,26,27,39,31,25,30,49,38,28,42,38,44,41,24,26
30,36,27,39,26,35,37,28,31,26,31,27,25,23,35,31,33,25,29,39,32,24,28,51,39,29,45,39,49,43,24,22
35,31,28,37,26,37,40,29,31,25,29,27,27,21,32,28,28,26,30,36,31,26,29,50,39,28,46,37,49,45,24,22
35,30,29,36,25,34,36,27,30,25,30,26,26,20,29,27,27,25,29,32,28,24,30,47,37,29,46,38,47,42,23,19
33,26,28,35,21,34,36,25,29,23,28,22,26,20,25,23,24,24,28,30,26,24,31,46,36,28,45,34,44,39,21,20
29,25,27,33,21,34,34,26,26,24,26,20,25,18,24,23,23,21,27,29,25,23,34,50,36,32,46,34,44,37,21,20
29,23,27,33,21,31,31,24,28,24,26,23,25,21,22,23,21,21,27,27,25,24,34,51,35,34,45,35,49,37,21,22
31,25,27,33,22,27,31,24,28,24,25,24,25,21,23,19,19,21,25,25,25,25,34,50,36,34,46,35,51,41,25,22
31,27,27,34,21,27,28,25,29,26,28,25,26,24,25,21,19,21,25,25,23,27,33,53,38,37,46,35,50,41,27,23
34,28,30,36,22,29,27,27,28,26,30,26,26,24,26,22,20,22,25,24,25,29,36,52,38,38,46,38,50,42,28,26
31,29,32,35,21,29,30,27,28,24,33,27,23,23,31,24,21,21,23,23,23,27,34,48,38,39,48,35,47,41,27,27
29,29,31,33,20,28,29,26,29,28,33,27,21,23,31,23,21,21,21,27,24,26,36,45,39,37,43,31,44,41,26,29
25,29,30,30,20,26,26,26,27,30,32,26,20,23,33,23,21,19,19,30,26,24,36,45,38,36,39,31,42,37,26,28
24,29,27,32,21,27,27,29,27,32,31,25,19,23,33,23,22,19,19,34,29,27,33,47,40,37,39,30,42,35,29,31
23,30,26,31,22,28,30,32,26,33,32,25,18,23,36,26,24,20,20,36,28,28,33,44,38,38,36,31,43,36,30,30
22,28,26,30,21,27,30,33,27,32,30,26,19,24,36,25,23,19,18,38,28,28,32,42,38,32,32,32,41,35,29,29
22,30,24,28,24,30,32,38,24,32,31,23,18,21,33,25,23,18,18,44,34,26,29,44,37,29,32,28,38,32,28,30
20,29,24,28,24,30,34,40,26,35,34,21,18,20,34,26,22,18,18,43,34,27,29,43,37,27,27,26,34,28,24,30
23,29,27,27,25,31,34,41,26,34,33,22,18,18,35,27,23,19,19,47,36,25,29,40,34,27,29,26,35,29,27,30
19,27,24,24,26,29,33,39,27,35,35,23,19,20,36,28,24,18,19,45,39,24,28,41,36,28,30,27,36,28,25,30
20,28,24,24,26,30,31,37,25,37,35,22,20,20,33,27,24,18,18,43,40,24,28,42,39,28,30,30,36,28,26,29
21,27,23,27,27,29,33,37,23,33,36,26,19,21,35,29,24,18,18,40,38,23,27,42,38,30,33,30,35,28,27,28
22,27,24,30,28,34,35,36,24,30,39,26,19,22,34,30,25,17,19,39,36,24,30,38,38,33,36,29,37,28,25,27
23,29,26,30,30,36,34,32,23,25,38,25,19,21,37,33,28,17,22,38,36,23,31,36,37,33,37,29,39,30,22,23
25,29,30,33,33,36,32,30,24,26,38,25,22,23,36,32,28,19,23,38,39,22,30,39,39,35,39,29,38,29,23,24
26,31,30,35,34,38,33,28,24,25,40,25,22,23,36,35,31,19,24,35,37,22,28,39,39,36,41,28,40,29,24,26
27,29,31,35,35,37,34,27,25,28,39,27,22,25,39,37,33,21,24,33,32,22,31,37,39,39,41,32,39,33,29,25
28,30,32,36,36,38,33,24,23,27,40,28,21,26,38,36,34,22,24,33,33,22,31,35,36,40,42,31,41,34,30,24
26,28,32,38,36,38,34,22,21,26,37,25,23,27,36,36,34,22,24,30,31,22,30,33,37,39,40,31,42,34,26,23
30,32,36,39,35,40,34,24,20,26,34,24,22,26,37,38,32,25,24,30,27,22,29,30,36,37,41,28,42,37,28,20
34,34,36,40,38,40,33,24,20,24,32,24,22,28,39,40,32,28,28,30,25,24,29,32,32,36,42,28,44,36,30,19
33,33,36,39,38,40,31,27,21,26,33,21,23,27,39,41,34,28,28,32,26,26,30,33,30,37,39,28,43,34,29,21
32,33,39,37,37,38,32,25,20,25,33,19,24,25,41,43,37,29,27,31,25,27,29,37,33,33,37,29,42,36,31,22
34,32,37,37,36,35,31,26,20,28,34,22,24,28,40,43,34,31,26,32,26,26,29,40,32,31,34,32,42,37,34,23
35,33,35,37,33,37,31,26,20,28,35,22,23,29,42,42,31,29,25,33,23,27,29,40,34,28,32,34,44,42,33,21
37,32,39,38,33,34,32,26,20,28,34,22,24,30,40,41,31,33,27,36,26,27,31,39,35,27,32,35,44,45,33,21
36,35,41,39,31,35,29,25,18,25,35,21,23,29,37,39,31,33,29,31,27,29,29,42,33,25,33,30,44,42,29,21
38,38,40,42,31,36,32,25,17,27,32,23,25,28,36,38,32,34,30,34,29,28,33,47,34,24,36,29,45,44,32,21
40,39,39,40,32,40,33,26,18,26,33,23,22,27,36,36,34,34,32,36,28,27,33,50,35,23,36,29,46,43,32,22
39,39,38,40,33,38,34,26,20,28,36,22,22,26,38,36,36,31,34,38,32,27,34,54,37,24,36,32,48,42,35,22
37,36,37,39,31,39,34,28,21,30,39,23,23,25,37,33,35,29,31,40,34,28,38,55,40,24,37,31,49,43,33,25
36,36,39,39,32,42,34,28,24,30,38,24,23,25,37,31,33,29,31,40,34,27,38,54,42,24,40,31,55,48,34,25
37,39,37,40,32,40,32,30,28,32,38,26,24,26,36,28,30,29,32,40,34,28,36,52,44,26,43,29,59,46,34,25
34,38,38,40,31,40,32,31,28,29,37,24,24,26,36,27,29,29,31,37,33,28,36,49,44,27,46,27,60,46,34,26
33,38,37,38,32,39,31,33,28,31,39,25,24,24,36,30,29,28,30,35,37,27,39,50,43,29,49,27,58,44,34,28
31,40,35,37,33,39,31,35,30,33,40,26,24,24,37,29,27,25,29,34,38,29,38,49,43,30,53,29,58,43,34,27
34,38,35,39,33,37,33,35,33,35,43,29,24,28,42,34,28,28,28,35,36,28,38,44,46,33,55,33,61,48,35,29
30,37,35,41,37,37,30,35,36,32,47,26,24,30,46,34,28,26,29,33,34,30,34,40,48,35,52,36,63,50,32,31
27,40,36,43,39,38,26,36,34,36,49,29,26,33,51,37,27,27,27,34,36,32,34,39,45,35,51,33,64,52,33,30
29,39,37,46,36,40,27,36,34,37,49,33,28,37,49,37,31,29,27,35,35,33,33,39,45,35,50,32,61,51,32,32
27,39,39,51,39,43,30,34,33,37,46,33,27,37,50,39,35,29,29,37,33,31,29,36,47,36,50,33,62,49,31,34
29,40,38,51,38,39,31,31,34,37,46,34,27,39,50,41,37,29,31,37,34,32,30,39,46,36,51,37,59,46,32,32
30,37,36,51,37,42,32,31,31,35,44,33,26,40,52,44,40,30,31,41,35,31,29,41,43,34,48,41,55,44,32,34
28,36,34,50,38,42,33,32,34,39,43,34,24,36,50,42,42,26,30,38,36,30,30,41,45,32,46,43,54,42,30,36
26,34,35,50,39,42,36,32,35,38,40,34,24,36,48,38,44,28,32,39,33,31,27,39,46,33,46,42,52,39,28,35
24,31,36,50,37,44,34,32,32,37,38,34,24,36,50,38,44,28,32,37,31,30,28,39,46,32,42,40,50,36,28,35
19,28,41,48,36,46,31,28,28,33,33,29,23,33,47,34,42,24,29,37,31,27,29,39,46,29,37,38,44,29,27,34
21,29,42,47,31,46,30,27,26,32,28,29,22,29,44,35,41,25,29,38,32,28,31,40,43,28,35,35,39,25,25,33
21,25,41,47,29,41,31,26,30,30,29,25,21,27,41,31,39,23,29,39,32,27,33,43,46,29,35,36,38,22,25,36
17,25,44,45,31,43,29,25,29,27,25,21,20,25,41,30,33,22,28,37,31,26,36,39,45,27,34,38,38,19,24,35
15,23,45,40,27,40,28,25,28,25,25,20,20,24,38,27,31,21,27,33,31,28,37,37,42,26,33,37,36,17,25,31
15,24,45,40,28,45,27,27,24,23,25,19,22,23,37,28,30,20,25,35,29,27,35,35,44,25,32,33,37,15,27,31
12,24,47,40,28,46,27,28,25,26,27,19,22,23,36,26,28,20,24,35,28,26,35,36,47,24,33,34,38,16,24,31
16,26,50,42,30,48,27,27,22,24,29,20,24,24,40,30,30,22,24,38,26,26,32,36,44,24,34,31,40,18,26,28
17,29,49,41,29,46,25,26,21,23,27,19,23,27,43,33,31,21,23,42,25,27,33,36,44,28,33,29,43,19,29,30
21,30,46,44,30,46,26,27,22,24,30,19,22,27,42,32,32,20,22,42,24,26,32,36,45,28,35,33,46,23,28,30
21,31,42,45,30,43,25,29,25,23,29,21,25,27,41,33,31,19,23,43,25,29,31,37,45,29,37,33,49,23,27,29
19,27,42,40,33,45,27,32,26,27,29,21,24,27,40,33,33,17,21,43,25,26,28,37,44,31,41,37,49,21,27,28
18,24,42,40,36,46,26,32,24,24,27,22,22,26,38,32,32,18,20,42,24,28,28,33,46,30,44,36,44,21,26,26
19,23,37,41,39,46,26,31,23,24,28,22,22,26,40,37,36,19,21,43,23,26,29,35,48,33,48,36,44,23,27,29
19,25,33,41,41,45,25,35,24,24,27,22,22,26,39,35,33,19,19,45,21,24,28,37,47,34,51,37,43,25,25,29
19,25,33,40,42,42,27,35,25,25,27,24,21,29,41,36,36,21,20,41,23,24,31,40,45,36,51,38,43,30,24,28
18,25,33,39,43,43,25,35,25,23,22,24,22,28,40,36,37,21,21,39,25,25,32,37,41,36,51,38,41,28,27,29
16,25,31,38,40,43,23,35,25,23,23,23,23,28,38,32,36,22,21,39,25,25,33,38,43,37,49,39,39,28,26,31
17,25,33,43,41,44,22,34,25,22,26,24,22,26,35,31,35,23,23,36,27,23,31,39,42,35,51,39,38,31,26,32
13,26,33,42,42,44,21,34,26,22,23,23,24,25,37,34,34,24,26,36,29,26,34,42,41,36,50,38,36,29,28,31
19,27,31,43,41,46,25,35,27,23,25,23,25,27,41,37,35,25,27,36,31,27,33,43,42,35,51,40,37,37,29,31
20,30,32,44,39,44,26,35,28,21,27,24,28,29,43,41,34,26,28,41,32,28,34,43,42,37,54,41,43,43,32,34
25,33,35,43,37,47,28,33,26,24,31,26,31,31,49,49,39,27,30,44,36,27,36,44,41,39,53,43,47,49,31,37
28,33,39,45,33,45,31,35,28,28,32,30,30,30,46,46,37,25,32,43,35,33,37,43,40,39,49,40,46,50,30,33
33,35,42,49,31,46,32,33,28,29,33,29,30,33,50,51,39,29,31,43,38,36,37,42,42,39,47,42,47,54,33,35
31,35,41,50,32,49,31,34,28,29,31,28,30,31,47,49,36,29,31,46,42,36,37,42,39,40,49,41,47,54,34,36
33,35,40,48,32,46,35,35,30,33,32,31,29,33,47,49,35,29,33,46,42,38,36,43,41,40,49,39,51,57,35,34
35,38,46,49,35,45,35,35,30,33,33,32,32,35,49,51,32,29,33,45,43,39,37,44,42,42,53,42,52,55,37,33
35,39,45,46,36,49,37,37,31,35,35,33,33,35,52,52,34,28,32,47,42,42,39,42,43,42,51,44,53,57,38,32
36,40,49,45,37,49,38,38,28,36,36,32,32,35,51,53,34,30,30,50,42,43,40,40,43,43,54,42,52,58,38,33
32,44,53,48,40,52,35,37,27,37,39,34,32,36,52,52,36,32,32,51,39,42,41,40,40,44,50,44,53,53,40,37
31,43,51,47,40,53,37,36,27,38,41,35,31,38,48,46,34,33,33,47,35,43,41,43,42,43,47,42,48,48,39,35
27,43,48,48,42,53,37,38,31,35,39,37,32,39,45,40,30,34,31,42,33,44,40,44,39,40,46,43,47,43,40,35
21,40,46,46,44,52,34,38,31,31,39,33,31,39,43,39,29,33,27,38,32,38,35,41,35,41,46,45,46,39,42,33
19,39,44,44,48,54,35,36,32,29,37,35,32,37,40,33,27,29,29,37,34,34,36,44,33,40,46,40,45,34,37,34
18,36,45,42,49,50,38,36,33,31,42,34,35,38,44,34,26,28,26,34,29,35,35,40,34,42,46,42,42,30,34,35
17,35,47,46,48,53,36,31,29,29,45,29,35,35,45,33,25,27,25,37,29,33,37,38,32,41,45,45,41,30,31,34
15,31,46,48,46,52,39,31,28,29,42,28,30,33,42,31,26,25,26,38,32,34,38,39,33,42,44,46,41,29,28,35
14,33,47,47,44,50,40,31,29,28,40,25,29,31,41,29,23,27,26,36,34,33,38,41,33,42,46,46,38,26,26,36
13,35,47,46,42,49,40,29,33,28,42,28,29,33,43,26,23,25,27,33,35,33,38,41,33,41,41,48,42,25,25,37
12,32,43,45,39,46,46,30,33,29,42,27,28,31,40,27,20,25,27,34,36,32,40,40,34,39,45,47,43,25,22,35
15,34,43,47,41,49,43,30,32,32,41,30,26,30,43,31,25,25,27,36,39,31,43,42,36,41,46,49,49,30,24,35
20,38,45,46,39,48,42,34,30,34,40,28,25,28,44,35,29,25,27,41,40,29,44,44,39,41,49,53,51,35,25,32
21,44,46,46,38,50,44,34,28,34,40,28,26,30,46,34,30,28,30,43,45,34,46,48,42,40,51,48,56,39,24,35
24,45,46,44,38,50,42,40,29,38,42,30,27,32,48,38,32,30,30,44,44,37,46,50,43,42,53,52,58,44,26,35
29,50,47,46,38,50,41,39,27,36,39,31,24,31,46,36,32,32,34,46,46,36,46,54,47,40,50,53,61,49,28,33
32,51,45,44,36,48,40,42,29,36,40,31,23,31,45,35,33,33,33,44,42,35,44,56,49,40,51,51,62,53,29,34
34,51,43,43,37,47,36,41,33,35,43,30,25,31,47,37,35,33,31,44,41,34,43,54,48,39,49,50,64,54,31,35
36,47,39,46,39,48,34,42,32,36,42,36,24,36,48,42,38,32,29,43,37,32,42,55,51,41,49,48,65,54,31,37
40,46,36,46,38,47,36,39,30,34,46,36,24,36,47,44,37,32,30,44,34,30,42,57,53,41,51,46,63,56,31,34
42,46,36,44,41,49,31,37,30,32,46,36,24,37,48,43,41,32,28,43,33,30,40,58,54,44,50,46,62,59,35,34
43,46,41,43,37,47,33,37,29,27,47,32,26,35,49,41,39,33,29,44,33,31,38,55,54,40,49,48,59,59,32,35
37,42,39,45,38,47,32,33,27,28,48,31,25,37,45,42,37,31,29,41,33,31,36,56,56,41,45,44,57,56,33,36
37,40,36,46,39,44,32,30,30,28,46,32,24,37,48,46,36,29,27,41,30,26,35,57,58,41,49,44,52,53,32,36
31,39,36,49,37,43,33,26,29,26,46,31,23,34,46,43,37,27,25,39,29,26,35,53,59,42,45,44,50,50,33,35
29,42,35,46,34,42,34,26,31,27,49,29,22,33,50,46,42,26,24,40,30,26,35,52,57,40,44,43,51,49,32,36
27,42,36,44,34,40,32,23,30,27,47,30,22,34,50,46,42,26,24,38,31,26,33,51,55,40,42,42,48,46,32,34
23,42,36,45,35,39,35,23,27,29,44,30,24,34,51,46,38,25,25,38,31,27,33,50,55,38,42,41,43,43,32,33
22,40,38,42,33,37,36,23,28,29,45,27,26,30,50,42,34,24,26,38,32,26,33,49,51,35,41,42,42,42,35,31
20,39,36,44,31,39,32,25,26,29,39,28,24,30,48,39,34,25,25,39,37,26,30,50,48,32,40,42,40,42,32,30
18,39,35,41,29,35,33,27,25,31,37,27,22,27,47,37,31,23,27,37,37,27,29,49,45,31,39,40,38,39,31,27
15,37,32,39,29,33,30,25,27,30,34,26,21,27,44,35,29,21,25,33,35,27,30,49,41,31,37,37,35,32,31,26
17,39,34,38,26,31,31,24,27,30,33,27,23,25,45,31,27,23,27,31,35,29,29,46,38,30,38,40,35,35,29,24
19,40,34,36,28,31,31,27,25,30,35,27,25,24,44,28,28,22,29,34,36,31,31,46,39,28,34,43,37,37,33,23
20,40,32,37,27,35,33,29,25,33,38,30,25,28,46,32,25,24,32,37,36,32,28,47,38,25,34,43,39,41,31,23
21,35,31,41,31,37,32,30,25,33,35,31,25,29,41,29,21,23,31,37,34,31,27,46,37,25,37,43,37,37,31,22
23,36,30,42,32,38,34,31,26,31,36,32,24,30,40,30,20,22,30,40,34,32,28,44,37,28,40,42,40,35,32,25
28,34,28,39,31,41,32,32,28,30,42,34,22,34,41,31,21,23,29,37,33,30,28,42,38,28,40,42,45,37,30,25
27,37,27,37,29,42,29,31,28,29,39,33,21,33,39,29,21,23,29,39,33,31,28,40,40,29,41,43,47,35,29,23
27,36,30,39,34,41,30,31,31,31,39,29,23,35,42,34,26,22,28,38,32,31,31,38,40,28,44,43,47,35,32,25
27,37,33,44,35,43,31,29,31,31,38,30,25,35,44,35,27,23,27,41,33,30,29,38,40,27,43,43,49,38,31,27
27,35,32,48,37,47,35,30,30,37,40,34,27,38,44,38,28,25,29,43,35,31,30,41,42,28,44,44,53,41,33,28
27,33,31,49,39,49,35,32,33,36,41,35,27,39,45,41,31,23,27,42,32,29,31,37,43,29,47,43,53,35,35,31
27,34,33,50,36,51,36,30,32,37,42,34,27,40,44,42,33,26,26,39,30,29,30,32,40,32,48,42,52,33,34,30
30,36,34,46,36,48,35,30,32,34,38,30,27,38,42,40,32,23,25,38,31,27,33,33,39,32,51,41,52,28,32,30
29,40,35,43,34,44,35,29,31,33,36,29,27,36,44,40,32,23,25,40,34,27,32,34,42,32,50,43,53,31,32,34
29,44,34,46,35,44,38,31,33,34,37,31,27,37,46,41,35,25,29,39,35,27,34,37,43,31,50,46,55,33,33,31
29,47,38,47,33,44,38,30,31,35,33,29,27,37,43,41,37,27,31,41,35,27,35,38,44,33,51,47,51,37,33,30
29,48,40,49,35,45,39,31,30,35,35,29,28,38,45,41,38,28,32,43,36,28,34,39,42,31,51,47,49,40,32,31
32,50,40,47,33,44,40,32,28,34,36,32,29,36,42,40,35,29,33,43,37,29,33,39,42,33,51,48,53,40,31,30
35,51,39,45,34,44,39,34,29,34,39,33,29,37,43,41,36,30,32,44,36,28,36,41,44,32,52,49,55,41,32,30
37,53,39,44,34,42,37,34,29,31,38,30,27,38,44,40,38,30,31,43,35,27,33,36,42,34,54,50,53,45,32,30
38,54,38,44,33,40,35,33,28,31,39,28,26,36,42,38,38,30,30,47,38,26,31,42,42,35,51,50,52,48,30,31
36,50,35,43,33,40,32,35,27,29,36,27,24,33,39,37,37,30,30,49,41,26,30,43,41,34,48,47,52,50,29,33
38,47,33,43,36,37,29,33,26,29,38,28,25,32,40,38,40,31,29,52,39,27,29,41,44,36,46,46,52,53,29,34
37,44,33,43,34,38,30,35,27,30,40,27,27,34,38,36,40,31,29,48,39,29,31,41,40,37,44,45,53,53,30,33
37,42,34,41,33,38,26,35,26,30,39,27,30,33,36,35,40,32,28,46,39,30,30,42,44,38,46,46,49,53,30,35
35,40,31,38,36,37,29,36,25,29,39,29,30,31,38,34,39,30,26,48,36,30,29,46,43,37,45,44,49,51,31,34
35,40,30,38,36,37,31,35,25,29,37,29,31,31,35,37,38,30,26,45,36,29,30,47,41,39,47,45,51,48,30,34
32,41,29,36,35,38,32,32,24,28,34,26,29,30,37,35,38,27,23,44,32,29,28,46,40,39,45,47,49,46,29,34
32,38,27,38,38,38,33,31,22,28,34,27,27,33,38,36,37,28,22,42,32,28,28,50,44,44,48,46,46,43,30,32
32,38,27,38,38,42,35,30,22,29,34,28,28,32,38,36,38,30,24,45,34,28,29,54,49,44,46,46,46,43,30,31
32,41,30,39,39,42,36,32,20,28,34,28,29,36,40,40,38,34,25,46,32,31,33,55,49,45,47,46,46,44,29,30
34,42,32,43,42,47,38,32,20,32,38,30,32,38,45,41,39,35,24,48,33,32,34,56,51,47,51,50,49,44,35,28
33,43,34,46,41,52,40,30,21,34,40,30,32,38,44,39,37,36,26,46,34,30,34,57,50,49,55,50,48,45,38,27
34,44,34,44,40,52,40,28,22,34,40,32,30,38,48,44,38,38,28,48,34,30,36,59,54,52,56,50,48,48,38,24
37,43,34,43,39,53,40,27,22,34,37,30,30,38,50,46,36,38,27,50,32,31,37,59,52,50,55,49,50,51,38,23
39,43,35,48,37,53,40,27,24,34,40,26,29,36,49,47,37,39,31,48,34,35,38,58,52,50,58,49,53,50,36,25
39,41,35,49,35,52,38,26,24,34,41,26,29,37,51,47,35,37,31,51,35,37,40,56,54,52,58,48,50,51,35,25
38,42,34,49,34,51,35,27,25,37,45,29,30,39,53,46,35,38,34,49,39,35,44,53,55,54,57,43,49,51,36,24
36,46,37,49,30,53,35,27,29,37,47,30,30,38,51,45,37,34,37,49,39,38,43,49,50,50,54,41,51,53,33,27
34,49,37,47,30,51,34,29,28,36,48,26,30,34,54,46,35,32,37,44,35,38,42,44,45,48,56,38,50,50,32,28
32,45,30,44,30,50,35,27,30,35,48,24,29,30,54,44,33,28,35,40,35,35,38,42,43,46,53,36,50,50,33,29
30,46,30,42,28,47,33,26,32,32,48,24,29,30,51,43,31,27,36,37,31,34,38,40,43,43,50,36,46,46,28,30
26,43,33,39,27,45,29,27,33,29,43,23,28,27,49,43,29,24,35,33,29,36,38,39,40,41,48,37,44,41,27,33
23,41,31,41,27,45,32,26,29,27,43,23,27,27,47,41,27,21,33,33,31,33,37,37,39,41,45,35,39,34,25,34
19,40,32,44,28,47,30,24,30,27,46,26,28,28,44,38,27,20,33,34,32,30,35,36,41,38,47,33,38,27,25,34
15,41,33,42,26,47,30,24,31,29,43,27,27,29,43,37,27,18,30,33,31,28,34,34,42,36,44,33,37,27,24,33
15,41,33,43,29,49,33,26,30,30,43,28,28,29,41,35,31,19,32,30,31,28,33,36,41,37,42,34,41,29,27,34
16,37,38,42,30,48,34,28,32,30,42,28,26,26,40,37,31,18,30,32,28,31,31,36,42,34,41,37,42,29,26,36
17,37,37,42,30,48,32,28,30,28,40,26,28,24,40,38,30,21,30,35,33,29,34,37,43,34,42,39,43,31,27,33
19,32,39,45,33,45,33,29,31,29,39,29,29,27,39,39,34,21,27,38,35,30,37,40,45,35,43,40,46,31,29,34
23,35,43,50,33,46,33,31,32,31,38,32,30,28,40,38,36,22,31,39,37,33,39,38,46,37,44,44,50,32,30,33
23,35,43,51,34,47,36,30,33,32,38,32,30,28,41,39,35,21,31,42,38,33,39,40,47,38,45,46,53,34,31,33
27,39,40,51,33,46,38,32,31,32,41,33,31,33,45,40,37,24,31,45,39,33,40,37,50,37,46,46,54,41,31,29
28,42,41,52,34,48,36,36,31,37,41,33,34,33,45,40,40,28,32,40,36,36,40,33,50,36,49,47,55,44,34,31
29,42,40,49,36,46,36,38,28,35,38,31,31,31,48,39,41,29,31,41,39,37,42,33,46,38,48,46,54,47,34,30
28,38,38,50,39,48,36,37,25,30,36,28,30,28,48,40,42,29,31,44,41,33,44,35,43,41,47,46,50,42,37,30
26,40,39,49,41,51,37,38,28,28,34,26,27,27,49,39,39,31,31,48,42,33,44,34,45,42,49,43,50,39,35,30
23,40,35,51,43,51,37,35,27,27,33,26,27,30,48,38,38,31,29,46,40,31,46,40,43,43,51,45,49,39,37,29
25,39,35,48,46,48,37,36,26,27,35,27,27,31,50,39,41,30,29,42,35,32,46,38,44,42,53,44,51,36,39,30
23,41,35,45,43,49,41,35,26,27,35,27,25,29,49,37,38,32,30,42,35,31,45,40,41,43,53,45,51,37,37,30
23,41,35,42,42,49,41,35,22,25,36,25,24,27,47,37,36,31,29,45,35,31,45,39,43,41,54,39,52,37,34,32
26,41,35,40,41,50,39,34,23,25,35,23,22,25,48,40,36,32,28,46,38,34,47,40,40,40,54,35,53,41,32,30
28,40,32,43,41,50,40,33,24,26,35,24,21,23,45,40,36,32,30,46,39,32,47,42,40,40,53,36,53,41,33,30
27,39,32,43,40,49,39,31,27,25,37,25,19,23,44,39,35,31,31,49,41,29,45,47,42,38,56,36,54,41,31,28
28,39,33,43,39,51,40,31,30,25,39,24,21,24,44,42,36,32,34,51,41,27,45,48,43,39,51,38,58,42,31,28
31,43,33,41,41,47,39,33,32,27,41,27,23,27,45,41,35,33,33,48,39,31,43,48,40,41,54,37,61,45,31,26
34,41,33,42,39,42,38,35,30,28,44,28,24,29,47,43,37,33,33,45,39,30,42,49,42,41,55,39,57,47,33,25
40,42,32,42,36,46,37,39,30,32,44,26,26,28,46,44,40,34,34,49,40,30,40,46,43,39,56,36,58,50,32,26
38,42,33,44,33,48,40,37,29,32,43,29,27,28,43,40,36,34,34,49,41,31,39,45,46,39,56,40,57,51,30,25
42,42,29,46,33,49,34,38,30,30,40,28,28,32,43,41,40,33,35,49,39,29,37,42,50,39,56,38,56,52,34,24
42,40,28,44,34,48,33,36,31,30,38,28,28,34,46,41,38,33,34,46,38,28,36,42,48,38,56,40,53,53,36,20
39,38,26,43,34,41,31,37,29,29,35,30,27,35,43,36,38,32,33,42,34,23,36,40,50,38,56,42,51,49,36,21
38,38,28,42,33,42,29,37,29,28,31,32,29,35,43,37,39,32,33,39,31,25,33,38,49,38,58,41,51,47,37,20
39,37,30,46,37,44,29,37,27,27,27,29,30,33,41,37,37,32,32,39,32,26,33,37,48,39,56,38,54,49,38,21
38,39,30,48,41,43,30,35,24,29,27,30,29,34,41,39,40,31,31,36,28,26,33,36,50,38,58,38,54,48,38,22
37,39,31,51,38,45,30,34,24,30,28,28,28,32,42,40,40,28,29,35,27,25,33,33,51,38,58,37,53,49,38,22
36,41,29,50,37,46,27,31,25,31,27,28,27,30,41,40,41,26,28,35,25,25,33,35,46,35,54,38,55,52,37,23
36,41,28,51,37,43,27,28,24,29,26,29,27,32,41,41,37,27,29,34,26,25,32,35,48,35,53,40,56,52,37,22
33,40,27,50,38,43,25,30,26,29,25,26,24,29,43,43,39,25,27,35,25,24,31,36,43,35,49,35,57,49,39,24
31,41,31,50,38,41,27,26,24,30,27,27,23,27,42,44,37,23,25,33,27,25,31,36,39,34,47,36,57,47,37,24
29,43,29,50,38,42,28,28,26,32,28,28,23,28,40,45,37,21,25,34,28,25,34,38,38,34,48,39,62,43,35,25
31,47,33,52,42,47,30,29,26,34,30,30,24,30,43,48,40,20,27,34,29,27,33,39,40,35,49,40,61,45,36,25
33,47,32,52,40,46,33,27,23,35,34,27,22,30,42,47,37,18,26,33,30,25,34,40,40,34,52,40,62,46,32,26
35,46,28,49,37,45,33,26,24,34,37,26,20,30,46,47,39,18,24,32,28,24,35,39,40,33,52,42,61,46,31,25
37,45,28,49,30,42,30,28,24,34,38,27,22,30,45,45,35,20,27,31,29,27,36,37,38,31,54,39,62,48,29,23
38,45,28,48,30,38,28,28,22,32,34,27,23,31,45,47,38,20,26,32,29,24,34,37,39,26,50,39,62,47,26,22
38,42,30,46,30,37,27,27,21,34,36,27,24,31,45,48,39,22,26,31,29,24,34,37,43,24,50,38,62,48,27,20
34,44,29,44,33,34,28,27,21,32,36,26,23,28,47,47,40,21,24,29,26,23,33,34,42,25,49,36,60,48,25,21
37,45,28,45,33,32,27,25,21,31,37,27,25,31,47,45,39,21,25,26,29,23,33,33,41,25,51,39,59,51,21,22
33,45,25,46,31,32,28,27,23,30,36,26,24,30,47,41,37,21,26,30,28,22,34,34,44,26,50,40,58,51,19,21
32,44,30,49,31,31,27,26,22,30,36,26,22,28,47,41,38,22,24,29,27,20,32,36,44,26,47,39,56,53,22,23
31,45,29,50,29,31,28,28,23,30,36,26,23,28,46,39,37,26,23,32,30,20,34,36,43,27,48,35,54,53,23,21
29,45,31,51,31,29,25,31,25,30,32,27,23,31,49,42,37,28,24,36,30,19,34,38,46,32,45,35,53,53,26,21
30,46,34,51,33,28,25,30,24,30,31,28,22,32,48,42,35,25,27,38,32,20,35,40,47,33,44,36,52,54,27,20
30,48,32,49,36,30,27,30,26,29,29,31,21,35,50,42,36,25,26,39,34,20,36,43,48,37,42,41,51,53,30,23
29,46,31,47,36,31,28,29,26,30,34,33,21,33,47,40,34,28,27,42,34,23,37,46,47,40,43,42,53,54,32,26
27,49,29,49,35,31,28,31,27,27,32,34,19,34,47,37,33,25,25,41,35,21,36,43,46,42,43,40,50,48,29,29
30,47,30,51,33,34,30,34,29,31,33,33,18,33,45,37,36,28,28,46,38,19,38,44,47,42,44,41,50,48,31,28
29,50,34,53,33,38,32,34,28,33,33,31,17,33,43,37,37,28,28,48,36,20,37,44,51,43,46,43,48,49,33,26
34,49,33,52,35,40,30,34,30,36,36,32,20,34,46,40,40,29,30,46,38,24,38,44,50,41,48,42,48,50,35,27
35,49,29,49,35,39,32,32,28,35,35,31,21,33,45,39,39,29,32,46,38,26,37,42,49,42,51,39,48,50,34,30
40,49,30,48,36,39,30,27,28,33,33,29,23,31,44,40,42,28,32,45,35,25,33,41,47,40,50,40,50,47,36,30
40,48,30,48,36,42,30,28,26,32,36,29,20,31,39,38,46,28,33,45,35,26,32,43,47,38,50,44,53,48,33,30
35,47,29,44,33,40,33,28,28,36,37,27,23,33,39,39,46,30,30,44,34,27,31,44,46,35,53,44,52,50,31,32
36,46,30,47,32,40,34,31,29,37,38,28,21,32,38,40,44,30,29,42,31,26,30,41,46,32,54,44,52,52,29,31
36,43,28,47,30,40,33,35,32,37,36,28,21,33,40,40,44,26,28,38,32,24,30,36,49,31,55,45,49,52,28,28
40,42,29,46,31,45,32,33,31,39,39,30,26,35,38,39,41,27,29,39,33,24,32,37,49,31,57,49,54,57,29,27
41,41,33,45,31,45,33,33,29,39,39,33,28,37,39,37,37,24,28,34,35,27,31,38,47,29,57,49,54,57,27,25
42,38,31,45,29,42,31,33,27,38,40,36,29,36,40,38,36,24,28,36,37,24,35,41,44,29,54,46,55,54,25,25
39,36,32,44,26,43,34,33,25,37,39,35,29,37,37,37,31,22,24,36,39,22,35,43,45,29,53,44,55,56,22,24
42,37,33,47,27,45,32,33,24,38,42,35,29,37,37,39,31,23,24,38,40,22,36,45,47,30,53,48,56,60,24,20
40,34,31,45,24,44,32,34,26,40,44,36,28,37,36,36,25,22,23,37,41,25,37,46,48,31,52,51,56,61,20,20
40,33,30,46,24,45,33,32,24,41,44,36,28,37,38,37,22,21,22,35,39,24,36,43,48,30,55,48,54,59,22,20
42,34,30,44,26,46,34,32,23,36,42,38,26,36,38,36,26,22,24,32,40,22,36,39,48,34,50,47,54,55,22,22
43,35,30,46,27,48,34,29,22,38,41,36,28,36,40,35,25,21,23,35,41,20,34,41,47,33,49,47,55,55,21,24
43,39,31,45,29,50,35,27,22,38,43,36,32,36,35,33,23,21,25,38,42,21,36,44,46,33,52,46,57,57,23,23
43,40,33,48,31,47,36,27,23,37,41,33,30,34,35,34,24,21,25,39,41,25,33,45,44,35,51,45,54,55,24,27
40,39,31,48,32,47,32,28,24,35,40,31,29,34,34,35,25,23,25,43,40,24,34,48,47,39,51,43,55,56,25,30
40,43,29,47,33,49,33,29,25,36,38,28,27,34,32,32,25,25,27,41,38,27,33,46,46,39,50,44,56,56,25,32
39,43,27,47,35,46,30,31,25,37,37,31,25,35,33,31,27,27,28,40,33,26,31,47,45,39,53,44,56,54,27,31
36,42,28,44,32,48,30,32,26,38,35,30,24,34,36,30,28,28,26,40,34,26,30,46,44,36,50,43,52,52,24,32
34,42,28,44,36,51,31,32,27,37,35,29,24,36,38,31,30,29,28,42,36,24,30,47,43,35,49,38,53,54,26,34
31,46,28,42,35,51,32,32,28,36,33,28,24,33,37,27,29,27,27,40,39,27,33,45,40,35,44,38,51,51,25,33
29,45,29,45,33,53,28,35,27,37,33,27,25,31,35,25,25,25,25,43,40,27,31,46,35,31,45,37,51,49,25,31
26,44,29,42,32,51,25,34,27,33,32,25,24,30,32,24,26,26,28,40,41,29,31,47,32,32,44,33,46,48,26,29
28,40,28,42,30,49,24,34,28,32,27,24,20,28,32,24,26,26,26,39,39,30,28,44,30,34,41,32,46,46,24,31
25,38,27,37,29,46,28,34,28,36,26,22,17,27,31,25,25,26,26,37,39,29,29,43,31,30,42,31,48,45,25,28
28,42,26,36,26,46,29,34,30,36,25,22,19,25,29,27,25,25,25,37,40,30,28,40,32,30,43,32,47,44,25,26
27,39,27,37,28,45,27,31,30,34,24,23,19,25,31,29,23,23,23,37,43,29,27,39,35,30,45,31,47,45,25,25
29,43,28,40,29,46,27,32,30,31,23,20,20,22,28,30,22,22,24,41,44,29,28,34,38,31,46,30,47,46,25,25
28,44,26,40,30,42,26,32,30,30,21,20,20,22,27,28,20,20,24,38,42,30,28,33,38,34,48,28,48,45,26,24
32,48,26,43,27,39,24,34,29,32,21,21,18,21,25,30,25,20,23,35,39,28,30,31,38,37,51,30,48,46,25,21
34,45,26,42,26,37,26,33,30,34,22,20,20,20,24,30,28,22,22,36,38,28,28,32,42,36,52,31,51,47,24,22
37,49,25,44,27,37,28,31,30,36,22,20,20,20,27,33,31,21,23,35,37,28,31,35,45,39,54,30,52,50,26,23
39,53,25,45,29,39,29,33,30,38,25,23,23,23,29,35,31,21,23,37,39,28,33,32,48,39,57,33,56,51,27,23
40,57,27,46,29,40,33,33,29,38,27,24,25,24,30,37,35,21,25,38,39,29,34,35,54,37,56,36,58,52,27,23
44,62,28,48,30,43,31,34,28,34,28,26,25,25,33,37,38,23,27,39,39,30,36,36,58,38,53,37,58,56,25,22
41,61,29,48,31,46,30,35,29,32,28,29,26,29,35,36,38,24,28,39,39,28,36,37,56,38,52,37,58,56,28,23
40,62,32,44,33,46,32,37,32,32,29,28,26,28,32,34,40,26,30,40,38,28,36,38,52,38,52,39,59,57,29,25
40,59,33,44,33,47,34,34,33,32,30,27,27,29,34,32,42,27,32,35,37,29,38,39,49,39,47,39,60,55,29,25
41,58,36,44,34,50,36,34,33,32,30,29,29,31,33,34,42,29,35,34,36,29,38,40,49,39,47,41,58,55,30,25
39,57,36,45,37,52,38,35,32,30,30,29,32,31,35,33,37,30,38,35,37,32,38,40,49,35,45,39,55,55,31,26
39,59,39,47,37,53,34,36,31,29,31,31,33,33,37,35,37,31,39,38,36,33,39,39,47,39,45,38,53,54,35,26
38,54,40,45,38,50,34,36,33,27,33,33,35,33,37,34,36,34,40,38,35,35,36,39,46,37,43,37,53,56,33,26
38,49,40,42,36,48,36,34,33,30,32,31,32,30,36,32,36,34,38,36,32,33,37,40,45,36,38,36,51,54,32,26
35,46,40,40,36,45,33,33,33,29,31,31,30,29,35,30,32,34,36,33,31,31,35,37,41,36,37,33,49,51,32,25
32,40,38,40,35,44,32,33,32,29,30,30,31,28,32,28,30,32,36,33,31,31,34,35,36,35,38,30,44,47,32,25
31,37,37,37,34,40,33,30,32,30,30,27,29,25,31,27,29,31,35,32,29,32,35,33,33,33,35,29,43,42,30,24
31,35,33,38,30,38,32,30,30,30,30,27,31,26,32,27,27,29,32,28,28,30,34,34,33,31,32,26,40,38,29,22
30,34,32,37,27,36,30,33,28,31,29,28,30,24,29,27,25,28,31,31,26,28,31,32,34,29,34,28,39,38,27,21
31,31,30,35,25,34,28,33,29,30,30,26,29,22,29,25,25,26,30,31,30,28,32,35,36,27,34,28,40,39,25,20
29,29,29,31,22,32,33,33,30,31,31,25,27,21,28,23,23,23,27,29,32,23,31,37,35,25,33,28,41,34,23,20
27,25,25,29,23,27,31,32,30,32,29,23,25,19,27,21,23,23,27,27,33,23,30,38,36,21,33,27,43,35,19,20
25,25,23,27,21,25,30,29,28,31,27,21,25,19,25,19,21,21,25,25,33,21,31,33,37,21,35,27,41,33,19,19
23,25,23,29,21,25,29,30,26,28,25,21,25,19,23,19,21,21,24,24,34,22,31,32,35,23,35,25,40,31,19,19
20,22,22,28,20,24,30,31,25,26,24,18,27,18,22,18,20,20,24,24,34,21,33,32,34,22,36,24,42,30,18,18
20,23,24,28,22,26,31,30,25,28,24,18,26,18,24,18,20,20,22,22,34,20,33,31,34,22,36,24,44,31,18,18
20,26,24,30,22,30,31,32,22,26,24,18,25,18,24,18,20,20,24,23,35,19,34,34,36,24,38,24,44,34,18,18
19,23,23,28,21,28,30,31,20,25,23,17,23,17,23,17,19,19,24,26,38,20,35,33,39,23,38,25,42,35,17,17
19,23,25,25,21,27,35,30,21,24,22,17,22,17,23,17,19,19,23,26,40,21,33,35,37,21,35,25,43,35,17,17
18,25,24,26,21,26,33,29,19,25,21,17,22,17,21,17,19,19,21,27,38,19,34,29,32,22,34,24,42,36,17,18
17,23,25,27,23,31,29,31,20,23,19,18,21,16,21,17,19,19,21,29,39,21,34,26,33,25,35,23,40,37,17,18
18,23,25,28,21,33,29,29,18,21,18,19,21,17,21,19,17,17,19,32,38,19,33,26,33,26,35,26,39,38,18,18
17,25,27,29,21,35,28,29,17,22,18,19,19,17,22,19,17,17,19,31,36,20,34,28,31,25,32,27,43,37,17,17
17,25,27,27,21,37,27,29,18,24,19,19,18,19,23,21,19,17,20,32,36,22,34,30,31,25,33,27,47,41,17,18
20,30,27,32,22,39,26,26,18,26,22,19,17,20,24,22,20,18,20,32,35,23,34,33,33,26,33,29,44,40,18,18
19,28,25,29,19,38,27,26,18,23,21,19,17,19,23,21,19,17,19,34,36,23,31,35,35,27,31,29,45,40,17,17
21,25,28,29,19,35,28,24,18,25,21,19,18,19,23,21,21,17,19,35,37,22,28,33,33,27,35,31,43,37,17,17
21,30,28,30,20,36,28,22,17,27,23,22,19,22,25,24,24,18,20,32,36,24,30,33,34,30,40,31,48,39,18,20
23,31,25,32,20,36,26,23,17,29,27,21,20,23,26,24,24,17,20,32,36,24,32,33,37,32,46,31,46,41,18,20
27,31,26,32,19,37,30,21,17,30,28,24,20,24,27,23,23,18,20,29,35,24,33,36,41,32,45,33,45,41,20,20
28,32,27,32,18,34,33,22,17,29,27,22,21,24,27,24,24,18,20,30,34,25,33,39,41,30,43,34,48,40,20,19
29,34,28,35,18,34,36,24,22,31,27,22,22,24,28,24,24,18,20,28,34,26,34,40,40,29,42,34,48,39,19,19
32,32,26,34,17,34,36,23,25,34,30,21,22,23,27,23,23,18,20,28,34,28,34,42,37,31,46,36,46,42,21,19
31,33,25,37,21,35,39,23,24,33,31,21,22,23,25,21,21,17,19,31,35,25,35,42,38,34,50,41,45,39,25,17
31,33,28,37,22,34,40,24,26,32,31,24,22,25,29,21,21,17,20,32,36,25,36,44,38,38,52,42,47,43,30,18
34,38,34,41,23,37,39,26,26,35,35,26,22,26,29,23,23,18,20,30,34,24,37,42,38,39,55,46,46,45,31,19
36,38,35,43,24,36,37,27,27,33,35,27,21,27,29,25,22,18,20,30,32,24,40,44,40,38,53,46,49,48,32,21
39,37,38,47,27,39,40,31,29,34,36,26,22,28,30,26,20,19,20,30,30,22,38,44,41,39,53,48,51,47,35,21
40,39,40,47,29,42,37,30,30,31,34,28,22,28,30,26,22,20,22,30,27,22,36,41,41,41,52,48,52,46,35,22
38,39,40,48,32,45,37,35,31,29,36,26,23,28,31,29,24,22,22,36,30,23,34,45,39,40,52,46,54,46,33,26
41,44,44,51,35,44,39,33,31,32,39,31,23,33,35,31,27,23,24,34,30,25,39,48,44,45,57,48,57,48,35,25
43,45,47,51,38,45,39,32,29,32,41,32,24,34,34,30,29,25,25,37,31,27,43,49,44,48,60,51,58,51,38,28
43,50,49,53,39,45,42,35,28,31,41,33,24,37,37,33,31,28,26,40,33,27,45,51,48,47,59,50,58,52,39,31
46,54,54,53,37,45,41,37,33,33,42,35,27,40,42,38,34,33,31,41,33,29,44,53,50,46,59,51,58,54,35,34
48,53,51,54,37,50,42,37,31,34,43,32,27,38,41,43,36,32,32,41,33,28,46,53,50,44,58,51,59,53,29,39
45,51,48,54,40,47,40,37,32,33,41,32,26,38,43,43,36,31,33,42,34,29,47,54,52,43,57,50,63,51,31,40
40,54,47,53,40,46,43,37,31,33,43,31,27,37,43,41,36,30,30,41,32,28,45,53,53,43,58,53,63,52,30,39
41,53,47,52,41,47,41,38,30,34,41,30,24,34,42,39,35,29,29,43,33,29,47,54,51,43,59,52,63,53,30,37
43,54,49,55,41,47,45,40,29,34,41,31,23,33,43,40,38,29,29,44,39,31,51,59,54,45,58,53,64,54,35,37
44,55,51,54,40,47,42,37,31,34,40,30,25,32,43,40,39,30,30,43,36,32,52,57,58,48,59,55,65,54,36,34
41,54,51,51,38,48,39,40,29,34,41,27,23,29,41,39,37,29,31,43,35,31,45,52,56,44,59,52,63,54,36,36
37,53,47,49,38,47,39,41,28,32,40,26,22,28,40,40,35,29,31,43,35,30,42,51,56,42,56,47,61,49,32,36
36,48,47,49,38,47,36,41,28,32,36,26,22,26,38,38,34,26,30,40,37,31,40,48,53,42,53,44,58,45,30,34
34,44,45,46,36,46,34,38,24,30,34,23,19,20,33,33,31,23,26,36,33,31,40,45,50,40,50,40,59,42,29,34
32,43,45,46,34,43,33,39,23,32,32,24,20,20,29,28,29,23,24,36,35,34,40,44,46,38,50,39,57,42,30,29
36,42,44,45,35,44,35,40,24,32,32,22,21,20,28,27,28,24,26,38,36,37,40,44,43,39,51,41,56,45,29,27
40,40,42,43,36,46,32,40,26,31,33,26,20,24,31,27,29,28,30,38,39,36,44,46,43,40,48,38,59,44,32,26
40,41,39,41,34,43,31,38,27,30,33,27,21,25,33,30,33,30,31,39,42,35,44,47,42,41,47,41,56,46,31,27
36,38,38,37,33,42,29,34,26,32,34,24,22,24,33,28,28,30,30,38,38,34,40,45,40,35,43,38,56,43,28,28
33,37,34,40,34,41,29,32,23,31,34,24,19,24,30,26,25,27,28,39,39,33,39,43,36,34,46,38,52,42,28,29
32,34,30,38,33,40,28,31,25,30,32,22,19,22,28,24,24,26,25,41,40,32,40,45,34,33,43,36,50,42,27,29
32,34,30,38,31,40,28,29,27,33,33,22,18,22,28,22,24,24,24,38,40,33,41,43,32,35,45,37,51,44,27,26
33,35,30,35,31,37,28,27,24,31,35,27,18,24,29,23,23,23,25,37,39,31,39,43,35,35,46,39,53,49,27,25
33,34,27,39,34,35,29,27,24,30,36,28,18,24,31,23,23,23,25,40,38,30,37,43,36,34,44,38,55,50,28,27
29,33,26,38,34,34,27,27,23,27,36,28,17,24,32,24,23,26,24,38,34,26,34,40,36,34,42,37,53,49,28,26
29,33,25,37,34,35,28,27,22,27,35,29,17,24,31,23,23,25,23,37,31,25,33,38,38,32,40,33,51,45,27,27
27,38,27,36,30,35,27,25,20,28,31,26,17,19,27,23,21,23,21,37,33,27,31,35,37,31,40,36,46,46,26,29
25,39,27,38,28,36,27,25,20,27,33,26,17,19,27,22,20,22,21,37,31,27,29,33,39,29,41,33,47,41,26,26
27,40,24,39,28,37,27,28,24,28,31,28,17,20,26,24,23,21,22,40,30,26,26,32,37,29,40,34,48,42,27,26
30,40,26,38,28,37,26,31,26,28,28,30,17,23,28,26,24,22,25,39,30,27,27,30,38,28,38,35,53,43,26,27
29,39,25,40,29,37,26,31,23,29,27,31,17,25,33,27,24,21,26,36,29,26,27,33,42,29,37,37,53,41,25,26
31,39,23,41,30,35,21,29,22,25,26,31,17,25,31,27,25,21,27,39,29,26,24,31,45,26,34,40,54,40,26,25
32,39,21,44,32,36,21,32,24,25,25,26,17,23,33,27,27,22,28,42,31,28,25,33,45,29,35,39,53,39,29,29
32,40,22,41,30,37,19,33,26,26,24,26,18,26,33,29,28,22,30,42,35,27,28,35,48,32,37,40,49,40,30,26
34,42,22,40,32,40,21,35,29,27,26,26,20,28,36,32,30,21,32,43,34,28,28,38,50,32,41,43,49,41,31,26
34,42,21,40,30,38,21,33,28,25,28,25,20,30,39,36,32,21,31,42,35,28,27,42,53,31,43,44,45,40,32,26
35,39,21,40,32,36,25,34,30,28,33,26,21,34,41,39,33,22,32,41,33,28,28,44,57,31,45,41,48,39,32,26
34,36,24,37,31,35,25,34,31,27,31,26,22,37,42,38,32,22,32,40,32,29,29,44,54,32,40,40,47,43,29,28
35,36,26,36,31,35,27,32,26,28,35,24,23,37,41,37,32,23,33,38,31,32,31,44,53,31,41,41,44,44,29,26
36,35,26,35,29,35,29,28,24,30,40,23,26,38,42,37,29,23,31,39,29,31,31,47,56,31,40,41,43,43,29,23
38,36,30,35,29,37,28,28,26,28,39,22,26,35,37,35,29,24,29,41,28,32,29,42,54,33,42,40,44,44,30,24
39,36,29,33,25,39,26,30,25,28,41,23,25,37,43,40,31,25,29,43,29,31,29,43,53,33,45,42,43,42,31,23
39,37,29,32,24,41,25,29,23,29,41,22,24,38,41,39,34,26,28,43,29,28,29,42,52,31,45,41,42,41,29,20
37,39,29,32,23,40,29,31,23,29,45,21,24,37,44,40,33,28,27,43,27,28,29,40,51,33,42,41,45,39,27,23
35,37,29,33,22,37,27,27,21,31,45,21,23,34,42,36,30,25,25,43,27,27,27,39,53,34,41,38,43,38,25,23
33,39,30,35,21,40,28,29,21,33,45,23,21,35,44,38,34,28,26,44,28,25,29,37,50,37,39,36,45,40,27,20
34,38,27,39,20,40,25,30,20,32,42,22,21,32,44,36,34,24,26,44,26,24,30,34,44,38,38,34,44,41,28,19
33,37,26,37,20,40,24,31,18,32,43,22,19,28,42,37,35,23,26,44,26,22,31,36,44,38,39,32,43,37,28,18
29,34,24,38,23,39,23,32,18,30,42,24,18,30,44,37,36,23,24,44,28,20,33,37,46,41,41,33,42,36,27,18
27,35,25,37,23,40,21,35,21,29,38,26,19,30,44,37,39,27,26,42,31,21,33,41,46,39,42,32,43,37,26,19
26,40,22,38,25,39,23,36,22,30,39,29,18,31,47,43,39,29,29,42,34,22,37,43,45,37,42,32,42,35,30,18
26,40,25,38,30,39,28,36,23,32,38,29,19,32,45,41,39,29,29,40,34,21,39,46,43,38,41,29,42,37,30,20
26,40,27,37,28,38,31,37,23,31,39,31,19,31,45,42,38,30,30,39,35,21,38,49,46,36,41,29,41,36,32,19
27,38,27,38,30,41,30,38,21,31,37,31,19,31,42,40,38,30,30,38,34,19,37,50,45,32,41,30,37,36,34,16
30,40,29,38,34,43,31,40,24,31,35,32,21,33,42,40,38,32,32,38,38,21,39,52,42,32,40,30,37,35,34,15
32,38,28,34,33,42,28,38,23,29,33,31,23,31,41,38,36,30,30,36,36,24,37,51,40,29,41,31,39,33,33,19
29,35,27,30,31,39,29,36,23,31,33,33,23,31,39,35,33,31,29,37,37,25,34,54,44,27,42,35,41,35,33,19
30,36,28,32,31,40,32,36,23,32,33,35,24,32,37,35,33,32,32,38,39,28,33,53,45,28,43,35,43,35,33,19
29,39,27,35,27,37,31,36,23,30,34,35,23,31,37,39,34,32,32,36,38,27,29,51,43,23,44,31,47,37,34,19
30,40,24,35,29,34,32,37,20,33,34,36,22,29,35,37,33,30,32,38,40,26,30,48,41,22,40,33,45,36,34,18
31,36,25,34,28,36,31,37,21,31,36,33,23,32,38,35,37,28,31,38,37,25,28,50,44,20,41,31,43,36,30,19
29,33,24,36,25,37,31,39,22,33,36,34,23,30,37,33,35,32,31,35,36,26,28,50,46,20,43,30,41,36,28,20
27,36,24,35,24,37,29,38,24,33,35,34,26,30,36,34,37,29,29,39,36,26,27,46,43,19,42,30,42,35,23,21
28,35,22,35,24,36,27,37,28,32,32,36,26,30,34,32,35,27,29,42,39,26,26,48,45,18,44,33,43,35,23,22
25,31,23,35,23,38,30,38,24,32,34,34,22,31,36,35,41,25,29,43,39,26,26,45,46,18,44,35,45,37,23,24
25,31,25,35,24,39,33,41,26,32,36,34,22,32,37,35,39,27,31,47,43,26,26,47,47,18,44,35,43,39,22,22
25,31,25,35,26,41,31,42,25,29,34,31,21,32,36,36,41,27,29,45,43,25,28,44,44,18,40,31,37,34,20,22
27,35,25,33,25,39,30,39,27,30,34,31,22,31,40,38,41,29,27,45,41,25,30,43,43,16,40,34,37,36,19,21
29,33,27,29,25,45,34,38,29,32,32,27,23,29,40,35,40,30,28,48,42,27,33,47,45,20,39,39,35,33,17,21
26,33,30,30,24,47,35,36,32,31,33,25,24,29,41,37,41,30,30,46,41,28,32,45,43,24,44,38,33,34,18,22
26,33,30,31,23,45,36,37,30,33,32,28,24,29,39,39,39,31,29,45,41,28,34,39,38,27,45,41,38,36,21,25
25,36,29,31,25,44,36,37,29,34,33,26,26,31,41,41,40,28,30,49,43,29,37,38,36,27,43,45,39,37,24,23
27,33,31,30,27,44,39,37,29,35,35,25,23,31,45,43,35,27,29,46,42,31,41,39,37,32,41,43,39,37,25,22
27,33,33,29,30,45,38,38,29,36,35,25,25,30,47,43,37,31,29,45,42,33,43,37,36,35,43,40,40,38,24,25
27,33,31,27,27,41,36,37,31,34,32,25,26,31,48,41,33,31,27,44,42,31,45,37,37,36,44,39,41,39,25,27
23,34,28,26,27,38,34,36,31,35,31,25,28,29,45,39,33,31,26,42,38,29,47,36,37,35,43,41,41,35,25,27
25,40,28,29,29,38,34,35,33,33,30,27,28,32,49,43,34,32,28,43,38,28,47,37,39,37,47,43,45,39,28,28
24,39,26,32,30,40,33,38,31,31,31,24,27,34,48,42,35,31,28,42,38,26,45,37,39,41,48,42,46,35,32,29
23,39,25,33,31,37,30,39,31,33,32,27,29,37,50,44,31,31,28,41,36,25,45,34,38,38,47,39,47,37,34,31
23,36,25,32,31,35,29,40,30,33,31,27,28,38,47,41,29,30,26,39,33,24,44,34,37,37,43,38,49,39,31,30
23,35,24,31,30,33,32,39,29,33,30,25,29,33,44,38,27,31,25,37,33,23,41,33,39,36,43,37,45,37,30,27
21,36,22,34,29,30,28,35,31,29,31,27,29,33,43,37,27,30,22,36,32,21,37,30,41,36,43,32,44,33,29,27
21,38,21,37,29,30,25,33,31,27,30,27,33,34,40,34,28,32,24,35,32,21,33,32,41,35,46,35,45,33,31,31
18,38,20,39,26,27,23,27,26,23,29,24,32,33,39,35,29,28,22,32,28,20,30,31,38,33,46,35,42,29,31,26
18,38,23,43,27,28,20,24,24,22,28,24,32,30,34,34,26,28,23,32,25,20,27,31,36,33,42,32,38,26,30,22
17,35,23,44,27,30,19,23,23,19,26,23,28,29,34,34,24,25,24,30,26,20,26,28,39,36,41,31,40,27,31,23
15,31,25,44,25,31,21,23,24,20,29,24,29,28,34,32,24,25,23,29,27,21,25,26,36,37,40,32,40,25,28,25
13,29,25,43,26,29,21,22,26,21,28,26,30,27,34,34,24,26,23,29,28,22,24,27,37,34,39,32,34,23,25,26
11,27,25,43,26,27,21,20,23,16,29,25,27,25,32,32,26,24,23,28,29,21,21,29,36,34,39,32,31,18,24,24
9,29,24,43,25,26,19,18,20,15,27,23,26,24,36,34,28,24,22,31,31,18,20,31,40,34,42,34,27,13,27,26
7,29,23,41,27,29,15,19,21,16,27,24,24,25,39,35,27,21,21,33,29,17,21,39,42,33,39,37,29,11,26,29
7,30,26,40,29,32,16,21,20,18,26,24,22,20,38,34,28,20,22,34,30,17,21,41,43,34,39,40,30,11,28,30
8,29,27,38,29,33,17,23,21,21,28,27,20,21,41,35,29,21,21,34,28,16,23,36,44,34,37,41,31,12,28,31
12,30,29,37,29,34,18,25,23,24,30,28,19,22,40,34,28,22,24,36,30,19,25,39,51,34,36,43,36,17,28,33
11,35,28,38,28,39,20,25,25,25,31,27,19,25,43,37,31,23,24,39,32,21,28,40,53,36,39,47,39,17,29,33
14,39,34,43,32,40,20,31,25,26,33,28,20,26,45,37,35,24,26,41,32,21,29,41,51,40,44,48,40,18,32,34
20,38,35,46,34,40,20,34,24,27,32,27,22,24,41,35,33,26,26,38,30,20,32,42,52,41,48,48,39,19,34,32
25,43,38,45,36,42,22,34,26,26,33,27,21,27,44,34,34,26,28,37,29,21,33,43,51,44,48,48,46,26,36,36
25,44,38,46,34,42,22,34,27,28,32,28,22,26,44,32,32,26,26,36,28,23,39,43,50,48,48,50,49,32,36,36
32,44,41,47,36,43,22,35,30,28,32,30,22,26,40,30,30,26,27,32,27,27,39,43,49,48,46,52,52,34,34,35
35,45,44,49,34,43,24,34,28,29,35,29,21,28,37,29,31,27,29,33,31,28,40,35,48,46,46,50,53,38,33,32
39,43,43,49,33,43,25,37,27,31,33,29,23,30,35,27,29,27,32,29,31,28,41,33,48,46,48,51,57,43,32,31
41,42,42,50,30,44,26,38,24,32,32,27,23,29,30,24,26,24,33,30,31,29,39,35,45,44,52,50,58,45,30,26
43,47,42,49,29,45,29,39,27,34,33,30,23,34,34,26,28,25,33,29,31,25,41,35,41,43,53,48,58,47,29,25
44,42,42,46,33,42,29,42,28,37,34,34,24,36,36,26,32,28,32,26,29,24,36,32,40,41,57,50,62,46,30,26
44,41,37,40,29,42,28,35,29,38,34,34,24,36,35,26,30,28,30,26,29,25,37,34,42,39,54,51,62,46,25,25
37,41,36,37,30,42,28,32,28,36,35,32,22,35,38,26,30,26,28,25,27,26,34,33,42,39,48,51,61,43,25,24
35,37,33,37,30,43,28,32,28,38,36,33,23,35,35,23,29,25,27,30,28,23,34,33,44,38,51,54,59,42,26,20
35,37,34,38,32,47,30,34,30,39,37,33,24,36,34,28,30,28,28,31,29,23,28,32,46,36,52,52,60,38,26,20
32,40,33,43,33,50,36,34,30,40,37,34,25,37,35,29,32,30,29,32,31,23,31,35,45,37,54,50,62,40,27,21
28,38,33,42,35,50,37,36,33,38,35,34,28,35,34,28,32,32,28,30,28,23,34,36,44,39,56,53,62,39,29,21
26,38,32,43,36,49,39,31,33,35,36,33,27,34,34,28,31,33,26,33,29,22,34,39,43,42,55,52,59,40,29,22
21,42,34,47,37,47,40,30,35,34,39,34,25,33,35,31,33,33,28,35,30,21,35,37,47,43,53,50,58,38,33,23
22,39,38,50,42,49,41,31,33,34,40,33,27,31,31,33,31,32,26,34,29,23,33,36,46,45,51,50,56,37,35,25
23,42,37,50,40,48,42,30,30,32,40,32,28,28,29,32,26,30,29,35,34,25,37,42,46,45,48,46,53,41,36,24
25,43,36,53,40,46,43,31,30,31,41,31,28,27,30,34,27,30,30,39,36,24,34,44,44,43,48,46,52,45,36,24
27,45,37,58,38,48,43,32,32,36,45,32,28,30,29,34,26,30,32,44,42,26,40,47,46,44,50,44,55,50,36,25
31,47,39,60,41,50,44,35,31,35,43,31,27,29,31,39,29,31,33,42,41,29,39,49,47,44,47,43,53,49,36,25
32,51,42,61,42,49,42,36,30,35,43,32,29,28,32,36,28,29,33,39,39,30,40,48,45,42,50,44,53,52,38,26
31,51,40,59,40,45,38,35,29,35,49,31,28,30,34,36,27,27,31,39,37,27,42,46,45,46,49,45,53,54,40,27
37,55,39,58,41,47,39,34,30,36,48,32,28,33,36,38,28,26,32,40,38,30,39,46,45,47,49,47,53,57,41,27
39,58,41,60,42,48,39,36,29,35,47,31,29,35,40,39,31,29,32,41,38,34,44,45,44,50,49,47,52,58,46,28
44,56,40,54,43,48,39,37,30,35,45,31,30,37,45,43,37,30,28,39,38,35,43,46,41,49,52,48,50,60,43,29
43,57,36,53,40,44,39,35,29,33,44,29,30,35,49,39,38,31,29,44,40,35,44,48,39,48,54,49,49,57,42,29
44,59,39,56,41,47,41,39,32,34,46,29,29,38,50,43,40,31,26,47,36,34,44,45,39,51,55,50,51,57,43,30
45,58,39,55,40,48,40,41,32,36,44,32,30,38,52,44,37,29,25,41,37,35,47,43,40,58,54,52,55,57,46,30
47,60,41,53,42,44,40,39,33,32,45,35,32,39,54,46,38,30,26,41,33,34,42,40,42,56,56,53,54,55,48,29
44,58,38,50,37,40,35,38,30,30,44,34,34,38,51,43,35,28,24,40,33,34,45,37,43,52,60,53,57,55,44,29
49,58,38,47,36,40,37,36,29,31,45,34,31,40,54,46,36,30,26,41,35,35,47,36,42,52,58,52,59,56,46,30
52,57,40,45,38,44,37,40,30,32,44,34,32,40,55,48,37,30,27,42,35,35,44,34,43,49,58,48,58,52,45,30
52,58,42,49,35,42,37,38,28,30,42,32,30,40,59,51,39,33,27,43,33,34,43,35,44,47,59,45,61,50,43,33
53,56,39,48,34,46,37,39,32,30,41,32,29,39,58,52,38,32,28,39,31,31,39,33,42,43,59,41,61,48,40,32
50,54,40,50,37,45,37,39,30,32,41,34,30,38,56,46,32,31,31,39,33,33,40,31,40,44,56,43,61,48,40,35
49,54,37,48,39,46,36,41,31,33,39,33,29,37,55,49,32,32,32,39,33,33,40,29,43,44,57,44,63,49,41,35
49,51,37,45,38,44,35,39,28,32,37,33,29,35,53,45,31,31,33,37,35,33,42,28,44,40,56,44,60,50,40,36
44,52,36,47,39,45,38,37,25,32,38,31,28,36,52,44,34,34,32,40,33,30,41,27,47,34,59,43,54,45,40,36
40,49,36,47,38,46,41,38,24,33,33,28,24,34,54,42,34,32,34,37,35,30,42,29,44,34,58,44,52,42,40,37
39,47,39,48,40,52,44,39,25,34,32,28,22,34,54,42,32,32,34,39,37,30,37,31,41,36,57,42,48,38,40,37
35,42,36,48,38,48,45,40,24,34,32,26,22,32,50,36,30,30,32,41,38,30,38,34,43,38,54,43,48,37,38,38
33,43,36,48,36,44,45,37,23,32,28,26,21,29,49,36,30,29,32,41,39,31,38,33,43,38,55,47,46,40,37,37
32,41,33,44,35,41,40,36,24,32,28,27,22,27,45,33,28,26,31,42,41,33,39,35,44,39,53,46,47,40,35,33
27,38,35,39,35,41,38,35,20,33,28,27,19,25,43,29,25,23,29,43,41,31,39,38,46,40,54,48,45,37,33,34
25,35,35,38,32,42,36,33,19,29,26,24,17,26,41,27,23,21,25,40,38,28,37,40,47,37,52,45,43,32,31,30
25,33,39,40,29,45,36,31,18,28,26,24,18,24,38,24,22,19,24,37,34,27,36,38,46,35,54,42,44,30,30,29
20,30,37,38,28,43,38,28,20,26,23,22,17,22,40,25,22,21,25,37,30,25,33,37,45,33,55,41,44,26,27,29
25,29,39,35,27,41,35,29,21,23,25,23,18,23,39,25,20,20,26,36,29,30,33,37,44,33,55,41,47,31,24,26
26,30,40,35,29,42,33,28,22,23,25,24,18,26,35,28,20,22,24,35,28,30,33,38,45,31,58,40,49,32,22,25
28,31,37,36,28,37,33,26,24,24,26,24,18,26,35,27,21,22,26,34,28,28,34,36,44,32,57,42,52,38,22,25
31,39,43,35,29,41,32,24,23,25,25,27,17,27,35,29,23,23,27,35,28,27,34,35,45,33,61,39,52,38,21,22
32,38,40,36,31,45,35,25,24,25,23,27,17,27,35,30,22,23,26,36,30,26,33,34,43,33,61,36,53,36,21,22
29,38,43,36,33,47,37,27,24,27,24,28,16,27,36,30,23,23,26,35,30,24,36,34,44,33,62,36,47,33,22,23
30,40,42,39,33,44,39,29,24,29,27,28,18,28,36,34,28,24,27,35,31,24,35,33,47,33,62,35,48,35,22,22
29,41,41,39,34,46,39,31,25,27,27,27,21,27,36,37,33,25,31,37,33,27,36,35,52,36,65,39,51,37,23,22
27,38,39,38,36,47,36,31,26,28,28,26,20,26,38,36,32,24,29,36,33,25,35,37,52,38,59,41,50,36,24,22
28,38,39,37,37,47,34,32,24,28,30,26,19,26,34,34,30,20,26,35,31,25,34,39,52,40,60,41,48,38,24,23
23,37,38,38,37,47,35,31,25,29,29,25,17,23,32,32,29,19,25,33,31,21,33,36,50,41,61,37,43,33,24,25
22,35,34,39,34,45,34,31,25,28,28,24,19,19,34,30,28,18,24,35,30,21,32,36,49,42,59,38,43,34,26,24
19,36,38,38,34,44,32,30,22,27,27,22,18,18,35,28,28,18,24,35,29,22,32,37,46,40,58,36,40,29,24,25
15,33,33,39,34,43,34,30,23,25,27,19,19,17,37,29,29,17,23,34,27,21,32,40,45,37,55,41,37,29,23,24
13,30,33,36,31,39,31,29,22,24,28,18,19,18,36,26,30,17,23,34,27,21,31,40,48,35,56,43,38,29,23,24
14,25,33,38,32,39,31,28,21,21,26,16,19,17,36,26,27,15,21,35,27,20,29,37,44,34,58,43,41,28,21,26
20,27,37,35,31,40,34,26,22,20,26,17,21,19,36,26,24,16,21,36,26,23,31,40,42,33,55,46,44,35,20,25
25,31,35,36,31,39,33,23,21,23,27,19,21,23,38,27,20,16,18,34,26,22,30,38,38,32,53,45,45,35,23,27
27,35,35,40,30,37,34,23,21,22,26,19,23,23,40,29,21,19,20,32,26,23,31,37,36,34,59,44,45,35,26,28
32,42,37,44,31,36,35,24,24,26,28,22,24,26,44,32,22,23,24,33,30,25,34,36,36,36,57,45,49,38,30,27
38,45,37,43,32,39,39,26,28,27,29,22,26,29,46,34,24,24,25,33,31,27,33,40,37,38,56,48,55,44,31,27
40,48,38,42,32,44,39,27,27,29,33,23,27,31,46,34,25,25,25,31,31,27,33,37,35,41,54,46,57,48,30,28
40,49,36,44,32,47,40,27,30,32,34,25,30,34,47,40,28,26,24,31,30,28,34,37,38,42,56,45,57,51,34,24
42,46,36,42,32,46,39,28,31,32,36,26,30,36,46,38,30,26,24,32,32,28,33,37,37,44,58,42,58,50,34,26
44,48,36,46,32,48,38,30,34,33,35,27,30,37,44,40,28,26,24,32,29,28,33,39,36,45,55,42,58,50,36,26
42,49,34,45,32,47,36,30,36,35,38,27,30,37,44,40,29,28,26,28,28,30,33,39,35,46,51,42,59,52,38,26
38,51,30,47,31,46,34,29,36,36,35,26,31,36,41,37,29,27,25,28,29,27,29,37,33,45,51,39,57,48,37,25
37,49,32,46,29,47,36,29,37,34,34,25,29,32,38,34,29,27,25,29,28,28,30,39,36,44,50,37,56,51,34,25
36,47,31,42,30,47,37,30,36,35,36,25,29,35,36,35,31,27,26,30,31,28,30,42,36,42,49,39,55,52,30,24
34,42,29,42,28,48,34,27,37,36,34,24,29,33,33,34,32,25,24,29,30,26,26,42,33,39,46,38,54,51,28,23
29,37,26,43,25,45,32,27,34,34,30,24,29,30,29,31,29,23,22,28,28,27,26,38,32,40,47,39,53,45,27,23
29,37,24,42,27,41,33,27,33,33,30,23,29,30,32,32,28,24,24,31,29,25,27,39,33,40,51,41,53,43,30,24
30,34,23,41,26,36,33,28,29,33,29,21,28,27,32,26,24,22,23,29,29,23,26,38,34,36,48,40,51,41,26,27
28,36,24,43,27,35,31,29,29,30,28,18,30,23,32,26,20,22,22,27,27,24,26,37,33,35,49,40,52,40,27,27
30,38,26,42,28,34,34,28,26,32,30,19,32,23,33,26,20,22,22,24,28,26,27,35,37,35,51,42,52,42,24,29
32,40,24,40,25,34,34,27,24,31,29,22,32,26,34,28,20,21,21,25,27,25,26,37,40,34,50,44,50,41,22,28
30,37,25,40,27,33,31,26,25,29,31,25,31,25,37,29,21,23,23,27,24,24,27,36,41,37,51,44,48,39,23,31
31,36,24,41,27,29,34,29,25,32,33,26,30,27,39,31,22,24,23,29,26,23,25,38,39,37,51,45,48,37,23,29
32,37,26,41,25,30,34,28,24,30,31,27,29,25,39,29,20,22,22,30,27,25,27,35,39,35,50,41,45,36,23,31
33,38,27,41,27,30,36,30,22,28,32,28,30,26,39,29,22,23,23,31,25,28,29,36,40,38,54,41,44,37,26,34
34,38,28,42,28,28,32,30,24,30,36,30,28,26,42,30,24,24,24,34,26,26,30,38,42,37,52,38,46,37,26,33
32,35,29,41,25,27,31,31,23,29,33,29,26,24,38,28,25,22,23,33,25,26,29,38,44,34,49,36,44,38,22,31
31,34,28,40,25,26,30,32,25,27,31,29,25,25,36,29,27,23,22,33,24,26,30,40,43,35,47,41,45,39,23,31
31,34,28,38,24,30,30,30,24,28,29,32,23,26,34,29,27,23,23,32,28,25,29,41,45,35,45,41,44,41,22,30
27,33,27,35,23,31,28,30,25,24,28,29,21,25,32,27,27,23,23,35,30,25,29,41,40,35,41,39,43,39,23,27
24,32,28,37,23,31,27,31,26,23,27,29,21,25,32,25,27,23,23,36,32,28,30,40,36,34,42,35,45,39,24,26
26,32,26,38,26,30,28,30,25,21,28,28,20,26,30,24,26,22,22,35,34,28,32,37,35,34,44,32,45,38,26,26
23,35,26,38,28,30,24,28,23,18,26,26,20,24,28,22,26,21,22,34,32,27,34,33,32,34,42,31,43,37,26,28
20,35,23,36,27,27,23,27,24,19,25,30,22,24,28,22,25,21,21,34,29,27,33,35,33,33,40,37,46,40,25,25
17,33,22,36,26,26,22,26,24,18,26,30,20,23,30,22,24,20,20,34,30,24,32,38,36,32,38,38,47,37,25,26
15,36,22,35,27,27,22,24,22,16,24,28,21,24,30,22,22,20,21,33,29,27,31,35,35,30,37,37,42,40,25,26
16,36,22,40,29,28,22,22,24,14,24,28,22,25,29,22,22,20,24,34,30,28,32,36,32,31,37,38,44,38,31,28
20,40,24,43,29,28,26,21,25,16,28,32,24,28,33,25,24,21,26,38,35,30,33,36,32,31,43,36,46,36,31,29
18,41,27,44,32,29,27,21,27,15,30,34,26,30,36,28,26,21,27,41,33,31,35,36,32,33,47,38,43,32,32,30
17,39,25,45,32,31,28,22,29,15,29,33,25,29,35,27,25,21,27,41,31,29,37,35,33,35,51,39,43,29,31,30
18,38,25,47,34,35,28,22,30,16,30,32,26,28,33,27,28,22,28,44,30,28,37,36,35,36,53,40,40,30,34,33
16,37,25,49,33,35,27,27,31,21,30,29,25,25,38,27,31,25,29,45,32,29,38,37,36,37,50,42,40,34,33,33
16,34,26,50,32,36,28,28,32,23,34,32,26,26,42,30,34,26,32,42,32,30,39,40,37,36,54,44,40,32,34,32
19,32,26,52,33,36,30,28,33,24,37,31,23,25,40,30,34,26,32,41,32,29,40,37,38,39,56,39,42,30,35,33
20,34,25,55,33,37,32,29,33,25,36,32,25,26,39,29,35,25,33,41,33,31,41,31,35,37,56,38,41,31,35,31
26,37,26,56,33,38,31,32,33,29,33,31,26,26,40,28,36,26,33,44,34,28,40,36,33,38,56,42,43,32,33,30
29,38,31,54,35,42,32,36,32,30,32,33,26,25,38,30,36,30,28,44,32,26,40,35,39,35,55,41,42,36,29,29
30,37,30,52,38,41,29,36,30,30,30,30,26,23,37,29,33,31,28,41,29,26,38,35,40,39,55,42,43,41,32,28
33,36,25,53,35,38,28,36,28,32,29,29,25,23,37,27,31,34,28,40,28,25,36,34,41,37,52,40,46,45,31,27
35,35,27,54,35,37,26,35,26,33,31,31,26,24,38,28,32,34,28,38,28,26,36,32,40,34,51,38,48,52,32,26
36,36,26,53,35,36,29,34,24,34,32,31,25,23,40,30,29,33,27,38,29,25,37,31,40,35,51,37,47,52,31,23
40,38,26,54,34,38,27,32,25,31,29,34,26,24,35,32,30,30,26,38,27,25,35,32,40,32,50,41,50,55,32,22
40,38,26,54,34,40,26,32,24,32,24,32,26,24,32,32,28,30,24,38,25,24,32,31,39,32,51,38,51,58,31,22
40,39,25,53,33,40,25,32,22,31,28,29,26,26,35,33,27,29,23,37,25,22,30,31,40,31,50,41,49,59,33,23
44,39,28,48,32,42,25,32,20,30,29,28,24,24,36,34,26,30,24,36,24,24,30,32,39,33,47,39,47,57,32,22
39,36,31,47,32,41,30,30,19,28,32,28,25,28,36,36,28,28,25,34,24,24,31,31,41,32,48,40,50,55,32,24
35,36,25,46,29,35,29,26,21,31,35,27,23,29,37,34,28,24,26,33,25,25,31,31,36,37,49,43,50,55,31,25
32,35,24,48,27,36,29,26,22,30,34,26,22,28,40,32,28,22,23,34,24,23,28,28,33,32,45,43,47,52,27,25
32,37,25,49,28,37,30,29,22,29,34,25,22,25,38,34,29,19,23,33,23,24,31,27,31,34,46,42,49,53,29,26
33,38,23,46,28,35,30,29,22,29,33,27,24,28,42,38,32,18,25,32,22,25,30,28,34,36,43,45,46,53,30,28
35,38,25,46,27,31,27,30,24,30,32,28,26,30,40,36,32,19,27,30,23,26,30,32,34,36,42,50,50,55,28,30
36,40,27,43,27,31,28,30,24,30,32,26,26,30,44,38,31,21,29,28,22,27,30,30,33,40,46,46,48,54,31,29
39,41,28,42,27,30,28,31,26,33,35,24,28,30,45,39,33,23,28,25,22,28,32,28,36,40,44,48,51,53,30,30
38,43,29,45,28,31,27,34,27,32,33,24,29,31,45,39,36,26,28,28,22,29,33,28,37,38,44,46,50,53,28,28
38,42,29,45,29,31,25,33,28,32,30,24,30,34,44,41,37,27,27,30,24,29,34,31,37,37,48,46,54,58,30,29
44,46,28,47,30,32,21,32,29,34,30,24,28,30,44,40,34,29,27,33,26,29,34,30,37,37,46,43,52,62,28,29
44,44,28,44,30,34,23,36,29,35,29,22,31,29,45,40,34,30,27,31,28,30,36,31,39,34,44,40,52,59,27,31
42,44,29,41,30,35,23,37,29,37,31,27,30,29,43,40,34,30,29,29,29,31,37,31,40,37,46,39,50,63,27,30
44,40,31,38,31,34,22,36,29,40,34,29,33,31,44,40,37,33,28,32,30,31,33,34,43,36,47,41,49,65,27,29
41,40,32,44,34,36,21,37,27,41,35,28,30,27,44,38,34,36,27,36,33,28,34,38,45,41,51,37,47,61,29,28
39,38,31,46,36,41,21,40,28,41,37,27,29,27,47,41,34,37,27,37,33,28,31,35,47,43,53,35,47,61,29,28
37,35,31,47,35,41,21,39,27,42,38,27,30,27,46,40,33,37,27,39,33,30,29,35,47,39,53,37,48,61,26,29
36,35,28,45,34,41,22,36,26,39,38,28,26,28,46,37,30,35,29,40,34,30,28,36,46,42,53,34,47,61,26,30
35,37,28,45,37,42,22,34,26,38,36,28,26,28,48,40,29,33,31,38,36,30,28,36,42,45,55,33,49,60,29,30
34,38,27,52,38,40,23,34,26,38,38,28,28,26,49,40,32,33,30,37,34,29,28,35,48,48,54,38,48,60,32,32
31,33,29,52,40,41,23,38,27,34,36,30,29,30,46,40,33,32,30,36,32,29,27,38,48,49,57,38,49,59,37,31
33,35,31,53,40,44,21,37,27,32,35,33,29,31,45,42,35,34,30,36,30,28,27,36,49,47,57,40,48,62,35,29
34,36,32,54,42,46,22,36,27,29,33,29,30,31,42,42,37,34,30,37,30,28,27,38,49,45,57,44,49,57,37,27
31,39,32,54,41,46,22,35,29,28,33,28,27,31,44,40,32,31,30,36,30,27,29,36,48,44,57,45,53,55,37,29
37,42,33,53,41,45,24,39,32,29,35,29,30,33,43,40,36,32,32,36,29,31,29,35,47,40,57,50,56,58,36,33
38,44,34,54,43,44,27,37,31,29,36,29,31,33,42,40,38,32,32,36,30,32,32,38,47,39,56,49,56,56,37,33
41,47,36,53,47,45,31,38,32,29,39,30,29,34,45,37,39,33,31,36,32,30,34,40,52,40,54,50,57,55,37,35
41,47,43,57,49,48,33,41,33,29,41,31,31,33,48,37,40,32,28,40,35,30,36,43,53,40,53,51,56,54,40,35
44,45,43,53,50,47,34,42,35,29,44,31,31,31,45,32,41,30,27,44,38,31,39,46,55,42,51,55,55,54,39,39
44,45,44,49,49,48,34,42,35,31,43,33,31,33,43,33,39,30,27,45,38,31,39,51,51,39,52,56,53,51,37,39
44,47,43,49,47,48,39,39,34,33,45,33,30,31,45,33,40,32,28,44,40,32,42,48,51,39,49,56,55,50,35,42
46,49,44,50,48,47,42,38,33,34,48,32,29,32,50,34,41,31,29,48,41,33,41,52,49,41,50,54,56,46,36,44
46,48,43,51,50,48,45,38,33,34,48,31,27,31,52,32,42,32,28,48,40,33,41,50,49,44,48,53,59,44,38,45
45,47,42,51,49,48,47,40,31,32,49,33,27,30,52,34,44,31,27,45,38,35,44,48,49,47,47,51,59,45,39,44
45,46,44,51,46,46,48,34,30,30,44,30,27,30,53,35,43,29,25,47,37,37,42,49,46,49,45,48,57,45,39,42
42,48,43,47,44,45,48,34,30,30,44,30,26,32,54,35,41,29,25,45,35,36,42,45,44,49,48,48,58,44,37,39
40,46,39,48,41,43,50,34,30,30,44,30,27,32,50,34,39,27,25,45,34,37,42,45,44,52,48,50,57,42,38,38
39,45,34,46,43,44,48,33,27,29,43,29,27,31,49,33,39,27,27,44,32,35,39,43,44,53,47,53,61,43,37,38
37,42,37,48,39,45,50,33,25,30,40,28,26,32,48,35,42,28,29,44,30,35,37,43,45,49,47,50,62,41,34,36
33,42,36,46,39,44,51,33,24,28,40,28,24,32,49,31,43,31,31,45,31,34,36,40,46,51,47,48,62,41,33,35
31,43,37,46,37,43,47,33,25,27,39,25,25,31,49,31,44,29,31,45,31,35,35,43,47,51,49,49,60,41,31,32
31,41,38,49,37,45,44,32,24,26,38,24,27,32,46,32,43,30,31,45,35,35,35,42,49,51,50,50,62,43,31,33
31,43,38,49,33,46,44,34,24,26,40,25,28,32,46,32,40,27,31,47,35,34,37,44,49,50,52,50,61,43,30,32
35,45,39,49,35,46,47,35,25,29,42,22,31,32,41,28,36,28,34,50,39,34,35,48,49,47,53,48,59,42,32,32
31,47,38,48,37,48,46,38,26,32,44,22,27,30,39,27,35,30,33,50,39,30,34,47,51,49,51,50,59,40,30,33
35,50,39,50,40,49,47,37,25,31,43,21,28,29,38,26,39,29,33,49,39,29,37,47,51,50,47,51,59,42,34,35
34,52,39,50,38,48,44,38,26,30,41,20,28,29,39,29,40,28,32,48,38,28,34,47,49,50,48,49,58,43,33,36
35,53,42,49,38,45,45,37,27,31,41,21,27,31,39,31,39,30,31,48,39,29,35,48,46,48,51,45,54,45,34,34
36,56,39,51,39,45,43,37,28,33,43,24,28,32,41,32,35,29,35,44,36,30,36,49,49,50,53,47,54,46,40,34
36,55,40,52,39,45,43,39,28,35,43,23,28,31,43,32,30,24,31,43,37,31,35,47,51,48,50,45,55,48,40,32
39,57,40,53,39,47,44,41,27,36,44,27,27,31,44,34,31,25,29,42,39,31,36,46,52,46,48,47,53,47,41,34
35,61,38,50,41,45,45,39,28,37,44,28,23,30,46,36,30,22,27,39,35,29,35,43,52,46,46,48,50,44,44,33
34,59,39,49,39,41,41,37,28,39,43,30,23,33,47,38,32,23,27,37,35,30,36,44,53,46,47,48,52,48,44,32
33,58,39,48,38,39,39,34,28,37,40,33,21,34,49,40,34,22,26,32,32,30,36,41,51,46,46,50,53,50,42,30
35,57,41,49,36,41,39,31,29,35,39,35,22,33,50,38,34,23,29,32,35,32,36,40,51,41,48,49,52,49,40,29
32,53,41,51,33,43,38,34,28,38,41,35,20,33,49,39,32,22,28,32,34,32,35,42,51,37,48,50,49,48,39,28
31,51,44,52,35,44,38,33,29,41,40,39,20,34,49,39,32,24,28,34,34,30,34,44,52,34,49,48,49,48,40,25
32,50,40,54,33,44,35,33,31,41,38,38,20,32,50,40,32,23,28,31,33,32,35,42,53,33,46,52,48,48,38,24
30,49,41,50,32,42,34,32,31,37,35,37,20,31,47,38,32,24,24,30,32,31,34,38,49,31,46,52,44,48,32,23
32,46,40,47,29,39,33,29,30,35,35,36,21,28,42,38,32,24,24,27,29,29,33,39,47,29,45,50,46,46,31,23
29,40,35,43,29,35,31,26,30,34,32,33,21,27,38,34,29,23,23,26,28,28,34,40,45,28,42,49,45,43,29,20
30,36,34,41,26,32,30,26,31,34,32,32,22,26,34,30,28,24,24,26,26,29,33,42,42,26,40,46,44,45,26,19
29,36,32,40,26,32,30,26,32,32,29,31,22,24,32,28,26,24,24,24,26,28,31,41,41,24,37,45,41,42,24,20
27,33,29,38,25,33,27,25,32,31,29,28,21,23,29,27,25,25,23,25,25,27,28,44,42,23,35,41,35,38,23,21
25,31,25,36,25,32,26,26,29,30,28,26,20,24,27,27,23,22,19,22,22,26,28,46,43,23,31,39,36,35,23,20
26,30,25,35,22,28,28,24,30,26,25,25,22,23,25,25,20,20,18,22,21,26,25,45,41,21,33,36,37,34,21,18
26,26,20,30,21,27,25,25,26,26,26,21,20,20,22,21,19,18,18,22,20,26,26,39,38,19,28,34,36,30,18,20
24,26,20,26,22,26,26,26,24,23,24,20,20,18,18,18,18,18,18,23,19,24,25,39,37,18,28,30,36,26,18,21
24,25,19,29,24,26,29,27,26,26,25,20,20,18,18,19,19,19,19,27,21,23,25,41,35,19,29,30,39,27,19,20
24,26,18,32,25,26,26,28,25,26,24,19,18,19,19,21,20,20,20,30,22,22,24,39,34,20,30,28,38,30,19,20
24,28,18,34,24,28,28,32,27,27,26,20,18,18,18,22,20,20,20,31,21,20,24,41,36,20,34,26,43,31,20,22
25,26,18,34,25,28,28,34,24,28,28,21,19,19,19,25,20,20,20,32,22,21,25,45,37,21,35,29,44,31,21,22
26,24,18,34,26,28,29,36,22,29,30,22,20,20,20,26,20,20,20,32,22,23,25,44,38,22,34,29,46,31,22,22
28,25,18,36,26,27,33,36,20,30,28,24,20,20,20,26,20,20,19,31,21,21,26,42,38,24,37,30,49,30,22,22
28,26,20,39,29,26,32,35,21,31,28,24,22,20,20,26,19,21,20,34,22,20,28,40,36,25,41,29,49,30,25,23
27,25,19,36,32,26,30,34,20,32,28,24,21,19,21,27,22,22,20,34,22,19,30,38,38,26,41,26,48,28,25,24
28,30,20,38,34,25,31,33,22,31,30,25,22,19,24,29,24,22,20,34,24,18,30,41,41,28,44,26,50,30,28,24
28,32,22,38,32,26,30,35,22,34,32,26,22,20,26,30,24,22,20,35,27,18,31,46,40,28,42,26,50,32,28,22
27,30,21,35,31,25,28,32,22,32,32,26,22,20,28,31,22,20,18,30,24,17,30,48,43,27,41,25,47,30,27,22
26,30,22,36,31,26,28,32,22,33,30,28,23,21,28,31,22,20,18,29,24,19,31,47,43,30,44,26,48,28,28,21
26,29,22,34,32,25,27,27,20,32,28,26,22,20,28,30,22,20,18,26,22,19,29,42,40,32,42,24,47,28,28,19
27,28,22,37,32,28,28,27,21,30,26,25,21,19,27,27,22,20,18,25,21,19,28,36,38,32,43,21,46,29,27,19
28,30,24,36,32,34,26,25,21,30,26,24,20,18,26,26,22,20,18,26,23,15,30,37,34,32,42,20,42,28,26,20
26,28,24,34,31,33,24,26,21,31,27,23,19,19,29,25,22,19,18,27,25,16,29,35,33,32,41,17,40,27,26,20
24,26,24,30,29,32,24,25,21,32,29,23,18,19,31,27,22,18,18,25,25,16,27,35,31,32,40,17,37,28,22,19
26,28,26,32,26,34,26,24,20,30,29,23,19,20,30,27,20,18,20,24,26,17,26,34,31,32,37,18,37,30,22,18
25,25,25,31,23,37,25,23,19,31,25,21,19,19,28,26,19,19,23,23,25,21,26,33,29,30,37,21,35,31,21,17
25,26,25,34,26,36,25,20,19,29,25,21,19,19,31,28,20,21,22,24,26,20,24,29,31,30,40,23,35,29,20,20
26,28,28,35,27,38,26,22,17,31,25,21,19,19,31,27,24,22,22,26,29,20,27,27,33,31,41,24,35,29,21,20
28,31,30,33,30,41,25,23,19,32,25,22,19,19,31,28,25,25,25,29,31,18,28,27,33,29,40,26,35,26,22,20
31,32,33,34,28,41,26,25,19,34,28,26,20,22,34,30,26,26,26,29,34,21,30,27,34,26,40,29,32,29,22,21
32,38,34,31,27,39,26,23,18,34,29,25,19,22,34,30,26,26,27,31,35,21,30,31,39,27,40,30,34,29,23,21
34,39,34,34,28,33,28,24,20,34,31,26,22,23,35,31,28,28,28,34,35,23,31,33,43,28,44,33,37,34,26,21
38,43,37,36,28,35,31,24,22,30,31,24,24,22,32,32,27,30,31,36,38,23,32,34,43,27,46,36,38,36,25,21
40,44,39,38,30,41,29,25,22,28,28,24,24,24,34,32,30,32,33,39,40,23,34,36,46,28,46,38,40,40,28,21
37,43,38,35,30,39,28,28,24,28,30,23,22,23,36,34,30,32,32,38,39,24,35,39,48,27,44,38,42,38,27,22
38,47,42,36,28,38,30,28,24,26,34,24,22,24,37,35,33,32,30,37,41,22,36,40,48,28,42,36,43,39,26,22
40,48,42,36,23,39,32,28,24,29,33,27,22,25,35,34,34,32,33,37,39,25,39,39,48,28,39,35,44,42,27,22
41,45,39,34,23,39,31,29,24,29,35,29,21,27,35,35,31,31,33,38,37,26,37,40,47,29,39,35,44,46,27,23
40,45,38,34,20,37,35,29,27,27,36,26,21,26,36,32,34,27,31,35,35,27,37,42,47,28,38,36,48,47,24,26
41,47,35,31,21,37,35,30,28,25,35,25,21,25,37,31,33,25,31,36,33,26,37,41,50,29,41,36,49,46,25,28
38,41,35,32,25,39,37,32,32,27,37,27,22,26,40,34,35,27,31,37,31,27,37,39,48,33,44,40,52,46,25,30
36,39,32,32,22,41,37,31,32,30,34,29,23,29,43,35,33,25,30,37,33,26,36,37,44,31,44,39,50,44,23,28
34,39,31,35,26,42,34,32,32,34,36,32,21,32,46,38,35,23,28,39,31,28,38,38,47,34,41,37,51,46,27,30
34,39,29,34,24,34,34,34,34,36,36,35,23,33,45,40,34,24,27,38,31,29,37,37,46,34,41,37,50,44,25,31
36,40,30,40,25,38,35,33,32,39,37,36,24,36,47,41,35,25,28,39,30,26,37,38,44,35,46,42,49,46,28,31
36,40,30,42,27,37,34,34,34,38,35,36,25,36,48,41,34,25,27,41,29,27,36,40,46,36,46,44,51,47,29,32
35,40,27,42,30,36,32,37,33,39,39,33,25,36,47,41,33,23,26,40,26,25,34,44,48,39,47,44,50,45,31,29
38,45,30,43,30,38,34,36,34,38,37,32,28,36,47,42,36,26,26,38,25,25,34,43,45,38,48,43,57,44,32,29
37,44,29,46,31,39,30,35,34,38,37,34,28,38,50,47,33,27,25,37,25,25,33,40,46,39,49,43,55,49,33,25
37,43,32,48,32,40,27,35,33,41,39,34,26,40,50,48,36,33,26,38,29,26,34,43,45,39,51,42,55,48,35,23
38,44,32,48,31,42,26,36,30,38,37,34,27,40,53,49,39,31,27,40,32,24,34,43,48,35,48,38,52,46,37,23
39,44,32,48,32,40,28,36,27,35,38,35,23,39,50,50,41,32,28,39,29,23,36,45,48,37,47,38,52,45,35,25
39,43,31,47,31,39,29,35,25,31,37,33,22,37,51,48,43,32,28,36,29,22,32,43,43,33,48,36,52,41,35,28
40,44,30,43,32,41,31,33,25,31,40,31,21,37,51,47,40,30,27,37,29,24,33,44,40,34,49,33,54,44,36,27
43,45,29,38,32,40,31,34,27,30,40,33,22,37,49,44,40,28,28,38,32,26,35,42,42,37,46,33,57,45,34,28
45,47,27,37,31,44,32,34,26,34,39,35,24,39,49,43,38,27,29,38,33,25,35,43,44,36,48,33,57,46,33,26
47,47,30,37,33,44,31,31,27,31,38,39,26,41,50,44,40,29,28,39,38,24,37,39,42,36,52,37,60,47,31,26
47,46,31,38,34,42,31,32,29,29,39,38,24,41,52,45,39,29,32,41,40,28,42,43,45,38,50,38,58,48,31,27
48,50,32,40,34,42,36,34,29,28,40,39,25,41,51,44,42,32,34,40,40,30,42,45,45,41,52,38,56,47,30,29
47,49,33,41,34,43,38,34,28,28,41,39,27,41,51,44,40,27,32,42,38,28,39,43,45,39,50,39,59,47,29,31
46,51,35,43,33,41,37,35,29,29,40,40,26,42,47,43,39,31,33,37,37,30,39,40,40,40,53,38,60,48,27,30
47,53,36,43,30,41,35,34,30,28,41,36,28,39,45,39,37,35,32,37,36,32,36,38,38,38,52,36,62,44,29,28
45,52,37,43,27,40,37,36,34,31,39,37,31,39,44,38,34,33,35,42,34,31,37,40,44,37,52,39,64,45,29,22
45,51,36,43,27,40,36,36,32,30,37,37,31,39,44,40,42,35,35,39,33,32,35,38,45,35,52,41,65,44,28,24
43,51,38,47,27,41,34,35,31,31,38,36,32,38,44,43,45,35,34,39,34,32,33,39,45,33,54,41,63,42,29,25
43,48,36,46,29,39,32,35,31,31,36,36,29,38,44,44,45,35,30,36,30,32,30,34,43,34,56,39,63,41,30,27
40,47,35,46,28,38,32,37,32,36,34,36,31,38,44,44,45,33,32,35,28,34,27,36,45,33,56,37,60,41,29,28
39,48,34,46,26,40,33,38,33,36,35,36,31,37,43,43,47,33,30,37,29,34,27,34,46,32,56,36,58,39,32,26
42,47,37,45,26,40,33,36,31,37,34,37,32,36,42,42,45,30,27,43,29,35,29,34,43,32,53,37,59,40,33,25
41,44,33,45,27,39,33,35,34,35,33,35,34,37,42,43,45,33,29,45,29,37,30,34,42,33,53,34,58,41,33,25
41,45,31,43,27,41,35,36,32,36,35,36,35,35,42,42,45,31,29,47,31,39,31,36,44,32,51,35,59,42,33,25
37,41,30,41,32,41,36,37,31,37,35,35,33,35,45,47,48,26,29,47,34,39,33,35,45,32,49,40,56,43,34,27
37,42,29,41,35,42,34,36,29,37,37,35,29,35,46,48,51,31,27,44,34,37,35,35,48,37,49,41,55,48,31,31
33,45,32,44,36,44,35,37,29,39,40,39,29,35,46,49,45,31,27,47,33,33,35,36,49,37,48,42,56,43,31,27
36,44,32,43,33,45,35,35,31,37,40,40,26,36,46,47,41,29,28,47,30,30,34,36,51,35,44,44,55,46,29,25
32,45,34,44,32,46,38,36,32,36,43,40,27,36,48,48,45,29,29,49,35,29,39,39,52,33,41,45,53,46,29,24
30,43,33,42,34,45,37,35,30,29,43,36,23,34,50,51,43,27,27,50,38,27,38,39,49,34,38,41,52,47,29,23
29,40,32,41,33,42,35,32,26,31,44,39,24,37,53,49,40,28,27,51,34,26,34,38,50,36,37,39,52,43,29,23
24,37,27,43,32,40,32,31,25,32,43,36,22,37,53,47,40,26,27,47,35,25,33,39,49,35,35,42,51,40,27,23
29,37,29,44,29,37,32,32,22,33,43,37,18,35,55,47,37,24,25,46,35,23,36,38,50,32,35,42,50,40,24,20
27,35,31,43,28,33,29,29,23,32,41,38,17,38,55,48,34,22,25,44,37,19,38,41,53,34,33,41,46,39,26,17
31,39,33,47,25,35,27,30,24,34,43,41,17,39,55,43,30,22,24,44,37,16,36,42,55,35,36,41,46,41,25,14
32,41,31,50,25,33,25,28,24,32,40,42,17,40,54,44,29,17,21,45,39,17,33,44,51,33,37,41,47,38,27,12
37,39,28,48,25,31,24,27,23,29,37,40,18,41,54,44,30,20,24,43,41,19,37,48,47,32,39,40,43,41,29,13
33,41,28,45,30,28,24,28,22,30,38,40,19,40,56,43,33,22,22,43,42,22,36,50,47,35,43,36,42,36,31,15
35,39,27,45,29,30,23,28,20,30,39,42,19,41,56,43,31,23,23,43,39,23,33,51,44,40,48,37,43,36,31,15
37,40,29,49,28,33,25,30,19,35,39,43,21,41,53,41,31,25,27,44,38,25,35,50,47,40,51,41,45,35,32,17
34,38,30,52,30,37,27,33,19,36,39,41,18,38,47,40,33,25,26,42,38,24,36,51,48,35,51,45,45,38,28,20
35,39,29,50,31,38,26,36,18,37,40,40,19,38,50,40,39,25,26,44,36,20,34,52,47,34,54,41,45,39,29,20
34,44,31,53,33,41,26,38,16,36,38,40,22,38,49,41,44,25,26,43,36,20,30,54,46,34,51,45,46,39,29,21
35,44,29,55,32,44,26,39,16,36,38,38,21,38,48,40,42,28,23,40,31,24,26,48,45,30,52,51,45,37,26,22
34,42,28,51,31,43,26,37,15,32,33,36,20,40,50,42,43,29,25,37,25,26,27,45,45,29,52,48,44,38,29,23
32,40,30,48,30,43,28,37,15,34,34,34,21,38,49,43,44,32,27,35,25,27,27,46,48,29,49,46,45,39,27,24
29,41,30,50,31,45,26,36,17,32,34,30,21,33,48,38,44,29,27,36,24,27,26,41,49,28,46,46,45,38,23,23
29,38,29,54,28,46,28,40,18,32,30,30,20,32,46,38,42,28,29,36,23,25,28,39,50,28,46,47,46,42,22,23
26,38,28,54,31,42,28,38,17,30,30,26,18,31,45,37,43,30,32,38,24,26,28,36,48,26,43,48,46,40,23,24
25,38,28,53,32,42,28,38,20,28,30,27,18,31,45,35,42,30,30,36,25,26,30,36,46,23,41,44,45,40,23,22
27,41,27,51,33,37,27,38,21,26,29,25,19,29,46,36,39,27,29,36,26,25,31,35,43,24,44,41,44,43,23,21
27,43,29,48,33,36,26,35,23,25,27,25,19,29,43,35,33,29,30,34,28,29,33,33,43,27,43,39,46,42,23,22
25,45,29,46,36,38,27,35,24,27,27,25,19,29,40,32,32,29,31,32,28,31,38,30,44,33,45,37,45,41,29,24
25,46,30,44,36,35,27,34,24,27,27,25,21,27,39,31,33,29,32,36,31,29,39,32,43,35,44,37,46,47,29,24
21,46,30,46,40,33,28,35,25,28,30,25,25,25,34,30,34,28,33,40,33,31,37,32,41,36,42,39,47,47,26,26
23,51,34,49,40,38,31,36,26,27,29,25,27,24,35,29,34,27,36,41,34,31,38,29,38,36,46,42,45,46,25,25
21,48,33,47,37,36,33,37,22,29,28,26,28,26,34,29,33,28,33,39,33,31,36,30,38,36,46,42,44,45,27,25
19,48,36,46,39,37,33,35,21,31,29,24,28,26,35,30,34,28,30,40,34,30,34,31,36,34,46,42,46,43,28,25
18,50,38,47,37,43,29,37,20,33,25,25,28,23,35,27,29,24,26,36,32,30,34,30,35,31,44,45,42,42,26,24
18,48,38,43,36,44,29,36,20,33,25,23,26,21,33,25,28,22,24,33,28,28,31,30,36,37,43,46,41,38,27,24
14,46,40,44,34,46,30,33,20,35,26,26,26,24,34,26,30,22,26,33,27,28,29,30,38,37,43,48,40,34,28,23
13,44,42,47,35,49,32,35,19,32,25,26,26,24,32,26,30,21,27,34,27,27,26,32,40,34,42,48,39,34,27,21
10,40,39,45,32,48,31,36,20,31,25,25,23,23,33,25,28,21,27,34,26,24,25,30,40,34,44,46,37,34,24,20
7,40,38,46,32,48,30,34,21,31,27,25,21,23,34,27,29,19,26,32,24,22,24,30,43,35,46,41,41,27,25,20
7,42,37,44,30,51,33,33,25,31,26,25,20,23,36,27,27,20,25,34,25,21,23,34,45,33,47,40,41,23,26,19
4,39,33,40,29,50,29,33,25,31,26,25,18,24,38,26,26,19,22,30,22,20,24,32,46,34,45,39,40,24,26,20
5,36,37,41,30,52,33,34,27,31,27,25,17,23,37,27,25,17,20,29,25,20,24,32,47,33,43,40,40,25,26,20
7,39,36,41,29,49,35,33,28,29,31,26,18,23,36,25,25,17,23,29,27,21,25,36,46,33,40,40,39,28,25,18
13,39,35,40,29,46,39,32,29,29,33,27,19,27,36,27,27,19,25,31,30,21,27,38,49,35,41,38,45,31,27,17
14,44,34,42,30,44,38,32,30,28,34,28,22,28,37,31,29,20,26,33,32,22,28,40,48,30,44,36,44,34,28,18
19,44,31,40,32,42,40,33,29,28,35,26,24,26,40,34,32,22,26,34,33,23,29,40,49,28,43,39,45,41,28,20
21,42,30,38,31,39,38,31,30,31,35,27,24,27,42,35,33,25,26,33,34,23,30,40,50,30,43,43,44,43,31,20
25,41,29,40,31,39,39,31,29,29,35,25,25,25,43,37,32,24,28,35,35,23,29,43,47,26,41,43,45,44,32,21
27,43,32,40,32,39,40,32,30,32,35,27,26,24,41,34,32,25,29,35,35,25,31,43,44,25,40,44,41,45,31,23
32,40,35,41,33,37,41,31,27,33,34,26,25,24,42,34,32,23,29,33,37,27,35,42,46,29,40,47,46,48,30,23
37,42,37,41,35,35,41,31,28,33,36,29,29,25,39,33,30,23,32,33,39,29,34,44,47,28,45,47,47,47,32,24
39,45,35,43,34,34,39,33,29,34,36,29,29,25,39,33,32,25,35,35,37,29,35,42,47,30,48,48,48,51,32,26
42,43,32,43,35,36,34,32,28,32,33,30,27,27,39,37,31,26,34,32,34,28,35,36,46,31,53,47,48,51,33,27
42,41,31,41,34,36,32,35,29,31,30,29,25,25,38,37,30,27,35,32,33,27,35,35,45,31,55,47,45,52,32,28
44,38,34,42,31,38,32,33,27,32,30,28,24,24,35,35,29,26,36,33,36,27,34,32,46,32,54,48,50,52,32,27
41,39,35,41,28,36,30,31,29,30,28,30,22,24,32,30,24,24,34,30,34,26,34,32,45,32,51,43,53,47,30,26
40,38,34,41,28,36,30,32,29,29,28,30,21,24,30,30,25,21,32,29,33,25,34,31,42,30,50,39,54,44,29,27
38,37,35,37,26,34,29,30,32,32,28,30,22,24,28,28,23,21,29,27,32,26,33,32,44,29,51,38,54,42,26,24
39,32,31,35,25,34,28,29,30,27,24,28,23,23,27,27,21,20,28,26,32,26,32,31,45,28,47,36,56,42,24,22
35,31,27,33,23,33,26,29,31,24,25,27,23,23,25,27,21,21,27,24,32,23,30,29,41,24,47,36,51,40,25,22
34,28,28,36,22,34,26,28,31,22,23,26,20,22,24,26,22,22,25,26,32,22,29,29,38,23,46,33,50,44,23,22
34,28,30,38,25,36,26,27,31,22,22,24,20,20,24,26,21,22,24,27,33,22,30,31,36,24,48,31,51,41,21,21
31,26,30,37,22,33,27,27,31,23,22,22,22,18,22,22,20,21,23,27,33,24,32,35,36,26,47,33,52,43,20,22
28,26,28,37,21,29,28,25,31,23,24,23,24,17,22,20,19,18,20,25,31,24,31,39,36,28,46,32,54,40,19,21
25,25,25,37,21,27,28,25,33,22,23,27,23,17,25,19,19,19,19,23,27,24,30,40,37,28,46,31,53,41,17,20
28,27,27,38,21,29,30,26,32,24,23,25,23,17,26,19,19,19,19,22,27,25,31,38,34,29,49,33,53,44,17,21
31,32,29,39,21,31,29,25,31,22,23,25,24,17,25,19,22,20,20,25,27,25,32,36,36,34,51,36,54,50,17,21
35,36,31,44,24,32,32,24,29,20,27,25,24,21,31,23,22,19,21,25,27,26,32,34,37,36,54,40,56,54,20,24
35,40,36,44,26,38,33,24,30,23,30,25,25,22,34,26,22,20,22,28,28,25,34,37,34,38,59,43,59,58,22,26
41,45,37,48,28,41,32,28,28,26,30,27,26,23,35,27,25,21,27,31,28,27,36,39,38,40,61,47,63,62,23,26
43,45,37,48,30,44,33,31,30,29,32,26,25,24,40,30,27,21,27,35,30,29,40,40,42,42,62,50,63,62,26,27
45,47,37,46,28,44,33,31,29,29,33,28,27,26,40,30,28,22,27,33,30,29,42,39,45,43,61,52,64,64,28,27
47,47,37,47,29,47,33,33,29,31,35,30,29,28,43,33,30,23,27,33,31,30,40,37,44,44,59,55,61,63,29,26
48,46,41,48,34,52,34,36,29,31,35,31,30,31,47,36,34,26,28,37,35,32,42,35,44,42,58,56,60,65,30,27
51,46,43,47,35,53,36,40,27,32,33,27,31,33,47,37,37,27,29,38,37,33,45,37,42,40,56,59,57,63,29,29
49,43,41,48,35,55,37,41,27,34,36,28,32,36,49,41,38,29,32,40,38,33,46,38,42,41,58,59,54,61,29,29
48,43,43,49,39,55,39,41,27,34,37,27,33,35,51,45,41,31,33,39,39,33,48,38,43,39,58,56,54,58,30,29
49,42,42,49,39,57,37,43,27,34,33,28,33,32,47,44,47,35,33,40,40,33,48,39,45,40,55,53,51,57,28,30
48,40,40,50,38,52,36,44,26,31,35,29,32,33,46,42,48,38,34,40,42,35,50,40,47,42,51,53,47,55,30,28
44,37,39,49,37,54,37,41,28,29,35,28,33,32,46,43,49,39,29,39,40,33,50,37,45,44,50,49,46,53,30,29
39,40,41,48,36,52,37,39,29,27,37,28,31,31,46,45,49,41,29,37,37,31,49,37,43,46,50,43,48,47,28,30
35,37,40,46,35,51,36,39,29,26,37,28,29,31,44,43,47,39,27,35,34,31,49,39,42,45,47,42,44,42,29,29
33,42,41,47,33,49,33,35,28,23,38,27,27,31,46,44,48,41,27,36,33,29,49,38,45,43,48,40,46,37,28,28
32,46,41,48,29,47,34,33,26,24,39,24,26,28,44,46,48,42,29,34,32,28,52,38,48,43,49,39,44,34,27,28
32,50,39,49,30,51,33,32,29,24,46,25,27,31,46,47,46,43,31,39,31,27,50,37,49,47,53,40,48,36,28,29
32,52,39,50,33,49,32,32,30,22,44,26,29,30,48,47,47,44,32,43,34,27,52,41,50,47,50,41,50,34,32,30
32,50,39,49,31,50,31,34,34,26,43,29,29,35,49,45,45,43,31,41,34,29,53,42,49,49,51,46,52,36,30,31
26,47,42,50,31,51,34,33,32,26,44,27,30,37,51,45,44,44,33,44,36,29,52,44,48,47,52,47,53,36,33,31
27,49,42,51,33,50,38,32,34,30,40,26,30,38,49,47,45,41,32,45,34,28,51,42,46,47,55,47,54,37,31,31
27,51,45,51,37,51,38,35,32,30,44,28,29,40,53,47,43,39,32,44,33,28,50,43,46,46,56,45,54,39,32,31
30,48,45,52,37,49,38,35,30,29,41,26,32,39,49,42,42,40,37,43,33,28,45,43,47,44,54,49,49,44,30,28
29,49,46,53,39,50,38,35,29,31,45,27,29,43,51,44,43,41,39,47,36,27,43,40,52,43,53,49,51,43,32,29
28,45,50,52,43,50,39,37,30,31,39,26,28,40,49,44,44,40,40,49,36,28,44,41,52,45,52,48,46,42,34,31
30,43,51,53,44,50,36,38,33,29,38,29,27,41,49,41,44,38,38,47,35,28,43,37,51,46,51,50,49,44,36,32
29,44,54,53,43,47,35,34,32,29,34,30,26,38,48,40,43,36,36,43,35,30,42,35,52,44,50,48,49,42,37,31
28,43,54,51,41,46,36,34,28,29,35,28,27,38,45,38,44,37,34,42,34,31,41,33,54,47,53,49,48,43,37,30
31,47,53,51,39,46,36,34,27,25,37,27,27,35,43,37,43,37,35,43,34,28,38,33,53,42,51,47,45,41,37,28
37,49,53,49,40,45,34,35,29,26,40,30,27,35,43,36,45,35,33,46,35,27,37,31,51,44,52,49,45,41,36,26
38,46,53,49,38,47,31,33,30,25,41,31,26,32,44,34,44,34,34,44,35,28,35,31,51,46,52,49,47,39,34,27
41,48,50,48,36,45,34,30,30,26,37,30,28,33,44,36,46,38,34,48,38,27,34,34,52,48,54,50,46,37,36,26
44,49,49,46,35,45,33,29,28,30,39,32,26,38,46,40,46,37,31,45,39,29,37,35,55,48,54,48,46,40,38,26
45,47,45,46,34,43,35,28,26,27,36,29,27,36,48,40,47,35,29,43,38,29,37,36,52,48,55,48,45,40,34,26
44,48,44,44,31,47,37,29,26,27,37,31,26,38,48,38,44,34,28,44,38,28,36,36,51,47,56,49,48,42,34,25
43,47,40,45,33,49,40,30,25,29,36,31,27,37,49,37,43,33,27,47,39,29,35,37,51,47,59,45,47,45,37,25
42,46,38,47,35,52,40,31,24,31,36,30,28,36,46,38,44,33,27,45,39,27,36,37,51,47,56,44,45,47,37,23
42,46,36,47,37,52,40,33,25,31,37,32,25,34,47,41,41,29,27,41,35,27,31,36,53,41,55,44,45,47,37,21
40,46,34,47,38,50,41,32,21,32,36,30,23,32,46,41,39,27,25,39,33,27,32,36,54,42,55,43,48,48,39,24
36,47,30,49,40,49,37,32,19,29,33,27,20,29,47,42,34,27,27,36,31,29,33,37,55,42,54,39,46,47,41,25
32,49,28,48,38,48,40,33,18,28,32,26,20,30,48,44,34,28,26,36,32,28,33,37,57,40,53,36,45,46,42,25
32,47,29,46,38,48,40,34,20,30,33,26,19,28,46,41,33,23,26,34,28,29,32,40,55,37,48,38,47,48,39,25
28,49,28,44,38,46,38,36,22,29,31,28,22,26,42,40,34,22,24,34,26,28,31,38,53,34,46,40,51,46,38,26
28,48,28,43,36,42,34,36,23,30,32,29,22,23,40,38,32,22,24,32,24,26,32,37,53,32,48,41,54,50,38,26
32,50,26,45,37,37,32,34,23,30,32,29,24,25,39,39,31,20,24,31,24,26,32,41,51,33,49,41,56,52,39,27
33,52,30,45,37,34,29,30,22,28,31,26,23,24,41,38,31,21,25,32,26,25,30,44,48,33,47,41,57,51,37,27
32,50,28,43,34,32,30,32,22,27,31,27,20,24,43,37,29,19,23,32,27,23,31,47,45,32,47,41,58,49,37,30
34,52,32,42,30,32,28,30,25,24,26,24,20,24,42,34,30,20,22,32,30,24,31,48,40,32,44,38,58,46,32,33
30,48,32,43,31,32,25,31,27,23,25,26,21,26,42,33,31,19,21,34,31,25,28,50,40,33,45,40,56,42,31,32
31,46,34,38,26,30,28,30,28,26,26,27,22,26,40,31,30,18,18,33,29,22,30,49,40,34,46,40,56,42,29,30
31,47,37,43,26,30,25,30,28,27,27,29,24,28,41,30,30,18,20,33,29,24,30,50,38,30,46,44,57,41,28,32
27,45,41,45,24,29,28,28,27,26,28,30,25,27,41,31,29,19,19,32,32,23,34,48,39,31,45,42,55,41,29,31
28,44,43,47,26,35,30,29,25,27,31,27,23,25,43,29,27,19,22,32,32,26,33,47,38,34,45,40,55,39,29,30
35,47,44,51,28,38,34,28,27,28,30,29,25,27,45,32,30,20,24,34,34,29,37,49,41,35,45,41,53,39,33,28
36,49,45,50,27,41,34,28,26,30,30,28,26,24,46,32,32,20,24,32,34,30,36,45,40,34,43,42,53,40,30,27
37,49,44,49,27,42,35,29,28,29,29,28,28,23,43,35,31,23,25,29,29,31,41,42,39,35,46,43,51,39,29,28
37,49,45,49,28,41,35,30,27,30,30,27,27,23,44,36,34,25,27,30,30,33,44,44,41,36,47,45,51,41,30,26
36,48,43,48,30,42,39,32,25,33,33,30,28,26,44,38,32,24,26,32,28,30,46,42,42,37,46,45,50,42,30,24
36,50,44,46,31,44,41,34,26,33,35,32,28,28,46,40,32,26,28,29,28,30,49,37,42,36,48,41,50,46,30,23
34,49,41,47,29,45,41,35,25,31,35,31,27,29,46,43,35,27,29,29,32,29,47,37,40,35,47,43,51,44,31,23
35,47,39,43,30,45,39,36,22,30,34,30,24,28,47,44,35,28,30,26,30,26,48,34,42,34,49,41,52,47,30,20
37,45,35,43,30,45,38,36,24,30,33,28,21,29,47,43,35,29,31,26,28,25,44,30,40,34,52,40,49,44,29,22
37,44,34,43,30,42,39,36,25,30,29,29,21,31,48,43,36,29,29,27,29,25,45,32,37,33,52,38,49,47,29,24
33,44,35,43,29,43,39,35,24,28,28,28,20,30,46,41,35,30,28,29,30,22,41,28,36,34,54,34,48,48,26,24
34,42,35,46,31,43,40,37,26,26,28,28,20,34,43,37,31,30,28,32,32,24,40,29,35,35,52,32,47,46,27,25
34,42,33,45,27,41,39,37,26,29,31,29,21,34,44,35,31,29,29,31,33,24,35,29,33,33,50,33,49,49,23,25
35,45,35,42,26,41,42,35,28,27,31,30,22,34,41,33,31,29,29,34,34,23,32,27,32,30,51,29,50,49,22,25
35,47,37,43,27,41,43,33,30,27,32,27,21,31,41,33,33,33,31,35,33,26,30,25,32,32,53,31,52,52,25,26
37,44,35,44,26,38,44,33,27,27,30,23,20,28,40,31,35,33,31,38,32,26,29,26,31,33,53,35,55,53,24,26
40,45,36,44,28,38,47,32,29,27,31,24,22,26,41,30,34,34,30,38,28,29,27,25,35,34,54,35,55,56,22,27
38,45,36,45,30,38,50,32,30,29,35,24,24,25,41,27,32,31,27,40,28,30,29,29,35,35,53,35,55,52,21,30
38,46,34,42,29,35,45,32,31,29,36,26,24,26,42,28,30,30,27,39,29,31,31,31,39,33,54,33,60,52,21,31
37,45,33,44,27,32,45,31,32,29,39,26,26,26,42,30,31,31,27,40,30,31,32,31,44,32,54,38,62,51,24,32
38,45,33,43,31,32,42,34,33,31,39,25,25,27,41,31,29,30,28,40,30,35,32,37,41,31,52,39,65,48,25,32
33,44,33,37,30,29,45,36,33,32,40,24,25,23,43,33,31,31,29,39,27,32,33,38,44,30,54,40,65,49,26,33
30,45,34,37,32,30,46,34,30,30,38,24,25,27,42,36,36,31,28,38,26,30,33,40,44,32,55,42,65,46,28,32
29,42,33,39,33,31,45,33,28,33,39,26,27,30,43,36,33,31,27,33,23,29,32,37,48,32,57,43,63,45,28,30
27,41,30,42,32,30,43,32,28,33,36,26,27,30,41,34,32,27,27,32,24,28,32,38,49,30,61,43,60,41,26,30
26,42,32,43,34,32,42,33,29,33,38,27,26,32,42,35,30,28,28,31,25,27,31,39,50,30,60,41,59,39,28,30
26,43,31,43,35,31,36,35,29,34,36,26,25,36,44,38,30,27,29,35,27,27,32,43,50,28,60,40,58,40,30,31
27,44,29,45,34,33,36,34,30,32,32,26,24,36,43,38,30,26,30,32,28,28,30,41,48,26,59,39,56,44,30,30
26,46,30,45,35,34,37,37,30,30,30,24,24,34,40,36,30,26,31,30,28,29,30,38,46,28,59,40,52,46,31,28
27,48,30,47,37,34,36,37,31,30,29,22,21,33,41,37,30,24,32,27,25,28,29,37,43,31,62,39,49,45,32,27
25,52,31,45,35,35,34,36,31,28,29,23,23,33,42,38,34,25,31,24,25,25,30,32,44,33,63,38,48,48,33,27
28,52,28,50,38,36,33,32,33,27,28,26,22,38,42,38,34,26,30,22,26,25,30,29,45,36,63,41,47,50,36,25
30,51,29,53,42,39,34,34,34,30,28,28,23,34,41,37,31,25,31,24,28,27,30,30,49,33,62,40,47,55,35,25
31,52,28,55,43,42,31,37,35,29,28,29,22,34,42,40,34,26,32,27,31,27,30,37,45,37,57,43,46,53,37,27
34,49,33,55,45,45,29,37,34,28,27,29,23,35,44,42,35,28,32,25,33,26,33,41,44,37,53,45,46,54,37,27
35,51,32,55,43,44,30,34,34,27,25,30,24,33,42,42,38,29,32,24,34,27,33,44,43,36,51,44,46,52,35,27
38,51,34,53,43,48,32,31,33,27,30,34,24,32,38,38,38,31,33,21,33,26,36,41,40,38,50,44,47,52,36,25
40,52,36,53,42,50,31,32,33,27,31,36,25,34,36,38,38,34,34,22,35,25,37,45,41,38,51,47,51,53,36,24
42,50,36,54,40,51,30,30,35,27,35,39,25,33,35,39,38,34,32,23,33,27,38,45,43,38,49,51,53,54,34,23
42,50,38,54,39,54,29,29,30,27,34,40,26,32,34,38,37,35,32,23,35,26,38,45,46,34,49,50,55,54,30,22
41,48,34,54,38,54,34,28,31,30,35,39,26,33,34,38,34,36,34,22,34,28,38,44,48,32,50,54,54,54,28,24
42,49,36,54,36,54,33,27,29,31,36,36,28,30,34,39,33,33,35,23,35,29,39,46,49,32,48,51,56,51,26,26
40,51,35,52,31,51,30,30,30,28,38,36,26,30,35,39,31,32,38,24,36,28,39,45,45,32,49,49,56,47,26,28
38,51,35,52,30,48,30,28,29,25,36,31,27,26,34,38,30,35,39,24,37,30,40,43,44,30,50,49,57,46,28,28
37,52,34,50,29,47,31,33,31,27,38,33,27,25,34,37,33,33,37,28,36,33,39,40,47,31,50,48,58,48,29,28
39,55,34,53,32,50,30,35,30,28,40,33,26,25,35,34,34,30,39,30,36,32,41,36,49,34,50,46,56,49,30,28
34,55,34,53,31,46,29,37,29,27,34,32,26,25,35,35,33,29,37,28,36,32,40,36,49,33,49,46,58,45,29,29
29,55,32,53,30,40,26,34,29,29,34,31,27,23,37,40,38,28,35,32,40,31,37,36,50,38,49,43,56,41,30,30
25,53,33,53,32,42,27,34,25,29,30,27,29,23,38,39,38,28,34,31,39,27,36,37,50,40,49,42,53,39,30,30
21,49,33,50,30,41,29,34,25,25,32,27,29,23,38,37,42,28,33,35,39,31,36,39,52,44,48,41,51,41,30,29
23,47,36,52,32,38,24,34,23,24,33,27,28,22,37,37,43,29,32,39,37,31,36,43,49,46,46,43,51,42,32,29
23,45,34,52,33,39,27,35,21,25,35,28,27,22,38,39,47,29,31,41,37,30,34,43,48,46,46,46,50,42,30,28
25,43,33,53,33,41,27,32,22,25,34,26,26,22,37,37,47,29,27,38,38,30,36,45,48,48,46,46,49,46,34,26
25,46,33,52,32,43,29,33,24,28,36,28,27,24,38,34,44,24,23,36,35,30,35,43,51,48,45,47,49,49,30,28
27,47,31,54,34,40,31,29,21,29,38,29,27,27,37,34,40,24,27,36,36,27,38,44,51,49,47,48,52,48,30,28
26,45,30,52,34,38,34,28,22,30,38,30,26,28,39,34,38,24,27,36,36,30,38,48,49,47,47,50,54,48,33,28
31,45,30,56,34,40,34,26,24,29,37,28,27,26,38,32,36,22,28,39,39,29,37,49,52,48,48,49,53,51,32,26
34,44,33,52,35,43,38,31,26,30,36,26,26,26,36,28,31,21,30,36,32,30,37,44,54,45,47,52,52,52,31,25
38,46,34,49,32,42,41,30,29,31,39,29,26,28,35,27,30,20,32,37,33,31,40,43,51,42,48,52,54,54,30,24
42,52,34,50,36,44,37,32,32,33,40,31,27,29,33,27,27,21,33,36,32,26,40,42,49,42,50,52,57,52,34,28
42,53,32,47,34,48,38,32,32,32,36,32,28,30,32,24,26,20,32,35,35,24,40,41,48,40,50,46,56,49,32,25
41,50,34,45,34,47,35,34,34,29,33,30,27,28,28,20,22,20,33,34,36,22,40,42,49,40,51,44,55,46,32,26
41,54,34,45,32,48,36,35,33,29,33,31,27,29,28,20,22,20,34,36,32,23,38,40,48,37,51,46,58,43,29,25
46,50,34,46,32,46,35,37,32,29,29,29,25,27,25,21,22,20,34,40,36,22,40,42,47,39,53,44,56,41,28,24
44,47,32,45,28,47,34,38,34,25,26,25,24,26,26,22,22,20,31,39,33,22,34,42,45,35,51,43,55,44,26,22
43,46,32,45,25,49,32,39,34,25,25,26,26,24,25,24,20,22,30,38,30,20,33,40,46,35,54,42,55,45,24,22
41,43,31,43,26,48,32,38,32,27,27,27,24,25,26,26,20,22,28,38,28,20,32,40,43,36,54,42,53,43,25,22
41,42,32,45,26,46,30,34,29,25,28,29,25,27,26,26,20,21,26,37,31,19,33,41,43,36,54,44,51,42,25,22
41,45,33,47,29,45,27,35,27,24,31,28,24,26,28,28,20,22,24,39,31,19,28,43,42,37,53,44,48,41,27,25
40,44,32,46,27,40,30,31,23,24,29,27,24,25,28,28,20,22,24,38,32,21,32,42,41,36,51,44,46,40,25,23
39,46,33,47,28,39,31,34,23,27,31,26,23,24,28,28,20,22,24,38,32,21,32,44,43,36,53,47,45,44,24,24
38,45,31,48,25,40,32,32,22,32,32,25,24,23,30,28,19,21,22,35,29,22,34,43,42,33,52,47,47,46,23,22
35,39,31,47,26,35,31,30,20,32,32,24,22,23,29,27,19,22,22,34,30,20,33,40,42,36,52,49,47,45,26,22
31,40,30,45,28,34,32,29,20,31,33,25,22,23,29,27,20,22,22,32,25,22,33,37,42,34,50,48,50,47,26,21
31,43,33,46,30,33,32,28,20,34,36,28,22,24,28,26,22,24,23,32,28,22,37,36,42,35,51,48,50,45,28,21
33,42,32,46,34,32,28,26,21,33,33,27,23,25,27,25,23,23,24,34,29,20,38,35,42,37,48,47,47,45,27,21
33,44,32,48,35,31,27,29,25,32,34,28,25,26,27,24,26,24,27,35,30,23,40,35,40,36,48,48,52,48,27,23
33,46,30,51,35,32,33,30,25,32,34,25,23,23,28,26,30,26,29,39,28,23,40,35,36,38,50,47,55,50,31,23
35,43,28,51,36,31,35,30,25,34,30,26,23,24,28,25,35,29,33,39,30,25,40,34,38,36,52,46,59,50,31,23
36,44,28,53,36,32,34,32,29,35,28,25,23,24,32,30,38,30,34,40,32,25,37,37,38,37,53,48,59,52,32,22
35,45,29,53,34,31,34,30,29,34,30,24,25,24,34,32,38,30,34,40,32,25,39,38,41,38,51,47,58,51,32,23
34,44,29,51,36,33,31,31,31,33,31,27,27,25,36,35,41,31,34,44,34,25,37,40,41,41,52,44,56,48,34,23
36,47,32,54,37,38,33,33,33,33,33,29,30,28,38,37,45,33,35,47,35,27,41,41,40,43,53,42,54,48,33,25
41,52,35,55,37,39,31,34,32,36,35,29,32,29,39,37,45,35,37,49,40,26,39,40,40,45,54,40,55,51,35,25
38,49,34,55,36,40,31,32,30,35,37,29,31,27,39,37,45,36,37,48,38,24,37,39,39,46,52,40,57,50,34,25
35,48,34,52,33,40,32,32,27,37,39,29,29,25,41,39,45,35,34,47,38,26,38,40,43,45,55,45,59,50,33,25
35,49,35,51,29,41,34,29,26,39,38,27,30,23,40,41,43,34,32,47,38,26,37,41,43,43,54,44,57,46,32,26
31,48,33,49,31,43,29,29,25,41,38,29,31,26,40,42,44,37,30,45,38,25,37,43,45,41,54,46,56,46,29,27
25,47,35,52,29,43,31,31,27,38,38,29,31,26,39,42,43,35,29,46,39,23,37,45,45,40,55,44,52,44,27,25
24,46,34,51,30,45,31,33,25,36,40,32,32,28,38,40,42,34,30,45,38,21,36,44,46,38,54,44,54,44,24,24
23,45,34,54,32,44,31,34,23,35,41,33,31,27,40,40,42,34,30,49,36,22,34,38,46,37,54,47,57,45,24,23
23,45,34,54,34,40,34,33,21,33,38,31,30,27,39,38,40,34,31,45,35,22,33,37,47,35,53,51,57,46,23,24
23,47,34,53,35,38,31,33,21,33,36,32,29,24,40,42,41,35,31,42,34,23,29,37,47,33,51,49,59,47,25,25
18,44,33,51,35,41,31,33,21,32,36,34,29,22,42,46,44,35,31,42,31,24,30,41,47,32,51,51,56,43,27,26
19,44,33,54,36,40,31,32,22,30,32,32,29,22,40,44,44,34,30,42,30,25,29,42,48,33,53,51,51,43,27,27
20,47,37,55,39,41,31,33,25,26,30,31,28,23,38,43,45,37,33,43,31,23,25,41,45,31,50,48,50,45,27,26
20,43,36,54,39,41,30,35,24,25,30,31,27,23,39,39,43,38,34,38,28,24,24,38,46,32,52,51,49,45,28,23
23,45,38,55,40,41,30,36,25,25,32,33,27,22,42,40,40,36,36,39,29,26,26,39,48,32,52,48,54,46,30,23
25,49,37,53,39,43,30,35,26,29,33,32,29,21,42,40,38,35,35,37,27,27,29,40,47,32,51,53,54,47,30,22
26,47,38,54,39,40,31,34,26,30,31,29,28,19,39,37,36,36,34,37,27,29,29,39,48,35,51,52,55,48,35,23
27,50,36,50,36,40,30,33,29,29,27,27,27,19,34,34,34,34,32,32,26,28,29,39,45,34,49,49,52,47,34,22
28,54,36,52,33,42,28,32,30,32,29,27,27,19,31,34,34,34,32,32,26,29,30,38,46,32,51,47,52,50,34,21
28,49,36,50,31,41,32,33,30,30,30,25,29,19,31,31,29,31,33,34,29,27,31,38,47,31,47,50,51,48,31,19
28,48,35,49,29,39,33,31,30,30,26,22,28,20,28,26,26,29,31,32,31,27,31,34,46,30,46,48,48,48,28,18
29,48,34,45,27,37,31,33,30,32,27,22,29,20,28,27,25,27,31,33,33,26,32,34,45,29,45,48,47,48,27,20
27,44,30,47,24,36,32,34,29,34,26,22,29,20,27,24,22,24,28,32,34,28,34,32,44,27,43,46,47,47,25,20
30,44,29,48,26,35,33,34,30,36,29,22,28,19,24,24,22,22,27,34,36,25,35,33,42,26,41,48,48,50,24,20
28,43,29,49,24,34,33,34,31,33,27,19,27,19,21,21,22,22,24,33,35,25,33,31,40,25,40,46,41,46,23,20
30,42,27,46,25,34,29,32,28,29,25,19,25,21,20,20,22,20,24,32,34,26,30,28,40,25,38,43,43,45,23,23
27,42,25,45,24,34,27,29,29,27,26,18,25,24,24,22,21,19,23,32,34,25,29,27,40,23,37,41,43,45,20,24
28,40,28,48,26,36,28,29,27,25,27,18,26,24,24,22,22,18,22,32,34,26,29,27,37,26,39,42,42,46,20,26
28,40,31,49,27,36,28,30,25,22,25,19,24,25,27,23,23,19,24,31,34,27,30,29,34,26,37,38,44,46,21,27
27,41,33,50,28,35,25,28,24,23,25,20,22,26,28,22,23,20,22,29,30,27,31,30,34,26,40,37,43,45,22,27
31,41,33,53,28,35,23,31,26,22,26,24,21,28,34,26,25,21,23,29,29,27,31,32,36,30,42,40,45,45,26,28
34,43,36,52,30,36,24,30,29,21,26,24,22,28,38,28,28,24,24,30,28,27,30,32,38,33,43,42,48,46,26,26
34,44,37,52,32,35,23,28,32,19,27,25,24,31,42,30,32,26,25,30,28,27,31,36,39,35,48,42,48,49,27,26
33,45,38,52,32,36,23,28,32,16,26,23,25,32,46,32,34,28,27,30,30,27,31,38,40,38,48,40,48,46,28,27
34,44,38,51,31,36,21,29,31,17,25,25,27,31,47,33,35,28,28,30,27,28,33,35,41,41,47,43,53,48,27,27
36,44,41,54,30,35,23,31,31,17,27,25,27,29,54,38,37,32,29,31,29,27,35,39,37,44,49,41,53,52,28,26
37,45,41,54,30,38,24,33,31,19,27,27,27,27,52,41,41,33,29,31,29,27,36,41,36,42,50,43,49,47,28,24
38,44,40,56,32,34,22,33,31,23,31,28,28,30,52,44,42,36,30,34,30,26,37,44,39,38,52,44,52,47,30,24
40,43,37,53,31,32,22,35,33,24,32,27,29,29,51,43,43,35,29,35,32,24,38,47,40,38,50,50,53,46,30,22
43,45,35,56,33,35,24,34,32,27,34,26,28,28,50,43,42,34,28,34,32,26,41,46,40,39,52,51,50,50,31,22
38,48,32,57,35,35,24,31,31,26,36,22,28,26,46,39,40,32,26,33,29,24,42,43,39,37,51,51,49,51,28,22
37,46,29,58,34,36,24,29,29,25,36,24,27,28,44,38,37,29,25,31,29,25,44,42,40,36,52,49,48,50,30,23
38,45,28,53,32,36,24,30,26,28,36,26,26,26,42,38,34,27,24,30,29,24,44,40,39,34,52,49,49,48,30,24
36,44,28,52,30,34,24,30,28,32,37,27,24,24,39,36,32,26,22,33,27,24,44,41,40,30,55,47,51,45,28,24
36,44,28,50,30,35,25,27,28,31,37,26,22,24,36,36,30,25,21,34,32,24,42,44,38,28,54,46,48,47,30,22
33,43,25,46,29,33,25,25,27,33,38,25,21,24,32,33,27,21,18,33,31,22,41,39,37,25,53,46,47,41,29,21
32,40,24,45,29,32,26,24,26,33,38,24,20,22,31,26,22,20,18,33,31,22,42,36,34,27,50,42,49,40,27,22
30,40,22,40,26,34,26,23,26,31,36,24,18,20,32,24,20,18,18,32,30,22,43,38,34,28,46,42,50,42,26,22
28,37,22,38,26,34,25,23,25,29,35,24,18,20,32,24,18,18,18,34,31,21,41,33,33,27,49,40,50,38,25,24
26,36,21,34,23,33,23,24,26,27,35,24,17,22,32,24,19,17,17,37,32,19,41,34,30,27,46,36,55,36,25,23
27,32,22,31,20,32,24,23,27,26,32,24,18,22,29,23,18,18,18,37,33,20,40,35,33,27,46,35,56,35,25,21
29,34,22,29,19,32,24,24,26,26,32,22,18,20,30,23,18,18,18,36,32,20,38,34,32,26,46,38,59,35,22,21
29,35,24,35,19,32,24,23,26,24,32,20,20,20,30,23,17,18,18,35,30,22,36,35,31,26,44,37,60,36,23,20
28,34,24,36,19,32,24,23,23,23,30,20,20,22,32,24,20,18,17,33,29,22,37,30,27,27,43,38,56,38,27,20
27,34,21,33,22,31,22,23,22,23,29,18,20,22,32,24,22,18,19,32,24,21,36,30,26,26,46,38,58,35,26,22
26,36,24,36,23,32,19,24,24,22,28,22,20,25,30,26,24,18,20,34,25,22,36,35,30,28,48,38,58,38,25,22
30,36,26,36,23,32,21,28,26,23,28,24,22,29,30,31,29,20,20,36,27,22,38,34,32,27,49,40,57,40,28,22
32,35,26,36,24,30,20,26,26,25,25,24,22,30,32,34,32,20,20,35,26,22,35,31,32,30,52,38,56,39,28,22
32,35,26,36,25,30,23,26,26,28,27,24,23,30,32,34,34,20,20,34,25,24,36,33,32,32,50,37,55,43,29,24
30,36,25,35,26,31,26,29,26,30,26,24,23,30,34,37,37,23,21,32,23,25,34,33,34,32,50,36,51,46,28,27
33,39,25,32,26,34,25,30,24,31,28,24,25,30,34,37,36,22,24,33,25,26,32,35,35,30,50,38,55,45,26,29
31,39,25,33,29,33,25,31,24,31,31,24,25,30,34,39,39,23,23,35,27,25,33,37,35,30,49,36,53,43,28,30
31,37,22,32,32,34,24,32,23,32,34,26,23,30,36,39,43,24,24,38,30,22,34,41,38,34,52,37,51,42,29,32
34,40,22,30,33,34,24,31,25,31,37,29,24,30,36,42,44,24,25,36,33,22,33,43,41,36,49,36,52,42,29,32
33,38,23,31,30,33,24,31,24,30,40,30,25,30,40,42,44,25,23,35,36,21,32,42,44,34,49,35,52,43,32,31
35,37,23,30,30,37,25,32,24,28,40,26,25,29,43,43,46,25,23,34,37,21,35,41,42,31,47,35,52,43,32,33
30,35,21,30,33,36,25,31,24,24,40,25,22,26,46,39,45,22,24,33,34,22,32,41,42,29,49,33,50,42,32,34
28,36,24,30,34,38,26,33,24,25,43,24,22,26,44,40,46,24,26,34,37,22,33,40,42,30,48,31,48,41,34,35
29,38,25,34,33,40,26,34,25,23,42,25,23,27,43,41,45,24,26,34,37,22,31,39,45,30,50,30,48,39,33,34
31,37,25,36,32,38,24,32,25,23,42,25,23,26,38,42,44,29,29,34,38,21,28,39,48,28,52,31,50,38,32,31
29,36,26,41,36,38,26,32,26,24,41,25,20,25,40,46,49,31,29,35,37,21,27,39,46,29,53,29,49,41,33,29
29,34,27,43,35,40,27,31,25,24,44,25,21,27,41,45,49,33,32,32,34,21,25,36,48,30,53,29,48,43,34,28
28,38,29,43,32,41,31,31,24,24,42,24,22,28,38,44,46,33,33,31,34,23,24,36,46,28,52,28,50,43,32,30
29,35,29,43,33,40,33,33,23,23,38,22,23,29,39,45,45,35,33,35,33,22,24,38,45,28,53,28,51,42,31,32
29,37,29,45,35,43,35,35,25,25,37,23,25,31,39,45,45,35,35,36,30,25,26,36,46,29,55,29,51,43,29,34
28,40,32,45,35,42,38,32,24,28,38,27,28,33,41,44,42,36,36,38,28,26,24,34,49,33,58,31,49,43,31,33
29,45,34,46,34,42,39,28,22,29,39,28,31,36,41,46,42,40,38,40,30,27,22,36,49,38,54,33,52,43,32,34
28,48,32,46,32,44,38,29,23,29,38,30,30,36,42,42,38,38,38,37,27,28,22,37,47,36,55,32,54,42,32,31
25,47,30,45,33,43,35,29,23,31,39,31,31,37,46,41,38,38,36,37,27,25,25,37,47,38,54,31,53,41,33,31
22,46,30,47,34,45,34,28,24,30,41,34,30,37,49,41,39,32,33,41,28,24,26,38,43,40,51,32,54,37,35,32
22,51,30,47,34,44,34,28,25,32,44,38,33,39,49,38,38,33,30,41,32,22,27,37,41,40,50,32,55,35,38,34
21,50,29,45,32,42,35,30,25,31,41,39,31,39,47,37,39,31,30,45,35,25,29,39,41,40,49,35,54,35,38,33
20,50,27,41,36,40,35,30,28,32,42,38,32,38,46,36,37,28,26,46,33,25,30,36,42,40,50,37,52,34,38,32
17,49,28,42,35,41,36,30,28,36,44,39,30,35,45,33,36,26,26,44,33,27,31,37,43,39,50,38,51,33,37,28
20,47,27,41,35,37,34,31,27,34,40,39,27,35,44,35,37,29,27,45,33,24,31,39,46,41,46,39,52,35,35,29
21,43,25,40,34,36,31,32,30,34,39,35,25,33,43,35,37,27,26,41,34,23,30,42,45,40,44,38,57,36,36,29
20,41,22,38,32,35,30,35,33,37,40,35,24,29,39,31,33,23,23,39,33,22,33,45,44,38,46,39,56,38,33,27
20,40,22,36,34,33,28,36,33,39,40,34,24,28,42,34,36,26,20,44,34,20,31,47,48,36,46,43,54,36,36,27
22,40,22,34,32,34,29,35,33,37,39,31,21,27,40,36,38,28,22,43,33,22,27,47,50,35,47,47,54,36,39,29
26,40,22,37,34,34,29,35,32,37,38,28,20,26,40,37,39,27,25,44,32,25,30,44,50,34,49,47,49,37,37,32
27,37,20,36,31,34,28,33,34,34,39,27,20,28,42,38,39,28,25,44,32,27,31,43,52,34,51,48,46,39,35,31
26,38,22,38,32,34,26,31,34,33,35,29,24,27,42,36,36,28,24,41,31,26,30,43,51,33,50,46,44,40,33,32
25,33,24,39,31,33,24,32,31,32,35,31,21,29,43,39,41,33,27,43,32,27,29,43,52,33,49,44,45,43,34,31
26,36,24,38,30,31,21,29,30,31,41,30,20,30,43,38,41,37,29,43,37,25,29,43,51,32,50,44,43,45,34,32
23,39,24,38,28,36,23,29,33,33,44,28,21,29,40,34,42,39,30,44,40,25,31,40,48,31,54,44,42,42,34,28
24,39,23,40,30,36,23,30,30,32,47,30,21,29,39,35,42,43,30,47,38,25,33,38,48,32,55,44,40,42,35,29
29,37,23,44,28,40,23,31,29,33,45,31,20,31,41,37,41,43,29,49,41,26,32,39,49,33,54,44,44,42,36,29
35,37,23,47,29,38,27,29,31,32,47,33,21,35,40,38,42,41,31,47,45,29,35,37,48,34,53,45,46,46,34,32
36,39,25,48,30,39,28,30,28,34,46,38,22,36,43,39,43,41,32,50,49,31,36,39,47,35,54,44,48,50,33,31
35,39,24,42,28,37,29,31,30,36,46,38,26,38,42,37,41,41,30,49,48,28,33,40,48,35,54,42,51,50,34,29
33,37,23,40,27,35,29,35,28,37,46,37,23,37,42,35,36,38,28,46,45,26,33,43,46,36,53,41,53,49,34,31
36,40,20,38,25,34,28,36,29,36,46,39,18,39,41,38,38,38,28,48,44,24,32,44,43,37,56,39,56,50,38,30
39,44,20,37,22,36,28,35,30,38,48,40,17,40,44,38,35,34,27,44,44,23,35,44,45,37,55,38,55,49,35,29
40,42,20,38,22,38,28,36,31,36,42,41,18,41,46,40,36,28,24,40,38,24,32,42,45,40,53,37,58,52,34,30
41,42,19,41,21,38,29,37,30,35,41,42,16,44,48,41,33,22,19,37,37,24,33,44,42,38,50,35,59,53,33,31
36,41,15,41,21,33,29,37,28,35,37,44,13,45,48,41,33,17,17,37,37,21,30,41,39,38,47,34,58,50,33,29
33,45,15,40,22,32,33,34,28,33,37,43,12,45,49,43,37,19,21,39,37,20,30,39,38,36,48,32,52,47,33,30
28,44,16,38,20,32,30,38,26,30,34,42,12,42,47,41,33,18,20,39,34,18,28,39,36,36,50,29,49,45,28,29
30,43,15,40,18,32,31,38,28,28,39,38,12,44,47,39,36,17,22,38,33,17,31,41,34,37,45,26,48,43,25,27
28,41,16,41,19,33,30,37,30,24,37,38,11,43,48,38,35,16,23,38,33,17,31,39,35,38,42,28,49,40,25,26
28,43,19,40,21,35,31,37,31,27,35,36,11,42,46,38,38,19,25,41,33,19,33,37,35,40,44,27,50,37,25,25
29,42,22,43,23,37,32,37,31,28,36,32,11,41,48,37,35,19,25,41,34,22,36,36,39,37,41,26,49,33,21,24
25,38,20,43,24,34,30,37,33,27,35,29,13,40,46,36,34,19,23,41,35,23,34,35,38,39,41,27,47,29,23,24
23,37,21,43,26,38,34,38,32,28,36,28,13,40,47,37,35,20,23,45,40,21,36,37,38,39,42,24,44,23,23,23
23,36,22,42,29,38,33,37,32,30,39,29,14,37,47,38,36,22,24,47,41,22,34,39,40,41,44,26,43,20,28,25
23,37,23,41,28,41,33,38,35,31,42,27,19,36,47,39,39,25,27,47,41,25,35,40,40,39,47,28,45,21,26,27
23,32,24,38,29,40,28,39,35,31,42,27,19,37,47,37,37,25,25,43,38,25,36,39,38,39,47,29,51,25,25,27
24,34,22,38,29,42,28,34,35,30,44,25,20,38,51,38,40,26,26,40,38,26,36,36,38,39,43,29,50,27,27,25
23,34,23,36,30,40,27,33,34,30,39,26,22,36,50,39,37,25,23,37,36,25,33,33,38,37,45,27,49,29,27,27
25,38,25,34,28,38,27,32,33,35,39,27,22,37,46,38,36,26,22,34,36,28,35,34,36,35,47,27,47,33,26,26
24,37,25,38,27,39,27,29,31,35,40,26,23,36,46,38,36,23,23,31,35,29,34,33,38,34,46,28,44,32,25,30
22,33,24,36,28,40,27,28,30,35,40,27,26,34,44,38,38,24,22,31,33,28,34,31,36,36,48,30,42,35,28,32
27,37,25,41,29,43,28,30,30,36,38,27,29,35,45,37,43,29,25,30,30,29,36,30,36,33,52,30,43,39,31,33
34,40,27,41,28,40,24,28,32,34,36,28,32,36,44,37,43,28,27,27,26,32,36,27,36,30,50,34,43,44,29,34
35,41,27,43,26,37,24,26,31,33,31,27,33,39,43,35,41,27,27,25,21,33,37,25,35,28,50,33,43,48,25,32
38,43,29,45,28,37,25,26,32,33,30,27,30,37,43,34,40,26,26,24,22,32,39,26,36,29,48,34,42,50,25,34
39,44,28,47,26,37,26,27,31,33,27,25,31,35,43,33,39,25,25,24,22,33,38,26,39,29,47,33,40,47,25,35
40,44,31,47,27,39,27,29,33,35,25,27,31,33,42,32,36,25,25,24,20,35,41,28,38,28,48,35,39,45,24,37
39,46,33,49,29,43,28,29,33,34,24,26,30,32,40,32,36,26,26,25,21,37,42,28,36,28,50,37,38,45,26,35
40,43,32,52,29,42,30,29,30,30,23,25,30,29,41,32,40,27,28,26,21,36,43,27,35,31,51,39,38,44,27,35
41,43,31,49,29,41,30,28,29,26,21,25,29,29,43,33,41,27,27,27,21,33,42,29,35,31,49,37,39,47,29,32
42,46,32,50,29,41,33,29,29,27,22,25,27,30,43,33,41,27,27,27,23,32,43,32,38,33,50,39,42,47,29,31
41,47,33,47,30,39,32,29,29,26,23,25,23,29,43,33,39,25,25,31,26,31,40,33,37,34,50,39,44,49,29,32
37,49,32,50,31,41,33,31,29,27,23,23,20,27,45,32,35,25,23,33,27,31,39,35,35,37,53,39,48,46,29,33
35,47,35,49,32,42,32,32,29,27,27,23,22,25,47,34,36,26,21,32,28,31,39,35,36,38,52,39,47,44,30,34
32,43,35,48,30,42,31,31,28,27,29,24,22,26,46,34,34,26,20,32,28,30,37,35,37,37,53,38,44,42,30,30
29,44,37,47,32,40,31,30,28,26,30,22,25,26,44,36,36,27,21,33,29,29,37,39,38,36,54,39,46,41,30,29
27,43,38,50,31,42,32,29,25,24,32,20,24,25,40,34,37,26,20,34,31,26,34,40,40,38,57,38,46,39,30,27
29,41,37,49,33,41,34,32,28,28,36,22,23,26,42,34,36,24,21,38,32,27,34,42,44,37,56,40,46,37,32,28
30,42,36,50,33,44,32,33,29,27,36,24,24,28,42,37,34,23,20,40,34,25,32,43,46,37,55,41,47,37,33,29
27,43,35,47,33,41,30,34,31,29,37,25,23,27,43,35,31,23,19,39,33,25,33,40,43,35,55,39,47,37,33,30
26,43,35,46,33,39,28,34,31,28,34,24,23,28,43,33,31,21,19,37,33,26,31,39,41,31,52,39,45,40,31,29
26,43,36,48,31,40,30,33,31,28,33,25,24,26,40,32,28,20,20,33,30,26,32,39,41,29,50,41,44,39,28,27
26,43,35,47,30,39,31,32,30,28,32,28,27,26,38,33,30,22,22,32,30,25,32,38,46,29,49,42,43,39,30,26
28,42,32,46,31,39,31,33,28,29,29,28,25,26,38,33,33,21,24,31,29,24,31,38,45,27,50,42,42,41,29,24
31,48,32,46,30,40,29,32,30,29,31,28,25,26,38,32,32,21,25,32,32,26,31,36,42,25,50,41,42,44,28,24
33,48,31,48,29,44,31,34,30,30,29,30,23,26,42,30,31,21,25,32,32,27,32,32,43,28,48,43,40,46,28,25
35,49,29,48,31,41,29,33,33,32,30,32,25,28,44,30,29,21,29,35,37,29,34,35,42,28,45,44,41,49,28,27
37,48,29,45,31,39,25,31,31,29,29,31,24,25,43,29,29,23,32,34,36,28,33,33,41,29,46,41,45,51,25,27
35,49,30,45,30,39,28,30,30,29,31,29,24,23,43,28,26,24,31,32,35,28,36,32,42,26,46,39,47,51,24,28
39,48,30,49,29,42,28,33,29,27,29,28,25,26,44,33,31,27,33,31,39,31,36,35,47,25,46,44,47,53,23,26
40,48,31,52,28,42,27,35,28,31,33,28,26,26,48,36,32,28,34,36,38,31,37,35,46,25,46,41,49,49,24,27
38,48,27,52,30,41,26,33,27,29,36,29,27,30,50,38,34,29,33,37,37,29,35,36,46,29,45,42,50,47,25,29
39,48,32,54,29,44,28,33,27,27,37,27,27,33,53,39,33,28,32,37,35,30,34,33,44,29,45,43,48,51,24,27
37,46,35,54,29,47,29,32,29,25,38,27,27,33,53,35,29,27,30,39,37,31,34,33,47,31,45,45,47,49,23,29
35,44,36,56,29,51,32,31,29,24,38,29,27,34,55,39,32,27,29,41,35,28,33,37,48,33,43,43,50,44,24,35
34,44,40,54,29,47,28,27,28,24,39,28,25,34,54,38,36,27,28,39,36,25,32,36,47,34,45,39,52,45,29,31
31,45,39,53,28,51,31,30,27,23,37,27,23,33,54,43,39,26,26,37,30,26,33,31,48,35,47,40,51,42,29,30
26,44,38,54,26,52,32,29,27,23,36,27,25,34,56,46,40,28,21,37,33,23,33,31,47,33,46,43,50,38,28,29
29,41,38,52,25,56,31,32,31,24,37,31,27,35,55,47,41,27,20,35,32,24,31,33,45,33,46,45,50,37,27,27
29,42,41,53,31,54,31,31,31,25,40,34,28,37,55,47,36,25,19,37,29,23,31,33,40,39,46,45,53,35,27,28
27,42,43,50,32,54,32,30,30,24,38,35,25,37,54,46,34,23,19,33,29,23,30,34,42,42,47,48,55,37,27,29
29,41,47,52,31,58,34,32,29,27,34,34,24,34,55,47,31,22,22,37,35,25,31,36,44,38,46,48,51,41,26,28
26,38,44,50,32,55,30,32,28,29,33,33,23,31,50,43,32,23,23,38,40,22,34,39,46,40,49,49,50,38,32,28
28,43,46,50,34,52,31,35,28,31,36,33,24,31,52,46,32,24,25,40,41,22,35,38,43,42,50,50,52,40,36,28
26,46,48,49,37,47,30,35,28,30,34,32,24,32,50,42,30,26,26,39,43,24,36,37,45,41,54,52,48,40,36,24
28,44,46,51,42,48,34,38,29,31,37,33,26,32,48,44,27,26,27,44,43,26,38,41,46,42,56,56,48,42,35,26
30,43,48,54,40,45,32,37,30,30,36,34,30,32,47,41,24,27,27,44,47,25,38,44,45,40,57,55,48,47,34,25
33,47,51,55,45,45,31,40,30,30,39,34,30,33,45,39,25,25,29,40,46,28,39,44,46,43,57,56,45,51,37,24
32,50,54,57,48,40,34,38,27,32,38,31,29,33,48,39,24,24,32,42,50,29,39,45,47,47,61,55,43,54,38,26
31,51,54,56,44,42,37,38,29,33,39,29,28,33,47,37,26,24,32,42,52,28,40,46,50,45,61,53,42,53,38,26
34,50,53,59,45,44,36,38,29,30,37,28,29,32,43,35,28,25,31,43,53,27,39,43,47,45,61,52,43,54,40,25
33,51,50,56,45,40,34,38,29,27,35,27,29,33,43,37,31,25,29,40,50,27,39,45,44,45,59,50,44,50,39,25
33,51,47,61,45,41,38,38,31,29,38,29,29,32,45,38,32,25,27,39,49,26,36,46,43,42,58,45,44,48,35,26
32,48,42,59,43,40,36,37,31,27,35,27,27,31,41,37,34,27,28,39,48,25,37,48,41,41,55,42,42,48,33,27
34,43,37,56,39,39,35,38,31,29,33,26,25,27,37,35,35,23,27,40,47,25,36,47,41,41,52,41,45,49,31,28
33,41,35,52,33,37,33,35,28,29,32,24,24,27,35,33,35,22,26,39,47,24,33,44,38,37,51,38,42,49,29,27
33,38,33,48,34,35,35,34,27,30,34,22,21,26,34,32,34,22,26,40,46,24,32,42,36,36,50,37,41,45,28,32
35,37,31,47,31,35,35,34,25,30,32,22,21,27,33,31,31,23,25,44,44,23,33,40,35,35,48,33,41,45,27,31
34,36,29,47,28,35,31,34,26,29,31,22,21,28,35,30,32,24,24,44,40,21,34,38,34,32,46,33,41,44,26,30
31,33,28,44,28,32,28,32,22,29,29,21,23,27,33,31,29,22,22,42,36,21,33,34,33,27,45,32,38,43,24,28
30,31,23,38,24,29,31,31,24,29,29,21,22,25,31,31,28,23,23,42,35,21,33,34,32,26,44,27,34,41,23,27
32,29,21,39,23,33,31,30,24,30,32,22,22,24,29,29,24,22,23,41,33,23,33,30,31,24,47,26,33,42,24,25
34,32,24,33,26,30,28,29,24,28,30,20,22,24,30,32,26,23,24,40,30,25,32,26,28,27,45,25,35,47,25,27
35,36,26,36,28,32,29,28,23,31,29,19,22,23,33,33,23,22,24,40,30,25,31,24,29,28,49,23,37,49,25,24
38,42,28,38,32,34,27,32,23,29,29,21,24,26,36,36,26,24,26,39,28,28,33,24,30,28,49,24,37,51,29,26
40,47,30,42,33,36,26,34,27,30,32,25,23,27,39,39,25,25,28,38,29,30,35,23,31,29,51,25,39,52,29,27
44,49,31,42,31,37,28,38,27,32,32,28,22,30,42,44,29,27,29,33,25,30,34,21,36,28,49,26,41,55,30,22
40,50,33,41,31,37,29,37,28,31,31,28,22,28,43,45,31,25,30,29,25,30,32,23,34,27,53,24,44,55,27,22
40,52,33,43,32,39,31,39,29,31,31,27,22,27,40,46,33,24,31,27,25,32,31,24,35,30,53,26,45,53,30,20
44,55,35,43,32,39,31,39,31,28,32,28,21,26,42,46,36,26,32,27,25,33,30,25,34,34,54,25,48,54,32,24
44,57,37,49,38,39,29,39,31,29,32,29,23,27,42,44,35,25,31,27,27,33,31,24,35,35,56,26,48,54,31,28
43,58,41,48,39,39,30,40,30,30,30,30,22,26,43,44,36,26,33,26,28,34,33,26,41,36,53,28,49,54,30,29
41,58,40,48,38,41,31,41,28,31,33,32,22,29,45,43,33,25,32,26,28,32,33,28,42,35,55,31,47,51,29,30
40,55,39,47,37,39,29,41,30,29,36,36,21,32,46,46,36,25,31,23,29,31,34,29,44,35,50,36,46,46,28,32
43,53,40,45,35,38,32,38,28,30,37,35,21,31,45,45,33,27,30,22,29,30,32,27,41,35,51,35,48,45,27,31
42,49,38,43,34,38,34,38,26,30,34,34,22,30,44,42,34,26,27,21,28,28,32,28,44,36,48,36,49,43,26,30
38,48,38,43,36,38,31,34,28,27,31,31,21,27,44,41,31,27,26,25,30,27,31,30,41,38,49,37,49,43,26,31
39,48,37,46,36,36,30,32,29,27,29,31,21,27,44,38,30,26,24,28,31,26,30,34,41,38,45,42,49,43,26,32
38,47,36,46,37,39,26,32,28,30,32,32,20,28,44,38,29,27,22,28,32,25,30,37,40,36,42,43,48,46,23,34
36,47,35,45,36,39,27,31,27,31,30,31,18,26,42,36,26,26,22,29,33,24,29,37,41,32,40,44,48,44,22,32
36,46,34,40,32,38,26,30,26,30,30,29,18,25,42,36,26,26,22,28,30,23,29,37,44,31,38,47,50,44,22,29
34,43,32,39,30,35,25,30,28,32,34,30,19,26,42,34,26,26,20,29,31,23,27,37,40,30,40,46,48,44,22,30
34,41,32,42,30,33,26,30,28,33,35,28,20,24,40,32,25,24,20,30,32,23,27,36,42,30,40,43,47,41,22,28
35,43,31,44,28,33,29,28,29,32,37,27,21,23,37,27,22,24,21,35,29,25,24,35,38,30,41,41,49,43,23,27
33,41,30,45,31,37,28,29,30,31,39,29,21,23,39,27,21,22,22,33,29,24,25,35,41,33,41,41,47,43,25,27
32,43,30,48,31,38,27,26,28,28,39,28,22,27,41,29,21,21,23,33,28,25,24,32,38,31,38,43,48,46,27,27
32,42,28,50,31,38,28,27,26,28,43,29,24,29,42,26,20,19,22,29,26,26,26,31,38,34,36,45,49,46,29,27
35,40,28,45,31,39,30,27,27,29,45,29,25,29,41,27,19,19,21,28,25,25,27,28,41,35,40,44,49,46,31,29
35,38,27,46,32,34,32,25,25,27,44,29,26,29,43,28,21,19,21,29,25,24,26,28,44,39,42,41,50,42,34,32
35,38,28,47,33,35,34,25,25,26,45,30,29,29,43,27,21,19,21,29,25,28,28,28,44,39,41,39,49,44,35,33
33,41,29,47,33,39,34,26,26,28,45,31,29,29,43,27,21,19,20,32,28,29,27,32,42,39,40,40,49,47,35,33
34,44,28,45,33,38,35,28,26,27,41,29,30,29,41,27,23,21,21,32,28,27,32,32,40,39,42,42,48,48,35,31
36,43,27,40,29,39,32,27,27,27,40,29,28,28,38,26,23,21,21,31,27,27,31,33,39,37,43,48,52,50,33,29
34,38,26,38,29,38,30,27,27,27,38,28,28,26,38,26,23,21,21,27,30,28,35,36,43,34,40,48,51,50,32,29
33,38,27,36,25,37,30,25,27,25,35,27,29,25,35,25,23,20,18,27,31,28,33,36,40,29,37,51,51,51,29,27
