Fp1,AF3,F7,F3,FC1,FC5,T7,C3,CP1,CP5,P7,P3,Pz,PO3,O1,Oz,O2,PO4,P4,P8,CP6,CP2,C4,T8,FC6,FC2,F4,F8,AF4,Fp2,Fz,Cz
1.5007681642537865,1.4500464356353708,1.5377082545437473,1.4983924513197167,1.6861766468021429,1.46340323362264,1.4389601565201215,1.6134741740135887,1.6293484449601079,1.5813460648949555,1.4456674461502352,1.625452830333742,1.6605651375883805,1.5496480442294402,1.3802357227093685,1.418850589344513,1.4809047173964451,1.5463344758443511,1.4998957310510814,1.3871588268771529,1.5054249880307504,1.611148754863251,1.5239865624080557,1.4427936981191267,1.4339535529661303,1.584818228342025,1.4067663530905705,1.615588660485744,1.3025911703546822,1.437811391628969,1.626138582394103,1.7221815838056422
1.5368566358037594,1.4837873056871898,1.5640203952654936,1.442207820060963,1.6929773848609757,1.4904423624059429,1.5709754668520868,1.6157929231597885,1.5606826372638338,1.6006567629394688,1.4675052551455254,1.6260542093736523,1.66723460853598,1.4965342914774975,1.3438024752275213,1.4388520420662243,1.4889738572579532,1.5988288693170511,1.5779667134143482,1.3888246547345384,1.5278720817990268,1.6937340493609185,1.5995853324518063,1.3369379059317483,1.4929225083065985,1.5790461531556472,1.3860285008268307,1.6386492946504079,1.3166881637366772,1.4398080667678246,1.6495651807861493,1.7367503663574637
1.5298878276720906,1.5003263837634837,1.5492418119296132,1.4580694278032178,1.6214699364288947,1.4654151014743406,1.5243719688550026,1.595987098115437,1.62873664564109,1.5588055309600222,1.4008819791093066,1.6043806908766358,1.6621603150613136,1.5603055610742846,1.4193149392231221,1.551510182826552,1.5537262045715632,1.6568369534347618,1.6511262841795142,1.3824906042024037,1.5454505118308184,1.68449372036071,1.595960374816847,1.2918513602242092,1.439620624937158,1.5308706072157803,1.3666373350318781,1.478862800739546,1.3062375162764999,1.408549082809887,1.6232812356976092,1.6760411925302554
1.5726407637943192,1.566807149740893,1.5877717006495062,1.5012340231027013,1.6391110195898921,1.5011802102428113,1.5952470703759218,1.6206875358748658,1.6976367017654488,1.6576078153510012,1.5954962306918727,1.704099359226816,1.7297575086743036,1.650623486630719,1.4402047527549424,1.5688182449117722,1.5981127435119846,1.7165299480461118,1.6996305506519986,1.528959133409495,1.6571814862734178,1.702198278267416,1.6370566500817276,1.4855857155936079,1.5623464988671847,1.6391416725067196,1.5473567130687185,1.6523603105177507,1.3093375149321478,1.498391274266535,1.6946942196010584,1.6705155164927628
1.5317973607841506,1.5128704248473628,1.5860938448581932,1.5333347487794764,1.6152108914147283,1.4193501586287276,1.6032434623238534,1.5683780954435929,1.721771869854561,1.6359107811617688,1.5429446005329948,1.6406316153722975,1.6887967867858318,1.5592297976526286,1.3383292422708641,1.4425184506425466,1.507643790286478,1.6364485961499695,1.580675447876301,1.4669728268373878,1.5786203981805471,1.6930764760803012,1.5810255070522707,1.449835240786971,1.5487163658771042,1.6063125207443665,1.5381800909569308,1.6870674317464105,1.2763750102956513,1.4517861437939998,1.665518385960965,1.7110482653636594
1.4622082184213858,1.4555707770863155,1.5225039434561336,1.4901567035142287,1.5966091633487238,1.3786334218957113,1.5254584787007333,1.6109862608114598,1.6603484084340836,1.5724002419790633,1.462360972875859,1.5589619349121433,1.585586203358495,1.5214133707237965,1.3980847378882653,1.4763684860568405,1.516646311860876,1.5809837090429115,1.5741623124187551,1.3286341042035754,1.438542058915147,1.6724690382814331,1.5764627084092184,1.3568025696337571,1.4006598675829944,1.51258907494397,1.3985343577135454,1.4681581115701405,1.1755335214609597,1.3151969961287802,1.6090652350029406,1.700059288382489
1.5237257253799699,1.476063582375903,1.5826344202587852,1.5428247362274146,1.6515518563879277,1.43213228589302,1.505832645846479,1.6895042482363496,1.6937308115897731,1.6526301417753348,1.5490619114828996,1.6679180783771819,1.692408063805019,1.6811661814971737,1.5188576344286746,1.6053377750627447,1.6108767432677413,1.6829017793667878,1.6503094215257768,1.4147452554888584,1.60058386283707,1.6958628989949545,1.6132072193498703,1.3406099273734275,1.389077941621722,1.6272804658327646,1.3699487234639438,1.4308124323115352,1.2148602184080153,1.3072235682075033,1.6414657306881613,1.677194697419944
1.5943129669359577,1.5694957923635833,1.651647616459651,1.5647345399977806,1.7005030977369033,1.5223867669178965,1.555704687588331,1.750071933974223,1.6803151269898458,1.6830518649465138,1.5939165682554468,1.7303135888141654,1.744353027217915,1.7484273420846794,1.5164603060454809,1.5844293761843289,1.6692957310140337,1.7900100213065138,1.7649550589930996,1.411087764848074,1.6205093231765637,1.7639563734911385,1.6256965859456882,1.2848513816447913,1.4377099603154417,1.6708078326620406,1.41734039101449,1.5012653057636771,1.3896300555191154,1.4029508461870486,1.740403686555677,1.674329330270844
1.5917998794074617,1.5605760647397642,1.6744223227428685,1.5371527600218855,1.6499537120729855,1.4944155247409028,1.639576549145682,1.6667086553843824,1.6781327813208673,1.6740031484171425,1.6147295812991111,1.6715262905532078,1.759271961914799,1.6901700388223138,1.5298855173042458,1.5660506035867228,1.6146152400151983,1.7282606823537294,1.6876607540017494,1.3891714993109667,1.5748720284614497,1.7628068299792767,1.6718006194094046,1.3839797973441899,1.499821026315799,1.7288621883548811,1.4660269602666445,1.5922748293464264,1.3196984734214499,1.4285841637428007,1.7089632599370053,1.7585519100049325
1.5271004572318105,1.5580034502007587,1.6083971100785526,1.4281175647836428,1.62983545384555,1.449857026606021,1.6265583014887186,1.6018306360791248,1.6634738711107897,1.6704835406968952,1.5701425529049637,1.6272561637346992,1.7267739337630992,1.5806378279605091,1.4495458177219611,1.4828760083949273,1.5261055172978748,1.669085121697384,1.6270337931740007,1.3712006842017197,1.452093406926117,1.677220421572884,1.5975201710094367,1.377628130846528,1.4235596821262404,1.701501085595254,1.4682525367276646,1.5824838044418925,1.268247675729233,1.3246545202222137,1.6950689329938722,1.7491115468927665
1.48960823890291,1.533715667370351,1.5387912416012224,1.487705634733323,1.6257787942188338,1.490230063957152,1.616172386096807,1.628388065512551,1.6448034549826533,1.682368059266295,1.5393493951579265,1.676122247680139,1.720952243251657,1.616785398969854,1.4346304551962898,1.531753358330253,1.5559556070962288,1.7036070770845848,1.6217382767658708,1.3689137338230184,1.3717803854755541,1.676610251671421,1.5930657868907176,1.3806825965083405,1.386719106989969,1.6714716075571672,1.469470961863245,1.584938769533694,1.305038469455241,1.3419078601533136,1.6263652923353615,1.7361575563420857
1.5145064938972883,1.5256865250105194,1.5316384702956891,1.4564453417384922,1.6130069094215618,1.4890404091357206,1.5347544246953926,1.5924428954873058,1.597252019679698,1.6063225270364636,1.4924560596652143,1.6275151835879422,1.6565415247698032,1.5801878824682345,1.4543078296492176,1.5201289280364505,1.5031280261698519,1.6087216165725,1.5843104209522514,1.419196921438124,1.5433382097729051,1.647736270425603,1.610314731233096,1.392926741507303,1.4421448111593034,1.6126477408021005,1.387397424628958,1.5683817117744192,1.3331350355461153,1.3981808171036543,1.6173716070086175,1.666282399107884
1.6046108038365237,1.5497576828320092,1.6131440653549927,1.5138738376614298,1.6487327908675011,1.5554827017803032,1.592759960236971,1.6695557000599268,1.5824175363426634,1.6573183591363267,1.5622741177396289,1.6195084894716907,1.6854333802603312,1.6008169085948925,1.522786849172635,1.5884520561409943,1.5986778795555436,1.6936385439480877,1.7074659713033302,1.5282576923822075,1.6635383966463912,1.6691136840519534,1.6513484201144257,1.438791605434338,1.4806285504290995,1.6645349741792004,1.4241951125937171,1.6149533131652083,1.3835222163596628,1.4529105551665225,1.7101444810574828,1.701502106717061
1.5955667012954007,1.5048369817165603,1.624157234889187,1.5305532371041422,1.6219614779935907,1.5032526531521804,1.65905292511602,1.6978745505814539,1.6796655072389004,1.7281085628197024,1.654676153809949,1.674050255467847,1.683275967567832,1.6283777399787869,1.503085004879009,1.5376416729700466,1.5601875306915314,1.6595320909132523,1.6963353972198945,1.553490431688506,1.7014557100900738,1.668729850304892,1.6805480481873636,1.5575327772965142,1.6111403998907914,1.6937815752226961,1.493881133770567,1.6851206990308436,1.3887113760456335,1.397669175201305,1.6927720666898112,1.6901232302078406
1.598220922018445,1.476204599481812,1.5525774904236758,1.433567563304707,1.6421355795325507,1.4564727125727333,1.6334981645002737,1.5846891832413863,1.6223122015729214,1.681302901066833,1.6560779309071996,1.6736228978146048,1.6549543624922232,1.5675684483758627,1.4283080920258804,1.4846171288571002,1.5362027348894478,1.6228201546141336,1.6711213334938957,1.427096178924001,1.6137503546154486,1.6947894160681327,1.617586018615781,1.4539067321424965,1.4367003549263198,1.599116694339497,1.4000359785190082,1.5574738828914405,1.3150750454561555,1.3684455359885326,1.6555390591299972,1.7081370464678307
1.5621906002377097,1.5479787621946524,1.6199478224518717,1.4152275206313025,1.6062085116781437,1.5575935217467018,1.637477027941116,1.732283061390028,1.720362339356073,1.7439093100926777,1.621744604073697,1.6981180579356654,1.6922342682425682,1.5986709362453702,1.4728838241709867,1.5127912461581032,1.5343169234509484,1.650174276891543,1.7111887893708895,1.4944658163217417,1.687421399286643,1.760031099158699,1.7013914494031503,1.458640356231408,1.52243110354884,1.5474105359088817,1.3922109206739621,1.6083735437774889,1.2842362277205963,1.3334582378728934,1.5846509267408027,1.670845177678525
1.4974426424422345,1.4716837790827053,1.594952787757324,1.4014960793234132,1.6177775425212306,1.5646677941706344,1.6844993403762645,1.7036100611513278,1.6595066040879414,1.7554470608368282,1.6285761623993886,1.6864735095497287,1.6418898969322093,1.6553208528622883,1.497761163696111,1.5687662455335325,1.6058647830863917,1.6839181011878483,1.6665436977977188,1.5506479346711235,1.6727710781176726,1.6533266327132827,1.6780591553496627,1.4533660666388213,1.5732203732037409,1.592947064987311,1.391589894612705,1.5979417685226218,1.3074352212875646,1.3207426626237664,1.6298745236878431,1.6890815393386234
1.5103981488363292,1.3740204036694539,1.477476929755071,1.3344450609277914,1.5481354466176782,1.4215045412733422,1.5837833793712326,1.6769610585128008,1.6460540802289223,1.6350238179376129,1.4130601063434551,1.5496571485706885,1.6429353249569674,1.443261586189996,1.3046419975376458,1.4009295312591996,1.5468031107680045,1.6696633379921046,1.638956523530909,1.442852942429517,1.5545813652440594,1.6532459806351676,1.5377090700690508,1.261912940670249,1.3980749793025327,1.4553498805662488,1.34743841343152,1.4395166350270001,1.323690927542254,1.30599097504642,1.5397451947092358,1.6744869846078276
1.4953430365501792,1.4112779480783324,1.5571709918088976,1.38557314916914,1.5494461561496173,1.3697738475612393,1.5709768266709445,1.59675277804433,1.6432175469144634,1.6519072847989331,1.4774787651915282,1.5948052021784478,1.6564077362928107,1.5311426470416083,1.36975564883417,1.3986814118242008,1.4547788920297289,1.5997733760355421,1.5908792490225057,1.4089380758101757,1.5293675925828913,1.6464911041351713,1.569612824534079,1.3333662693843882,1.4737722134461664,1.542248955246099,1.4039243067236133,1.5556981272422001,1.2734071110147231,1.4243991464201438,1.593254144773767,1.686024276392425
1.7054971851203942,1.6444701503422148,1.6261641651581626,1.5996569679474473,1.6805418468860969,1.4915902055985968,1.6223556120997515,1.6287498000092366,1.682993768979539,1.6707935788430248,1.5612948292928293,1.743922310952697,1.7420798654622986,1.7335823092635412,1.4922048185119743,1.6003148183279412,1.6270630762338398,1.6922893619331114,1.7075348732329596,1.482374763307209,1.6230991420066612,1.7100542420929599,1.6136628252199556,1.3739342824985512,1.5059829200143473,1.5963258735355108,1.3862838682135783,1.6052740863013895,1.4010828870006924,1.5775574667968781,1.6976745192216074,1.6934277543976295
1.785173275888972,1.654113189575319,1.6811878304302517,1.626768887152316,1.6989683898731318,1.5481137238872438,1.6627989309417555,1.7096806826072974,1.7842897599565808,1.688365265010231,1.56313100891022,1.8051709623868468,1.8615193286178846,1.7897630988487196,1.5078754365409104,1.5931790794049256,1.6478557024412521,1.7643404480521367,1.7508529881169157,1.503215240106384,1.675490934585318,1.757077223458184,1.6309864221615582,1.4399061653302725,1.596700677394296,1.6055035181637174,1.404880739978136,1.6663841825171828,1.4767416352752898,1.559496351889524,1.6814075523146548,1.6633496030163857
1.6160889938702012,1.5801868800830436,1.706568262539567,1.5105391444499847,1.65110238498972,1.5343574952952768,1.619831812098347,1.692223621510424,1.7754602777675659,1.7141398555625964,1.5028219403162009,1.7633827053555293,1.8225043653670105,1.6947376031063948,1.4363467331137822,1.520304751451545,1.580429490051254,1.7240956185811325,1.7232400568133648,1.4999336564892516,1.656212944243256,1.7262687389464575,1.648777841882774,1.4694493488403593,1.568767325456995,1.606420573926902,1.4177128132169954,1.623505873023456,1.3354857690501696,1.4518117688821413,1.657449993998579,1.607441131711733
1.6509783655307784,1.5936273254738067,1.695147781231693,1.5417440479566709,1.6979713555759126,1.5233642818277935,1.6216682789704997,1.6679055151225677,1.7221225253876653,1.7446021546441843,1.6901243378032187,1.8100983600653653,1.776741267623328,1.8088006902519431,1.6001439985930372,1.6213507527654953,1.6770910329546889,1.792297595263655,1.7270632213173087,1.5051397961673063,1.60368530034822,1.7002924780701434,1.7018530626723511,1.4880199464472854,1.5950432997526216,1.7124084793657237,1.488225441472591,1.6087124598430413,1.3837661137654584,1.4548763161105915,1.7474427738368763,1.7181291088439286
1.6599092883387798,1.5278969779344878,1.6773681954985318,1.5762691224514853,1.7525454905541185,1.506087951935179,1.6117014996913983,1.6534081130736493,1.6554395484375766,1.7047969173731103,1.6600874391531486,1.8163461262003218,1.7332881098264714,1.8328419171259098,1.6872018840648655,1.6763190993108457,1.740806555102403,1.807106204820502,1.7558787871307056,1.5192992448977498,1.6173379634844198,1.7007108993613822,1.7187265262452311,1.4200560488959304,1.541248656839037,1.7354002200171024,1.455844785406427,1.613247179424309,1.4078211034799215,1.4088628721798278,1.7641409108028412,1.7447408217214915
1.5427956921822241,1.431426968705354,1.6426446876300127,1.5299690512755337,1.6553580251462254,1.5189589250025515,1.5883337954222738,1.6681264212478066,1.715606920903686,1.678069554364752,1.524455153446487,1.7581074901512206,1.7007229897657756,1.742729097046299,1.5841836516225685,1.5973567278322494,1.6773998383967972,1.696753792111992,1.6874390145768206,1.5553135945852408,1.6064763775932702,1.708137319511913,1.6392436930188172,1.327171486426749,1.3818293973757847,1.6517671584518046,1.3898423469569654,1.526674639822266,1.3199030720914406,1.31437807640943,1.6977742998853196,1.6930271472603626
1.576111559745698,1.4574527226882044,1.585776634244647,1.378974104915505,1.6239558952645956,1.5174224964255618,1.5991192442637916,1.6532086659454057,1.6926976976375456,1.610113611930147,1.4693000804569412,1.6541458639316482,1.6869600547907813,1.6298597688151355,1.5219653185197635,1.593235655648183,1.6840114442983152,1.720564338392828,1.681956904048509,1.541363792797874,1.5574444322977934,1.6949590689427123,1.5224564683961046,1.3161121303055159,1.3378689447338905,1.5607582899805468,1.3512378827827705,1.500796061929421,1.3061320852243237,1.258495870533853,1.664238665820267,1.6459067938932148
1.629432265969017,1.5855686766568946,1.6110749699674933,1.4484285647288109,1.6696819002522651,1.5778431187456632,1.5706838589987142,1.6455905275671385,1.6496150026108474,1.5715505932260734,1.6095278753044937,1.6186532676540046,1.6475884177501208,1.7037469029405055,1.6764560002241766,1.6666497487514205,1.7023125256223808,1.7222380985167667,1.6742361820359035,1.5276242707132517,1.6160702262416815,1.696909090524399,1.5703929498116456,1.4037434486470708,1.4380174685301166,1.6575228365967516,1.3931881863164448,1.523102938395015,1.3103623207728865,1.3514776246809084,1.7016648549049498,1.7509558744721012
1.6391925337663507,1.5675030781558343,1.6332251871009114,1.515147983616514,1.7081356431062553,1.6240978616467976,1.5813852510470003,1.6406139440529357,1.640412832441733,1.6129377993462117,1.6661159606668732,1.6880105010885538,1.7189067765987263,1.7514572979568326,1.6790921094149756,1.6431149243153607,1.6744349693005147,1.7201904929481855,1.7056080321568845,1.5823148106086395,1.6604467918905614,1.7057011893451304,1.5825553848498148,1.458582408880405,1.4472451837692497,1.6522255018192011,1.3835965415937885,1.497812861912613,1.3182791281581685,1.3927618274521516,1.7133419637638339,1.7968469636045357
1.5864561847629968,1.5566284023422081,1.7350429518952595,1.520701190594981,1.6673185490605342,1.6096014651860036,1.6196196801170704,1.654199540770977,1.6362168804228403,1.631243745272536,1.6243631509732612,1.6901185104736665,1.711492839528273,1.7205718072596665,1.644015457974355,1.61490685551599,1.6527853358923146,1.6932088763965967,1.7005967077059092,1.665983810965356,1.632866299306772,1.6814175577420787,1.5430200912764327,1.4609142866762135,1.4069462946354647,1.6158759608663753,1.4085087318767047,1.4111725605647312,1.2512947461819381,1.339819899487933,1.6959779890288802,1.7197498551844341
1.4765745806590576,1.4734098333507277,1.6748300282286173,1.4507602963035726,1.6226542092486322,1.542620995884044,1.6107165263574288,1.6761360930463456,1.5986608549694932,1.631788517819845,1.5886808539449624,1.6468941947815383,1.6146874190224338,1.6295470692002159,1.543645305296857,1.6208846174918108,1.634788430270083,1.6842218758338277,1.7027960459956966,1.6302638443051702,1.6687159739442825,1.6513027452947509,1.5776176237290884,1.4271642718025892,1.3530715898913608,1.5359641541652524,1.3003600453418012,1.3577760274361057,1.1932032235545849,1.3413659880956574,1.6160711109682007,1.6514428896807856
1.5247681567555784,1.4673630345084503,1.6687197502665925,1.4931402118057684,1.6564473186235693,1.4561461787013563,1.6306873397828527,1.6508381366445977,1.6294734444708872,1.6573320243997676,1.557556379509013,1.6601917182264625,1.6927769656992313,1.6002992558296123,1.4532803141802682,1.590837907542147,1.6186185598728686,1.7240355944208177,1.7186919094219624,1.546586694848819,1.647441485348041,1.6894850846471559,1.6021913401595371,1.334711247209602,1.3820122186802535,1.5669680635036816,1.3106290555889542,1.4142875724775965,1.1926826409056648,1.3320964999117542,1.664799688146684,1.6813311634512211
1.5102804665922211,1.4938541230630644,1.6335177059490738,1.3892644676831076,1.5663659481083367,1.3873743533235088,1.5604379546432399,1.6034206541712945,1.712398947009319,1.6570410880478865,1.5013445004537702,1.6922268339019597,1.7597237108863322,1.6243333529203805,1.362395997619743,1.4952005917633464,1.600989668887321,1.713170902644112,1.7215459978031007,1.483949673592427,1.6407853492795463,1.7421610390213993,1.5710266738103225,1.288227554971404,1.3524101622823848,1.5910768007287395,1.3903505001129413,1.490992618370291,1.2804047046863063,1.2871629204579929,1.6817695812858175,1.724952583430476
1.406982111787633,1.3713969067442677,1.6312422111640623,1.451981355901313,1.5529456780111999,1.4738779039372736,1.5860987807782905,1.5889816576890763,1.6548444412973473,1.626203356442986,1.5160517886532638,1.6024941263610595,1.7547630111990113,1.5209023949998155,1.286121640098946,1.412635089906151,1.5173386287578783,1.7531892008446357,1.7799461809794492,1.5130988703690444,1.7308637750053963,1.7354579596644468,1.612868496286057,1.3696380368562475,1.4008194293623342,1.5311636264942314,1.3498615569629475,1.5665089230428728,1.3181252623859534,1.2361018149741803,1.6362214518464846,1.6885670117530793
1.422062662397917,1.361960848104005,1.5302885451376926,1.4315693344020506,1.575408678493537,1.4427617007983993,1.665189234314817,1.69813047852043,1.684449208694627,1.675740914986247,1.5027718221988424,1.6171769305585748,1.7565779806454558,1.562543816585969,1.3254221248613118,1.418681915111477,1.5246938198850992,1.7479175719686568,1.7382745445642311,1.5131587715896286,1.6972710796626684,1.7163630241599341,1.5965363844546683,1.5667135650835458,1.475681446410412,1.513723778082312,1.3422414537819225,1.560136007948462,1.3271638126161227,1.1879505098830847,1.6480186400922021,1.6951554361856644
1.4196486346241919,1.4378090628075388,1.5370239482065706,1.3975421285696599,1.6062571087953321,1.4175989049349704,1.672121566731812,1.7046324659414125,1.638726458829999,1.7218195363417905,1.5315685469977893,1.6896776253533907,1.7097307747702037,1.61478316245346,1.3818981704392241,1.4490500340070527,1.5443887700198988,1.6855437784794525,1.710395478438245,1.5667682022065104,1.656449261745619,1.6512162848906344,1.6147413571438343,1.4752533995592063,1.336536114585868,1.5320206075129075,1.3324137215372909,1.425831432663158,1.2960899577756637,1.236233850485489,1.6204291694893411,1.6452439448512417
1.498330268110937,1.3986501895745818,1.5708341857694381,1.3769171770395818,1.6250653445366832,1.554619319366947,1.6561038542698838,1.707970004038302,1.6625482222131964,1.7113955245017984,1.5455689648026931,1.6852301765405735,1.685850487585024,1.6153353028022843,1.4369567682693285,1.5012886992442658,1.5195585350830474,1.6624156239396621,1.7059928596247127,1.5583444887910423,1.6421533362315848,1.6787097426938768,1.6167572069910803,1.408704186168569,1.3704627750326788,1.5918768924521365,1.44657025525896,1.4067484124687186,1.2718198449479399,1.2868712451307303,1.635398268847159,1.6062953165775167
1.7174988618380622,1.5314081663640506,1.6864405430245557,1.433787617708873,1.7015903139705528,1.6058545144278524,1.6370812821475806,1.7296943299267258,1.7515919535210218,1.7654011718059357,1.7058227264146164,1.8291366609575697,1.7769003997701607,1.8097467666354607,1.619772412552221,1.6227166024989872,1.602899648284013,1.725919130663123,1.7409308089253501,1.5202392350348113,1.6557805961842007,1.7279630349805253,1.6480901064517297,1.3258992111315973,1.5065177733789719,1.6767916647495313,1.5087729254488076,1.5369385355384113,1.4205897669388292,1.4266470817044636,1.7752880864578564,1.6428415797093068
1.7455088797152016,1.6362400819156637,1.7189555870925668,1.5797849501371937,1.734488212081274,1.6109846484482104,1.6168110700175844,1.784664408288102,1.7420350248403915,1.791126495993147,1.7367245314650157,1.8319856272794208,1.8040798045368125,1.8421538001038795,1.7135847648905926,1.7609283962822904,1.7984688006515006,1.8356234491736005,1.7974921084135385,1.6790135674631634,1.712234982153749,1.7834684298754284,1.7149249658693309,1.3981587074791708,1.5824968420160705,1.7193631366645932,1.4728082890843202,1.562240156432609,1.453623137574244,1.5004320851040338,1.802752155370448,1.663637631011922
1.6930550452095703,1.6322493724879628,1.700742057611324,1.598416036238481,1.7282381280257104,1.6277085167802932,1.687742664420983,1.7549723352809692,1.6585123020326697,1.7009031449550045,1.65167882440652,1.6999440677852593,1.7750686726555471,1.7826676592030135,1.6750676786904877,1.7509124139180454,1.7992274264489585,1.847591366851677,1.8271212653250315,1.7038436283966025,1.7311199203329972,1.7319099768146657,1.6462016043092016,1.39806747513777,1.5271634380206343,1.6545663656586223,1.4500491290994728,1.560490263096591,1.342851673312109,1.4916356063787166,1.766206967371927,1.6446141058574055
1.6858301640080082,1.5752910700143101,1.7049890245148713,1.5975018843378264,1.6959497601612246,1.6383672124932185,1.7114885712108021,1.7008324766332243,1.6892050052991796,1.6872335266853542,1.614843512419673,1.7717112690311942,1.8275128728114738,1.7730316192319493,1.568482227434703,1.6845135889400984,1.7121935977384752,1.836927581949352,1.8191826991024431,1.5588194228037426,1.7010274840352306,1.7581949736661098,1.6596643750179394,1.4294665403190223,1.5357569936900393,1.6371682492278108,1.477179281161796,1.6471976182836494,1.491916623162021,1.5136629294034258,1.716143462732549,1.6843202133164996
1.7481363157905416,1.6375893700645798,1.7766796970684406,1.7245966974201243,1.7650380337247744,1.5886733856777213,1.635769857794969,1.5932647271642848,1.759957371358288,1.5976223850877287,1.54455337481204,1.7874945176532941,1.8246329097258391,1.7991775197245612,1.5978488662055086,1.6749391423090874,1.7269827684412282,1.8429322366630547,1.84283071485777,1.4157994764614996,1.568607563822531,1.7831442726845224,1.6405241897373022,1.4449049971062236,1.5600300154457165,1.7151228719681486,1.5565287934723968,1.6902468150255263,1.5604891618141603,1.6157914304093774,1.756255448206325,1.7617379812002536
1.691290000883504,1.6470401298114603,1.732242401283743,1.6084268697027815,1.6923462685571784,1.5458643250532154,1.5448547249790825,1.6843388382577804,1.724201972227238,1.672418383465751,1.5036071016763308,1.7302835755088144,1.784398190947484,1.7320149567837513,1.55152296218865,1.6352787441022925,1.7072604975303927,1.8330320653564922,1.8069040663302391,1.4658117264881725,1.5698303167670764,1.7565598675829386,1.5647025810905082,1.4488450849593604,1.5398506677887915,1.627828992824844,1.5100173840751203,1.6633858969770328,1.5096069968779842,1.6249066053307413,1.702955830561606,1.7403494694202664
1.628622829891411,1.544318150388741,1.59405611424194,1.4974837302494026,1.6127619086908682,1.5395711562267438,1.6030636115713996,1.6738452341798162,1.7637646885369551,1.7073358024870373,1.5766908461091835,1.7155337262256865,1.8291052622066104,1.6677112616805392,1.5321569106667319,1.5256954973162107,1.6006981359167765,1.7115722431966585,1.7526706830954037,1.5537047643553095,1.663977895560975,1.8238267460783788,1.7574679757124396,1.5407209995956797,1.5199418899277823,1.6036135605212112,1.462402565450939,1.5982640579087797,1.499348304161587,1.5772788532988786,1.645329271801276,1.8464038319229954
1.6520205196840363,1.5879635490734276,1.631149295741222,1.5303574255830306,1.670805096913597,1.622108860279768,1.6328918635566916,1.6590989909940181,1.6973164045345182,1.6934490696022109,1.569352759697758,1.7249467232393727,1.8052766105472742,1.6653398687843288,1.5203791033306286,1.5735641189330978,1.6373334741589278,1.7107430592052362,1.7539844615749607,1.5198498465655932,1.6266210566507016,1.8004329827980687,1.6779955802384323,1.4691355499769185,1.541253361903787,1.6863146416734784,1.5266337448384968,1.5412733798455902,1.4955927012916583,1.5347696357442597,1.7062053134705235,1.7567844774820296
1.556573866321963,1.5444563642675977,1.6097365752656443,1.5160340840240445,1.6777409341255825,1.5071581971744985,1.6197961334793993,1.66504195049182,1.6773798517991358,1.6414451278410327,1.5819876895795328,1.6897444883543553,1.7244895143341714,1.686280676231214,1.4856015436985766,1.578560935114596,1.6192077063659183,1.6820068750895039,1.7089022277034103,1.5606519172867652,1.5967777326534414,1.7229741829097929,1.6366236495024822,1.376501435481021,1.462515152872899,1.6623677600229705,1.481340507332446,1.5055110145676993,1.3661463602982769,1.40079728330165,1.67457861096485,1.725284295674982
1.5622437679367454,1.5570417288722376,1.641494440416665,1.530434841091843,1.6381182177508162,1.5271075469113211,1.7003400968016384,1.631796365428191,1.6749208366315922,1.6240965478994134,1.5877700693842134,1.6680274585671513,1.7410262637619496,1.717449896869267,1.5396100880347148,1.6261245465813658,1.6707879422014549,1.7457144767490542,1.718491702284656,1.5474722314529898,1.6060891721904347,1.7098631673559523,1.6533672299181543,1.4864664476899865,1.4464709467245187,1.6311775573043246,1.3211218935577944,1.5198043694328878,1.306825752286228,1.2748142300927843,1.6568598491691409,1.6922014509097245
1.58498968043093,1.571246187945446,1.688481285715725,1.516072074631997,1.6193240069150032,1.577480269158553,1.7103020030930458,1.5957450415400625,1.7059379749897696,1.5795332241310487,1.4402605885885165,1.639049874280186,1.7415600340178001,1.5913864373779427,1.4080024896645997,1.5435635528408864,1.5865671935909862,1.728171309917071,1.6997563423979543,1.465705909381875,1.5998548940601927,1.7246686298835223,1.5974027946586649,1.5882685710219606,1.4041558121833166,1.5787692381082727,1.3167980554566006,1.5589211827576994,1.301540781856383,1.3577499080748356,1.660834490656848,1.6798697937782476
1.511251394478898,1.4642024082672118,1.5805843771269816,1.4534320596159034,1.6442363037682226,1.4817539949082186,1.583374596932799,1.5818906153459176,1.5704672562227333,1.5766242856339023,1.47488597304621,1.5764820443421572,1.6860017097991218,1.5304748730738158,1.3624682854602348,1.4556129417958998,1.460834988149508,1.670362047791863,1.6688158134808952,1.4806962194753568,1.6085020623454398,1.6694418781174398,1.5744813525693888,1.5272159576748137,1.3863561366565231,1.5879516215579281,1.3845626978582726,1.4323249467837726,1.2798701718168648,1.3569934352748583,1.6815234188521417,1.6041736795852142
1.6981630825959124,1.595566314035395,1.6272253166073078,1.5086688219268403,1.6920136393949803,1.513623267577178,1.674045830574612,1.6916049387473733,1.637903309362522,1.6701262237312593,1.5751611033237332,1.6916379341993322,1.7618299708963854,1.6379453933491803,1.4130748150501435,1.559482007249291,1.6259195399045587,1.7440269511293476,1.720499451818658,1.5858344304152645,1.6609749470329151,1.7171796525939047,1.624590697685371,1.5347238195012893,1.454542985959147,1.6151247213761866,1.4720340351717884,1.393466844479383,1.3128774079679544,1.5472480684865584,1.6778544638649724,1.6316296069928358
1.692129013796554,1.5336481474907988,1.5963278944407393,1.4881291841260726,1.6861085589659204,1.5164238191315544,1.7012103468966648,1.6776986503461737,1.6708515598759148,1.696695049369965,1.5643530266164491,1.7263748682584934,1.744098838548917,1.6817988539747015,1.4044411314163463,1.5599336699959696,1.6426557886296493,1.7081143680075241,1.6683814698489232,1.5876126817820826,1.6948695433304481,1.7145011768493104,1.7034663925116857,1.5384650895570966,1.482604955319908,1.655472937050659,1.464895969373082,1.5188411671702662,1.3168237481984577,1.5140757166486194,1.6513885625528557,1.7222106367202523
1.735304702800692,1.5512181278437192,1.6063177783760596,1.4441781466382004,1.5209772666817871,1.4653984560062525,1.7004890838176503,1.5854582783196745,1.654698892970433,1.7441393794438267,1.6568722165770362,1.743252972768819,1.7289173039681505,1.6849743567797528,1.3875655716517643,1.4963014697244363,1.5812974045707704,1.7350539027261402,1.7145718918557826,1.477869435586026,1.706993416631172,1.7233213827823493,1.675714778623325,1.5430296269093904,1.5004673827622323,1.5736495255785243,1.3999878897753606,1.525239287467196,1.3525960913039206,1.4999673037475336,1.6415370266834113,1.6579045380344275
1.7191868192252786,1.5086091395619,1.5675804042262294,1.3437664814541959,1.5355917116501066,1.4458108716228475,1.6309320384568329,1.5648206363210835,1.6470036405232114,1.6696353957484822,1.6277662124222656,1.713981554484309,1.7095201096349528,1.6523082952829864,1.418568294366012,1.5208209335149585,1.578719478007537,1.7130294927233733,1.694324258795967,1.4944504871873578,1.5909750892941275,1.7262662798892838,1.59204099794592,1.4275903144475652,1.4494017473319876,1.6196126699488118,1.4518351005244376,1.4394962993202187,1.3789512370659085,1.4664971204515815,1.6262869727664737,1.6269821004183531
1.4962269495514913,1.5031194517847402,1.456600839238533,1.4158830638230187,1.631428618294527,1.3846824261733621,1.607448635521007,1.6313991745183136,1.733703348411781,1.6414443599437964,1.5335092988343095,1.6638435020868858,1.7216238488080409,1.5667211419548477,1.3302001080955383,1.4608642198892088,1.5510117016043876,1.6990999572505308,1.6331689784897152,1.494411271071243,1.5548751679171553,1.6783899773483824,1.5312325702998584,1.497243149526619,1.463375477348233,1.5516527475700814,1.3821342996878456,1.4669069262171301,1.318710545628642,1.3062409863438516,1.6254535791342055,1.6461406435077848
1.4125768524534361,1.4316435234598681,1.4382393276765248,1.4468312049599663,1.522451202526549,1.3419982130194363,1.5280484113290336,1.5482347601260895,1.600112067457228,1.5821876796380017,1.435769335745332,1.6044867285864344,1.6430258252163843,1.4301643421537673,1.2566151447962026,1.3856813418028897,1.534071986388522,1.6217435058091099,1.587878389854952,1.4489051111000317,1.5101862680970841,1.5455458716677803,1.5203324405629097,1.4190879847106124,1.4720983455608327,1.5038254845345198,1.3156741692244776,1.4345964836962914,1.280948196732947,1.2480662738219075,1.6162706895184495,1.5924642554199673
1.5494888740790627,1.3871434968082348,1.5139224359174503,1.3058675612879131,1.4535441859451264,1.436062336428556,1.6174951319748847,1.5474198817756295,1.567989159940225,1.611720258409576,1.5352458834848837,1.5969113841354776,1.6197632802975952,1.5345893730118783,1.380162967432384,1.5147190134828132,1.5830972979264848,1.5999546704267193,1.6363080381710722,1.3560419618273285,1.5174310274132856,1.6064162764766194,1.5730481156215494,1.3378875173906206,1.5130037033936856,1.479955265426056,1.3950313806881913,1.5024368029443271,1.3149899727420082,1.3418821084287225,1.5271276918698584,1.5153731048319443
1.6313032413953743,1.4056245767769264,1.4728707370753016,1.3660007930100475,1.4969894144743578,1.456526897487355,1.5608612620879896,1.597480304862077,1.6631013487487583,1.5495329488799494,1.4980941946839175,1.6307718815307697,1.6745711690331537,1.558136806213633,1.3709478659257213,1.5029850054580582,1.594721809701842,1.6302405646435991,1.6665550927752382,1.4218331189494136,1.566710300876813,1.6873371351393907,1.5926868823984797,1.453002918967048,1.4655467366259185,1.458588238350527,1.3840093354385072,1.4154207990851084,1.3166478604197602,1.3898878969910005,1.5620002885411783,1.5738685438578466
1.5026819182306703,1.3563211141182574,1.4295532164793674,1.3412535650632376,1.5291884155956703,1.3267878653975413,1.4182167159650414,1.5294533173129146,1.672347144689625,1.5549941908724965,1.4777769882673182,1.5953580088333383,1.5892085042672563,1.5619547267512157,1.3494563761773986,1.4070686761029516,1.451070151953143,1.5437174109805663,1.4936853478114576,1.3974519118627085,1.4262978178937824,1.5611389361334238,1.4443028482616527,1.4366729076442906,1.3395981321730581,1.4449260376436026,1.255787289625133,1.349121633861364,1.2145632655810676,1.3145385429137064,1.599227503990561,1.617350722320273
1.458481078758848,1.387599327875517,1.533897624900036,1.4237429145414977,1.61597746080957,1.402171162913287,1.4911673618523344,1.6323635627597364,1.6912199586384353,1.6135008225822687,1.442403465448173,1.5821647050254437,1.7481794919547708,1.5927299771044847,1.36350573075573,1.4720413264460557,1.5739639042784315,1.6953185849755543,1.6894437115022083,1.4443283642837355,1.5343964225679751,1.6981862003034773,1.4903020037790071,1.419695188905898,1.3529636714560762,1.4837758596556991,1.3342441571083974,1.4083853548076113,1.206831501935239,1.3142136948903593,1.6015426039595393,1.5846545816187436
1.5074469037770837,1.417849279531761,1.5274163215444603,1.4719218766054079,1.5981545106775956,1.487084317869805,1.623848947966037,1.709210671247905,1.733514472120698,1.6880634630421083,1.555756021224737,1.6490661777572073,1.8143783385427243,1.5908566976915757,1.379442407105084,1.5108315469256886,1.610692770363068,1.7544805540904576,1.761943318089877,1.4836541348229433,1.6089737366909542,1.7306549928810362,1.5678156087918833,1.3696797867444612,1.3563355382774924,1.4887931155600327,1.3860193575912043,1.4199772228081107,1.353665541219763,1.3348908254550562,1.585242076194478,1.5839234832450435
1.578818866870333,1.4932639303999369,1.5329806652685616,1.47917700129923,1.666125419191749,1.5146263244945894,1.6046908915354974,1.7190536517198036,1.7142631836321898,1.6859722936531847,1.5873317916206173,1.6745019332508662,1.7529179930192902,1.6584224770594413,1.4480628577471664,1.5220006200990261,1.6190668091562725,1.7555054486470165,1.7468127245375513,1.4571907732616742,1.6041476260863339,1.7248112988589228,1.6239285704285618,1.3889783625045489,1.417928245661824,1.5895703332566986,1.4333601618385001,1.4353260465763937,1.3684236269898866,1.3615984948187394,1.630611726128916,1.6970607590509963
1.6228179510248308,1.5711060349631203,1.5727839973845232,1.5818218882338928,1.8115229353725117,1.6076426891476816,1.5814970460715698,1.7532678535203854,1.741908296186864,1.663414170178995,1.6373390282270448,1.727647026337116,1.7842433874781594,1.7847072544207958,1.6333426485940465,1.7222543647171875,1.7597925966224393,1.8027628560016742,1.7418480490565464,1.5725331094715151,1.584848960450112,1.728049516004765,1.6483261429038698,1.41170436358522,1.5104104032721573,1.712993021732892,1.5247868155553181,1.5489462758228176,1.3243804338681051,1.3629790595540636,1.7975345410077204,1.7756808859915243
1.5585012222315537,1.5311674155880899,1.5989292766901946,1.5194128174244417,1.7683340583821388,1.4738358521819024,1.581686394970088,1.706474910804901,1.743566981447267,1.6604191279503657,1.6112036808522756,1.720138560689075,1.791282693621813,1.7650648192532983,1.6015481622612862,1.7302604852310466,1.782774083403903,1.816542192759135,1.7383150464302042,1.6215146868690538,1.668325892686315,1.649178046023701,1.6355328267169924,1.467847287328302,1.498120846347617,1.6705025361185408,1.475010311716102,1.5672586718373442,1.3530923778772959,1.3342652815400398,1.7641579031446104,1.7813000091064917
1.5001255123539798,1.3972986268942922,1.5800441554229843,1.4001045635407645,1.6215324029897418,1.4128234105855195,1.5038545945969481,1.6340268010855423,1.7124712387275074,1.594607204540585,1.4515144126073747,1.690953446206959,1.8255919751861969,1.6667577359157584,1.4029089219141175,1.5576932603991809,1.6452635421907267,1.7331487517433137,1.7241620453113553,1.48294976915578,1.6230993200161954,1.6864003642407626,1.5659337678002605,1.5045332844337556,1.484767612276602,1.5429221449569561,1.3704820454722761,1.5945393676199855,1.3118706486075955,1.390531028685816,1.6354532431586468,1.6749546437058265
1.4622721110838688,1.2853409672847071,1.4858320041908433,1.403391524481646,1.6353315438937839,1.472069719847874,1.5129152119845337,1.6568373808751264,1.6165645016740622,1.6134156262885277,1.4635234062153901,1.581422058481421,1.655164405260708,1.5440633816944076,1.4190565654172922,1.518412904877519,1.6500506775653943,1.6868725652260397,1.69621243062789,1.3651478399869532,1.5401602474685778,1.7098804862290762,1.589866554290028,1.420059781650363,1.3769425660301884,1.607275103040997,1.3970706510794222,1.4638228655082348,1.2939485799358166,1.3292670672529665,1.6812594396856413,1.683510715704275
1.446736722861984,1.364446332843709,1.4925477680720356,1.490043704728338,1.6848538694949764,1.565167761642434,1.6364688826755358,1.7172054878244418,1.6201973347708976,1.6894598664357792,1.5719380834096701,1.697093004321177,1.7081460502634183,1.6512266306873562,1.4671136286522284,1.5177364413568382,1.533697638586979,1.570394110505332,1.6752731677083381,1.3243548533090403,1.569740551466633,1.7030323444316702,1.6643706308916573,1.4914940848181084,1.366695901858077,1.6202814782255892,1.3939602571553897,1.4411197739783035,1.3062992924599415,1.3297352726314038,1.6436737968008013,1.6663328769682813
1.513128003836071,1.559129323681585,1.6064887032912318,1.5422897177397201,1.6584342546329853,1.6046782430426607,1.6719718411848346,1.7050419397783991,1.6904360173370208,1.7317293475983007,1.6292406068048688,1.7222275002646417,1.746750169346043,1.6809564476735763,1.4946479280365101,1.522799693245074,1.4907757491449638,1.6800394852127236,1.7464095913812243,1.4422708143045353,1.6478007766420262,1.7651276250675878,1.6850939873363344,1.4953905792969648,1.4654106951132313,1.6343153744487273,1.401622189163322,1.4900642821909762,1.3839982332362903,1.4147485115561749,1.6536701021947453,1.6447017043669343
1.5021338360800396,1.3977747726888636,1.5472614136912701,1.4385155460929495,1.586542253574183,1.403015082002405,1.5469585410253714,1.6531012409485153,1.6672245915147412,1.6301540349396595,1.5758338991489704,1.5805453875538922,1.6713761330360999,1.5739876618579305,1.4454001977595434,1.4688492373655258,1.4849011305240476,1.6456643573125713,1.6953686959798682,1.4071529668569374,1.6107210378455166,1.7237922933985794,1.6161811125256336,1.3691577502879684,1.330569081087508,1.4761287015906126,1.272596440262712,1.3985208451969962,1.3348228614657058,1.3668678577473694,1.5920408420095944,1.643196486749726
1.4826676145994333,1.3870551574455463,1.5273272129605018,1.3702666810637514,1.6321909695695422,1.405010112236523,1.5615298621205096,1.6741768405999973,1.6628406883842672,1.6238728896305274,1.4936230161324704,1.6067186034879586,1.6494014474988943,1.56622311276602,1.4007638638989885,1.4881756290307513,1.5821649907478925,1.6679464893287987,1.6455962413873892,1.450141624780192,1.5376855988348785,1.661327669603529,1.491138172796559,1.4349706347507947,1.3351388526742527,1.3943729149841855,1.2344513998701003,1.416347252241074,1.2603350859084161,1.2733602033758482,1.5765531697409536,1.5967709665529177
1.6126926319980768,1.405628922208845,1.5998272525682158,1.4339763097208211,1.6557981583849921,1.4719783565916016,1.6898823346872995,1.6591131523092832,1.6562477067504888,1.7011870761657857,1.5158670351404817,1.7396555077062112,1.6940806728946227,1.6430576147985527,1.4145507459915876,1.464553003563652,1.6035347020753463,1.6971199103322037,1.65355822881071,1.4774353279889727,1.5503259716649782,1.6139837706161553,1.5745070326523198,1.4900745556623625,1.5470263158523234,1.5857054187466746,1.396018145454721,1.5962459772805309,1.3088135721626635,1.4552625625330406,1.703749037607127,1.6999779010206995
1.6771208700548255,1.3793942785106785,1.525747237780699,1.4002320984909387,1.6419601751112851,1.4218500686498672,1.5938941244076401,1.6042913037307729,1.6116558112184356,1.6249382739913663,1.3938879278060088,1.6698840945545308,1.7227557102034685,1.5877222186132214,1.3991683712428706,1.4420690905841418,1.5762488324741581,1.729669183107868,1.7010976238664286,1.5266053653464227,1.6131481993178445,1.6490652469624276,1.6067916584076751,1.5540981648994527,1.4850968573648542,1.5775136960117517,1.3564143130033623,1.4821981328978688,1.3424230708175826,1.4564294536500317,1.6670104827649739,1.6649319322110572
1.5807111027476104,1.3991610281062192,1.4747620704106503,1.296239678762027,1.5606572161145595,1.4226366643641972,1.597357279778376,1.6080511845299426,1.6090760245492537,1.6324763299583671,1.454577418770741,1.625913386709261,1.6955768696278164,1.5392702395896385,1.4115823033951687,1.4687121647449786,1.5529736214304648,1.6808933954864844,1.6861419274326686,1.404086326625926,1.520827036549634,1.7293554084209013,1.568891175738335,1.4070759379504536,1.3787672786969898,1.517123077477129,1.40120897167019,1.3571066403850334,1.286403548402711,1.2387186817471076,1.569817733596647,1.6408376899444204
1.5082837225435672,1.3406464983307766,1.5285142879447262,1.3561515265451898,1.4645229577366474,1.4026625421940622,1.5574598672144584,1.5923162888750775,1.563012070906423,1.622936026851077,1.4777031816640152,1.5549982755923757,1.6549760062293808,1.4749565995383713,1.398724175181336,1.4696049687176465,1.53881319059639,1.6351200403269335,1.7035101096908043,1.3745452580987507,1.5474287318023996,1.7189469638368755,1.5102055328243218,1.3947576732392488,1.4080171715724623,1.4349506605558862,1.3898133751831943,1.450218240582021,1.327372861414831,1.3072508546955273,1.5046435092188706,1.6202639579988878
1.5839446025877193,1.4096369911363342,1.563869261324548,1.4714122182794043,1.5568467422924501,1.393670764206944,1.5673902631863934,1.621214065246277,1.6329243734958152,1.6389228972377807,1.5451559411697193,1.6459308515421394,1.7301139134035266,1.6318867667132122,1.4313612394572348,1.545557775062511,1.586488428928851,1.6551224417737802,1.7016717405225332,1.422027317954984,1.5738427047089634,1.6686527390144812,1.504511402750163,1.4275345005576328,1.4533896812414424,1.4539397246146346,1.299242363836536,1.495175501259715,1.2900344401672867,1.382907063374084,1.630330400499655,1.64746721027998
1.4940561506367316,1.492448764867385,1.5922260203777854,1.4817914637389282,1.5465295047554548,1.458093624517636,1.5894148270944157,1.5776181071564017,1.7193741306071433,1.620555742371465,1.5625056761888378,1.6582616747988415,1.6981626470171418,1.6540291197038537,1.4518363090884312,1.534900185661226,1.546350191043769,1.618912809564773,1.611494360645853,1.4410893911228575,1.5454304122428313,1.6563011091306525,1.524432470532894,1.4710196152344301,1.3409577951521123,1.4520115666361968,1.294355539716253,1.4694867127677487,1.2075003447390247,1.335450547529558,1.5851611759777378,1.6901156498164525
1.5010318451113898,1.4857561876140641,1.6100286016872745,1.4616277298257898,1.6358938018192681,1.5475324161219248,1.7330484305411082,1.6831387503877138,1.7720295334821123,1.7269107312961167,1.6912318805697375,1.7233726095240949,1.7252308456390553,1.6559778730186008,1.5073382759235276,1.5472141678813427,1.6027747745601972,1.692908985916844,1.7058279787477904,1.5153554981006316,1.6692845552755349,1.7128505533313223,1.5769052574545457,1.5840982817139344,1.3416676851667848,1.5318051400669075,1.3614643410226142,1.5316239580343876,1.3357021282570716,1.3539399088924844,1.6083898225165851,1.75866293339422
1.5202881889993054,1.414675602553892,1.6166270324454322,1.3691782303577824,1.6869989298384938,1.5647660498312475,1.6423607729683027,1.720415400349469,1.759976907392117,1.6557739975928005,1.6465762426496782,1.7226293051891495,1.767735868717665,1.663258230046148,1.442056149392371,1.551901821071725,1.664041655703088,1.7415045276778907,1.7641846703872597,1.585263437148712,1.7202015464511309,1.738451508979663,1.6494649074029315,1.5896482364497946,1.4578048476709933,1.614125876108421,1.4077896743205365,1.533788639359105,1.283418852961891,1.3254616740088498,1.676989075248509,1.7379210066917394
1.4815508721643371,1.4064213349819354,1.6230068633297758,1.25738188678195,1.6509757560728242,1.4662059356992432,1.5900951050953045,1.6057542205188748,1.730626289130857,1.6076884667345226,1.5362187728346541,1.708810576197994,1.7943800050751284,1.640715490875663,1.4303421611050495,1.482899443459854,1.536517384996676,1.6815405474734544,1.716795729291651,1.5054901295659406,1.5984395383885357,1.7421259486415506,1.6035092666062964,1.531561729236694,1.5085162240520518,1.5930545894881722,1.3582857088887088,1.5174861586762853,1.2739109213485222,1.3596882134122277,1.6064083817918893,1.7187646072414733
1.5530786943298125,1.404629380312514,1.712507322273782,1.442926568404541,1.7117386381383193,1.5562541026479577,1.6907799678430206,1.6656162108529973,1.7103156341932624,1.6246122813374895,1.5476390094023031,1.6525885076953064,1.7719005763706455,1.6292849616815832,1.4286434560275114,1.5018133285519157,1.5866722591182159,1.7160875122455763,1.6898263007932717,1.5209923449343266,1.6096913537672373,1.7117562207050712,1.6141742364365177,1.5475721560040154,1.445564910643671,1.6283566245074723,1.322372945390405,1.5021808697957593,1.2562161244838268,1.4125365244831438,1.7097834239654073,1.7198852266993072
1.552764177250512,1.4444703390915978,1.6235110744921137,1.4713682136073458,1.6887325654697738,1.6521000529966308,1.753405239732927,1.6603552104564903,1.657312445242447,1.7222222947906705,1.6650744033206224,1.701317907055748,1.779169479021977,1.6482249568165726,1.4250010035136218,1.4892018439188206,1.5721792188385826,1.7818563599717878,1.7838536324403345,1.5404896899960832,1.648993738593799,1.7566367932584905,1.6075625605987183,1.5021646964398658,1.4468208991153884,1.596177366450885,1.344560026749957,1.53955359539205,1.2930195004017564,1.4014299065670637,1.7324882033204616,1.7366602255807593
1.4722201476964103,1.4407974395280274,1.4560942887518682,1.324710086828686,1.5745041399193738,1.3652044051845225,1.637807671367271,1.6447601028144263,1.6491046794800097,1.6764468985629253,1.6533363856074805,1.6558175908222057,1.7354305650293478,1.6092523418797857,1.4444048102286124,1.4773682248541293,1.5062528005880287,1.6411761987752946,1.6579638864966733,1.4729433483195824,1.5539589321087552,1.681870797840721,1.535549943708073,1.4586501912647165,1.4075704521064292,1.4828600870918422,1.3595344687464948,1.4759433546755996,1.285104892024439,1.3664034961778333,1.5847203549812803,1.7138141545308818
1.3604961791068375,1.4214461529126026,1.4601151083639117,1.3596293406866902,1.586692612519115,1.3141420223954068,1.6471502698118323,1.6605471966567316,1.6951887027629646,1.6616498011047425,1.5690917880458752,1.70782627406161,1.667606443885723,1.6623320287747445,1.4379335240928242,1.4737206365773963,1.4704573052506502,1.5996799161637034,1.6521141479858714,1.4775439185639954,1.63301013754303,1.6654392562140659,1.6094869857567828,1.4950662094652907,1.3534199369139777,1.5657680506108675,1.4161748998843482,1.470435461842771,1.2582112563706298,1.3314448749808503,1.5944720313753096,1.7193096676031894
1.4167249580679795,1.4560889553869107,1.4817968336111598,1.4071467804132058,1.670175148499416,1.3846561456144109,1.5958876581430153,1.634827868897426,1.7159032810331958,1.614152715805397,1.5373007060156538,1.6521271996532874,1.6145142472953646,1.6179795116662417,1.512096276224165,1.566103537631659,1.6906594692070331,1.7467580876855229,1.6998819581187536,1.548922251348788,1.622164803474436,1.5843803335304067,1.5665334361166736,1.5394990452733632,1.3821000826731198,1.6318441101448646,1.3124222631080136,1.463033448326245,1.32107204273163,1.3513169702407608,1.6846224471521642,1.6752194780588523
1.3920567931647505,1.5093096167532531,1.4594206148702222,1.4384240471092107,1.6933430689766806,1.447710724201592,1.61114501081793,1.626986592754711,1.6452837457131353,1.6008993040971153,1.5404908521845453,1.566630579084404,1.6262444132256002,1.651647060722179,1.5532017869234052,1.5866975019033966,1.7320680853330634,1.7835295479348803,1.721317031485574,1.5255672629725583,1.5024371408122312,1.624783052341748,1.5395380014292979,1.4379885593096464,1.3765907450332613,1.6146885951252883,1.315781120553388,1.360069068959774,1.3213296127034468,1.2154612955640658,1.7163223533854364,1.7127435128933532
1.371392993175122,1.3564506128404021,1.4395430528626856,1.349821122185629,1.552915825797031,1.3725001319388144,1.5790172201509511,1.6253139500696017,1.6550600213097384,1.6037649521267572,1.5057077803088117,1.5780776770401448,1.6399855717782055,1.613901354212779,1.5332153693582757,1.548797928439147,1.6334449678809495,1.708819164889756,1.6647217819488498,1.4612322587389543,1.5200013691578929,1.678934925949392,1.5769304390405294,1.462702573889612,1.3732295875361107,1.4821852441465069,1.311432757593729,1.3759031491153804,1.2559526760779953,1.2632841738654719,1.6256586773505732,1.6652279538892523
1.4810887634183765,1.3842229417742948,1.5497208342463704,1.3939672113185426,1.6031921151620798,1.3717971462237983,1.65171617097108,1.546170570431896,1.6494510581230468,1.6101641515471639,1.5855878164042072,1.6757467046029642,1.7066113211151472,1.686095391473546,1.5584359574522113,1.6553502374459221,1.7383877817386695,1.7992747534727485,1.7463926955055056,1.490992269196736,1.5774774649910455,1.7565318007674018,1.6819049790730332,1.4756292986683528,1.4533989657183055,1.594798218890799,1.4082758277176384,1.4218315260080017,1.3284345683766887,1.351137758927748,1.6972328081739012,1.693872330161618
1.6204730512790513,1.507323928311719,1.6448394918777522,1.4718726765835868,1.680866202788778,1.433683937126807,1.7024216804444923,1.6493619199781786,1.599194871819814,1.6438686826605484,1.6476565945259936,1.7630150363033423,1.7862013937691728,1.8154205441734237,1.650405597722211,1.7678163480486015,1.8470695614842734,1.8849626062222393,1.820835881666692,1.5260334071823507,1.5206164125954895,1.703613196926829,1.669642012926733,1.5779178216477678,1.5647210494556,1.6705652209308364,1.4249606584743124,1.5509811397319608,1.481552017733382,1.4192783329129626,1.743756173327696,1.7197753713553325
1.5959874660730176,1.405547070610313,1.6767853853868544,1.4168339856262366,1.6613696256093236,1.4947742709520688,1.7314016493971538,1.606847671342147,1.6596556478884623,1.6821057642105464,1.7030849474590455,1.787397204837847,1.803056127200699,1.8219367202725982,1.6792960346675834,1.7415941219953515,1.7957885169208692,1.8633162425178198,1.7841095860595935,1.544074400002634,1.6072684342414905,1.7953707771406069,1.653389645418999,1.607589482326083,1.579611599744166,1.6119004002798472,1.2938097236948176,1.5357712471797669,1.365967288834041,1.3879429639687526,1.7157015329934642,1.7574150359513343
1.5649876756505305,1.264169664794105,1.646175061184653,1.3949452099458262,1.6702137090894507,1.4783447773343643,1.7067690308883556,1.5837646110924828,1.652775861798573,1.641742620343336,1.6003919774110582,1.6918190803758388,1.7977596453503688,1.6820483420491303,1.5182585080506006,1.5923309145706868,1.6242163513117336,1.772848259841072,1.7405590861194653,1.4163287086323304,1.5578568228973646,1.7809604302864035,1.5922461437407935,1.4135248627726027,1.4453817250643664,1.5668640690729123,1.2573954041016462,1.501834405329917,1.3036219766355415,1.3325505722587871,1.6720240323257771,1.6932913693884935
1.5036763241804618,1.4062272096466701,1.5610581619424004,1.3691998889726738,1.5875558888977652,1.4123612067477906,1.6377629037942458,1.6417665321045538,1.594431652556516,1.6602466605525303,1.569947753535116,1.6368234798906216,1.561810186892305,1.6006824788444223,1.5031364554191964,1.5744591684894778,1.6203851037343655,1.6321512115927903,1.5802387499180162,1.4827743123768797,1.6136512508076641,1.5765692945509078,1.5735959850542858,1.4998818868005683,1.4047541791297162,1.5284553057882648,1.388910410248543,1.5099888283449021,1.3702361259408984,1.3127564269162633,1.6047416451578242,1.621323277850684
1.6510263816896935,1.5890637617486392,1.5701227811072327,1.5601961519416054,1.6866866542488865,1.5262667673628194,1.6900388093640677,1.6945497686890427,1.7259357933771236,1.7369645478604725,1.713257438466694,1.76328304376441,1.7090337575720804,1.7832580586838571,1.7074787350665726,1.7934816503677533,1.8204474392779373,1.798621024210999,1.6784034090882103,1.6706322645588674,1.6842974670349788,1.656547762021639,1.7133726192282819,1.633392080768765,1.6621576153507096,1.731270933808971,1.5899481952596535,1.687783728479957,1.4844148020971313,1.4682756230919767,1.7543368764602656,1.7568846119273203
1.7418352836128221,1.6569063709213423,1.715320851057931,1.6404425616031146,1.7752758024001092,1.6721079546811408,1.7423245168473211,1.7178769766056514,1.7260539011475542,1.7013319390799484,1.7079477703210788,1.8096548062513502,1.7937830312461074,1.8584121969761755,1.7313716774822192,1.8284745239511977,1.8732025978720683,1.8554743184188123,1.7763278370623103,1.7316539418521388,1.698021383224339,1.7103866098903424,1.7280374596542272,1.6646122548792572,1.6149160083057925,1.7746449919364797,1.6141794485683865,1.6823688784389077,1.518425970192312,1.558813636713255,1.7994611987030922,1.8247432987684313
1.7784293036398349,1.6560947093049314,1.758466737262827,1.601939437107674,1.7665372304239564,1.6184055354766709,1.7042567784107012,1.6731520737433023,1.7828299909996712,1.7371738002305053,1.7677347024947887,1.8704204719837325,1.822805696376402,1.8927048588591522,1.716150265309973,1.7563907109898131,1.802977328396387,1.8071322405350936,1.7652123875130261,1.6716653066360765,1.6668539319798605,1.7147795369951626,1.631303940557374,1.594671188439874,1.551500961291449,1.7180886295843063,1.5228276213095118,1.6750733671762845,1.4451155377199802,1.5541123181128187,1.7796289950152873,1.8057101438527425
1.6866919178482542,1.632013952121015,1.741640871214038,1.62411291567412,1.7978791392470415,1.5764279620023363,1.7294797923093044,1.697685047012908,1.7989533095587766,1.7693885141615244,1.765989129662619,1.8814349336575555,1.8704183080126882,1.8842331598445263,1.6933834939875523,1.7456696688387205,1.8404977439849486,1.8837097972637633,1.8586191561924374,1.6638418974245375,1.694028806207677,1.8045115927513624,1.6332194125443302,1.6492593676682992,1.6393264026396184,1.736628751360106,1.5443049154198798,1.654533365828199,1.4603915437319916,1.484100549226979,1.8122259652717252,1.815195674473881
1.7096795650346872,1.6612159217902054,1.7422017198898838,1.597832592149066,1.821770826156455,1.582600049107507,1.7567123213512117,1.7187547793135198,1.7261331884521711,1.678405443364373,1.7510643898710803,1.8316121475072575,1.837417500373379,1.8851166835887838,1.7356156329719301,1.7912116363551092,1.84192131052937,1.8824462966999356,1.8411981845772,1.6574651766142139,1.5871308689154475,1.7646736315426752,1.6450389697585024,1.582065731045412,1.5790645641937318,1.749109099133423,1.4860221789907024,1.5840559780607442,1.4399045855703092,1.4509214500482515,1.8444334147711958,1.8128315501943586
1.6096813598041921,1.5836101669208411,1.5522108806489203,1.5339223754269007,1.7041081325527772,1.5590760547656013,1.5241085396468554,1.7561153972851695,1.7449741532243055,1.653896894620984,1.638170179589691,1.7689437213525878,1.7878254493921992,1.8094515853525903,1.6753413238986643,1.7726584118377033,1.848483758581807,1.857900108660001,1.7754841142138664,1.6835206061100607,1.5301393245748784,1.6782239480583152,1.5888830809887406,1.4609417267380627,1.4966254704846451,1.6503809161754501,1.2935589637400193,1.5593825012603084,1.338202318274599,1.4284587552486978,1.7566942098555338,1.7691953711747976
1.5157544052676617,1.448439599453177,1.5027247327230862,1.4499944087958996,1.5542750940932681,1.474162944518895,1.4541892070318527,1.6205701536549462,1.6256682932087003,1.5709771551612548,1.5543180423221843,1.719717768216626,1.7426618878211357,1.7552898428760346,1.603378553477433,1.695897923607636,1.7761353223886134,1.795401988941296,1.7499047893996178,1.5917582932549812,1.5575276900455484,1.702526735767356,1.5018062556454883,1.4851251521203626,1.4299096866566143,1.479489578536459,1.2808021285905244,1.459934952244322,1.2774762898702707,1.3271866490907491,1.619959012097579,1.6866914842454854
1.3775833573353935,1.3537706795742377,1.4081292964912904,1.361660691827935,1.4247634411685903,1.3186766414812117,1.360039894553123,1.5609346644697086,1.6090965030104776,1.63147451885904,1.5366972661887472,1.6504736652013445,1.6271175964875795,1.6332597219522345,1.5015437663431537,1.5366400341516062,1.5445746916961636,1.6166577538571865,1.6380673088259343,1.4921148325383506,1.6091853235941909,1.636654217409504,1.418722504609011,1.4537736232839602,1.401222212206021,1.382800392370506,1.2945380126558015,1.3352117723064933,1.2337014427537807,1.2202186851855497,1.5204735871166004,1.5346398308003293
1.4041331722653554,1.2204706449958524,1.3414948123713495,1.3787618630585043,1.4311907006007814,1.3342791339577458,1.447805430201757,1.4730760959206817,1.6138894197818947,1.6223243627186035,1.4864582305834613,1.6524019928536955,1.6667342295297498,1.5913719796185744,1.3952383876752836,1.4247377233174632,1.4594379530925943,1.577464176299462,1.6170888044293408,1.410795003795445,1.4889762136954023,1.6303688275335204,1.3770784411624601,1.3145293839334806,1.3688720714002012,1.3959595454544353,1.2842287655922062,1.2917576107442528,1.2917950950662376,1.2702254980463004,1.5682502288745426,1.500649830251239
1.4586445429811747,1.3022771808515679,1.4025437507416714,1.4448807847443887,1.54112033450883,1.388168785203904,1.4455677666467155,1.4827176455449749,1.6587686769086907,1.6306799240942473,1.6270208586295178,1.728103886255267,1.7366373610654213,1.7141683263717549,1.5730082453365908,1.5933501281553197,1.6327924458635756,1.670610137712863,1.6472203639421712,1.3737782409300388,1.4523485969414454,1.6602987514280643,1.484139253811887,1.3811571056983296,1.3941873550406225,1.4845141767423964,1.3534757914341013,1.4682176934696685,1.3112296778401646,1.2995319208087173,1.6537662417655237,1.5916950932207719
1.5130088661210752,1.5128664999101318,1.567303062372998,1.456590309527562,1.5911596939584083,1.5368954012199174,1.6405532891624672,1.567010383195657,1.6944105086170504,1.664530160796815,1.6719953787070796,1.7861770375185593,1.8154271668252604,1.8237077756412496,1.6698734545997673,1.752304307648733,1.7780443244873774,1.801231445348071,1.6993376029441039,1.5095786711903556,1.507600441178805,1.621848142019217,1.4353674754134065,1.4337375135136265,1.4566635675469757,1.4925236802757496,1.3921157507599875,1.5021036956209304,1.3804436225216556,1.3452427050670908,1.6389069379429726,1.6620037501649465
1.5672566676010338,1.5777937156643498,1.6412167687567891,1.4390950640412299,1.6207423240751928,1.534829608832668,1.7242269323334982,1.6383675438176561,1.737209417585538,1.6785175001491786,1.6335154126673121,1.812683566872344,1.856620623860513,1.830963692616061,1.6518707557239978,1.7467559690506136,1.7818702265110842,1.797674237288414,1.7284864782968647,1.5871478554215446,1.5927714032892168,1.7032862285296073,1.5593156381570887,1.427765566562546,1.5181450941091301,1.4978546644700874,1.3955797228920523,1.5029951617549595,1.3893699003548472,1.4251943394624995,1.6334319639504236,1.717761036243759
1.6362446813285385,1.486617034278087,1.6415487948183316,1.4982488097923348,1.654855419681651,1.5274860374555816,1.7393657015789048,1.7038361246692337,1.7617577525035018,1.6967108319354907,1.5509877172150295,1.75862983420168,1.8584024506511094,1.772058023300864,1.6142069039504658,1.7001171735822702,1.759838852169535,1.8095303998842034,1.7882526430385601,1.6229664447191425,1.6617130963894278,1.7234441770178974,1.5770582304375773,1.5335766180912775,1.5860858847493158,1.592987146775135,1.504078945012053,1.5890542747196092,1.4016125807953206,1.5261452719046698,1.703339994352449,1.7485467593079964
1.630164520065253,1.4274836280301206,1.6763793527789879,1.511218230590001,1.603029598346008,1.5119179055706633,1.7877608213017326,1.6679786992650134,1.6879904044894916,1.7236689486966048,1.674866537257362,1.759794100843878,1.8258353085411188,1.752939057590491,1.550711821033865,1.6652685133959702,1.7153746320403145,1.7731833435357907,1.7279363189495751,1.5557048024055398,1.6669593492632067,1.7149177746258812,1.6591021494115181,1.6405725751604017,1.5071474798059583,1.644003150782824,1.541921750224758,1.604217992946128,1.3579253020437156,1.5104055636919689,1.6573272656463063,1.6322041011973047
1.624780214274667,1.5410934773511449,1.6976817767055588,1.5762855883899523,1.6310542962996104,1.5773925249460334,1.8292241942040335,1.6635631250282459,1.7208151158461658,1.7473816117189847,1.6073720910955909,1.7062508054143453,1.8522937063131089,1.6312229965115912,1.387083020329077,1.5162261769548426,1.6117300078665424,1.7885639613128537,1.751044137282736,1.5109205862703687,1.649280627060635,1.7530028409612466,1.6191731354643375,1.4758705496906137,1.3399194604074518,1.6018341566608898,1.4767229689913655,1.5102705176536955,1.3486063048547379,1.4844841969721372,1.6279074229794934,1.7116888447680523
1.6069570320908078,1.5650300535908008,1.6545257411307053,1.6180787667762595,1.663082320663373,1.5349893764680091,1.6414902335053168,1.6652525218356213,1.692090985621541,1.6782079325278116,1.4699368919631082,1.6880144745718653,1.7105323726860193,1.6255655198605228,1.407909687318699,1.5322233978368864,1.6077606224172765,1.7774032344736308,1.7676641270523148,1.5545272717850014,1.719337015619052,1.7008607402799796,1.5775760359027138,1.4868438313143597,1.4047705677462543,1.6065371282901013,1.4351339610252716,1.4661299681390005,1.3748878331675056,1.5085128990770893,1.642934287246864,1.7205434482959592
1.5840769532058854,1.5126586494677066,1.5920951169460642,1.5703612905727298,1.6880679344688856,1.4530633981249497,1.5001895900131423,1.624362789734204,1.6931002695311417,1.6350850282247968,1.4788263969287687,1.7144453660220942,1.7667388969102111,1.6149752164029634,1.3786923464818037,1.503537466703175,1.5961496134470798,1.7472736246471314,1.717046243382407,1.479459069358695,1.6665785828753916,1.6928151659149928,1.5727436774318908,1.507135572385928,1.4703644061381174,1.6638489868523203,1.491285407574132,1.4876224425727076,1.4003575814346287,1.5028355396132385,1.7056981906520683,1.6959441813276859
1.5817305192502455,1.4698192900755958,1.5246328261872613,1.5018158086026465,1.6889501898456656,1.4710801494338537,1.5892041327963233,1.632334241523458,1.6632453938679148,1.6885638318664646,1.5230196716179603,1.6651535152611856,1.7357801576193923,1.5362355012820939,1.3913886883621935,1.4366515514175027,1.5142821128744812,1.6621909804443384,1.6610609179806908,1.4301585966147485,1.5893587393159063,1.6133732964169618,1.5725598667184921,1.3749600305813012,1.3474322195350283,1.62982664311646,1.4857610614025418,1.4509455867169256,1.41427785220657,1.4596704739650592,1.684913654539115,1.7329755104780111
1.5872588043407838,1.5279461224520214,1.5406892543900736,1.4989696817111549,1.5226438328040017,1.4648946651253918,1.6123263590796362,1.5970570898866827,1.676652356148666,1.6591407528127007,1.5686003654823049,1.6661480004972977,1.6541927138389811,1.619323148747879,1.4361805733771662,1.4209596208466126,1.4817081749941232,1.5474473272526619,1.5349463655118674,1.3627167006154532,1.488527678138725,1.6109589911429583,1.5519853817770806,1.4749393545104579,1.4462329213099805,1.5430961609155383,1.3875504954419653,1.5041552403472336,1.452920936069773,1.5405316912633322,1.6050138580148516,1.6905193951544584
1.648825422862775,1.518785133433279,1.6161783154410094,1.4936438172263453,1.6740209319133454,1.4379723602400452,1.6041229302296087,1.5767988038661866,1.6838217493522314,1.5959335406881137,1.5449573318685264,1.6326937452474062,1.7291980558576916,1.6577585639336967,1.5727521590849558,1.5310650001368904,1.4970379784547445,1.607154453518244,1.612058355856038,1.4539301449660995,1.5559998649449536,1.703084672299634,1.5656529660599243,1.488143160341908,1.4469435405145818,1.7019535243681883,1.3661761304716395,1.5860512825199014,1.4731575770901983,1.5477900503012032,1.6707832155217448,1.749554379118934
1.555276246254868,1.4581583978603212,1.6338410679183237,1.5587927593622195,1.6982160016832004,1.474888380679212,1.669768111010118,1.567339267767853,1.6259207067624681,1.6237903999507912,1.5922200818103722,1.6036703564108628,1.7518558275661213,1.5938005268390427,1.4920470672043027,1.5348971066062937,1.509504238642697,1.6155138361246697,1.625160562015452,1.3746822807742807,1.507302456532525,1.688725998670852,1.6022848480257834,1.3811809988792036,1.4455027079179321,1.7140956253096111,1.454479700901552,1.55965641644106,1.4602989748000623,1.4834291440348333,1.7013888992231567,1.7268415816155427
1.6070398224440734,1.5195394432264626,1.5995306254766182,1.4974892967074702,1.6357768160995805,1.4192111192236712,1.5572126525074916,1.5328095076892763,1.6500027836947166,1.5526217116840095,1.5670315996178137,1.6435329410323256,1.732964654880702,1.5873895718372342,1.4582535692945948,1.566855445570707,1.5310403223389362,1.6000162205633566,1.5396249831186801,1.3588217587732758,1.4680393336129864,1.646433011987935,1.5559124741545127,1.4233554923557685,1.5150247112273458,1.5730448199986413,1.3886227644149114,1.467286824853524,1.4599760326741582,1.4325062718680128,1.6261938407407472,1.6927710098989504
1.7505008080899274,1.5211462512130969,1.7307799343923183,1.5439684699804388,1.6056129426144443,1.606346306837472,1.6479994999758714,1.5482934389658445,1.6196387159441679,1.6254213205880812,1.5253235935270941,1.6556138916965393,1.7277239801435298,1.5359001375928265,1.332779004888892,1.4523599063791193,1.5058147072223935,1.6787605908610275,1.6968166158782807,1.4153167011466008,1.5937245376294755,1.7130783154122529,1.6182120960033324,1.533236735877428,1.5367516826175753,1.4996362300269812,1.2470867204861544,1.4334974818164707,1.3893853055996273,1.4239504040312307,1.5388117591557169,1.6052699635988508
1.7134707679097325,1.4889476034747393,1.7591160088863733,1.5045656733258608,1.7414847994856852,1.601069580518458,1.744290605647324,1.6211492048186615,1.6769498760954176,1.6088960733934883,1.6257235365070912,1.6478059529181446,1.7479886431072846,1.6338841054653253,1.4814558226507482,1.5619418571442079,1.5933896959340157,1.699569282960944,1.716095333006677,1.4866001244092635,1.6739750858113691,1.774808551688918,1.6888805147364576,1.633447305064747,1.5714349724639638,1.6368897616404305,1.3636924471078078,1.5453007317958818,1.314707216908615,1.3711097654955493,1.6298222041470734,1.7497601654813806
1.7720282395631413,1.529083463295045,1.7562383014660097,1.4870053004517454,1.7348325795646133,1.6119921251175502,1.7906947925054122,1.7456759449540256,1.7225057500520584,1.6799263847037211,1.5757534309315822,1.6743733632863684,1.7484892863234816,1.671541631142018,1.4277050321520746,1.5695814141166757,1.6427977669507674,1.7405819433266858,1.7721155821858356,1.614033903577398,1.7290829637806109,1.755664854881743,1.7141234357913309,1.644630314193666,1.5135426768410434,1.6083999470853112,1.4359717463658666,1.5983984310468775,1.4312341654656333,1.5624545418202451,1.6879009948768382,1.7241960922619206
1.7181919784315092,1.4817642105642983,1.6883043816304926,1.5545842884062053,1.6409983591424042,1.6032447402937045,1.7967271362700459,1.7374564163425972,1.7436681475406226,1.7075633899732636,1.495030518606835,1.713895212711259,1.7976805300117082,1.6829363694226145,1.4190780479766338,1.571501703766834,1.652508796123905,1.7834602006292861,1.823187834241264,1.5679209387778368,1.7007264168143366,1.7834883518591633,1.6721713666337337,1.5183477996321588,1.4623440979850482,1.4909181101858842,1.4013755179452354,1.4258558344818297,1.4149693643802115,1.5922402925329546,1.6349916030513854,1.6478331077759951
1.4509644412790639,1.4110437422241475,1.498072123548257,1.4993757551346463,1.5093832147515558,1.4993715431532872,1.6997409463866913,1.5841995631793042,1.675008045264654,1.6294785748599954,1.540868106165225,1.689517657314031,1.7856384075145832,1.683266359930501,1.4808976506454703,1.5609192660725841,1.6092625832290919,1.706574565052356,1.7481359018890843,1.5121227532893915,1.6154521352841844,1.744761661690506,1.5917766608636474,1.509609189162232,1.4302578277970899,1.4002273834524932,1.3115196937510742,1.3836461739414208,1.293444109229443,1.340654527140597,1.5599836984561228,1.562652757731099
1.3062613443311006,1.3204857154563117,1.431276482600864,1.4371905084277845,1.5141154349775379,1.470141603925219,1.7093026207311115,1.5783351327260255,1.6483502275757125,1.6936620869728771,1.615856244573831,1.7170735829366177,1.7712751245569063,1.7294622397137764,1.6038085353356235,1.6567455941254507,1.681458093210994,1.7414784330488395,1.6992143638650963,1.6194773994431937,1.5710346987482662,1.721517260308459,1.5129543940275645,1.5456829637035367,1.424408838265021,1.4630159281792563,1.2668588959027516,1.3891749288912845,1.2790621896322432,1.2738141740219182,1.5735380153479324,1.6058340044823303
1.556392414450093,1.4869737701010266,1.5199714854971043,1.473321176525482,1.6038861360990575,1.457969696902252,1.6194296454331654,1.5542637710974383,1.683234974042645,1.627417852429026,1.5614875138993314,1.6848560294306671,1.779056242709635,1.7078151082264401,1.5638067671144087,1.6697547683317573,1.7387395519945545,1.7887199526757798,1.7430952969098956,1.6645223621865646,1.561218481387339,1.772463927461171,1.492722638955604,1.529351345309633,1.3564180776584602,1.4949323718985568,1.3514086717758986,1.3847745132071287,1.2481265775142278,1.3549271263201699,1.635752518833621,1.675762710642514
1.63255868226748,1.3497585851553389,1.4888093508077915,1.3276212115357855,1.4986444616697543,1.4186074465360021,1.453217063730263,1.5496172396754435,1.669352772306892,1.6064705195834774,1.53569473124932,1.6919120134066077,1.7474897588481813,1.6971145869000093,1.552233708351623,1.590046548542751,1.6374688493922238,1.704491417376072,1.6628140958206425,1.5603670918232169,1.5251973297537895,1.698159536263175,1.4458957032624586,1.540034534606035,1.4059323189112007,1.4616809224924336,1.326703833711397,1.4204496985322494,1.2491251028419188,1.323202863400568,1.5456314916707117,1.6624067406312963
1.5010020255200889,1.3256629305123266,1.485505568811979,1.3140440388588916,1.505351421403952,1.438583966255226,1.499527764470057,1.5621772762484751,1.6198539766626932,1.6414606329100485,1.5832333108951564,1.6689684411456067,1.698771322308462,1.7021816376216528,1.550642164161819,1.5853256309661699,1.6575611815839604,1.7017989911117484,1.6793200564029611,1.558944095664715,1.458921461335486,1.6531976008653684,1.4969347177705876,1.4277574952490204,1.461220039144145,1.519635096655516,1.3477949181077358,1.3776869844517192,1.3321693528423746,1.228220983459796,1.599030450798704,1.6977834128996008
1.3520825350744463,1.297162048828478,1.5035002251220215,1.2730744731561712,1.4417614992941044,1.4377956159924992,1.6003236539094605,1.5283782747491228,1.6412946490944036,1.6515429331391993,1.5279602109264916,1.617318252945107,1.687141703096115,1.57426747924406,1.3764118594289636,1.4917931501421042,1.5930752296174007,1.669976412085529,1.660938665669639,1.5139973643536686,1.4447109476862103,1.7218385565164498,1.5850093339710385,1.377692475929887,1.364708707096942,1.4419006552129778,1.3205120726542843,1.349710324372024,1.3163881632708414,1.240470629694764,1.4874276004826905,1.7075217295911558
1.361998035162097,1.2475997907079874,1.5361757656997663,1.349993265029799,1.5476661469890614,1.4526223115677863,1.6154762902994702,1.581813580922703,1.6328562399694746,1.622383265794366,1.4899295191316901,1.582429578974256,1.6563232318211232,1.5293805999280754,1.363301660440116,1.5166608450928283,1.5865450330731588,1.668282008340335,1.6536080713686487,1.5207260935353768,1.5574312556875454,1.668268723672081,1.4707830791241094,1.5050683747207874,1.3297489223608485,1.3323946872452648,1.1924962965887973,1.3450663407141012,1.3159392679646587,1.261931521916793,1.4790777673941002,1.5876378931386599
1.3835634086976778,1.253601255207488,1.5071222622477927,1.3538693868638247,1.5324569420099226,1.364169677433663,1.5134085873875647,1.5396166251218597,1.6155867827934594,1.5485992521383285,1.4013598268635856,1.5870678931528834,1.7142416311654753,1.5391872324624216,1.2649925613818296,1.3951444645919224,1.5470485460197838,1.6973744653996525,1.6521709476607047,1.525061636187847,1.6016166965851557,1.6332979168822486,1.4666413184167222,1.587661841797611,1.383765950017085,1.3754579558168831,1.2335207194548925,1.4154168475435287,1.3270565524853304,1.3047227565756547,1.4943813428242283,1.5658368104211686
1.403782124558578,1.3357987955353614,1.4363719329251767,1.352758825665799,1.5248146262651316,1.3394228999396187,1.4838019772620288,1.5151959442528735,1.641665796330523,1.5985809348859095,1.4797993435485584,1.6790130154481966,1.7516771975652636,1.6435153235495006,1.3510804305135853,1.4918254477634327,1.6000231414208652,1.7494601574881947,1.725433830815442,1.492378482631211,1.585391264181126,1.6777698033043142,1.484119738290783,1.5217354888672416,1.4232660205401897,1.4212219621144764,1.230412799464262,1.4267130184834584,1.3555950082592332,1.3513459668445909,1.586177467266272,1.5621049363713815
1.6163408212154953,1.5402762494868756,1.6093906473795017,1.502873802386969,1.6856866075787027,1.5596324422359404,1.5722536394232873,1.7042563337529886,1.726717924794676,1.667309113195683,1.5673878547436553,1.703708146256935,1.7612165589058772,1.7082853146404875,1.4734108215239252,1.6161718728236236,1.6884150760169103,1.7822466625381306,1.7801725570778812,1.5320235026064137,1.6650313834388608,1.7381756914064688,1.6007293007518748,1.5713225052608255,1.3945532106239815,1.5088091121874059,1.2964476619350718,1.5122236122993293,1.351165180550259,1.5160773846836078,1.6566179618938417,1.7037041215202038
1.6002146203675236,1.4371513990765106,1.5390480009168939,1.4682702379872201,1.7400116922770668,1.5247702275283044,1.5545712233248719,1.7315951719767133,1.715785457332347,1.657219432793123,1.6416202372982387,1.7060714749003747,1.8302471444515835,1.7414670326020694,1.5709789696920924,1.704663018677485,1.721369674606432,1.7854629359462806,1.7639118174589206,1.5754127164945722,1.6719922844760748,1.7504915006283692,1.5918559142886368,1.6576162836469246,1.4403243115617175,1.5334020615787427,1.3021660863017148,1.480447753964271,1.3453173079710445,1.4487129545591064,1.7274167623564696,1.7019111852372384
1.3676765189184756,1.2461432808384907,1.46209084541139,1.4098654593101996,1.6695501860454816,1.4368189800821305,1.4682826295937685,1.6319772141682842,1.6422639394843106,1.5464195279283413,1.5779789893903848,1.6780117703098045,1.7678111019955565,1.6970524686070008,1.5128696602291751,1.572842341646477,1.5528653536033525,1.653454755596659,1.637505390290927,1.438508884506378,1.5754408717229527,1.6254820912839867,1.4911581029153351,1.5483733319679558,1.3200291183150787,1.495268655995169,1.2709291926432225,1.4555566839463892,1.243582974854628,1.228844184386575,1.6528898690793854,1.7048517241547811
1.6282195713166943,1.3782202863543669,1.5918232983631357,1.4808957336753708,1.615069089696165,1.5313959652313751,1.587469153939665,1.6366784416105762,1.6876931051538493,1.7000075216640578,1.6231796190226988,1.7735897088864623,1.8045465968132157,1.7565498332271123,1.5026949429081686,1.580192617149397,1.636189542033147,1.7530292985674416,1.7557945573593017,1.4660341280276121,1.575293064785948,1.7529927478558525,1.6115346228447647,1.4766455354027148,1.419498581130211,1.5839841956983125,1.2793769255321155,1.4485378611409585,1.3923950548136215,1.4404493533171285,1.671415107565705,1.660685552076083
1.5883936636237406,1.4442279631685626,1.55761918339375,1.484885336034136,1.6650565818533396,1.5580396028219154,1.6882303672721102,1.7407082260408948,1.7355257526707035,1.790606748668035,1.7069571189886388,1.7976864252217262,1.800558999520463,1.7659552640215932,1.4814302284171057,1.5602953891013112,1.6603348798806892,1.7942374666275251,1.8198121254000696,1.5896559251662952,1.6677426671032085,1.7707958124241963,1.6783864779187103,1.4896727497856381,1.5125860837970013,1.6672824014349301,1.2917205571197854,1.453152361133484,1.4297460165377276,1.4331452973485332,1.7007254029031105,1.6877858358725288
1.5047401730073464,1.4278213259705919,1.5234263357694657,1.399846357803946,1.6870051270954343,1.4368042639488925,1.626604921058215,1.6711669462090004,1.6738518631166421,1.6683249715353767,1.603811614720319,1.6993542068150724,1.73123768809557,1.6777346057673668,1.4103099404912207,1.5197811373724053,1.6141244220546778,1.7927011722446278,1.7943993716218218,1.5384014128921728,1.6409357005183938,1.7308960484766636,1.6102969111223018,1.4746390647072785,1.4702915842297672,1.6213745317191492,1.3136043579735852,1.4244242462636096,1.3083466204188652,1.2782846993396921,1.6843372413565747,1.7038648407300347
1.5345488258232796,1.4386686672958755,1.5691243658425584,1.4957297388160844,1.6460007940862946,1.463176288243524,1.6766841103495302,1.6366859735672123,1.649611553575065,1.6256292911947954,1.6681893398286427,1.6494167701145468,1.7310092087272713,1.709547025138156,1.5644944367473668,1.6537394573508948,1.6912886140772947,1.7568488412810284,1.7549669222323607,1.5552008411946447,1.6426079199265735,1.763241108269431,1.7027192203295414,1.5106263870639898,1.4914464535543341,1.595508385686407,1.3595276421787983,1.506674478773083,1.2961858927991763,1.3583413879950859,1.6886720117344456,1.6840158749699314
1.5561029736199117,1.4654698558765311,1.615700098146073,1.5097192784630602,1.7298649500210392,1.5523379630846224,1.6601901361006848,1.6892641246871283,1.7003276568605927,1.6893937146112092,1.7456713842600682,1.8112038339043801,1.7490770355767407,1.841818551923064,1.6945096068280985,1.8150419400303177,1.8554557190225889,1.846463550941176,1.7823096251687773,1.6687687849061892,1.697272479104564,1.7223019074926695,1.679052912941406,1.5779351042289396,1.504848112930065,1.673016109599357,1.3783509320085925,1.4605137133468842,1.337152580009024,1.3984854709629482,1.772101448528977,1.7595797271304965
1.5049145436985414,1.4840279102474592,1.6406056394563597,1.4507254762709956,1.6839782485792911,1.5780069533348535,1.6198506672375503,1.6917342735713081,1.722251663165959,1.6664956853243271,1.632130408762001,1.71834910888072,1.775725324654578,1.7349238405665621,1.5403138552747313,1.6976445090333538,1.7630321546015337,1.8132965560036938,1.7921844261462043,1.6757845143554229,1.717691673981355,1.7134339392365543,1.6336506249209173,1.5483322389493976,1.4200901525041554,1.6122326728431025,1.3303764536558935,1.375047890318662,1.3628875111736665,1.3462080564076644,1.7116926428046066,1.6630422466007102
1.46140944869725,1.468908873318509,1.6026028105950343,1.4332037578241263,1.6853450687268619,1.5321540259440292,1.6487148050156495,1.7157773348342724,1.7344059087847257,1.6823626609690865,1.5639815469793323,1.7259510648087626,1.7771735479812278,1.723616654596505,1.5434488092634666,1.6334809173563334,1.6769474830912914,1.7919145824506135,1.7849230459478744,1.6003578606881739,1.7162537321945153,1.720242831045463,1.6245798221869385,1.4898840830686613,1.3849913983171815,1.619032544033658,1.3770277187952165,1.4303930046986526,1.406216898032896,1.4106893204640842,1.6704776091718978,1.714645530269197
1.5997007196891615,1.516304777465454,1.6922236943582616,1.4986589660958691,1.7700625048260705,1.6010345957544325,1.668528721301164,1.7457538647633055,1.7116951497518715,1.7123822467532657,1.6747595440315988,1.7923442882292269,1.805830767712774,1.826888262535812,1.661823702231889,1.72384593824004,1.7786669673333317,1.8560973243932422,1.805844878734586,1.616012466165235,1.6693188484469241,1.7383123547012584,1.579194838607539,1.5949962360401444,1.4923631157647335,1.7058669826228419,1.4576212535259747,1.5946079298791285,1.4198696423180783,1.4249713791443532,1.7751681749280062,1.7813669700068482
1.6271416775385257,1.5023307537115043,1.785194553670903,1.4311472655341884,1.7035752587044803,1.6464799471979557,1.726831974849877,1.7154964474419032,1.6801996391908651,1.7346819217895248,1.6711509502320638,1.7597047579000669,1.764448700576065,1.7832395995089247,1.5953233463123733,1.6739642645742365,1.7926465339261761,1.865605226563204,1.8145273165789577,1.609364634947277,1.6550007857435556,1.687882984133706,1.5605160744623607,1.6166815380629707,1.540019790490599,1.635996464134166,1.4371950568573169,1.5830130654296755,1.3765994602949263,1.3930624595219687,1.7351295290155615,1.7191875398573429
1.542100058438167,1.467223621211311,1.6537863511205941,1.3825813140616372,1.6717193464592384,1.5785419921844264,1.7304278350952178,1.65083575635096,1.6439246547114643,1.6585477818210563,1.5397046215627799,1.6672536124905224,1.7296690294669304,1.6315931099891356,1.445577574519829,1.5932930691147507,1.718604651047282,1.81689319879197,1.775925858229542,1.6122210004440372,1.677934900996484,1.7088559877234022,1.5264720304578954,1.5814478621483514,1.5556287315772925,1.516954321481296,1.328898990708483,1.5179315894045962,1.3686946342605488,1.4072032377057277,1.7113101794604473,1.728630244323188
1.4681210687937016,1.4371982773716976,1.6305827061785567,1.3864674756097044,1.602608818522684,1.574701514668696,1.6600462486153615,1.6035289098759367,1.6684621070821233,1.5978151200214221,1.6228565234102703,1.6979579138666734,1.71132401261081,1.7281563294552016,1.5995022548373221,1.6167635265610745,1.6302570050843068,1.665851154329945,1.7247159260207725,1.606645359671687,1.6966696397514345,1.741775582034061,1.6164148283942157,1.6194648936504283,1.514599306411018,1.5703005293763466,1.3154857463163088,1.5159891482093162,1.3275082092268478,1.2998284482999392,1.644191184384195,1.7217778621616209
1.403905542036195,1.48403811395173,1.6603632197715708,1.3173892273625263,1.6181894125283862,1.5529361607833272,1.6166031938976855,1.7021505042138647,1.7709443538328151,1.6516521641423763,1.6430196573714264,1.751688622101247,1.7681601473803792,1.7562793234495178,1.6154820375524463,1.625367729157141,1.6384963484931299,1.6780267826360447,1.7519669826061952,1.6200856972478055,1.7489717274919103,1.7831638281519908,1.6899911661844051,1.6982900012867876,1.5243884293315138,1.6423036946253187,1.3863739904706354,1.5550730162828952,1.341152361001439,1.2828016806116924,1.5919143823406563,1.7780648146163285
1.4509937553231005,1.4861376240662096,1.7162729455329055,1.3780547002838408,1.6376612101517634,1.5793085751862883,1.722468258428564,1.7065906540180686,1.7068520847542112,1.73694882805872,1.6578783447267933,1.7434044142962335,1.7781852334883157,1.6997632234751927,1.5252245781648912,1.5837400652841513,1.637240910145223,1.7449167390175693,1.755911078152014,1.588773827047045,1.7647664376084438,1.7532663332007583,1.7180667827457337,1.6988743562689494,1.567718521053311,1.6102110580520765,1.3993990790019557,1.5708978287362172,1.4050726953053672,1.3812377792673947,1.6475312848968673,1.731084193317047
1.4429519612677213,1.353229467198226,1.6365970279928534,1.374226409007209,1.6280129559324545,1.4558497371191896,1.6889470330861152,1.6475313905634645,1.709249364587545,1.7078325550951898,1.6246337466634682,1.7098634450512333,1.7407994928049773,1.6631683251408145,1.4349675197625111,1.5386097441470468,1.6274261895182056,1.7430816474321484,1.6900936689268031,1.5475847552849908,1.702178711050527,1.6824094191125845,1.681212848254979,1.6154350319088828,1.5239330169590553,1.5645701752695158,1.3685732842156904,1.5445972952699036,1.3254520572592328,1.335529197817668,1.6677731710034902,1.7261996652513303
1.4133954602832712,1.4345136796914355,1.6124713924767007,1.4561774189192422,1.6208699258823203,1.4608290312758803,1.7127151174562918,1.6090962267301887,1.7018191159620246,1.617744468985228,1.6240225524218252,1.6661482267894745,1.7713962411709092,1.6246775362030952,1.4551280092092007,1.5746624544399213,1.70833829092951,1.7629422509869808,1.740445252557923,1.6366651271671615,1.7020075300439594,1.6879747237625795,1.6084275289778196,1.5850692753722646,1.4979132898492453,1.5532604477488883,1.3848172102278018,1.4943195686705835,1.3244807563884635,1.2336782778411537,1.6879768209077004,1.674481325548685
1.498803557963908,1.4792560201545113,1.6430881663874568,1.409421365509708,1.6421023992534014,1.4574820777340571,1.6278059520866495,1.6210548271992362,1.6775547307645768,1.5961353930990243,1.523080011200345,1.6208553194316024,1.744849383937427,1.574683381644379,1.4132348358344147,1.5065684202674174,1.6605450588496211,1.7200656141026451,1.7396202309296247,1.650061380535194,1.715732781318574,1.69107513447418,1.579716340149264,1.6024707938108032,1.3948339761031536,1.5607897788124137,1.2906561251292086,1.5549887117366679,1.360295758317709,1.2695201707700938,1.6922644107089315,1.6836177485074857
1.4824643521694638,1.4362196228185078,1.5685395777569304,1.3353404299797893,1.543567391038794,1.4872164392842684,1.6515793060946187,1.656228737464364,1.7104687607860098,1.7024621293363889,1.6771786512642783,1.6468114616708183,1.704783045110996,1.5884402572208094,1.4567541350117212,1.4589236804091323,1.6099432090583032,1.707991614862043,1.7869810624528892,1.6155234561669964,1.7590077953250878,1.7663694329239896,1.650673807079678,1.6212724319856304,1.4070192771046335,1.4942048641516452,1.2585662676481342,1.5613780066468654,1.3812197118089578,1.2397464671970588,1.549378828879395,1.6737446092972112
1.3733451290385748,1.3354668931370963,1.3794073716964816,1.2919107119080206,1.3890024453552683,1.4176035332594341,1.5738423821406866,1.5645959056969265,1.6463726961385878,1.6424699522608115,1.664830791991491,1.6232749406593148,1.6785152372180159,1.6537099461704505,1.5387598992603986,1.5620785751294666,1.5983348936360842,1.7073476605642648,1.713260792871342,1.4554548460516876,1.587457051116433,1.7080783040526366,1.5154198358759134,1.410761953125463,1.2999920002071068,1.464847843643733,1.3672639618602314,1.2971594372225779,1.3362359966721657,1.290522492433067,1.5261730524058394,1.578319350429425
1.3977974467993213,1.3482838055291992,1.4568501665734086,1.3908485350293862,1.4320901037973668,1.4206804283005023,1.4506370401213653,1.5616457043050112,1.6872832421929116,1.6042305582340857,1.4608010479462425,1.714144893968779,1.751352232997645,1.700760523704581,1.4565712646442066,1.5464719147692783,1.5724924132840634,1.669119012459421,1.6458400991199391,1.4894950483916514,1.5531110129601173,1.62581247231661,1.4624167243701476,1.4273808581574996,1.438012201547717,1.4173329769079308,1.3696150302613517,1.3383515536455284,1.3067805345484091,1.3421943168245198,1.4887651282646495,1.50892847072173
1.392863589162413,1.336445781534457,1.4385578034736919,1.3448560530215443,1.5448794024768187,1.4262197399603287,1.4219830547116283,1.6120789945432756,1.6449330950633354,1.6169121974184957,1.4595054813228228,1.637829532117811,1.6719271382902112,1.5667977297058002,1.4047782546826952,1.456260053228299,1.517213658217414,1.6404796683209595,1.6387507374039123,1.4684450736308128,1.5874571308001548,1.6250433100983377,1.5457280806206668,1.4251514729153747,1.4252406968591314,1.4417844015171142,1.3189382465026154,1.3828333694322534,1.2495127220664892,1.3298380717949583,1.5446737788329585,1.5610578076182933
1.4323884710922643,1.3184805239062676,1.4327298656871874,1.3170670117956105,1.5522393145870914,1.4096591685234374,1.481981489189094,1.6508277267476208,1.655250519015933,1.6984087486418273,1.496189127645906,1.6650527551283594,1.7103022765905975,1.56649701860816,1.4017931235792087,1.4979631159347333,1.5467681659080064,1.7026770954713917,1.6835796070209823,1.4324841588799988,1.5919278980751033,1.702337119817873,1.578820551382305,1.4330571771550744,1.4257588204553036,1.4524502360203382,1.3673236974929186,1.3878275349231288,1.2524682837404584,1.3501483461094177,1.5701360778673914,1.6236312758700786
1.4302177071164135,1.3312861527219668,1.5070339795802203,1.2479344627362634,1.5315079727023064,1.3702297976314255,1.486253955392021,1.6360874977676514,1.6512706463462656,1.6638635833644753,1.5402118804272082,1.702144507110195,1.6965504829086455,1.6686827811641871,1.4653830748490488,1.5675100563482216,1.6062576474751644,1.720483487675274,1.7344612344697214,1.4735384194138281,1.6474236056020193,1.708396619567893,1.6152202314152688,1.412917450054889,1.3712217371245226,1.4524558606390057,1.3552936936823807,1.359713379774073,1.2845173566289572,1.2733483461123076,1.5639984790269037,1.6524184273698133
1.415163086330638,1.2879526210935475,1.4713038384052302,1.3432737736224176,1.519062579701552,1.4653415811483728,1.5448206001161857,1.660721902931487,1.7041173334516708,1.6320525361543372,1.5078077843315143,1.6222401989532216,1.7255251982221356,1.6106155793742942,1.3893679318049297,1.5149752905277671,1.6438266141182716,1.7658639197303136,1.7500279862998736,1.5505461290822482,1.6637723839749274,1.6657337307674425,1.5801914226180662,1.4690613195088298,1.3034256008772536,1.4567945596668619,1.3566078340658563,1.3135515921579948,1.2840413647294966,1.2918748873937778,1.577497741827321,1.6873991484485982
1.4900167734696124,1.3269141513050946,1.5305217753323572,1.3900280361573092,1.6004997613375935,1.4937810116605121,1.6514558950137441,1.6858987276849424,1.710610313085696,1.6458802746915533,1.586843976169866,1.5863795262124945,1.676969487835947,1.6045266571648842,1.4336099180580553,1.5528938414009972,1.7025928848275282,1.779439662562211,1.7519417112430988,1.6153211010906006,1.708193817458563,1.631900996265937,1.5662774782335125,1.4669701901779326,1.3638952278459437,1.5399518244139787,1.342505467530267,1.343978259169768,1.353784457838523,1.273096266879137,1.601672201968595,1.7123927560944163
1.6517679668263847,1.5311141752613382,1.7270609677936486,1.5621833985548688,1.7892110751015593,1.6814892070689438,1.6921371276632151,1.740155417478459,1.6732432016726422,1.6172030789444802,1.727485463712349,1.7789700153215837,1.6788396419382292,1.8680011199692894,1.7732297988650882,1.807087226375086,1.8359068113850312,1.825450302208187,1.7488703897089097,1.7737647037671938,1.7407718006440722,1.643122512647515,1.7013542285576628,1.4743020164161007,1.5137796068645182,1.7163552429044293,1.5047310177519193,1.5042788410875056,1.469072893043939,1.4788978025024446,1.796960871156143,1.789320484441841
1.766767235285846,1.610149770570995,1.8038246412092438,1.6658009059919088,1.8473989259193284,1.7057132649197855,1.733557882512697,1.7276589620140086,1.7320645696458992,1.6954458648668684,1.7417446824210034,1.8553785524589854,1.8780764329693265,1.9076863296441233,1.8198056190927632,1.8682748696447162,1.8655210415669965,1.8917218224581531,1.8481098997716363,1.7272066252830467,1.7052257069053085,1.7945105547043554,1.6944835306556034,1.5411018878553453,1.5660456197194756,1.7970350012639542,1.5910571773174715,1.6748878576989477,1.5106032117262287,1.6598882839629268,1.8897948569307481,1.8080009606674599
1.6861851505368641,1.6139050227482616,1.758509847440859,1.6126141607780349,1.7812605026969974,1.6179887589686255,1.6862279262278914,1.64641183859142,1.780896185476587,1.6810668922732104,1.6978507243968206,1.8286173405116715,1.908234507543219,1.883372651655432,1.7614693877974046,1.8286356596152096,1.8388363464750037,1.8758728079055227,1.8320662279703053,1.6284265215161655,1.694053126225125,1.8006754095820638,1.6845810531716905,1.5773914433184248,1.5541895507492032,1.7407473620405116,1.5558043790230067,1.6703527692433184,1.4718473730196575,1.6698087923421563,1.8034076653154885,1.799402637431778
1.6306512401790492,1.6501731767486727,1.7113460800278355,1.6229828514983338,1.7313605819778723,1.5949200041907985,1.7188407951048472,1.644550621310643,1.6940280687277378,1.6673756868745007,1.6675801853502272,1.770057639316165,1.7818022561586184,1.8487819225211366,1.665576296270158,1.7242056643896129,1.8117416243417135,1.8441379180418638,1.8146939586206658,1.6414469321712832,1.6893447454617811,1.7271488903413934,1.601759378993561,1.4795491030265386,1.5128018045678875,1.6579265489567547,1.483405291301354,1.5754573116559916,1.439075845133728,1.59453359889939,1.7518024135413288,1.7221422102495245
1.7330267784396636,1.6486245817493475,1.743871159363826,1.6314325563892793,1.7414525129545542,1.5860232341483103,1.6626693333265847,1.673394502397376,1.797543924072329,1.7110166077533604,1.6807194511284482,1.8123384427955902,1.8910618330098385,1.84528556797811,1.6408914874116527,1.7369622158993212,1.8148929897374575,1.865860968237667,1.8341776534476328,1.6498056221784345,1.7494955996236952,1.8062522237007723,1.6520894044984922,1.6318989116635634,1.59547712672272,1.6747603947835406,1.57508464352124,1.7353119018257153,1.5167397130521592,1.6194564638130655,1.8020418413764172,1.6836309620985546
1.7161689905543511,1.6221428328833045,1.689049627692835,1.6601267516819935,1.7902726934979887,1.5628860257904356,1.6362045389277773,1.7647293619905104,1.8236004211785206,1.7443545969872987,1.6894867278594479,1.8442229098250176,1.8879840957710756,1.8688822676149808,1.66357342207473,1.755546088386876,1.827579683134114,1.8731757274392984,1.8281446010386242,1.6942840428005717,1.7723560602839135,1.807796256809208,1.7194490510057456,1.6859397899453157,1.6329665719009676,1.7254275506915495,1.6397912242532904,1.731356258171503,1.5345061624007794,1.6082957579491717,1.839696555849199,1.801933746541724
1.5697627676158292,1.4569938373437994,1.5843670673428076,1.536816265755475,1.6949593789271071,1.4797842640532237,1.5794358563907436,1.7320248312424376,1.7402101176904634,1.667865922540751,1.5735765752773696,1.7447490358909974,1.78659698295364,1.7594197466185029,1.5149026007526925,1.5903794384294065,1.6788314870108842,1.7360483045029984,1.669691895018489,1.5989398924336953,1.6982321844244377,1.6970167918019217,1.7204394127181044,1.5756909837622801,1.5344738463810852,1.645907835314678,1.5016366523056726,1.664318481793443,1.3986420751214486,1.5581665992785698,1.7003841498252805,1.7913754264211743
1.6070011385689542,1.493175363091255,1.6287661191628786,1.5083391320841169,1.6322686166344533,1.5050593789635331,1.6316599173877508,1.6741126277035672,1.7944894815253545,1.6590495892285742,1.548502381481686,1.6855323446300372,1.8061639668012688,1.6734326488792801,1.4910922783657132,1.5136824288860578,1.5860490091190245,1.6687789162505478,1.6720290574101828,1.4970153164069906,1.5604142487400445,1.7379089308027,1.6022890069879305,1.3912705534593446,1.4351382288324765,1.6238595079518654,1.3976471651267666,1.4471877478069326,1.3231629926452553,1.4450381775552419,1.695802384840903,1.7625464642796778
1.5868620909745115,1.4858825672424076,1.6035492762404566,1.4827070827634155,1.6654518949226218,1.4525548952285894,1.5702687407717664,1.673724133817991,1.7566868060953056,1.635149816779152,1.5465776175560935,1.7073566243425358,1.8077514165882285,1.6305885778709501,1.4595630579827061,1.502158777283145,1.6023750727784039,1.6480984378249526,1.693559851554795,1.4342010077788454,1.5392184690213684,1.7481505263962895,1.5147516011453086,1.377144123648216,1.3727523309236054,1.5495341499078024,1.438474209341714,1.4688513678458965,1.3156706003270897,1.4064685220436393,1.6879953740825129,1.6921169623603909
1.5368846988355291,1.4753641008481055,1.6512814727299694,1.4694658118468593,1.670869844492791,1.4374352097512566,1.6159696379292192,1.53452375769937,1.6110273413480378,1.5142847866575913,1.492798731005583,1.6241173209521018,1.7844955330454682,1.6017517611725707,1.3717437350935364,1.400164982720116,1.4429075461350842,1.627960136939116,1.7036270323793192,1.4048289451108775,1.5369919726043213,1.7407332933134791,1.5208935176813436,1.34421467604026,1.3176383279433692,1.4908749160758092,1.424127417359377,1.3746961356297738,1.254207410757937,1.4451899033319227,1.7011615350122944,1.6311197061292781
1.4927195414943644,1.4104335837057038,1.5594000526764151,1.4467591830158948,1.615862278784463,1.3991261195762763,1.6572646991066484,1.526544411132992,1.6161781902592618,1.580209745100069,1.526143826842598,1.577212706437184,1.7290717645366325,1.5066566767224845,1.3620693760802476,1.4096835861633192,1.4031142616204888,1.5481324961522405,1.6270390345806969,1.4686005715952968,1.5334327802841987,1.7298926837587745,1.5417195133862511,1.37965076018254,1.3530455417935683,1.5640256953318394,1.3596359265601756,1.4505803125360741,1.2914915004908725,1.4485345746872944,1.5889682531027542,1.7039455218966948
1.4761109449337841,1.372241755606805,1.5410564678330518,1.5210141257396157,1.5670237213878417,1.475369753217502,1.5949997506927223,1.556273982019023,1.6065803024978706,1.5667899327902182,1.494415526708134,1.5602811070648197,1.6389926351801882,1.5067300046423697,1.4013606510372072,1.4396108395980283,1.3934640984595317,1.5113574072258273,1.557039681852768,1.46753272474364,1.4914090847844519,1.643774906933813,1.4606049943937607,1.405330035050646,1.4430514620943296,1.57531339742683,1.3121414700435903,1.4916401291051,1.3126330950993184,1.3884583773390564,1.5971349046398153,1.667602365047147
1.490820619612984,1.4053443872881404,1.6233798883281616,1.4685323868443638,1.4849197803257503,1.521248961767128,1.593454561393377,1.5271530316015278,1.5683103544551844,1.520594268632594,1.5230590317133272,1.5327795644543507,1.6221370357456535,1.5493248083568294,1.4866614079654816,1.5157539240913989,1.5123125028474949,1.412137564077932,1.547424366735009,1.467712500503715,1.6194729591642831,1.5658850965561246,1.5943506477604386,1.5343368086744085,1.4857978593957117,1.5205587018600675,1.3455750629633163,1.5001914604480528,1.2987418559366222,1.4051011685618817,1.5184463759622437,1.6883826270655315
1.4822206482007807,1.426437879199362,1.5936331363259975,1.3689110383382337,1.5262377462477308,1.486610329639138,1.653767124527358,1.5390893674347417,1.6199743114164256,1.6123723709021078,1.5513115976768657,1.5890400770542423,1.6768243548667179,1.5316263955077325,1.4645064020024559,1.4807191469901702,1.4909264794717945,1.559570137836995,1.6759570999080293,1.5119262679072991,1.685185509382965,1.622504170756809,1.640670210067194,1.526488605183149,1.4091020897927515,1.526192399449366,1.39079840236821,1.447978367238998,1.2675622435952756,1.4351195221095339,1.5258248213440533,1.6574926071305562
1.4411633035408158,1.401655501911542,1.585005214674155,1.4046941738650083,1.5748448351744724,1.4574802279916774,1.6075059979566209,1.5539265430614182,1.6383824690125874,1.5946575111866523,1.446350911925043,1.5658265808057323,1.6185279751807315,1.4705917075981298,1.4016374724192036,1.4115882387879202,1.3850162286357421,1.5315794682444497,1.588502168671387,1.4310911404629088,1.5049550050432978,1.5416357803144465,1.4504662398844648,1.451551230100761,1.3129801610164251,1.445804815653603,1.336272774329213,1.4420684094009177,1.2773433976608777,1.3980907385768702,1.5792062060124472,1.6302171726487527
1.4590723107840768,1.3713004019236619,1.5038362224764916,1.3619438025822548,1.6100205432334065,1.4519825226767513,1.4529734901446434,1.511321896406036,1.6011315939670945,1.5059187011858703,1.3845732279493967,1.5055959238435126,1.6026292533900828,1.3903889593745167,1.341443039794552,1.364212799492885,1.3394465159363367,1.5574813470844062,1.5684601566522474,1.3458876073704085,1.4247353341356823,1.6565462450105448,1.4508887967045054,1.4019368506729697,1.2966310920885882,1.4326360728455414,1.404815128100929,1.4021850857275036,1.2932221246374647,1.358752548370487,1.5514877958990052,1.644268409217403
1.5553432851183806,1.3465667740509788,1.5290715313042922,1.3516323132483405,1.5710316919426954,1.4345040305882697,1.5391757784602054,1.5192265622241805,1.6710862685506247,1.4599915421521434,1.4766304951186384,1.4686742234804453,1.6787871504373533,1.4333233508578027,1.3861014569998513,1.4368834866330156,1.425097782907733,1.6383562542600887,1.5975365072766556,1.31451209759455,1.4005722792220459,1.7347660000538718,1.4836227237979396,1.408674400197246,1.330875125484145,1.4737776743472883,1.4682505452842127,1.428955313084873,1.34376062514958,1.357765661367757,1.5349846056089922,1.7226338246082529
1.5299495073271385,1.3873336489457153,1.516452825325562,1.4601896119193694,1.6232838848779967,1.3857587598547254,1.5900706845086832,1.5632443128419837,1.7238989684050563,1.540250937686731,1.44421700759899,1.4982967473192315,1.6767740621180878,1.5098172309945328,1.4325216702297419,1.4629877939085625,1.4902796804705396,1.5605311767001708,1.5881108894317824,1.433574162135326,1.4768329094421364,1.7283058526177228,1.5165275680598223,1.399121747805327,1.3071199094602157,1.5275759903023662,1.4017298892060417,1.3925924170531667,1.3959302182740154,1.4098770121648023,1.592596230967478,1.7022722236332664
1.470251412758861,1.4478175409435259,1.5086972811900077,1.410059290505884,1.6528522427937993,1.3970969349581424,1.6014101071482951,1.5503537773461074,1.7071998354864826,1.5849845475803601,1.5192824773167737,1.6191119442021253,1.7463667639287144,1.5606501392254521,1.4221756757044868,1.431471086058568,1.4452846921307547,1.5957265548919959,1.627445505595298,1.4316342373434654,1.495771066007566,1.6814090946297888,1.5444969350968811,1.4222579771608144,1.3085350516941803,1.6512277327857672,1.3637332190516018,1.4404126345953352,1.2964269247606361,1.3876445794551937,1.658403555728853,1.6841153971845273
1.49542297812927,1.4234819969761923,1.574262585313664,1.4378444165717543,1.5921338152087388,1.5197283365048089,1.6639620745385355,1.5275895789003224,1.7152641658655112,1.6247357571718908,1.6084621994582842,1.648759031091892,1.7806369631031065,1.5845629422313618,1.4100987710071229,1.4759752509268105,1.5329697922751804,1.6804493267943836,1.7118990659570223,1.4941741626323553,1.5968155955506274,1.7562932326265426,1.5616931846025193,1.5357587896423015,1.4273134055861074,1.5190294314173305,1.3721965020226325,1.5362568638533145,1.302623533998048,1.35140417087233,1.620291164919874,1.7049841153323781
1.5931685601274248,1.428404154633573,1.712709009365893,1.5771225544276704,1.6991417107990476,1.6084296591621756,1.6784984219396875,1.6316970102637016,1.686037229342488,1.6701422838049953,1.6361375192100331,1.7246461738156076,1.7716327312083417,1.7650432919621482,1.5876479957564893,1.6967247276078312,1.6987753595461494,1.7732510299572952,1.7684842908615348,1.510796797596206,1.679626226963269,1.704945693185596,1.6455243131780923,1.568224594964906,1.4852396348024923,1.4652621061909357,1.3674691189799033,1.5640679294092588,1.3505790057869076,1.432990784708741,1.666133852656091,1.6648979720929666
1.611385554113688,1.3853586767309183,1.6163917759158968,1.395091483723017,1.645376838717281,1.4999029528003922,1.6500458919097305,1.6161973613307,1.6423884132918014,1.6750410578966053,1.6606233245987152,1.6579701355429945,1.6959884432576278,1.6467644058658444,1.4890866844032553,1.5770525595740874,1.631189249743326,1.687325288372078,1.7160806010719827,1.5604079236758115,1.7176886544778858,1.7148818751426915,1.6780271445035675,1.6030433479601525,1.4479138488068726,1.600710679385678,1.3707074667993475,1.5053829619166292,1.3273301252776675,1.3909246987657873,1.7000995160979013,1.6860518530211932
1.5799690688231152,1.4061559873636278,1.5959680267509342,1.3853528984142036,1.686351659187992,1.4101857751432385,1.5896120108405734,1.6470923044874495,1.7056322273664632,1.6485241088036553,1.613461175326726,1.7105715850181646,1.785380052568864,1.6893409876771543,1.502622470072806,1.5955915592227252,1.6179323776301968,1.765596976199291,1.7824030986961066,1.597847920119003,1.6980724739927915,1.7629092744005384,1.6008816841360958,1.608765215704296,1.402364507238627,1.6447364200581704,1.3308207516511734,1.5571009938316496,1.2562370919177404,1.382763512930944,1.7247933377943383,1.7499197936801485
1.4950821032279369,1.3661539270689738,1.5656200273126002,1.4311342894776031,1.6652065741482749,1.4584123201595744,1.536679553095633,1.6432775598636833,1.7064483675797546,1.6367846205960368,1.5970780014355193,1.6829406076224807,1.748175044585409,1.6816789344607779,1.4994643713381886,1.5248271717715196,1.527849108416654,1.6851218466855722,1.6913807083390822,1.4984980353432507,1.5430916052986547,1.7268358097721408,1.5898542842347116,1.443967932559476,1.4304158316822242,1.5964922646937578,1.337552320962174,1.3792753654850385,1.3657100054806492,1.3321032476309178,1.64363114815675,1.7293063988736297
1.487152090083711,1.3898243213691708,1.5699297241524697,1.4373321155942795,1.6908938161525982,1.5076645526370538,1.5309178015459424,1.6371049639769009,1.6984734257278025,1.6192841084224912,1.5382062371088019,1.7486596104350833,1.818094951837704,1.7366850119967487,1.5015950867770236,1.5143484775374387,1.514787030110869,1.6926302072290156,1.663221007067325,1.4812956520890797,1.556395843719967,1.7384736004361383,1.591426888652154,1.517863869392103,1.4508144011565425,1.587419252121721,1.3555681593045608,1.4220571532213366,1.3793017229002935,1.3201549097458518,1.6350670158753178,1.698964968705672
1.4610787963595506,1.5584467414442962,1.5936007199363862,1.4674420201169853,1.7539780747102354,1.4634468491788712,1.5803210432210038,1.6596512238626486,1.686825694103593,1.626284844977467,1.724122615236279,1.744539218158718,1.7878400475664262,1.7493398981145925,1.5899298214318376,1.6456909439052376,1.7306750861857316,1.74051423382878,1.6846018722647615,1.695780720258559,1.6491830774102734,1.791937839660298,1.6722165508250428,1.616397288059243,1.4231538427449835,1.6921249181709308,1.3005330281496512,1.4436343701724508,1.3201158692397996,1.3796764659809975,1.756425040022379,1.835537280940783
1.637387986976943,1.6418571651030376,1.769110631744448,1.605920266760396,1.8514210196540715,1.6526873611556008,1.6733392656359343,1.7538976381475844,1.7216162060587985,1.6497472254118188,1.8152459616521062,1.8006565901875953,1.7682030036718488,1.8646836564926172,1.743775504978848,1.81145548034372,1.864168971651443,1.8832657495302187,1.846587302307584,1.7825590794550223,1.720316628042492,1.747554392452014,1.6645012432685409,1.6092212154791996,1.514139295000846,1.7982289874375754,1.3711895028750927,1.5314629312403913,1.4435371947279096,1.4784584254996436,1.882990614389733,1.857822854969747
1.704690796173765,1.5895925395269168,1.7533514503879943,1.5559677200767308,1.841980675623128,1.7009220935095053,1.7104360692462526,1.7777334663763993,1.6933715982247408,1.7214280222817302,1.789534294559617,1.8053817145363786,1.8453315980149079,1.8704617256356786,1.7148665454836536,1.8063778618785409,1.8780808629278842,1.9139191951426953,1.8791263366189446,1.7295704779605385,1.6907795474142735,1.7827471353311721,1.616427451984142,1.5456705786290776,1.5147623754252875,1.725751134490535,1.3246832889172542,1.5675228569804407,1.426293529570437,1.4785102682642783,1.845022006864741,1.816627543780286
1.4795637246065159,1.4354030034796965,1.5318707090717851,1.4242454643145728,1.6616559292496982,1.602012502548677,1.7242376666383863,1.7266263699191104,1.6745948179476935,1.744906415970194,1.7475473137836957,1.7120924308153467,1.7957425213430678,1.7626719143625238,1.5278649952543264,1.6293370950223252,1.7103244390427363,1.8381432165411276,1.816769591517568,1.5770934771965512,1.6136665121666767,1.8062546323617727,1.5433893977970166,1.4872336748039499,1.4665738272543223,1.5056926092867895,1.2119928855246238,1.3128147461097681,1.2383660275720754,1.2656138120755454,1.6224873195271845,1.7604432215063315
1.3932028987601583,1.3790657785397002,1.4238069584539343,1.4252083773004662,1.5716034252515396,1.4473525314220321,1.6062604362025648,1.551127001948046,1.6816201028213467,1.5688351033291423,1.556752891360732,1.6711703852188078,1.7228916087802908,1.6336319864361317,1.4266573083672494,1.4916883793627937,1.493496948496453,1.6721248287823534,1.6268667195767705,1.5083820344300343,1.4840100548592223,1.6741546990779304,1.3669828538689586,1.5497043690545487,1.4826249400470055,1.4061591231499204,1.2362412440864166,1.3357240452323538,1.3055649648146184,1.216818012045236,1.580958517104817,1.6995751388222855
1.4250724451639885,1.4425564848968764,1.4845671300852816,1.3772977517206515,1.5191988401144123,1.479747524886131,1.629037258761849,1.5648353852571366,1.7337560638117677,1.6664319388590954,1.5320914455556465,1.7101970812432334,1.7608854368892843,1.6220221852936707,1.3622104837185938,1.3772570742068362,1.3406205963505429,1.5784838118124171,1.5966511730871022,1.5506426392295236,1.548623669092373,1.692506001432224,1.427132628958008,1.6091960278407766,1.4384988337718587,1.346384787623113,1.3036725616906761,1.42563620538341,1.3439701136165514,1.285978589790191,1.5902457774983594,1.6346473838047033
1.438330450208152,1.2923872834487735,1.5162140906346369,1.3746907903739967,1.5141049390266912,1.4415114834821947,1.6110028964596697,1.5792703490531677,1.65723226405979,1.5861462729204419,1.4560297460237854,1.615690118202535,1.6581220832467252,1.5404611845189113,1.3624797890506561,1.4536751416622773,1.3844256772503094,1.524617911348058,1.5626363920273842,1.42419713618452,1.474156997320907,1.6187069926623128,1.3832502253299963,1.4815928285489004,1.4286409878136637,1.3995746989799713,1.349296033732962,1.3928019308979898,1.2077972132190071,1.3348659879834686,1.5898671272882963,1.6577153296686244
1.4696179501338007,1.312264629373673,1.4527933569017035,1.3381487047727336,1.5345611216236472,1.40131455500917,1.5262036250166127,1.574706287197343,1.6306271344535894,1.560392772982384,1.4804632760186507,1.6363927228543385,1.6584049293447924,1.5679975403075115,1.401949638386047,1.5083935980433436,1.4397201447531813,1.5524702281169587,1.6099707664507183,1.4438567749844928,1.518067821158404,1.6274994069461781,1.4135861851253997,1.4400932680148646,1.4188803042848475,1.465942865453327,1.2810329489852956,1.4333543905074555,1.3079880303506066,1.311831179891142,1.635561962958046,1.650806275017477
1.443628247789012,1.2924050472922564,1.3840759327849779,1.333210436358007,1.5106937672279492,1.4110517344755764,1.5530695886734123,1.5591855204813712,1.5973115733240812,1.6436083084892947,1.5595633100669204,1.6474601711770747,1.6491125078172844,1.5982885299144904,1.4261277164670103,1.480598793802192,1.4241201818094984,1.6138638728066041,1.6425647006960433,1.4707740663196027,1.5803937445695027,1.6763798848408344,1.5188924459289912,1.5000750675389811,1.3588895070042755,1.496792681485994,1.3211699131954795,1.4407958002826324,1.3480450829267938,1.336291339749,1.5814246997438677,1.62031042770117
1.3978104357565067,1.3341818547865671,1.4289974179200111,1.4151372228709345,1.5021056280709582,1.46625796055665,1.5765134190085004,1.5969320364311097,1.612497514332635,1.68227171027301,1.5445552425273652,1.6282821838096866,1.687175549056715,1.546761006546024,1.3422238646387437,1.3865787618085974,1.382188192604618,1.5813073294872964,1.6880095222822598,1.4854099984932692,1.6191486973593723,1.7288995599606287,1.537182625407227,1.4948157109741178,1.3609018120509657,1.392446893835775,1.2933410396701062,1.366575784042632,1.3162584460862505,1.350894946863993,1.533432774085773,1.556382269248795
1.3951916070348236,1.4268407084694552,1.4621558682187448,1.4054528893690106,1.548807857028354,1.331002559907998,1.4857991173877274,1.5983702524875687,1.666190861025297,1.6135097187133511,1.5394600979546966,1.6554273551476053,1.6979283623419583,1.6025037439581522,1.3940363729464595,1.4333780806305854,1.4879981056622738,1.6784675401498401,1.7127086209749363,1.5282176185504275,1.6492866644992792,1.6961832372730594,1.5748274381564875,1.467553848000206,1.3772276699117463,1.5106722897340819,1.286573671010636,1.412148583077614,1.31703957763205,1.2949911270877212,1.5884862224865295,1.6562864874516636
1.4918202234304623,1.428414465849522,1.6573492337931335,1.4245661312681692,1.5967962011405423,1.4629518524012668,1.6353859085495699,1.657646067850394,1.7291166840050618,1.6606373838967634,1.6180417943098182,1.7026981422254956,1.7630492888669722,1.6775797074107237,1.4321333946648083,1.4935107007163684,1.5686912572290521,1.7526146441577268,1.7886594475085091,1.5952803769578576,1.6839755801242047,1.712138388530982,1.5743611640803234,1.5046631889150819,1.4394658611965314,1.6050592759234523,1.4013699975695946,1.4167877338132155,1.3171551627380393,1.374733935081118,1.6429685961944793,1.6678750695930646
1.5244109803533037,1.4012109262878512,1.6162515724661424,1.4416326676248732,1.6343867622795323,1.5552795519301232,1.6983329139727006,1.6623577279449,1.6996864696063438,1.738781968166181,1.6149617970282597,1.7437712565343604,1.819337825724597,1.6998730375313797,1.4319721889221158,1.5753064600195024,1.6400660081115097,1.8015637012352137,1.8056852182078027,1.5471419805168425,1.5852639898163745,1.7561196071760556,1.5692140855711845,1.4079393065857746,1.4881547589477495,1.6394643456241982,1.3998345557242762,1.4339677693613133,1.321738556144448,1.4504714131392944,1.7206225101172365,1.6365302309567664
1.5276720082125745,1.3817690952157269,1.4894002717986399,1.347871217343388,1.6265808528154655,1.497645791203558,1.6897147826745968,1.6619905422863182,1.7223534676851049,1.7251489279379248,1.6049404723237346,1.7009890219917567,1.7759686820595086,1.6793130892782488,1.4627302015334505,1.602803530050721,1.6604450416614178,1.7687797350021472,1.72941503982393,1.5344626841695705,1.52558116670339,1.710460574163359,1.563625762289649,1.426238644176067,1.49726642905349,1.5891902493675525,1.3785628510551677,1.4837277620198466,1.3384815161322832,1.4319866130749952,1.6718718557148942,1.6775122477835478
1.47365338112576,1.3446780765737456,1.468879659829247,1.3828129741346327,1.603159890800641,1.4942378418099085,1.5997434506127322,1.671827554345853,1.7379126475258648,1.6845067477808313,1.54727613627351,1.684006853066355,1.744580229549957,1.6568739039521654,1.4045322779447025,1.4889384703253399,1.4994610225410485,1.6842888908088887,1.7088718540763181,1.473099177990314,1.5794890730008264,1.70811984776131,1.5332005121078816,1.5281204683598697,1.5060028254452018,1.5206221040545294,1.3655805957078953,1.4600313145303034,1.3475865978797865,1.3310340610583176,1.5887486226798158,1.6087936092481805
1.4746326691320029,1.406377031733247,1.5457560214594015,1.4609388588119154,1.6569638519871235,1.4904741050981007,1.6060411722856167,1.64687457653317,1.7251015340013958,1.6996320271120684,1.6769994501559145,1.7289619979046387,1.7964391041433976,1.702973954501666,1.4569743222013933,1.506130928900668,1.4814346892031032,1.71091688559156,1.7659438765152138,1.5686364155714825,1.654815132673364,1.7655315036900592,1.56710754961491,1.6585801657010784,1.5252908310888258,1.5651221749249569,1.310227776390823,1.5237343827308836,1.3280941053909292,1.3090370818230752,1.6553364329348885,1.6675563509003692
1.4427141844686795,1.3545540419684758,1.5671679717912392,1.4225273533004799,1.600555535933736,1.4443243047645498,1.5673304255143206,1.6052341621471158,1.705580612417709,1.667813007163722,1.6549043936540406,1.7426154251470019,1.7478817378812317,1.731801675143503,1.5627714388288838,1.6201784326136826,1.5976278646992768,1.7276198683994426,1.6978177047027403,1.492376410420273,1.6483868617666328,1.7046387970673504,1.6112543974446345,1.642803890713692,1.551438401982914,1.5125311784863715,1.2285651279967462,1.582878477045544,1.286338783106614,1.2864478930147871,1.576174729463178,1.692320346831912
1.539961689823076,1.4489547283908928,1.6432675451892227,1.4383635254047513,1.6494447741532055,1.5830929950229262,1.5870155261310435,1.6673145065294606,1.7349503611730814,1.6816042048193416,1.587260411736247,1.7653682853991903,1.8129346011703307,1.7625056227192106,1.585365672974168,1.660440789828988,1.6333042822538109,1.7952277677607051,1.778615989952687,1.5382617609227685,1.6590777333127702,1.7373792409029456,1.6060879279142521,1.5745220920168406,1.4530293686771678,1.5854827009958798,1.2892735771925685,1.5224681833555904,1.2248463972113581,1.3442085582879733,1.6556266030390152,1.6842343332183345
1.4883822330463703,1.37847416861369,1.550931052823711,1.4030153070430056,1.6556037879330268,1.5891446522540618,1.541448138156715,1.690242646301227,1.7556680955360517,1.6503507487001419,1.5632536215791961,1.6803630933594909,1.8025500474195826,1.6557378348967036,1.482221985335697,1.5328974836822296,1.5793419059702416,1.7292416720860895,1.7459196595720368,1.588134745293949,1.6700018054121113,1.7336572375515802,1.5711493956115807,1.5513960292430604,1.325424848317392,1.5537399381722437,1.2495856592776289,1.4305322828170584,1.2395876940022321,1.3597413530436036,1.6289950120954348,1.6915161831114918
1.460948068074803,1.2865570199447807,1.441694721923277,1.2953069891289304,1.6190614238238363,1.4338702752864743,1.4869912290186773,1.6785798065310975,1.733552220487849,1.6381463616876113,1.6189458733668745,1.7422317216800012,1.7379967051321368,1.7004294047378112,1.531212298940685,1.59432914141871,1.6876443622558372,1.7087701327354872,1.6618157285989574,1.6325429490817085,1.6652124724137138,1.6796815156864398,1.6330897645072913,1.5633918556488557,1.410342907412431,1.5731817260931706,1.2327845627493834,1.4629506192163426,1.3261019071670068,1.3192950096994152,1.594168641485002,1.717300432907257
1.4956962591580862,1.3466180782778472,1.5717110179507168,1.2532845459877435,1.4803868539900324,1.3913033127902257,1.5881734079331093,1.5760918625974065,1.6864960139127845,1.7113892180149282,1.6558295877491807,1.7557522549472901,1.8010433039968947,1.6766742191809123,1.5078055086229427,1.5223546460154633,1.6028351677449826,1.7313796148515819,1.7069168832430472,1.5983218264800807,1.64282565233516,1.732080498060796,1.6400675245893508,1.4846485190974827,1.4516049576941261,1.5538254759010812,1.34782617215919,1.4179587711859676,1.3871372157757462,1.3422490922774981,1.5865063730273206,1.7033659961260197
1.3929909939324576,1.329655168921957,1.459959269591948,1.3862474237118325,1.6310655093995077,1.3855904464726114,1.5415038644575951,1.6518572983128899,1.7094497044763872,1.7311282254911988,1.706118309874077,1.764160560193549,1.7539140592017388,1.722911742833741,1.580924029854987,1.5579613803545456,1.6087337494003506,1.7038692377542803,1.732795262228549,1.6643861045114265,1.6447585473920798,1.726433977318329,1.610709648211137,1.4719508940432382,1.341600732056338,1.6345252993936485,1.3926552218324755,1.306267976104772,1.3021072288044384,1.3538060547383233,1.7124109712629465,1.725421288842003
1.4047387072351103,1.3300586421492024,1.4762776606001766,1.305511760096285,1.609629031399075,1.3655470670570156,1.592024104587125,1.6616106875092291,1.7257589382165588,1.6943206418882069,1.6241944720908654,1.7449635824389491,1.7568506284157057,1.739088556545393,1.5192719141535758,1.5290580085198515,1.6088653528914014,1.6985873909721212,1.6552051022778012,1.6924634410268795,1.6030238199822984,1.639850087371887,1.5565150486965824,1.5313888550428274,1.3485600992238724,1.5495179049042669,1.3834814092865448,1.4084414367196203,1.2422955012633434,1.3902850407299179,1.6272905692110113,1.691181332316568
