Fp1,AF3,F7,F3,FC1,FC5,T7,C3,CP1,CP5,P7,P3,Pz,PO3,O1,Oz,O2,PO4,P4,P8,CP6,CP2,C4,T8,FC6,FC2,F4,F8,AF4,Fp2,Fz,Cz
1.2144265100691165,1.2281627416141978,1.2430923161612357,1.2046189782158059,1.1687530040511247,1.1763761563056194,1.2065980378902708,1.1738591292545169,1.1385393325657462,1.165434787909105,1.1464157844175977,1.1563843818941963,1.1208464309948842,1.1357515396485027,1.150892332634896,1.151626874151513,1.1384326800282654,1.1327510599274535,1.1162471504884242,1.1059010342723659,1.1142945188500983,1.1133605401640434,1.1051200644332908,1.1465423318016232,1.1293561726268444,1.1101058655566942,1.1328977649830598,1.1331357164375646,1.1683822473103995,1.2172597653108677,1.138843708948266,1.175416009490764
1.2581823828694654,1.2067838034929115,1.2399091517162002,1.2117731943504295,1.1686050334707634,1.2106278089825067,1.2274335630259268,1.1896864122497077,1.1670967611728325,1.18566009920003,1.1805774408056195,1.176941193932637,1.1756608539943512,1.1593455890046762,1.1647840786383687,1.1574962786043472,1.1441482458083438,1.1463082272849687,1.136133844673817,1.1367565132975326,1.1511204747992847,1.1472412986342166,1.1528017690486563,1.1926944045076724,1.1448396853758895,1.1698893655740121,1.1684316550315264,1.1672149164963657,1.188962625308734,1.1996517511456772,1.1805683489223373,1.206198207293811
1.2463243132015613,1.2750416784725078,1.2423317428860174,1.2262268588089764,1.1819219759922386,1.194956599848743,1.2048788674005153,1.1429479667461317,1.1841992273352515,1.1667695381237113,1.1702699887084225,1.1798960014801023,1.157596661242501,1.170432846438537,1.1855436199698868,1.1704551468642204,1.1623148470403268,1.1503818615108643,1.1419843021922542,1.1612846349716874,1.166620031079953,1.144322847488259,1.1496201602771454,1.1952496114674942,1.148525804796729,1.165564388363317,1.1726204460007126,1.1550448683257335,1.2239002002659576,1.206466369025249,1.1663636850901367,1.1618903171114452
1.2079828996108959,1.282776201316972,1.2514246252233023,1.2344517974238927,1.1952530065280476,1.2080557126138636,1.1801251803269812,1.2020021953994775,1.1967125160203875,1.1830220939875271,1.1752932125583535,1.1820339627221923,1.1707441770717717,1.1790009469061722,1.2029331962648535,1.1881508204997127,1.166507283838982,1.1650282665813148,1.143638367220655,1.1294328997068037,1.1407492659843608,1.133992851600247,1.1412208909832642,1.181453989709547,1.1514302544676158,1.1900195565531992,1.1943783362652443,1.1574278024901257,1.2476822061403763,1.2067459296933671,1.19516619332023,1.1794725091469453
1.2415688798605709,1.290122793658461,1.299112920900246,1.2315034329647532,1.1836702781897819,1.2106494037429518,1.2148969085177044,1.187077083641604,1.1725559414778453,1.1927969648093302,1.1945551635107592,1.1901873796631912,1.162133498640316,1.1895217453374356,1.2075514187324878,1.2219626032078412,1.220435990299559,1.2045713491711423,1.169987989223338,1.1573214582516367,1.1415818624062695,1.1439374711479742,1.1451650937432998,1.201953572675889,1.1786800688014483,1.1810395276381576,1.236169727411129,1.1980014533726908,1.2604421473873741,1.2332600947156913,1.2095564347016643,1.1839791750497053
1.2272997287796203,1.2443785852571219,1.245710390089877,1.1931658597926837,1.1776841311973731,1.1866801405064893,1.2087791840178175,1.1539951060128435,1.1996893397813817,1.1703260458363167,1.1520448164803683,1.1849167217948955,1.1667126021997032,1.1719559790070821,1.170079046025929,1.1973550393486083,1.1979185605530187,1.1813420332136761,1.1580646175871803,1.1665899089631055,1.1481637177681947,1.141669374842371,1.141735121492247,1.191325408302773,1.1585555500010398,1.1385345611098925,1.2720336742326872,1.167530785254315,1.2073827638951875,1.2629450224951353,1.1763422266672285,1.182959463118823
1.2440872463227985,1.1760199540041467,1.231129766637843,1.2043197232749614,1.1597697468631574,1.2726521130757935,1.2062554289153242,1.1988623857263738,1.1854984386675327,1.2018967894828736,1.1413906555310416,1.1615024646456154,1.1814279544178614,1.1569221227475204,1.162436236646312,1.1660720489920484,1.1501801025651766,1.1461593884268293,1.1339530808132692,1.1368014492544773,1.145570010005248,1.1367472065890127,1.1463459237829319,1.2165648794445503,1.1762955773120483,1.14695422063396,1.2707379105026635,1.1844882728944648,1.2354667345574528,1.2661081885169894,1.1633802962909667,1.1763747087884207
1.2158693691536724,1.198075463144305,1.2299811671438279,1.228111144247904,1.1698842513876675,1.3017941068799765,1.1935701720418825,1.1983860539446842,1.2014173665952288,1.192249880151094,1.1617296481507369,1.159728227633169,1.1798388241290703,1.1551687241439517,1.157624256188179,1.1447383513519434,1.1293672438916718,1.1347224905293642,1.1272328257117108,1.1205575307899194,1.136017385904703,1.1504698380182343,1.1475172951541086,1.2235437164214082,1.14996248698569,1.1735882210687396,1.2933814219264355,1.1692479958030964,1.2338469214091923,1.2564842302630732,1.1621222875260404,1.1543443214242854
1.1674401104322958,1.2102114783177849,1.208286287584574,1.2136555016466437,1.1846874525145354,1.2676834371754404,1.1719124484807522,1.2240723227803085,1.1893795399164855,1.124042105323624,1.1497845186971265,1.132780946945569,1.1470238518961615,1.1339482582633158,1.137686515899362,1.1307432774383694,1.1320737857938985,1.1444859458439898,1.1535585061329179,1.1356868164414289,1.1800989913866298,1.1694806560720084,1.1613916859893112,1.2241330476887433,1.1555898257283654,1.1870073850293021,1.3187549915441248,1.17141658412842,1.2137716743631186,1.269076233610401,1.1586139943016562,1.1334295409817838
1.173736550850661,1.195767271366304,1.2139270588607742,1.1883972941011944,1.151182373422282,1.174770974678634,1.167808006804727,1.1684865395353539,1.1411981048192832,1.1157878892158999,1.1276168977861267,1.1089997701197236,1.1639327190839084,1.120896201371586,1.142367101206566,1.1325162211933482,1.141327085214383,1.1382794149434066,1.1348063192425037,1.1376404240380682,1.152564442235741,1.1422350923968005,1.1184766977018088,1.1707964815321674,1.120529733338715,1.135365810191995,1.200811535856869,1.1493884144878344,1.1684967961107495,1.2405584299482024,1.121651959044587,1.1211498606496655
1.176438776052675,1.2499484509813812,1.2307969624739272,1.2008770155244928,1.1625210790778495,1.1863748322093661,1.172451261990223,1.1844112344684843,1.147865758533387,1.1441895088575889,1.1395879203598405,1.129576920423464,1.1654988551380212,1.134142875746522,1.146160252998366,1.1320381650921125,1.1269775567838873,1.117083027127951,1.0889441274576661,1.0890745661493806,1.101276400835842,1.114407022027993,1.1085556123822,1.1365280921980312,1.110002754414433,1.144564873854391,1.2021717442438489,1.1258169703257719,1.1551145110259748,1.2033689799336995,1.1502561327354734,1.1632074638203487
1.2194449428270762,1.268233128507599,1.2742177117590672,1.1928222675447806,1.1828052447065849,1.194163324530122,1.2268804071300514,1.2100358485768798,1.1534641164356876,1.1971002983335137,1.2005534331378205,1.179544919657058,1.1514545567691497,1.1876784986483866,1.186352949050733,1.177361216920245,1.160093298904644,1.1609401497721432,1.111946798063986,1.1057199921991372,1.1017903317999096,1.122699835690868,1.1098448211571645,1.1385551904644762,1.131366483361716,1.140424528341248,1.2427732597591086,1.1612726368675408,1.1872309253755136,1.258866922708438,1.1587816232557329,1.1770639105309086
1.2218238581533323,1.255080791309789,1.26916181053189,1.1847572349725688,1.173074800021336,1.1710965105906572,1.1859331982845935,1.1639988167774389,1.1701443219722754,1.1656456134630484,1.1527462252082101,1.153946836195558,1.132242001317273,1.158859164718568,1.1469370299903503,1.157939336304403,1.131823110198003,1.1493930948590727,1.1114986770219084,1.0976996408961321,1.1140888056480474,1.1231174582786572,1.1241734743008396,1.1555322012000158,1.1431295127900476,1.147844540931354,1.251298735657303,1.1751792574759674,1.2303306988758351,1.251668488968943,1.1962348052432383,1.155759608872511
1.1882699203424925,1.2278686274301565,1.2268147269785967,1.1723658632439278,1.1500981551981324,1.1572801250163949,1.163426760481837,1.1626029097080712,1.1503762913735944,1.1466433597828445,1.1396431576043136,1.142714911778048,1.1523066449052977,1.1542833425948584,1.1561688745296475,1.1618320884253575,1.1416850556740064,1.139637363735237,1.1134175886865543,1.0968777166716424,1.1304335321532974,1.1337585906165633,1.1342482802701794,1.167184366823691,1.1438528887910262,1.1453082792023976,1.1890574645113872,1.1312240943038965,1.2106473004761296,1.1915883827111509,1.1604300839845973,1.1581235657795976
1.2057209982787631,1.1918693745031,1.192135260517078,1.1605297358558686,1.1428829738864112,1.152931316379856,1.1666785027824655,1.1564805588803864,1.1371490100660155,1.1357828050145686,1.1152356029552228,1.131508481334088,1.1617040173026802,1.1373487012091668,1.1346756977738033,1.1283013273676787,1.1120029958226219,1.1150477976862874,1.0918734271115282,1.0806462609825866,1.1069694185205967,1.1189233768125655,1.1123740087162086,1.1694026629312924,1.1306190278413089,1.121437504810051,1.1800675149578854,1.124990143032735,1.2018542214603265,1.2237452708681786,1.1424644301544633,1.1340516641041047
1.205817185405878,1.1669680635997708,1.220360076844287,1.1889994872443008,1.1311988485111957,1.1765629282870014,1.1829279532619605,1.1641231958611982,1.152778284653618,1.1446242261853254,1.1254497390575977,1.131973912705403,1.1519025601765314,1.1451862267546056,1.1344797385970256,1.1309135549010738,1.1189850171139952,1.1126427293094192,1.0988123116907433,1.0916178294223813,1.1119134514058153,1.1333719268919715,1.1328875681887458,1.1842528317776857,1.149102729374193,1.1397763283971405,1.232103723681888,1.1627620675538743,1.251723709103174,1.2957551642224454,1.1591147909413555,1.1564878839522883
1.2551356824130595,1.2379776720527282,1.2567603288005562,1.218208119154034,1.1742096442041032,1.1875152831030291,1.176306161679366,1.1759757229338927,1.1662820145124817,1.1450468041854172,1.150893289716122,1.1583886288246883,1.1767520995611795,1.1646356461567378,1.1671620420729925,1.1648713769631496,1.1495428647994141,1.1458846593848735,1.1333769005196435,1.1017684637054865,1.129900324735965,1.1821203882486493,1.1377140743096066,1.1659116228930952,1.1457491988332282,1.1633207930126466,1.225000708065602,1.1829700841371436,1.2545380786655491,1.2870076675814135,1.1930377951986502,1.1570105149424703
1.236692027854095,1.2215149341979321,1.2029944972984348,1.189644999306396,1.183027253780441,1.1694066465446513,1.1374238289033893,1.145850996359933,1.139953318628544,1.1149496563981511,1.1055671035512276,1.1286927039214119,1.1361616483321393,1.132242740519005,1.12181228416781,1.12714981231922,1.1062543904209814,1.1040015307282804,1.0984296543999212,1.0821086452199988,1.1015407172299454,1.118915015369355,1.118803529469922,1.131341976579738,1.1049140736370109,1.132911239068215,1.1702705659743173,1.1278178660621732,1.1832460824385507,1.2544585768362673,1.1623507620993627,1.1326739588569281
1.1591060363145516,1.1942444303715698,1.1561312674179212,1.1646077158789505,1.155751132060496,1.1576594741568778,1.1278790963597256,1.1533958988150712,1.131961061097274,1.1055507269829419,1.0921584707443717,1.100160500048167,1.1244736671697864,1.105599702489807,1.1070065889052783,1.1247316814624126,1.1034537056800338,1.114150109141957,1.0908189207977073,1.0806360461366564,1.0812531288759035,1.0961423086202737,1.1009543276658385,1.109348355562667,1.1171911550093552,1.1148199425648813,1.184804412340372,1.148332230911213,1.1772998868322881,1.2344932963185062,1.1289950949682381,1.1364863017259863
1.1447878175599282,1.1733260286835594,1.197670653664031,1.177401959398341,1.1543535057784153,1.1703406143293404,1.1620466435774581,1.1880038757000952,1.136964618230235,1.1307004129630593,1.1272180121157624,1.1058823538610465,1.1740525014192134,1.1189254458891456,1.1379214847129324,1.178159671399892,1.1517593785625084,1.1615771005117883,1.1394032775378566,1.1325229021416856,1.1412990692353246,1.146355936570065,1.1298807255152687,1.1654017748115573,1.1456539236624101,1.1336213586073045,1.207184521965145,1.145079575050631,1.2010332425436079,1.2526581953997544,1.1274271374558749,1.1523195744988102
1.1414847457816,1.1927368390011783,1.1865167477077811,1.1721933044087371,1.14519716295295,1.1255149907029316,1.13502049487036,1.1487555471748312,1.1116197435484152,1.1339499531307964,1.1304337724017568,1.1015759394696902,1.1421507412488707,1.1101424180160258,1.1294556781237663,1.1320510147705125,1.114035475322558,1.1121498261415004,1.1020657007454262,1.1102055724514288,1.1430294916030868,1.1132109995110033,1.1280043191911098,1.1555307282140257,1.1434565543839585,1.1483228563728098,1.2329369449780392,1.1469214981802975,1.2023757431652125,1.2510973282172797,1.1419467007061872,1.140572827041
1.1497612586785781,1.21687686949786,1.1657292815487124,1.1583451896765429,1.1391738584330726,1.1334500272828272,1.1319687542658703,1.1431951626837744,1.128462451589666,1.1625268836841904,1.1379340929350872,1.13311478257253,1.1245166746613613,1.1386450998362776,1.1509258431685587,1.118104107042431,1.0930959846351258,1.1069777650384593,1.0890403264969943,1.09153063339789,1.1164108499948098,1.0830051777028986,1.1088356577385876,1.1373288541047963,1.141495350512799,1.135482024349176,1.2615714733241752,1.1654374698877905,1.224710412802697,1.2470613592741224,1.138879933922908,1.1262901089613704
1.2127519323416045,1.2331277528648532,1.1979971194726393,1.1983792797355828,1.1764447586217557,1.1777271493447639,1.1686442354160986,1.1859192002947478,1.1452968750286034,1.1750302070831529,1.1546572292633588,1.1580658387099079,1.1254314556640201,1.1772298960038006,1.174800131586065,1.1586546031636387,1.1272549090988968,1.1068426576768782,1.0767380168451144,1.0923049393429374,1.092495377282097,1.0747276182678511,1.0983458182029309,1.1505106826036873,1.1463694517039866,1.176547139202108,1.2650863217308643,1.1792572357044868,1.2598282875655713,1.2699036601217635,1.1735962476192212,1.151393533504755
1.1993198994993077,1.206228785514288,1.2214147900887389,1.1925957045627844,1.176174553803452,1.1474569585186676,1.127412402827853,1.1488514449838378,1.13885082818544,1.1113281924687741,1.0931570590228605,1.1082523520181562,1.1444382724539084,1.1238044663403213,1.1366204289433004,1.1442191824894483,1.1265627956811894,1.1240423324200035,1.1160122921467315,1.1118900180617852,1.1117701673612264,1.118130320646795,1.099438903537711,1.1265403746265155,1.1209301705728427,1.1563140654400197,1.2151180162826443,1.122925999942493,1.2282707199156464,1.2249636630219127,1.154864635292825,1.1158128609327773
1.1541943627566509,1.1935267635205118,1.1974011622828327,1.1848966183754854,1.1769052797276778,1.1409549704584865,1.1386998867502938,1.1709694966263149,1.1248689752479262,1.0878272591989662,1.0605619545959113,1.0636632712381804,1.1256784925548002,1.0725715409510594,1.082033572931752,1.095666868248693,1.0985670728205406,1.1064174106899212,1.107923367765565,1.0950595253040343,1.1137302245948602,1.109779351766182,1.0994582690517425,1.1325756304801222,1.1124496739257936,1.1223067823870863,1.1807055939114077,1.091971060339786,1.202684855009345,1.209360177712757,1.1437646587372023,1.1177483880695935
1.1972216969067864,1.2092686695732247,1.1678997001517457,1.211288702168777,1.183210907260667,1.1512015960261017,1.1526127558538715,1.1636547678607254,1.1664516062732522,1.1197504160232603,1.1053398524742843,1.1000577964269096,1.1470982323827545,1.1073465826177846,1.098632284834231,1.111012949484897,1.0924583189410713,1.0987714926489245,1.1092576067678828,1.0940197388453798,1.1409452422283122,1.134173062838521,1.1349115444553723,1.1685580319688746,1.1166838235642604,1.1311583625080563,1.175046411334524,1.1326930228614656,1.1939953617207621,1.230640046024548,1.1271935305251382,1.144867670783687
1.1572042423395485,1.208340626285327,1.195822079352373,1.1917105517253217,1.1499117041497384,1.1377155999328785,1.1205348115247205,1.1355818349805349,1.1266701529938823,1.1064760871755965,1.098285436146669,1.0918264670467959,1.1316092776417983,1.1039651299905326,1.0917543607542421,1.1052995752255785,1.0827373034307566,1.0956111278675327,1.103061576910072,1.0819514242186474,1.1200296733489696,1.1212813691428372,1.116631801958477,1.129542165566318,1.09798232309983,1.1200979813787544,1.164429829429003,1.1077954006434412,1.1720276009877053,1.2075356152800412,1.1087462319480386,1.1403788160551753
1.1724902698151884,1.1799240725912117,1.2208970308004825,1.1931787778805543,1.144865352406225,1.158279116039542,1.1453734341776574,1.1630653620679974,1.1287112369805734,1.1109445889911143,1.0963202998279147,1.088245938876374,1.1274321784260348,1.1037345258113227,1.1054851169348974,1.1127836068661676,1.1084846625783311,1.1145658802390108,1.105879847978117,1.0945454088850541,1.1127952798238436,1.1155377149038836,1.1188116218873396,1.121754814781253,1.1129610355578388,1.1257117077347951,1.1814172875545494,1.1184766586204464,1.2011869934812711,1.233928482022629,1.1275944410325958,1.1474396903765243
1.1911391322582143,1.1800429451439225,1.2149248495234137,1.1908852767966422,1.143391060069891,1.1586316102445016,1.1608639326053314,1.1402247509637438,1.1528520394240975,1.1545850389242514,1.1356781545004564,1.1473599575801912,1.1092902899388812,1.1413172563820388,1.1399021917404852,1.1388980797899424,1.1286313180188996,1.1301611354473782,1.1057596664322076,1.127992652294731,1.1408655425916354,1.1227271100341865,1.1291502968539633,1.1517281603459635,1.1381294352400078,1.120761269090686,1.2078227447680296,1.1304608035972783,1.2286747601847232,1.2630066086014549,1.1325530118219032,1.151873258168061
1.1995501923110752,1.1880348461221164,1.2095663374235242,1.1662477564683813,1.1137975055085887,1.161421625243121,1.1830535901042734,1.1446902082632366,1.144868832152448,1.136100399764197,1.1344349518214105,1.1420662615054962,1.127737442941271,1.133503761717993,1.1329750930246485,1.1457680122827945,1.1299479601448512,1.1277001243834837,1.10781445591719,1.1175499564013442,1.127704492093987,1.1319410992928176,1.0994094107886023,1.1525158418772767,1.1020388381941533,1.1046091954382913,1.1767999269677933,1.1194646591330932,1.2018221713540929,1.2440264157003675,1.1126119096039362,1.1351325752687023
1.22489437671989,1.240308372890194,1.2542077181806257,1.2162840580960292,1.1798527860243626,1.2369913134711628,1.2339764425987774,1.17894464733333,1.1766442670905228,1.2002074463272905,1.1815526540461534,1.1894603652847304,1.158604554579597,1.1606543002253331,1.153507312703675,1.1480798934427898,1.137655836978044,1.1347854917337459,1.131542336142797,1.139707678841529,1.1408825405301364,1.1300096974126563,1.1185690778541588,1.1835808032264599,1.1393058840849377,1.1769934849850074,1.2117654918702019,1.1626106833963619,1.2511002965759603,1.2518198212591258,1.1949436189673428,1.1615033790715124
1.2159479754156477,1.2259720425762806,1.2370008766224083,1.19344631280835,1.2160859820392327,1.1947721090310088,1.159663811153605,1.161003778675742,1.137914653924923,1.1608441596973285,1.1374539669177606,1.1551636667604133,1.1400675764828023,1.1492509449313588,1.1426882938301883,1.138911145407096,1.1268414545405838,1.1086203316760417,1.100677605457531,1.1278663551154087,1.1286504207044483,1.100507616803545,1.115007819807845,1.159229487501192,1.1357110232723149,1.1805106902577736,1.2659963471808495,1.155738616150321,1.2430675461676794,1.2614594394354004,1.21878341082492,1.153386701103507
1.176216783356798,1.1709375305665923,1.1731004569308798,1.1224514711703542,1.1559046071413004,1.1383229882349972,1.1242730608540124,1.1546015374632768,1.0964475336226753,1.135951797133572,1.1246337765365388,1.0994987068089315,1.1227686798762393,1.1175909063731457,1.137264785504421,1.1391102971487506,1.1269855796137307,1.1076121819596514,1.103084935852639,1.1211376075229957,1.1450041652599097,1.0944062580067724,1.121142095277312,1.1602495570780913,1.1364453617754402,1.1377228000449748,1.224446570422316,1.14054240342315,1.1825347800362922,1.2530475357228894,1.1188304734943,1.1585878476883182
1.1520165637886715,1.2046342115933963,1.1338731599968128,1.142912768777162,1.1561615057919779,1.1221545659856818,1.1006967279279238,1.1437170300197772,1.1260772117256144,1.1253540315017876,1.1474813918379707,1.1258579834598628,1.1357749996979274,1.1437481952461017,1.1634284624374767,1.1451451779323496,1.1361384372501515,1.1314429366578507,1.138158431644814,1.1292344797572713,1.1627127043074736,1.118917330359309,1.1278352990347145,1.183444803798224,1.131158344062601,1.1419895933081479,1.1775110928679775,1.1522575436654583,1.1962102030614303,1.2366905962407249,1.128049057796943,1.1518330964900398
1.2146004793564227,1.2552671712289871,1.1772274583622908,1.2034888089511449,1.1817882056321865,1.1673839341662062,1.130050830464454,1.2042184278536952,1.1489160159417844,1.1667016891180702,1.1834805983036245,1.1905024121593646,1.1567970652778528,1.210751473060744,1.223325899190124,1.20828090762562,1.1816222555177383,1.1637693239977183,1.1714628728622607,1.1821188840276258,1.1853587147167481,1.1541015940763113,1.1719116923506474,1.2074490658898553,1.1681210166016176,1.1743706805294638,1.1836058132742124,1.1875063846372067,1.271154301810706,1.2689564917325031,1.1735815744430176,1.1466040260103492
1.2757640064524365,1.2488136540150272,1.201573449918438,1.215021616274126,1.1724549193452554,1.1851390174556526,1.1488087603158377,1.2199793269395272,1.1156722718357537,1.1537354658108332,1.1364386078541735,1.125956721462599,1.1336537794611896,1.1486420363659444,1.1601402955950697,1.1534180823241647,1.1472767626111564,1.1479915099082991,1.1592435068200138,1.1594223914913373,1.1630878510269695,1.1560149918565132,1.1722329230525284,1.2080162018841305,1.1702052257672677,1.17234459932526,1.1997305409091863,1.178380365771716,1.2543498262677384,1.2612145721837391,1.1589533757767843,1.144203077882623
1.2005754983792936,1.240823101724458,1.1505916828603955,1.1948215004382419,1.172917379680217,1.137934181419764,1.1183735149353404,1.1587252874753071,1.130499283665919,1.1395252660435236,1.1077943725613122,1.111731952813495,1.1383200533015383,1.122024889578483,1.1270078025612063,1.1227922826432863,1.123495481096099,1.130784658159939,1.1356946457366115,1.1270434611852695,1.144465153215365,1.14928976253801,1.1597737655908675,1.1673253417114744,1.1413309177722344,1.172540927602358,1.2079487839286913,1.1476788326754397,1.2204072979858105,1.2561826003475547,1.1826803190485853,1.1750333615730815
1.1678232999324005,1.2780885981359573,1.1819118461836096,1.2061407148248513,1.172890984885832,1.1484100455707156,1.0889503799522278,1.1340140438709778,1.1281309657924596,1.1067711369539788,1.1099909838892605,1.1284667892806282,1.1232924211320083,1.1236854853482847,1.151229439919883,1.1429809861559852,1.1517781255497017,1.1505059384975729,1.1291786881920711,1.1320755939057499,1.1352151985542687,1.1207764037280832,1.1523023630195388,1.1681056170199786,1.1549818325513714,1.1469170343072337,1.2000013536172442,1.1592670627585393,1.2272875311384055,1.3000261311682262,1.1873873340575631,1.1382486200210837
1.1940149425962165,1.256152462034668,1.22090398083724,1.2456093517588267,1.17625077619781,1.1821845842888545,1.1219105000092533,1.1492379659900689,1.1731632218152068,1.1156014157334586,1.130191838926717,1.1459595413498533,1.158941478092976,1.1350641662520067,1.149607347085633,1.1527202859752275,1.1521865188670497,1.1692445515876417,1.1372943670753517,1.1137606245330651,1.1377255378243265,1.148676660832246,1.158767660853218,1.16803880391009,1.174002752013824,1.1612307435899916,1.2108886341192722,1.173649042916754,1.2684216014377223,1.3210870536740185,1.1742706288439222,1.157436308604389
1.2381510886936828,1.2466320509068252,1.2255650586842142,1.253027732114816,1.1796718151600576,1.192041280691201,1.1425455899160384,1.18692927191861,1.2063052733090724,1.1713661796266293,1.165567965004839,1.1743904152087188,1.1809475950624653,1.1850663046331247,1.1839630691777794,1.1687598127676404,1.1429732946944795,1.1654970531100541,1.1529556341212572,1.1356727222259486,1.1512364856501054,1.1595340888561088,1.1358123440369199,1.1606367509626658,1.1594534832434678,1.1554846362956193,1.2001165213588558,1.1476828576034455,1.2656956794836738,1.3036833865878477,1.1849385594982107,1.1594589777496296
1.246053052542989,1.2410873303346408,1.2244152592654185,1.2221666330372487,1.1663690953182768,1.173956000711288,1.1435317450508202,1.1744200288835938,1.1613527193341973,1.1508669674367935,1.1444604107426504,1.1432426925209074,1.14674046292947,1.1406835017483905,1.1831517759753702,1.1515808675292356,1.129096616065479,1.1278928337220109,1.1261030029351442,1.1145819471318474,1.1232418674783062,1.1257210001858111,1.129488868220501,1.1688171233856466,1.147169993381708,1.150000860037018,1.1773377569492505,1.1231644854040679,1.1984842892852592,1.258670669233253,1.1606712255713205,1.1576302895992596
1.144965151193466,1.1999802231109102,1.1249091358985304,1.1709314180251202,1.1227696965715448,1.1222415392134968,1.0815718795363882,1.1670552179755354,1.1721401697785652,1.1106542836575666,1.1058100338938017,1.1303441103031941,1.1444104924797167,1.131510637492591,1.1341465984237904,1.1356357722288168,1.130002052767772,1.1227239682868038,1.1169355858464385,1.110403910393876,1.123723683373204,1.1424017037460377,1.129703582354326,1.1532305544821269,1.1202134314313783,1.133774007285283,1.13775528439522,1.1158860690253989,1.1846491606770617,1.2270236255377713,1.125443027974822,1.157182700152935
1.133642670460835,1.1868292503419804,1.1403986618787645,1.1917828172901317,1.15810570131667,1.0973609985700339,1.0620901844099642,1.1179728992393425,1.197397256376329,1.1022512965717965,1.0708245886209704,1.105099841860649,1.1389174332855239,1.1087428947862508,1.0993453083313123,1.1048055304628157,1.0987532374928182,1.0963955135343462,1.0904366706951965,1.0860255610709988,1.1031157605084987,1.1113230079879346,1.1256213019199963,1.126218197758273,1.1154665927029916,1.149970637379556,1.175683365494952,1.1199993486364108,1.1947743514262674,1.229288713812888,1.1601524926410922,1.1317535749475243
1.186519860405664,1.2016972263694365,1.190243707759875,1.200738552309056,1.172762629720137,1.1364358458211188,1.0898489287393862,1.137551199813199,1.1715057276833218,1.1094101722617535,1.094762169483102,1.111685137046241,1.135811956867662,1.1179372582458988,1.1271985419622401,1.1229931397215347,1.1115061147654304,1.126140253395635,1.1356203198526689,1.1098605731667717,1.1376082471437687,1.136703692253216,1.164504619173716,1.1665394642796956,1.1719601986247528,1.1713536221669913,1.1907551083362213,1.1722128874172673,1.1989033208804933,1.222259609472811,1.1729974426034886,1.1485813305641797
1.178535259467822,1.2337836853430617,1.1729140964566864,1.1737065762705767,1.1849366811882884,1.1554116179252185,1.1074863066896965,1.1930021282462135,1.187842533969932,1.1306162689122172,1.1392521945331195,1.1454209296436948,1.1628643151231652,1.1505053433842127,1.1695057924195853,1.138236738983081,1.1204723696566095,1.1188282081982537,1.1286196827095523,1.1024862968149596,1.1373916808903135,1.1697715047831094,1.1500325759244137,1.1598589719698529,1.1482502222781454,1.1570390754094475,1.1659506619888744,1.1618555628825216,1.2337998488067274,1.1980057838799116,1.1636033079834216,1.1695417511644652
1.1905196615616558,1.2418473253458115,1.1948924633883837,1.2156015919391059,1.204450546481159,1.1573772436154741,1.1435275766753972,1.193653186972689,1.1782171485646211,1.1381127497022434,1.1551867310928032,1.1569471638173208,1.1676696264093305,1.1636384458933642,1.1782166442891837,1.144611042597022,1.1400280425082814,1.1389064264715065,1.13026237223274,1.111369820621905,1.14678957435515,1.1357754200229013,1.1173544189717604,1.1598662183030022,1.1296641411849393,1.1474775489243614,1.1899497835582176,1.130138691624779,1.22276402124615,1.2438393847907911,1.1667878879914682,1.1599052469127749
1.2026681713050034,1.237006219102575,1.2137242373910155,1.178269252694633,1.1631896632857515,1.1465284500501842,1.143563209996858,1.1611988167690843,1.1370148402949167,1.1353144360053506,1.136518204919988,1.1483595543183687,1.1203352349943576,1.1406030064991997,1.1483531253578527,1.1217490948209132,1.1108253254377478,1.1182948591478232,1.1039651676767621,1.1106082840041456,1.1159125304239672,1.102908536231282,1.0990294840979276,1.1259286606177215,1.124095705399364,1.1497560328917287,1.209884486392143,1.142690658202092,1.236018307970885,1.2482975742758728,1.156838990108891,1.139786692401602
1.1949959688781149,1.2358543499312113,1.2159730488946359,1.1773783509947264,1.1365986639942303,1.1481842008588172,1.1499054448865973,1.1702712722771722,1.1556045573452278,1.1464978799977692,1.115797221940624,1.156141222941738,1.121577973795528,1.1357550063502226,1.125087706225241,1.1210949795251368,1.110399350998572,1.106187826803741,1.1042493647727303,1.1044000676950052,1.1049402539892021,1.1115458435756156,1.0895908213085992,1.1101546339943578,1.1025298249145692,1.117564631215626,1.190428759551897,1.1212976636188747,1.2124745386246405,1.2315298121653537,1.121860446807819,1.1200274745048915
1.1817135276905446,1.2264562821542453,1.1970253783017573,1.1820747395750888,1.136750837662581,1.1523680845011752,1.1169327309144115,1.1499887485913667,1.1663023527735452,1.152921506975924,1.1362462886636029,1.1587213380039312,1.1185779074679096,1.134536594155628,1.137646184023632,1.135936909153077,1.1331894809701326,1.12045844293926,1.1137109127557774,1.130728026477619,1.1324086861676033,1.1217680527760914,1.1300824043155984,1.1694612547315095,1.1465083270616803,1.1514323057388067,1.1897003576712464,1.1405778671480844,1.192289084871795,1.2468661105608059,1.159838476616025,1.1511496447407388
1.1755135591529893,1.256945681369409,1.2254287275991116,1.2212705082465773,1.1528344202120075,1.2010215805770732,1.1379800085604561,1.1495051308904491,1.1516879565533125,1.198113022270493,1.1933746932505631,1.1792798892121927,1.118699420059027,1.1801944782669866,1.1900634341035736,1.1703756479931986,1.1556746790735122,1.13020045007518,1.0986644015877303,1.1361039453891062,1.1215418320204857,1.1040252032785707,1.1260972637806859,1.1901646774642631,1.159157619834554,1.158225421528169,1.2271020747231094,1.1501116268418177,1.2072643336526998,1.255766329918538,1.1730013460834743,1.156915861098912
1.2315926764309135,1.2296305065964555,1.2537911020735168,1.217509177062976,1.1509440373069753,1.2151941734118505,1.1663149046953671,1.172819405061943,1.161127681238475,1.2156878424944046,1.1613606502040499,1.1660567761057987,1.1113770450038785,1.1791727134028138,1.163037372638959,1.175639206828774,1.1573920151119983,1.1348253782307267,1.0941981655615545,1.1405940279167188,1.1108097174540683,1.0835694019073863,1.1112699369957115,1.17599661558392,1.146407385942353,1.1421264735533565,1.2388904366294278,1.161953215452994,1.2583538415308977,1.2920859186010565,1.1610934251603777,1.1475797413709627
1.2250321275383236,1.1945240900656313,1.213935097686855,1.2026837989774228,1.1470509151924628,1.1567430616243992,1.1414683767367537,1.1702934452862808,1.1526415586614454,1.169632929219351,1.117058998588778,1.1498628967921054,1.140945668590195,1.142904892750446,1.1192053011140377,1.130902798062586,1.1218438222892728,1.1237861376097085,1.106283835196866,1.1163532485827108,1.1311415470971549,1.1057622097384907,1.1274572142826154,1.1705113692074371,1.158973597392799,1.1610475053208162,1.2596804269352853,1.2019424345194545,1.2664270343970616,1.3000439173475138,1.1796891840394668,1.1406402682065517
1.2074655978387416,1.2138921145281327,1.1951822336307363,1.170509305455706,1.1361868387208998,1.132164124769463,1.1261417028042668,1.160727582483201,1.1310038676607452,1.1480752163475711,1.104055709323835,1.114902699195175,1.1302164351622284,1.116358306543086,1.1092929280541743,1.11692823963412,1.1234285384732992,1.13076257840299,1.1386236967173065,1.1147106005980447,1.1585706810551282,1.1351600189748503,1.1479715541224291,1.1623815810947091,1.1598955384985374,1.1704284664665963,1.2501377224457038,1.178699859276512,1.263658318412932,1.2802857527210325,1.16879510660491,1.1598955741394732
1.1804825166110136,1.228594944794524,1.179993902103367,1.1922308998514888,1.17039957487007,1.1180702698461835,1.100656173712163,1.1493104134823677,1.1616949747492664,1.1509808739733973,1.1146704836617631,1.1371250041182726,1.131126279367967,1.124429277718351,1.1209261572296,1.122374529144491,1.126594856813033,1.1306209001329128,1.123922199779261,1.103098113067509,1.12578943030553,1.1111693800531908,1.1256435520487984,1.134622010780458,1.1275373546694634,1.164943800924224,1.2299978222303674,1.1403355357941733,1.240843062759413,1.2797947676981298,1.1540022740537437,1.1423621934736317
1.1636446489227217,1.2403655656838535,1.2130063678216054,1.2256823275388422,1.1797851979223086,1.1648461314819645,1.1131266609546648,1.170831372848263,1.155081674741805,1.1377296266757493,1.1358401962583786,1.1329214377041843,1.1817287088421922,1.1488951251145723,1.1521666025626391,1.170327617070253,1.169420616006823,1.1850131649126654,1.1399279967490912,1.1426329921092617,1.1445184994478002,1.1355571674377247,1.1432126837113967,1.2079266997833589,1.1838960605252447,1.1810182189458769,1.236902123837404,1.1830561676886275,1.251374781279062,1.2951756447347997,1.1960555405403632,1.1695086184681882
1.2189730569470791,1.2368864998792095,1.2526666308119594,1.1898575315428288,1.1574226045864688,1.1732094017561625,1.1380517041584894,1.1351393995626213,1.1205202115959072,1.1323232737023874,1.1182837654776387,1.1076783670523942,1.1426607588230495,1.1238997251074514,1.130435729399855,1.130989270376739,1.1225089199791745,1.1365731271294635,1.1236888379657426,1.1069223790374565,1.1223559253102855,1.1205055041782641,1.1382038937437962,1.183208808862707,1.1431986229412003,1.1548767806222284,1.204927407450063,1.1534759064622864,1.253334153257435,1.2553983638742159,1.1868173356165432,1.1328269995447409
1.2230599562228264,1.233253682557818,1.2140625872743451,1.1475152264514086,1.149912998177342,1.1632695054134865,1.138188740031104,1.1237940656701169,1.1239025151274198,1.1600165814583918,1.120354666979277,1.1070548444505977,1.1386211903294068,1.1099695311282987,1.1173705192499097,1.133280752847503,1.1106627481139772,1.113175434585039,1.1128599193571909,1.1027606384655928,1.1115326041596014,1.1106948284539693,1.1129353247619738,1.1499227892592916,1.1233155024168158,1.1344963820445904,1.241493852425665,1.1314748463015722,1.244910663479459,1.2536440723307511,1.146709687216499,1.1175218613938664
1.1993084977565076,1.2394020906160457,1.2023453188513216,1.169192661405141,1.1551451808495408,1.153522515186504,1.132056724976827,1.1491722747607676,1.1655803984579647,1.1567060781217586,1.1345459440185273,1.1339535923883701,1.1209893609083073,1.1239300052860512,1.1379544145166756,1.1420707990184633,1.1236522459246814,1.1160212123373485,1.1121446841157363,1.1294627829532247,1.156894558443089,1.107404979008698,1.130831016413103,1.2076883908084826,1.1592980057948055,1.1601588260914748,1.2804478418093528,1.1749484527469418,1.2481784777837346,1.240508906630287,1.1684013032347043,1.1517210082094376
1.1880928325538564,1.2566454485462115,1.195252271005968,1.2053073005254145,1.160213273913959,1.1591432856980832,1.1215315801679435,1.1393197726250754,1.1714466684727092,1.1260137152907892,1.1256866982761227,1.1336904096452478,1.1344376395947369,1.118073855037974,1.1292449771258735,1.1486858194599558,1.1395899620430114,1.1413530668394,1.119427464354859,1.1282469228351966,1.147351476616997,1.132741181975965,1.1670450334894367,1.1738475464033655,1.174641938688669,1.2014304263814013,1.2890510430156157,1.2055356643392425,1.2825196121831626,1.2897784559482581,1.1760692438999767,1.187531244562443
1.2067743680266696,1.2389779912474554,1.2241910733118815,1.1947289567787602,1.1572093498293399,1.1705962186295769,1.1483524634174267,1.146420636757467,1.1710026868962158,1.1612761494669728,1.14978263074115,1.1573451966120658,1.1916981266054545,1.1683048639052498,1.158829532602427,1.1726250058939107,1.1615791171030667,1.1779716140628242,1.1478742436130378,1.1287773453848973,1.1529902215450487,1.1602779363574784,1.1495830120431496,1.1538726928121654,1.1720325981595456,1.1891112015583678,1.2623536080439612,1.1859874158184969,1.2685245824111706,1.3082538063954345,1.1588967691450425,1.1863585158436993
1.219433831934414,1.2537964343969372,1.255168696588013,1.2412781435615898,1.2191104886285726,1.2262208291339227,1.1771791548742618,1.1943219650761785,1.1685176799889563,1.1636168145050676,1.1456775773257488,1.1741645243997438,1.1700185406339847,1.1590543050991622,1.1594946169856075,1.1574504933440053,1.15643980322744,1.160251250855264,1.1473332532264813,1.1402286562970356,1.15975619045201,1.156616615182444,1.157938505352205,1.177311547772224,1.201774224426583,1.223279246100172,1.2375445983787217,1.1649764218425138,1.25962168691959,1.2101377004388547,1.2361926594911683,1.1710490863911636
1.2508085866300844,1.2868354813683858,1.2462118755114429,1.2333746831416807,1.2264007806226216,1.2282246957090523,1.1553829962080866,1.1630649873196846,1.1602579834603153,1.1535679076226462,1.148999193865457,1.1615306189981798,1.1524214929384644,1.1432832143873435,1.1573060317740547,1.146808304493186,1.1387287895631575,1.1329498580772588,1.1251253862377473,1.1299671627194852,1.1330315987422768,1.1266708364830689,1.1372672590917199,1.1775516831814417,1.1935911328404742,1.1964441380937851,1.2597783716615538,1.1618593762181613,1.2567571027644038,1.2195464327121015,1.2531793957604964,1.1597072239774344
1.255225816350117,1.2544778726257617,1.2246905997229254,1.20153655545865,1.1838618408606074,1.2146802954344675,1.1267660901133263,1.131948664767444,1.169845641577229,1.1117729495457036,1.1446876760454356,1.1514279691055314,1.145760434628217,1.1432569295727206,1.1423394873069264,1.1374129941381022,1.1296527103494065,1.1258195247836205,1.1249827398727157,1.1240110541420196,1.1223305789459292,1.1291553605686053,1.1393995681269586,1.1760372695425034,1.1707079341611861,1.174775634694205,1.2648849635752102,1.1655071329926256,1.2348434527166228,1.2638669253808708,1.1890981712451083,1.1726247841157837
1.2161622655990527,1.2516896933487172,1.2275283922697406,1.196574412239507,1.1877009991170113,1.2154115288353455,1.1621730497334197,1.1604910339857004,1.1457448346509713,1.1157997323484483,1.1432038999607013,1.126294901526181,1.12386271226019,1.1421096693665453,1.1373797383896926,1.1395344963549228,1.128059891152912,1.1082363457740052,1.1088292608398833,1.127343124223555,1.1157451023052776,1.089392234737031,1.1034277480257297,1.1765713319222986,1.1657455836050525,1.1552749258541537,1.2369535899164184,1.1716145503944986,1.2176225056379406,1.2516463320503515,1.1430641855409607,1.1584218436945215
1.2140309239492475,1.2284096699851672,1.2396310430440514,1.1768554922621273,1.1788283051695865,1.1802041691525622,1.1385953290522897,1.1582972866106904,1.1392031217414893,1.1377267611136255,1.1274883472892854,1.1199002643343705,1.127933533718626,1.12952433650849,1.1636014861783732,1.1152524645282686,1.1060797060177838,1.0898147386868486,1.0932032004758692,1.1043799399055279,1.104352875581697,1.0972378479884972,1.1189296052259552,1.1581698313665083,1.1612077451270344,1.1577096432216958,1.2195002789544134,1.1793357163879834,1.2418513957111132,1.2378992375384335,1.1402430230042988,1.1354034484004425
1.2390467530026243,1.2262579854912052,1.2187269894290913,1.197185710508099,1.191548264847854,1.164903383527954,1.1124770932873531,1.1306603826637387,1.1432900362491398,1.1404322137605976,1.1079731553139796,1.1297244217865299,1.13401237799399,1.1227489237522037,1.156401379950218,1.1070024307346535,1.0966129988424225,1.091650051625383,1.0993197861591415,1.0793164859882785,1.1118172534913717,1.116455544675949,1.121519939377361,1.1540896542590848,1.1553907570372646,1.1602452507123988,1.2385682089660477,1.1820319897466123,1.2633756397416602,1.2782443330724453,1.1718399717319814,1.173288797763933
1.2193458587443122,1.221668623439247,1.2055607427173958,1.1753382912168362,1.1477803523537145,1.1478414925404636,1.1231848084251692,1.1837968664082203,1.1391686393784015,1.1685003100343931,1.0970831882146042,1.1160943914154562,1.1235841738204777,1.115148073117125,1.1286499894153543,1.132911853976561,1.1287626939230129,1.1306816853582105,1.1178317917935132,1.113687788789203,1.130922844256162,1.1372209785498777,1.1366292821623332,1.158486654337514,1.1444849847446497,1.1691078300498845,1.2184168430384406,1.1472234885469894,1.2434075238487134,1.2817577385696148,1.1676493544017639,1.2318584376439543
1.205884869383214,1.2449606437163283,1.2011941138868114,1.1858529263023263,1.1291802795612649,1.1509599484358006,1.1036478229826028,1.1843562046871177,1.097970545350904,1.1186943108455571,1.0801394453317739,1.0718757140300377,1.1170067567946258,1.0665563698544158,1.08595019187293,1.0878177138316134,1.089889161580813,1.1078802232988847,1.102196433513295,1.0910234306179492,1.096842699631783,1.1346396093834883,1.142777569347078,1.1203167276588186,1.138155914423536,1.1695968398902195,1.2116230972857143,1.1164731895648037,1.2501047358131396,1.2598246947850102,1.1475510337302974,1.1920564967031164
1.244734906039384,1.2534985923768729,1.2081716961928017,1.2226616834559778,1.1517205667722061,1.1817324885455869,1.1192532903678745,1.1748628327498563,1.1200596376527887,1.1130971083521517,1.1035714316808098,1.0826454145211657,1.1320851594193013,1.0778469903914292,1.1007575981271427,1.097371706256291,1.0943784875026805,1.1093158878261336,1.1177581592661092,1.092284289824448,1.1175996440166556,1.1090359086704749,1.1197608650444622,1.141309629164465,1.1310032788469113,1.1639735807323457,1.2316689883016274,1.140974723065706,1.248611835231446,1.2430110955019273,1.1483434703874107,1.1437407572204454
1.282613334840417,1.2314287649085889,1.2293779435538699,1.2428736511052803,1.191180086477431,1.217520891831096,1.179112085276379,1.162752550403949,1.1408310897419243,1.1829238874512171,1.1835371631717801,1.157353502317703,1.136740003886504,1.1414312460030072,1.167950884774873,1.1598801961375182,1.1573047835847519,1.1581579948195468,1.144592615631642,1.1461746410289115,1.1290743031653443,1.1176842083230452,1.1251029514123345,1.1906202200468559,1.1548837911208982,1.1443260206491024,1.2365137602247762,1.163708204449321,1.255656081524847,1.249706525293743,1.1694733126681094,1.1403660480362021
1.2450181793863466,1.2243496800857916,1.2087780806042197,1.2235980377530538,1.2019508980149407,1.1989501895171837,1.1474910179437772,1.152410851324465,1.140856939088317,1.1514424110413182,1.1390566147570143,1.1478591739132298,1.1295497058598452,1.1220138855847193,1.1464836530283014,1.1523200756561132,1.150090721743768,1.13511740139706,1.1391020261316724,1.1363810777515266,1.1199736726927596,1.1178208975109465,1.134770353820362,1.172761183602218,1.1620786086462354,1.1677186688697674,1.2683242976563016,1.1675815629784074,1.2653298000858895,1.2565142032982166,1.1993466542866738,1.153329548991246
1.2037982100265345,1.2511581857998941,1.1744694266071714,1.2151725831720686,1.153504033776491,1.1473012701381677,1.1078892872328296,1.1417013607521322,1.1849861263069934,1.1460475373613954,1.1199127118853418,1.1458804063874894,1.1453598273898817,1.137991728630965,1.1355254534300359,1.1538348074571874,1.1519620421703918,1.1473589258141828,1.1438541558815272,1.135960590383767,1.1481929458551394,1.143573769982589,1.1277350303525915,1.1602397571860719,1.1639013874678437,1.1592711954838675,1.295560953621818,1.1838785459657024,1.2476788005299382,1.270301388953457,1.1909982878354457,1.1264616088520187
1.2425614262684734,1.2297731302691948,1.1749636381971833,1.2443229558833804,1.2016428046108325,1.1202705860848146,1.0773741629455604,1.120556262739143,1.1934568951775655,1.1093819606192747,1.0887330231380195,1.127690208091312,1.139538587360617,1.1159085862854572,1.1051832364892753,1.1206048369840529,1.1205739347894779,1.1251070917457155,1.1156607578956481,1.0997494976851445,1.1394165498214437,1.1271134031643955,1.1142898534415961,1.1479406879269425,1.1457986180128568,1.1467378183206975,1.2677369440913633,1.1772450321168484,1.2530824722514144,1.2489699737261613,1.193768241915037,1.1222302308903427
1.238391077367032,1.2087801400008509,1.1905828446300666,1.2143545960839768,1.156901115726136,1.1567899262900965,1.10498367507511,1.1441429857079484,1.1589997430554109,1.12681314341025,1.1325435217049777,1.1485193114426049,1.1170848342940882,1.1314032885182816,1.1428201850842614,1.1418410760102458,1.1380095936260861,1.128713148751427,1.122412570583149,1.1254754473615902,1.1580796940024898,1.1372479765871677,1.1425736696630027,1.171258719376068,1.1504171869663946,1.149787248659883,1.2267752451865743,1.1961744491711803,1.2604457822156776,1.2297053269759315,1.1566313787304274,1.1287706613723687
1.1905507794457668,1.2288273999061623,1.2134779256492025,1.1790854810961924,1.127776397539597,1.1799958692818424,1.1627419359951754,1.1597351601242587,1.1361515291194535,1.1602434035014784,1.158343210612057,1.1452414562288054,1.0904386660096883,1.1458053626398748,1.1702906689081238,1.1639456433153335,1.1504650769251774,1.1441722099690013,1.1364342469957205,1.1481215445387607,1.170216043462861,1.1423059785512761,1.1740450388215156,1.2056399638730897,1.1565665860117365,1.155206074006824,1.2601150120241982,1.1713479838443421,1.237511141109242,1.2125924266411372,1.133891004167547,1.1401020625900653
1.1800101994972716,1.2330165316516992,1.215094555364572,1.1567021593472657,1.1309110931542392,1.1560339003358049,1.126311337532653,1.164037510707186,1.1376050260180515,1.1554863121242809,1.128330530081899,1.1122083978467727,1.1096658945011304,1.1200269760008776,1.143074059275699,1.1377957905996487,1.1322152638271898,1.1213534613622722,1.1332520148493854,1.1387036631891927,1.140702060863223,1.1583830463848217,1.2037569110039996,1.2440997529669215,1.1436558753676496,1.1709719050799658,1.2569030854987822,1.1610220250966916,1.2517730794280575,1.2336246459186833,1.1286015045323308,1.1603390641673477
1.2122317859762926,1.2099452433089348,1.1846827485483682,1.1692092253815207,1.1258745885432686,1.146002992384865,1.1009615207698844,1.1694340599209412,1.1139102893954895,1.1554908984439929,1.134076835130475,1.1151756387587024,1.1320700009218756,1.1221899689704673,1.1340994962431823,1.1391805181670867,1.1250774271595267,1.11464279737007,1.1339890244895428,1.1617469028127767,1.1649897523855675,1.1521998793534334,1.1777006599871067,1.231643937310508,1.1497882996080298,1.1875671596246102,1.2590212611861875,1.1747374493150553,1.2214493790282261,1.2882643571253234,1.1429759409701659,1.1420024943940819
1.1913918578771219,1.2052519372842636,1.1969182517421286,1.1836466164635508,1.1424401341242545,1.1411200150053427,1.1075986114792922,1.1648435482661021,1.1043442128696104,1.1296419433358542,1.1136387334761326,1.1152479588976651,1.133617721521742,1.1274777839721288,1.1404107321471308,1.137587494799802,1.120755133283931,1.1119050682974994,1.12049355189828,1.124570791379752,1.1422528054235135,1.1237639893646523,1.1462328088058922,1.1934181031889017,1.1634922532001561,1.163776691116258,1.2817418143589023,1.1663424743723614,1.2786357778043216,1.2305007688870275,1.1276576606254332,1.1425421560913323
1.1851275705169362,1.222633897831659,1.215886289112164,1.1939990298412744,1.1683330973982204,1.1901992333024198,1.110396024567654,1.1334892563259384,1.1419462461785304,1.117870271187224,1.1018095121758948,1.1134404871786672,1.128168232989463,1.1164616678870742,1.1274061072904098,1.1186772132365517,1.1114869997877417,1.0953808162590124,1.083017022801577,1.077906737997587,1.085371990151714,1.0918000559426078,1.100478570679042,1.1221613023892087,1.11425599610483,1.1308321924749913,1.2341339946931966,1.136558628892145,1.2611487834002097,1.2104594059736427,1.129051950558968,1.1285340553582954
1.1999220308331202,1.211431715453349,1.2292164957661802,1.200738135655295,1.1893468036028871,1.129559847764353,1.1059746283382559,1.1376814534805468,1.1688856568928219,1.112816309947397,1.0979288588832161,1.1118116357698504,1.1433534130235912,1.0995216336007907,1.1066284744938786,1.120718483954352,1.1151596753519233,1.1092649242973593,1.0912039642162692,1.0769554620931876,1.096025619929317,1.103949522352565,1.088228580371577,1.1166174581816366,1.108101929113934,1.149168743658603,1.181839623013006,1.1381071854750664,1.208383294275206,1.2541376394600205,1.1501252270547784,1.1475489352455663
1.236272298841558,1.2786294166175545,1.2832790369550326,1.273166170666092,1.184096974497697,1.2101408077116087,1.150262206941411,1.1395630835856294,1.1660855336863682,1.1428887290803065,1.1224192501628292,1.131979158813832,1.1532259129825002,1.1321476969375692,1.1488702454553275,1.1473706996399888,1.1193943574277834,1.123343436246236,1.0962746050601082,1.0741695090733028,1.102503745164731,1.0971747541436374,1.095220919747808,1.1558197325563042,1.1531240951502488,1.1484672130512406,1.209583065036649,1.173332232910251,1.2467900584832714,1.3112746904799528,1.179112721063704,1.1686773089121836
1.218019438111311,1.2697189807245504,1.2179955918241336,1.2283549071812572,1.158490786639683,1.1963028020466757,1.150508372770532,1.1682528717209844,1.1526085799869432,1.1636021062068536,1.1516241723295642,1.1643117363394135,1.1545946669240201,1.1640007804613515,1.1803582470454905,1.1734239193746439,1.1571733848386092,1.1651140774641306,1.1361824714091444,1.1079391526979674,1.1255146075978701,1.1354625876347173,1.119271068177493,1.1620050208466632,1.1231052117016154,1.1156056341647786,1.2167075082269108,1.1101682307641552,1.2374577985697517,1.2258568156184577,1.138699963933433,1.186272172067912
1.1828208521713113,1.1905722004464039,1.154506301075602,1.1561699358929967,1.1295217690253776,1.1032456754700948,1.0649091596599423,1.1308509053212454,1.134269983839514,1.115655759620147,1.1063138377852992,1.116373027804952,1.1295700038088579,1.1202421738966155,1.1416773407286231,1.1406121731435366,1.1392322559874013,1.1445089824260593,1.1301700776228965,1.103271333599085,1.1304640037587592,1.1168430559359452,1.1056935682382583,1.1592179182191393,1.1106351810362158,1.1145840231514288,1.2408617827373973,1.1179829528809462,1.232661419746643,1.197571356329933,1.1261184532819561,1.143318673666984
1.18919148079503,1.1907360223921641,1.1701881173255424,1.1613427429183305,1.1354263343165554,1.1073502825056551,1.054517367015536,1.1601597155161578,1.142277457496097,1.1251309694767835,1.1007619384785783,1.0911645703494177,1.1173352661035831,1.095205893784595,1.1127724274982806,1.1103912782407337,1.111935237818088,1.1161096298057736,1.121593421171733,1.12084955484855,1.1467088388516602,1.1226838088298898,1.1241710166784358,1.1753175100027844,1.1414056901925165,1.1744005647662517,1.2708105590956515,1.1692652956403462,1.2897824789293595,1.264739303485528,1.1869547582963227,1.1409333646989355
1.231240898376663,1.2547857199257313,1.2125073313909656,1.1954964749661023,1.1793374108665053,1.161478065685785,1.1090284538886763,1.1907768878004428,1.1737713660133384,1.1515203818173942,1.1321536077056042,1.1428367928946708,1.1422597234578242,1.1192050765842936,1.138431267405187,1.122261092732018,1.115187207946132,1.1310482600445007,1.1396362341231239,1.1614276789168068,1.1341621410163527,1.142477386302119,1.1507273722411637,1.1990362301180582,1.1455179916134257,1.1621682620472418,1.2422703031050077,1.196841529240166,1.3273181595026995,1.2827281416572411,1.2064798974650641,1.1712153870173028
1.248500533925401,1.2560233571417114,1.2605938133869208,1.2417399675021665,1.1887242606240156,1.1840785725986414,1.1216960964281388,1.1590096224874682,1.157028282901127,1.1212444948584976,1.1018497672203806,1.1315812294493153,1.1915764400118,1.114212976484873,1.1184490364891868,1.113545933298763,1.1062771857700642,1.1371396850619986,1.1174022737218365,1.1265275002718593,1.108978935576736,1.14888059538186,1.153274158803265,1.193148325632936,1.1419690967163956,1.1747976272716085,1.2861756334871923,1.191518439038118,1.2807731659249069,1.2676758597534123,1.2052547946195629,1.1894291723420647
1.229089821523158,1.2556874989527638,1.2572786474183362,1.2109608207902134,1.138646221099767,1.2136539202530934,1.152959974268307,1.1809110459118215,1.1275263280376,1.13049476850879,1.115232141745914,1.1095814090470648,1.13790202171858,1.1140658988902499,1.1381345899575952,1.1281061026607806,1.110591927824289,1.1279131670572877,1.0978144269774284,1.107096637222523,1.1205389875604281,1.120820809103522,1.1225167854564997,1.167421538973021,1.1410589835679306,1.1335335407847231,1.2545643900820336,1.1645018271401202,1.254510015693313,1.2483749250173704,1.1480105072955542,1.1802428221983023
1.212304262190599,1.288120490164703,1.2280503919066494,1.1845960059554055,1.1239560729230795,1.1832934375440434,1.15035317888841,1.1604524257818711,1.1146730249804762,1.1129844331190715,1.0982507753801918,1.0751173008599608,1.104038976497495,1.0829627188653828,1.1227470066754064,1.1191839279393323,1.122194486042825,1.1160403947724884,1.1111812557337277,1.1232775330733935,1.1561910989537467,1.126746828148417,1.136403014072018,1.1818016548705759,1.1579252476568913,1.1311213799967745,1.2675657114024461,1.2183103766794605,1.2857478307861487,1.2687512453913519,1.1402844625775135,1.1573466816090816
1.1901736436881727,1.2374922582138177,1.2148492197447929,1.1621478654231694,1.1443155134481855,1.148798506091313,1.1395206627790393,1.1591292579842452,1.119349574831944,1.1429591048106464,1.1248627696261486,1.1179640699890057,1.1250520589570774,1.118798321349322,1.1361423480068464,1.1476551007295845,1.1594540747353783,1.1615336131711094,1.1442808719174042,1.1599509317073546,1.1753199429093386,1.1240771325962007,1.1323323943271706,1.208201387133233,1.1628934400234852,1.1393829696066464,1.284628907825954,1.2032611792743297,1.2518789625488784,1.2405799810336506,1.147127407891542,1.1397844889857478
1.2065091616061834,1.2638860849357654,1.2217565864525166,1.1686998529607777,1.1525075709911476,1.1555478716884704,1.1213961473781335,1.15691793401162,1.1060240450677494,1.1522753755812767,1.132369891714643,1.1166264020448557,1.1065348950689964,1.1133767212311199,1.127303388028463,1.1277587154201003,1.114868287015672,1.1115514212406932,1.113228896279407,1.1198559955527514,1.149597616019139,1.0999189571239734,1.1323353945118078,1.2139961148396015,1.1744206884348527,1.1695861136905146,1.2365130117132515,1.1841192856583127,1.2265464714028205,1.2430581921040633,1.1727180366785428,1.1560983196567385
1.22638685106978,1.2728721738646942,1.1963718367982215,1.156864396020552,1.1454988245083808,1.1855768796632138,1.0883885634990593,1.1365107607948657,1.0994086037438457,1.113378310587782,1.099440611291391,1.0927753014974713,1.1143341392901633,1.095583806074819,1.1158031773859935,1.1087355978544884,1.1016040117614847,1.0970571095380346,1.0963498342126932,1.09021615905225,1.1114718792087048,1.102513614542602,1.1262014786111987,1.1659953949041217,1.1510223038857192,1.1613272096563663,1.2294935735699637,1.1872191198775597,1.2317073599187836,1.25277637506285,1.1477036396585312,1.1370063050153443
1.2129750770152128,1.2547616914897624,1.1953209352385001,1.176499214238036,1.1546478276098584,1.181566419987752,1.098489206395187,1.157482418254978,1.1144301372450844,1.1115762895790662,1.1053138939989289,1.0878076434569814,1.1073704485001836,1.1028776921084693,1.117463436431365,1.0968165620990267,1.0800234107689504,1.0851312201030758,1.0769656494461957,1.0736243834160486,1.0833255047223624,1.1064118207544824,1.1325742170046083,1.1285735577634872,1.158583741154984,1.1608940040271232,1.2373472021977068,1.1744640066464458,1.244680437141222,1.2895801347584928,1.1487075887462919,1.1438660687869042
1.1936413677281212,1.2372967606444678,1.1829182590872989,1.1637204472103917,1.1712590350460117,1.1397711236787516,1.1131067988998486,1.1449916617305311,1.1364089999281206,1.1452573939595063,1.143103672339565,1.1269921236603764,1.104000557474421,1.1371045569265013,1.1384569811459828,1.136089423751644,1.1233362901366983,1.1181180735614682,1.0891842629728805,1.1135605929917456,1.101028977189574,1.0790687908130516,1.104326021942856,1.1390066501895386,1.148268816559961,1.15092080768284,1.2844882637616344,1.154651824086674,1.264360585231075,1.2971712720572381,1.1461969904300815,1.1191590727356002
1.2220078752951806,1.2212496764185472,1.1807747545912533,1.1683734285759961,1.189853912001477,1.1540439671998737,1.1086375655365173,1.1296148057432305,1.1913162988920232,1.132471569289525,1.1148550961240093,1.1445143810156573,1.115601489544596,1.1218981069417235,1.1346688380680516,1.1285917285231342,1.131886041714954,1.109353408212952,1.0943235466255816,1.1086240426837362,1.1161796925851615,1.0809989197200776,1.105468109245855,1.1416623292833823,1.1367291207263286,1.148409581777124,1.2795490555378872,1.1417531128489833,1.2729718265513184,1.2610175014871488,1.1556694300356403,1.121239769359255
1.2472689472296246,1.212925731171109,1.2101289837328468,1.1834446805482643,1.1477309519990728,1.1812266738074013,1.1430276808362585,1.1819916864621947,1.1714808775322345,1.141119540198394,1.1253762591885397,1.1277431073237099,1.114989188130078,1.104632079926199,1.1309276202265994,1.1183334511581713,1.110858224723849,1.1096791301479279,1.0877573535930627,1.0888741942287328,1.113437456230697,1.108203893651342,1.1063328181917993,1.1438655632927586,1.1408954366674848,1.142209773738719,1.2395457802725127,1.14877474330992,1.249612331491641,1.2673349936234493,1.1513403487027263,1.1600363864160428
1.2502888684852138,1.2619039932975882,1.236011267340471,1.2148701260753225,1.1608027878691254,1.1953471540836318,1.1488904255048167,1.2237809101680865,1.1284726889247014,1.1308420914352608,1.139539427783742,1.0955084901438155,1.0873581898007993,1.0848130715306379,1.1126754126596539,1.0982183479808822,1.0981349230324222,1.1100001809965248,1.0899745406794337,1.0925476082095025,1.118556563816464,1.1012421341648997,1.1194514471750199,1.1596913050049835,1.125504057284857,1.1355691131030416,1.263900706775441,1.163518620161535,1.2320874562018473,1.2535297956181701,1.1476100137229295,1.1453801015666008
1.3066995008241322,1.2805030449879786,1.2733273418921556,1.255511148454167,1.179359413117548,1.2043096457060232,1.140708280996536,1.1729948450197016,1.1314070941402623,1.1023248085256578,1.0830075861166175,1.0754851041536289,1.1070010459479056,1.0774273990541947,1.0907637696973322,1.1023061274888666,1.1055768837190274,1.1106674638102865,1.1085999090437817,1.1213347289503517,1.1388415362787008,1.1124106176546578,1.1438296210071088,1.190336020535668,1.1594501403854707,1.158082086011284,1.2873450650260974,1.2253138926920804,1.2786836208064125,1.265470391933021,1.1755702051851744,1.1483712334179912
1.2731811383339924,1.2607213795071777,1.219738210860855,1.259167607154783,1.1351915652500297,1.1633518147728878,1.1138505405021089,1.1463746201947906,1.1715092914023935,1.1106141971057304,1.0934464168076037,1.1089217963297469,1.133025730726554,1.1144944169380278,1.1251771329010583,1.1286107172554074,1.1035233447672745,1.1034612701992086,1.1007652589177994,1.1086193021323345,1.1095157915670397,1.1095195702696812,1.1125665563732126,1.1533604790035041,1.1337479453603985,1.1488875041039752,1.2687663449689286,1.2109863989917677,1.289281187775061,1.274300614810822,1.1733048387535723,1.1345951333194941
1.2011353625646508,1.2462973279077436,1.1613209462167124,1.2050250253100663,1.154421632689237,1.1131015198158283,1.0676355901068364,1.1076451405807162,1.1428369190008199,1.0888190668437177,1.0856566325225836,1.1113628556906807,1.1253906416579154,1.1214936043916055,1.1140725531519482,1.1186490259480788,1.0922343020433147,1.076962661061061,1.071062369782607,1.0865967631255453,1.1023749430711758,1.0871218570271057,1.0995978642634523,1.1465984823114461,1.141913032817439,1.1552291854277765,1.258313932878252,1.171719254649925,1.26110298771371,1.253909056188747,1.1652148023760267,1.1281679226042014
1.192403966190442,1.2373598326743813,1.1701070215466267,1.199723267199117,1.1701562451687846,1.1436279017579065,1.0865878358784027,1.1303597389647015,1.1303948269565796,1.1120696769116656,1.0841884809105258,1.1106136326324887,1.1269443443522889,1.1035326449227674,1.0962372091109167,1.1085773310584601,1.1187451213238486,1.1142285102523999,1.1067939800425746,1.1151723479773292,1.1389245227969422,1.1106223533599209,1.1167723395640496,1.1779427718262248,1.152882145712721,1.1388685212943945,1.2708842124533288,1.1526322065572498,1.2405358278279635,1.2104042013835876,1.1498645341165095,1.1574362315925308
1.1855033602000886,1.2188107602126876,1.1751535650806513,1.2048942476690574,1.1833332533492156,1.1727117270052354,1.141173349464121,1.1581849224273493,1.1556223588550663,1.137078964838079,1.082117780735238,1.0934610208522342,1.1388723731304977,1.0796942757465455,1.0968676710396978,1.0920141721414036,1.1035289112536477,1.1244674564863881,1.1224062412060325,1.0997411977096727,1.1363350684279032,1.1343033142088799,1.1308773594545012,1.1769670003080523,1.147327231410282,1.1325638502727016,1.2636912793845623,1.1596881710114932,1.2528142113421514,1.221433338291105,1.1558350737084182,1.1619502311328365
1.2287469192798122,1.231241210434349,1.194872782732648,1.2048022002410173,1.1405557426472144,1.1504542891008123,1.1100812513468494,1.1543612701358632,1.1834450050643401,1.1124078984975436,1.080999000248578,1.0976546082427736,1.1345274209059946,1.0912150044333957,1.1177143382976895,1.1018693180575525,1.1008454054936163,1.1037287199792867,1.1041351668248747,1.09445055467843,1.1331160591931582,1.114986202968214,1.1467554147091374,1.2546649970999353,1.1843524115655184,1.1472684044128074,1.2268430701297615,1.2118839772399916,1.2689376197205398,1.2672527716533675,1.1731042528781446,1.1574068526607555
1.2308714635243865,1.2647412692515305,1.246055010659516,1.2130511940864848,1.1145898315952092,1.2236212955543786,1.124318056518851,1.1788566051391345,1.1647929690902956,1.1233295886477446,1.1334107157118627,1.1321736021549997,1.1202312124781328,1.131434659974678,1.1452904429412878,1.1163943707614195,1.1097941656161108,1.114240347051273,1.100949235598198,1.0873505360287437,1.136979558782643,1.1140704593523763,1.1417350378959963,1.251821343681249,1.1786150453085773,1.1654544988052897,1.2677986058110606,1.2046972198378287,1.247100595170069,1.2344552460940963,1.1524006430348108,1.1398909282788767
1.2397636825336789,1.2320161734656485,1.3134961838238661,1.2076564974196287,1.152991545919568,1.2471473210622712,1.1410368944844365,1.1772444639611939,1.1576045307183436,1.1202957845817552,1.135474585543792,1.1333765001979625,1.1280105780569845,1.1310255110780472,1.1257844309318081,1.115546870287287,1.1143421775680176,1.1269584974911024,1.1107694946019717,1.1081269291392042,1.1415124341892025,1.150391478612728,1.1682967646285503,1.192764874704818,1.1713256719128426,1.190292679202981,1.2958971221087385,1.2251998230379666,1.298137916851152,1.2774140251908206,1.16967255926653,1.150987353155656
1.2116407633833912,1.2129507500086902,1.2628636105275108,1.1993584264060146,1.1662616189994002,1.177384809109559,1.1198517107383161,1.127973298678032,1.134468484059815,1.1201916713851405,1.1117515220462695,1.111941168304559,1.1364123381693314,1.122955630239519,1.1161814839196469,1.113101754566037,1.1087687519591922,1.1104982864653843,1.0847825892445586,1.1088137869625285,1.10103681279505,1.1270258936944202,1.1270447162028459,1.1651202305767399,1.1488411044600144,1.1576710335528135,1.2645480584218933,1.1971651995443737,1.3059996796562976,1.3052967324371143,1.1368961135528366,1.1448784673459307
1.201566313982432,1.2010951209402272,1.185826156547052,1.1702244530917123,1.159898706380148,1.1461404127512558,1.1165858980041348,1.1305182382501955,1.14478584306002,1.1505529546882776,1.114162631400632,1.1190645740041618,1.1270073933870457,1.1046593972597487,1.1036745207560248,1.0913297465103875,1.0825608046415849,1.0895069433946973,1.0755804611158994,1.0846861531705065,1.0940605265729593,1.0951207257145275,1.1235474458417898,1.1437949993621517,1.1416073184126125,1.147836680589853,1.2224769133171531,1.1551742174019344,1.2180997520556072,1.2684211479778047,1.127722892793555,1.169396593775964
1.2269580866405365,1.2406766362525934,1.1751678863042072,1.1834669966186666,1.1778067736261055,1.166614057674506,1.119212237150991,1.1422960940752955,1.1694107098847317,1.1496547168081501,1.131157503281732,1.1300525464752802,1.1515188969794767,1.1220586970589472,1.1231471409951745,1.11652171864907,1.1134889553845009,1.1165958389861081,1.1233292269902708,1.1309260567064259,1.1449874730422127,1.1289885370116437,1.147987479867273,1.1798058367804733,1.167175178240182,1.1539935076281,1.2328139140439045,1.1711066792855018,1.2352063877599493,1.240081365697232,1.1566454642743522,1.1784613085956748
1.2496570823614366,1.2851427758308063,1.2359909607231754,1.243180600913377,1.1999869246874861,1.1896017712124707,1.1225558886724365,1.2168766033141514,1.1617877772296998,1.158108884097985,1.1559210733635608,1.1421863792426692,1.1635083474914516,1.1472566801496917,1.1680828557885004,1.137366314563189,1.1441316234414876,1.1501334270223746,1.1512208240581296,1.1575546305130682,1.1669990846008784,1.1633102120619223,1.145636926830518,1.1789932514502819,1.1637754572846721,1.1678699807278983,1.243502229919611,1.2653368511230285,1.2813509438034014,1.2995143816255856,1.1778952087375112,1.176445228369049
1.2136358150694322,1.2566293064297553,1.2104148487870323,1.2193331637134126,1.1909601147251248,1.1431586210044462,1.113208075249379,1.1820172602389267,1.1457716875680717,1.1553210127483609,1.139997478428455,1.175546133373951,1.1499631841567377,1.1647684947420391,1.1731085374137742,1.1671879541585202,1.1658586585639301,1.1721859209579812,1.1369657208950101,1.120981229507686,1.1440809893341748,1.11487121295092,1.1311327966073823,1.1549280223318996,1.1370474941980604,1.1619013283185573,1.2418089910950798,1.2246102213862482,1.2908221136584936,1.3241320123873341,1.1624516058377221,1.15912415728524
1.2304072889325708,1.2415506857101932,1.226072571589216,1.2153280445126713,1.1839532492465923,1.1724548692462196,1.1253906022335587,1.168006579480259,1.1184397599220686,1.1571722913910254,1.1350309107459073,1.142643014658658,1.1017022250109922,1.1432080173264025,1.1523118373136283,1.1406064986563011,1.118703417110418,1.1144867479098879,1.0882326723937188,1.0804613629711528,1.0976417552711029,1.074779040882804,1.1152005933589388,1.137325388563102,1.1281364026310845,1.1752370383748474,1.2829064669909778,1.2200806741027361,1.2828713907927252,1.3135124275616386,1.17792881749894,1.1720525581529362
1.2258248914636942,1.2320575963357288,1.2227828127196778,1.237826836635557,1.1417021600727495,1.1940679788657032,1.1272983887644712,1.123042766105884,1.1058647676241105,1.1352008368242907,1.0986793600819353,1.0724764354674838,1.089760373490306,1.0833192016822757,1.1004948724254133,1.1030213112818112,1.1034730137604316,1.0930025995651425,1.0874936363262773,1.088283415704503,1.0915268509117384,1.0801300154294475,1.0878011255745472,1.1158233201247036,1.1105267573772934,1.1260592844315993,1.2653981854020029,1.1645747984293402,1.2506707939374462,1.2963731827402065,1.1476554635450527,1.1073134540716196
1.209940972566161,1.223301374056331,1.184626621622049,1.1972485913966422,1.1471061561041431,1.1400724701056804,1.1058526677797211,1.1161317912779594,1.1004372081283587,1.1242117422668498,1.1122610889071312,1.0811013209061562,1.0943784771673235,1.075819658964712,1.1068137087535053,1.1234034089218121,1.124671548682085,1.1102004854524383,1.1038522677470626,1.106070342553654,1.0984701668341679,1.0930816101720615,1.0783858504030952,1.1092676454996404,1.1080077721635444,1.1242164472210188,1.2258244226803063,1.114496102442059,1.2251835983614827,1.2548562981253848,1.1653426043791533,1.110030757622175
1.2063606830649771,1.2819352377191626,1.2287718471779028,1.2111324908965784,1.1899068577001675,1.16549560162111,1.141866444185345,1.1496960894540007,1.1103974062457465,1.1305874715631263,1.1351614544448054,1.1119672134899317,1.1049267951153565,1.1068209115348437,1.1247773109326815,1.102288362378082,1.091316283498678,1.0948862475384527,1.0909202664249746,1.0931672689444711,1.1074951770019037,1.0880847799706423,1.0883542219874047,1.1444521176985993,1.1187190318069378,1.1581189176444373,1.2799686090042723,1.139989980177489,1.257529713230571,1.2433961147956332,1.2095397308406388,1.1440225922675749
1.207273648472324,1.2559345872900225,1.2052609336276783,1.1841574561721515,1.159925223008075,1.1402797934068378,1.118939164974252,1.147627450886648,1.1172524958092291,1.1307072157900522,1.1390162686221208,1.1103113361909822,1.1022597508974052,1.103760760535105,1.1171823858955257,1.0861459448321615,1.075683941732629,1.082455274801878,1.0809905907681996,1.0907121154957007,1.1191007283460497,1.0751674727954497,1.103998787292948,1.1615172395772484,1.1380689077186061,1.1730553630778964,1.2697524581771045,1.154348575214087,1.2877616447270714,1.2343537288176176,1.1682466482909826,1.1323375853553435
1.176600596930697,1.2003854331197947,1.1522458666998991,1.1313718387663543,1.1241940149462555,1.1013461105332736,1.074922191087278,1.118997637669863,1.1104464995596934,1.098059770161609,1.1055429688136258,1.0884860773822247,1.0919021115027652,1.0874263990675728,1.1239947743144851,1.1207055243486803,1.1077789837165053,1.0911431559409124,1.0681799474852451,1.083683643004915,1.0752831156819027,1.0693256169328405,1.0937176592492315,1.1300252110710391,1.1354257898098907,1.1508459772005284,1.2288475930035307,1.1396772433686295,1.221657345191336,1.209747725189143,1.1424049675724557,1.124537737354433
1.1666366501920744,1.222176576414196,1.1779011245278084,1.1617895992138294,1.1224542151088277,1.1270283164441717,1.0802708231435272,1.1280194183112984,1.1298775260040332,1.091810240127685,1.0960754430865352,1.1015507117273036,1.128696769589151,1.0942237789616316,1.1142052148025632,1.129836101964317,1.1062389140039934,1.1026813451611055,1.0859285600238129,1.0866186683933992,1.0974576661832298,1.0963979198277545,1.104251165067634,1.1561785731255814,1.155778113443423,1.1473438656512205,1.2356204988175643,1.1462421043116207,1.2628732674753247,1.2397874869766814,1.1337556846187602,1.1361658695431036
1.2139977248602776,1.2567695218889445,1.212234328661942,1.2183326595852557,1.189612405978905,1.2385953716844027,1.1332309640942082,1.18155353553815,1.1955590415355584,1.1391733116487572,1.130942455957116,1.1420601128328862,1.166294762619094,1.1259517815134519,1.1505219636663462,1.150555277789825,1.126445919195597,1.1372799724415597,1.1221807002899111,1.1119034093306144,1.1531942551211516,1.1415715407886844,1.1673157475534337,1.206005268568808,1.1689215963823192,1.1876829418893375,1.2418041383182892,1.1780925043080481,1.3025854242889954,1.3023190749750928,1.1746124085023602,1.1690100167778457
1.211662039325117,1.2788128388780045,1.2193277933780382,1.239574780196077,1.1813553113815716,1.245297846827685,1.1443965174697002,1.152830279842343,1.1657164006489469,1.1476917404364915,1.1563524042152464,1.1598071928182094,1.177848705305122,1.1611915403459052,1.1698459478880252,1.1670814776225575,1.159980514242835,1.154126292636712,1.1503701089066787,1.1540350194840239,1.1604630259354543,1.152603308073946,1.1334186127650665,1.1958801011371971,1.1492813713455776,1.1768502777097969,1.2533902552921712,1.1545926443845975,1.249791660018016,1.2442735653742325,1.1889873582081218,1.1251218461190866
1.2356315339962876,1.2774931330012722,1.230561537620554,1.2389005980653025,1.1937196691661693,1.2266790547262474,1.1299454157885547,1.1450720895789979,1.1702009404812823,1.1421705543603464,1.1366061087543173,1.1489541668974983,1.1660602801535562,1.153979424453106,1.158593838038453,1.1577949477383944,1.1521957789253061,1.1387781925557932,1.11981610418799,1.1507046996358812,1.1277894432123703,1.112055042646564,1.102606788224878,1.1775986355323034,1.175774224730968,1.1810793077931268,1.2566460606851488,1.1846017559165216,1.280636070435923,1.2318218015382838,1.189039661058998,1.131798619811292
1.1941698726512844,1.2445628319999738,1.2002563145369933,1.208278127913729,1.1587078039386307,1.2236029147368357,1.1601070254509902,1.1337390257107578,1.1821347878946697,1.156853114775817,1.1401598653909684,1.1608525375810463,1.1680667152351054,1.163868869300207,1.149723117671082,1.161952188913911,1.1488665372563391,1.1399327353437572,1.129946582095449,1.1382586205671616,1.1368898588546772,1.1121701773422317,1.1111048102886427,1.1782098909955518,1.143792441762053,1.1536161892012937,1.259371673854691,1.1638155304314124,1.2672360383965473,1.2812002826917868,1.1628747835571036,1.1260574461059156
1.2265451170379629,1.241570812928396,1.2102904391929046,1.2168770278821444,1.1782404841845482,1.2105833621108852,1.1486292833643892,1.1458546601844561,1.1762398177009044,1.1705260800865802,1.161690912168517,1.1654152854260758,1.1553410917373752,1.160999810665162,1.162091395486058,1.151595172019458,1.134866274883118,1.14477693899256,1.1238052098985778,1.1335861514464485,1.148298983650275,1.1203777157378558,1.1438670508983309,1.2207560708667182,1.17957374639672,1.1722769286331716,1.2987790813782158,1.1988841215461081,1.225028040411186,1.3053377733586982,1.218260540839545,1.1727602082729454
1.2397126900357909,1.256560388471632,1.1976754619309076,1.2253098277990895,1.181045439178637,1.1901382011887047,1.125456471142821,1.191294742546991,1.143942720265179,1.1424723240391534,1.1258510619067845,1.120312220356557,1.1569569832891589,1.1253521340906303,1.1388328609954572,1.1430652085307098,1.1512078849506502,1.150154335624029,1.1179878988038248,1.1373136747126924,1.1226550799502262,1.126515176439459,1.145035443197791,1.1795113588437929,1.174595668178224,1.173298892815987,1.2760659173953275,1.1914365833245093,1.2595631304319466,1.3049982035179513,1.1946676749800242,1.2044257194683692
1.224189127801775,1.24954502275218,1.2208425921755408,1.2287112018357371,1.1942704021736146,1.1799518800076405,1.1265000543940105,1.1765777563175879,1.1540907082924068,1.1483729316966862,1.1079622953844632,1.1116487596282838,1.1480423759485618,1.1064789400109252,1.1217845420054415,1.126593746188292,1.1179110637769187,1.1111783791281695,1.1014139235524645,1.0992975402369338,1.1169960696391723,1.1171373201726111,1.1196165737239352,1.1326842880320358,1.144888518947093,1.1423450222290905,1.2360035654597616,1.1774436645541613,1.246907589590683,1.2888236496545908,1.1612265383836524,1.200075775396198
1.229446781225201,1.2410492183586417,1.2533634643535159,1.196135915968558,1.1999916990966444,1.1855321821083475,1.125219013170181,1.1340061483178596,1.1699628172579062,1.172276244789086,1.1164749212408294,1.1272536484283817,1.141580435466544,1.130011337639487,1.1294875774196664,1.1384505801913334,1.1231156639246243,1.109869980759671,1.1084931577934058,1.121581212552053,1.1168553699035273,1.1052567467229422,1.1326835995724711,1.1630957444084762,1.1564652793946701,1.1730528064578398,1.3000818740929037,1.1946496036853156,1.2397264066398197,1.2620451088328843,1.1847260165226607,1.1763154734788315
1.2148435321262032,1.2202012120421952,1.2229619293019753,1.1899375715972758,1.1574399861187004,1.1508076772218636,1.1069909547953731,1.1179549523842827,1.1854333560154364,1.1623804268941267,1.139624161373116,1.1386095279116524,1.1641535321442786,1.1421825140912645,1.146092418662179,1.1553039465869182,1.1481946427350578,1.1365102287826017,1.144501173074852,1.1477359622339744,1.14475716029159,1.1247028597910196,1.1437491183864206,1.1886302943060436,1.1651569990580932,1.1584180886628879,1.3154661777039283,1.1974787680990664,1.2737416191955473,1.2471384149214524,1.1661116191033634,1.1277512912881011
1.2461711997354445,1.2426745366109588,1.1938463726561657,1.202768591731335,1.1545793901128028,1.1383066336498637,1.0940859519302648,1.1431795313170796,1.1562856326319795,1.1439801599010937,1.1431016840197563,1.1393841868523458,1.1404472845986808,1.1414757643537863,1.1693938441421556,1.1576491187474365,1.1515630896639013,1.1376611950656679,1.1256302518105092,1.1355777568180092,1.1426294542841813,1.1050961112410744,1.122900166882996,1.1593380341334407,1.1539102862438688,1.1418861657688237,1.271870194017201,1.209346145777467,1.2331547128195404,1.2766568305505104,1.1822072100278134,1.1292871472251413
1.2295269245536085,1.2628031761906433,1.2307137801707386,1.1854041720794581,1.1451305421034577,1.1575928202380878,1.1252347082487693,1.175236941496748,1.139699493686438,1.1436136654807854,1.1472595534113648,1.1434256624496533,1.1380566786087034,1.1390390589176982,1.1616823259359779,1.1556681595241876,1.1534570612068304,1.154667186417679,1.1435160677037328,1.1227275987300291,1.137036831583593,1.1449441482406788,1.1375357817413532,1.130582907828384,1.1412495659084119,1.1547270865529735,1.2255593981563386,1.170037329264333,1.2247128395497435,1.30884937465541,1.1705129092194249,1.1568656235324077
1.2246466198106025,1.2465395062031837,1.2732142264214301,1.2273979714308612,1.1553260914816057,1.174893768161534,1.1427211062097569,1.1838757287149542,1.1396667969809928,1.153642679367768,1.1517677718952621,1.140157258141568,1.1567344309841392,1.1305540532212661,1.137539151355129,1.1459479878503847,1.1330756714930978,1.1566734861276429,1.1451021124308403,1.1246796624567226,1.149992465405226,1.170290606352687,1.1664269321412961,1.1441043308780037,1.1724870822037772,1.1842288002911043,1.223076915571803,1.1952479831440472,1.2586615889506074,1.2987638002218524,1.1634106749623765,1.1844037868223987
1.2012025912435644,1.255314633745594,1.2310478229249022,1.213501856381963,1.1870882527849735,1.236680284014593,1.1898091408069282,1.2218887098042097,1.1606475712918571,1.187607192232632,1.1592360970954765,1.1753550717155716,1.1201739173305414,1.147474699628568,1.1589227320327087,1.1150547966007065,1.101892414063938,1.1075489254941553,1.090728987633804,1.1038865450475752,1.1101753251825908,1.096114567606971,1.1259709751438416,1.179480279506119,1.1478229406846385,1.1839969289689265,1.2243994175295094,1.191193739809017,1.2583234001079264,1.2192040921455534,1.1716694719410525,1.157057765255401
1.1989484330346487,1.246682291832091,1.2102426166861238,1.2125040984869038,1.1910645674433427,1.2480647394621454,1.1691349688770567,1.2035918367792753,1.1546131166788356,1.179267447586261,1.1733012927947528,1.158982809667529,1.0955561549454358,1.1548405649641542,1.178142118395551,1.1290841274580867,1.1147781603427607,1.0981266468526494,1.0727708614859102,1.094495066218135,1.082041599276616,1.0737792309012433,1.0889464764837238,1.1614242462001811,1.1116544285238914,1.136290164584701,1.2358187392227802,1.1608290669142007,1.2115265238334223,1.2396990215855952,1.1759336569755543,1.1298675213384615
1.2023015526197405,1.227437670009164,1.2124537827175592,1.2219992590386102,1.1533447457565291,1.2143336454499642,1.1386163924030825,1.1883064244136263,1.1200180211486757,1.1406850400812114,1.109624170152381,1.0984542177204237,1.0972823984029405,1.0945394241907687,1.110995191445627,1.1087593312665203,1.0994096108565148,1.095962034238677,1.0775929445549317,1.0996024362897059,1.1049910212818426,1.0996132290116423,1.1250463336539651,1.1621872645558111,1.146959804900046,1.1525832031867325,1.2651103284806027,1.1596263770437474,1.1978171717074986,1.2540207354812989,1.1768400997049244,1.1854705698123895
1.200520582765702,1.2323143471072033,1.2039369771365793,1.2101851612395458,1.1601447960501945,1.2572033512110583,1.1547885784762157,1.1869984587157527,1.1222877957710518,1.1422526591470128,1.1061292726496004,1.1016277572970745,1.1172029650487727,1.088695206741232,1.1013428517723598,1.1089859995516906,1.1076316362961303,1.116433319508274,1.113573951885287,1.1211035816254467,1.1480120961822555,1.1384903941597966,1.1659631473979577,1.1759265134834642,1.1905502496645588,1.1742478478426877,1.2865136048475008,1.1525921534240997,1.2418505374319184,1.2475395180912747,1.1511799173711441,1.191852224030427
1.2010757160168002,1.2201372187448476,1.1913603045597856,1.193404575637223,1.1500633418200683,1.1977511548880393,1.1446477530459713,1.2122249294824945,1.1051687122122673,1.1752219871114908,1.116605091355827,1.1048801173947933,1.0977648022203337,1.0931667349000453,1.1130503891354109,1.099652215364721,1.0957906631504082,1.098339016186575,1.0971938221816404,1.1125351584166916,1.1301695960579847,1.1118344365417157,1.1484006944828922,1.1631818182912483,1.163195940939375,1.1678789419185998,1.2838566225616397,1.1413956058534327,1.2390750296585316,1.2463458453354412,1.1413679370556509,1.1699064284495049
1.191059360676928,1.2060093666076694,1.180056707953183,1.1936852938520044,1.150306008934011,1.1792122306399857,1.1498863977060296,1.2095687963407908,1.0914467653137967,1.1761565386019397,1.0998841242860704,1.07483471027743,1.0870770737230997,1.0737593408745496,1.0962824688717323,1.0963434445821174,1.093374355637501,1.0933161818085189,1.0974073660694557,1.0973907100504985,1.100463370084731,1.092381818444331,1.1342124761756163,1.162870933224086,1.1537415796307215,1.1652080721601146,1.2623612359276444,1.1453714483029858,1.2164535190237256,1.2284941082503484,1.1421529789985967,1.1402287942445708
1.219670245659142,1.2368482682083533,1.217063603634121,1.2233570567644954,1.172731377744808,1.250316005215655,1.1513222764212994,1.1968123005230804,1.1365981340785045,1.1357787370935952,1.095632601797897,1.0944483362883812,1.1078477971951153,1.084319729894115,1.093199195667088,1.1039650716729146,1.1095352719150822,1.118008720252616,1.1179174731277832,1.1118757730589628,1.1111880056757966,1.1115951410769171,1.1170028433354047,1.1450657533458393,1.1267990159293377,1.1651644206252576,1.232863045324974,1.157001204979648,1.229486391022733,1.2138511700570223,1.1694990072340874,1.141235866368853
1.2074003402405193,1.255760658940869,1.2033348025356156,1.219055515762643,1.1572414313730135,1.1874705554609963,1.1301338303091593,1.1580463418363216,1.136954861126835,1.1316003251853788,1.1173905477371253,1.1250960637479033,1.107763111148857,1.119867417819514,1.1307314454071389,1.1144046345123046,1.1066677646548084,1.1149184302181137,1.101524477536796,1.1140276439107792,1.1301468956051017,1.0949218244125987,1.117675165298561,1.1500747441240107,1.1365524952204782,1.1776530343344416,1.2363856383396106,1.158048129581494,1.252462721130805,1.2266481208800668,1.1827100219631148,1.140485372698374
1.1770812294827933,1.2331616300914778,1.1971917603687239,1.2054639129236024,1.1953801255389602,1.1452573684540601,1.1146584991132116,1.1411749182626245,1.1570864261129075,1.1226871073208549,1.1056732217042835,1.109468421022338,1.1415169771482072,1.1190764843543006,1.1453297471709922,1.1289323043262196,1.088494131298192,1.0902334531631614,1.0704008097228082,1.0863713631786318,1.0907593733900862,1.0777958152192135,1.0864156986275693,1.115852143421353,1.1225158559736614,1.1430871346969236,1.208117181954332,1.1333137521111534,1.2240599790028184,1.247540871436638,1.1785463073207416,1.1109811707780555
1.2286436300983277,1.2596064222325325,1.21337815373811,1.2389908581965876,1.1699540595150977,1.186570482218307,1.094272720612071,1.1395072893005678,1.119665671046814,1.083135896082122,1.0505415389025374,1.0667807057206904,1.1139225548465719,1.0625174729075042,1.07047939969296,1.068172490987526,1.0465741000465862,1.0587910103265534,1.071522814519036,1.0510908914313777,1.0995969982991616,1.105664637868124,1.1395835259097986,1.1619051151536446,1.1384936735962905,1.1356497558678993,1.2480598773626743,1.1539739969819036,1.2413878025117249,1.2944449979888153,1.146058367769025,1.1065391164703686
1.201715319769158,1.2719238416309928,1.1728851368129047,1.2214489045081467,1.1548291179770518,1.1755581044661052,1.0793668080066476,1.1537455327067239,1.1487975872710658,1.0826583753471068,1.0635905809268842,1.0966352054372663,1.1444725821187915,1.0864356706757263,1.0941171137534382,1.094501959086674,1.0817941012381704,1.094170465601913,1.1094387655912492,1.1036200368848863,1.1451151296853126,1.1602680980657358,1.1672154526981566,1.207756795055702,1.164053235005488,1.1582141746426153,1.2520643413555912,1.1606890677360115,1.2624028673338785,1.281020285681038,1.1558738540255709,1.154462969922211
1.1622785332844245,1.2394466822120098,1.1344421420353956,1.17917330067,1.1819753674692817,1.1269124956744436,1.071133690247718,1.114698318246095,1.1825973993666348,1.089376944622586,1.0800215796621304,1.1230043429571566,1.1669496189045543,1.1197198676426416,1.1282429580424238,1.1406839078074071,1.1369237045387914,1.1408086762416416,1.1323833537976915,1.1117186895261348,1.1510675170983515,1.1516898051640114,1.1471834112640358,1.1488331314921245,1.1456037238354253,1.1586552388118618,1.2439589856359223,1.1700417648213635,1.3028791136989513,1.280514246864314,1.1583783496423798,1.1270109792793481
1.1810865720514006,1.2322343943096978,1.1915764965629583,1.1803242499797024,1.1825882623059094,1.1553464898387977,1.1017853329361276,1.1381546789266066,1.1699792223513834,1.1309331811209264,1.1070724467149389,1.1331554443718943,1.1678437596546396,1.136394311938476,1.1271869052321586,1.1337585501904757,1.1346018704099687,1.1638124928755549,1.1538851634542566,1.1283704680582003,1.1700757560040658,1.1763653515455046,1.1645133700392445,1.1620500870761512,1.1429573200688476,1.177559932361856,1.2738006794370091,1.2039504225869542,1.2789712054772027,1.2875377075637946,1.1602916101310659,1.16869360364127
1.2161082814737925,1.2390564393033434,1.2328282110766386,1.1593129766709216,1.1622000586199797,1.1262735372429942,1.1079933177691796,1.1650681351191066,1.145053218425714,1.142705116623622,1.1026561546211828,1.1179070016556922,1.1386290874460752,1.1004601993656393,1.0908545719104474,1.0969826181973712,1.0887433424571487,1.1085440189681024,1.1170529111631118,1.1045528632909567,1.1368274930734732,1.1411812620355566,1.136846135983874,1.1665283333380483,1.1437613546358962,1.1632189835399553,1.2167304101190057,1.171736011301905,1.2112630869023133,1.2211729720221538,1.1580816113052872,1.1522159382349744
1.197181681870161,1.1920662156105448,1.197072604103149,1.1358767561716858,1.143844950916612,1.1217242396481422,1.0866201762530288,1.1298078097118371,1.1125157620306036,1.109149837390531,1.1137061679502982,1.093498328093908,1.1053868343769266,1.085739744869057,1.088712257511734,1.092798126688081,1.0880951315427851,1.1011816996211354,1.1107098577724555,1.0997057629231495,1.1378962035902853,1.1150509764123675,1.1145549683072054,1.1286541430534909,1.1344783847006195,1.1393936535939386,1.1775681530597708,1.1453028473540632,1.2493373258292635,1.2314333275194433,1.128880549856874,1.1082751922210357
1.132498829573477,1.1626645187009697,1.1666558689861481,1.1053861774908806,1.1057374188970575,1.0786598532567764,1.043244090943132,1.0936173477440019,1.0661640471205216,1.0807663942917751,1.0805488575289357,1.0526714591009987,1.0545701267328613,1.051888428654422,1.0644627988218134,1.0529913753152624,1.0478504643700575,1.0601494090107109,1.0634768874771936,1.0592469262613526,1.077275540937176,1.077512959575757,1.0997165862003841,1.1055109400808847,1.118814787341553,1.1421740512701015,1.2052954569991585,1.1195185791518447,1.2905679850974208,1.241450671460756,1.0845884415563167,1.111107249287507
1.1688885828470836,1.2109552637463967,1.1676524285065537,1.1524403651671418,1.1043151111925396,1.0869539908053185,1.083093871932441,1.1216398438621658,1.0656438164297943,1.1400631847164464,1.092952511766561,1.0628779654733007,1.0537548258568774,1.0528210129851365,1.0761949914220355,1.053740966750431,1.0467122434122051,1.05013834310584,1.0459608810939751,1.0508036361124395,1.0605625339461293,1.0574900326037429,1.10417575784194,1.1357883208300814,1.1272551679012108,1.155267211082059,1.2078898818771473,1.1445769140586013,1.291374426751292,1.2320849025105,1.101779634880745,1.1297848143379057
1.1823013369431792,1.22197758645646,1.1571471594365714,1.1855389835007126,1.1041897933959055,1.1212713227016566,1.1081205159273302,1.1277575718015767,1.0920487481356091,1.1024777871942755,1.0698554136953042,1.0535992913764987,1.0821814580856701,1.0527297684832146,1.079891174148658,1.0748179098522612,1.0721085431425297,1.082368412945258,1.0706483296243932,1.0974667291992668,1.1132218555504252,1.0705744282238443,1.1246802647035574,1.1580282141170126,1.132241497127262,1.1425540425381815,1.246942850101943,1.1389950134366722,1.285291578877439,1.2521409256852272,1.1095663239308982,1.1201551690384235
1.1624072947937436,1.2447579208879884,1.1437621569974636,1.1565610721883497,1.132441140429097,1.1124012157410132,1.0602727659250013,1.1186074553030247,1.077774310220075,1.0736293480278025,1.0655185351192205,1.0531115859911895,1.070396048715483,1.0578812595243245,1.0804438046905034,1.0807089329136972,1.0873309067850179,1.0908817271165672,1.0896455135093808,1.1048098095344145,1.1200546899166535,1.0933564144679588,1.1208577224557772,1.1118510441878875,1.1247872105326693,1.157321695948732,1.237815158142806,1.1383188904010202,1.2518814463550951,1.2626816943025396,1.1214492809863663,1.1354073786484078
1.169782191313185,1.2417213437072376,1.1868632570484439,1.1983877746586586,1.14420170093494,1.1448263134806969,1.0972037505730714,1.1031268743345017,1.0650051309548316,1.092615931651508,1.0664956731009079,1.0626107407436691,1.063485311338864,1.0541698190862288,1.0642443100689005,1.0625221133673672,1.0698073334065403,1.0616014532659672,1.0681360376391789,1.0734490181740524,1.0926104037369853,1.0753493994401464,1.0845602284990141,1.1088176654702018,1.1174545651491308,1.1277025597317378,1.2237833403156229,1.149987390709782,1.2537265276048757,1.2097364002147764,1.1268549278232123,1.1082920405475716
1.2118485714969405,1.2148332988287052,1.2232474435788336,1.195753817984578,1.135863774724672,1.1907567213634072,1.1522110144280733,1.1310141347081597,1.0985716037802034,1.1185365366864006,1.0926554149821333,1.0760620583672469,1.0892252176668582,1.0746186795274728,1.089642031801311,1.0858603384058638,1.0903606475960614,1.076942403866611,1.0878055777071107,1.1067705881816654,1.092698483648978,1.072788385221856,1.0941515930909602,1.1654732257945217,1.1544944117851268,1.177548560009227,1.2469503504207198,1.176072749976708,1.2757306977798004,1.2212850900944587,1.1475526612980524,1.134802515408945
1.2068632717499097,1.2144776558980421,1.2085316382882731,1.173258578156115,1.1484201346904093,1.1867512311886477,1.1279015873297626,1.1393555161428854,1.129538632413227,1.115251599388095,1.1008900098354883,1.099426487906036,1.1216807697306312,1.0931730976682157,1.1057006412114003,1.1133924132995923,1.114383342344035,1.1145294136947541,1.1238546587667617,1.1130712845067667,1.1220637245395673,1.1028528465678915,1.0845157469298154,1.182728873456532,1.150198255884207,1.1509575453625926,1.2286537816570517,1.1878432094382738,1.260792946883881,1.2581175483453706,1.1583026358350628,1.1322947912242636
1.184291426857458,1.2368355942334686,1.212299325041361,1.1795842033565982,1.157969568167979,1.1900750761477656,1.1132718261528494,1.1009128284488714,1.1408843317569182,1.0967090527970311,1.0804912320373294,1.090335484849763,1.1364255653424098,1.0914474979383864,1.0828733151310843,1.109053708319945,1.1018961794101043,1.1047801090615896,1.1003707030122512,1.1015741832117119,1.0960109200198986,1.105109918340723,1.077684874729251,1.1509938134187416,1.1102703618610372,1.1280610588387607,1.2071091358389525,1.1741579733574277,1.2150029978421262,1.2347525750523034,1.1505464854411098,1.1181619317476283
1.1745977903883957,1.228430123062742,1.1715750920402859,1.180476683466683,1.1641862688519702,1.1849523322814406,1.12787337723797,1.1558305971193545,1.120605425028677,1.1480950196933188,1.1277767426536647,1.1156704111270603,1.0960361112356583,1.1311970933270312,1.1473820568062745,1.1156807411542229,1.0934624834422095,1.079313337471023,1.0638162843214463,1.1017961088442263,1.0820056445861905,1.075419388252999,1.0993735638664566,1.1691982659156555,1.1315678553463873,1.1738386336293594,1.2588722279286093,1.1763848015336449,1.2369982186380013,1.2207991362918,1.190588161793121,1.1607006871687677
1.1571995776919763,1.1987233895323182,1.1806386512814238,1.1811594050809116,1.1375241296134007,1.1551871623606782,1.109912791576865,1.1374635764182999,1.1029446641132266,1.1385810811480939,1.1028583877693456,1.102974278038231,1.0632655997827543,1.0920975567291826,1.1064934177772277,1.067779687952053,1.0559335180319924,1.0503978075447167,1.0503250002203737,1.0811771884298302,1.088000430582703,1.0467395040449299,1.1260730741455198,1.1988340161875322,1.15915757701022,1.1942342795085479,1.237685590235854,1.151121532618195,1.249498653181934,1.1982407053013027,1.1639940987156405,1.112320945141231
1.2018923075303356,1.1956732390842477,1.2072305752846848,1.1715234378484574,1.1360998242619318,1.1622721259140258,1.1082522557175047,1.1372732821101146,1.121201827979106,1.10705369385727,1.0668572881899154,1.0919487119543303,1.087839291841996,1.0726822857340914,1.07546787352374,1.0638478949997643,1.0744689409809767,1.070103195183667,1.07526899783395,1.0983188734443101,1.1131157907750344,1.0667744549262985,1.1510177894659548,1.1484179547568152,1.1297519988925804,1.1780305399404736,1.240576819846421,1.1769232560778056,1.2922370236329075,1.2220762384433246,1.1346924157709983,1.1526974720362697
1.1746242999220888,1.1724087538722356,1.1418661692789491,1.1577912406862807,1.1569510975676633,1.1313286380107617,1.0941553938752702,1.1677462524671294,1.1481595804260332,1.098904805222438,1.0864585334182832,1.112997025701402,1.1578935324159607,1.0978723695585793,1.0906134784645665,1.102863783289449,1.1044483038687614,1.1257487481363697,1.125443755247546,1.0930282215422884,1.1322432278570094,1.1434347685164519,1.1381371831560971,1.1221564248063884,1.12064781578997,1.1749064218468348,1.2295147034949754,1.15253676401255,1.3143666891261045,1.2127523823277082,1.14255651202824,1.2139243586230726
1.1809546185817206,1.174143393580935,1.1422588123743593,1.179404023683737,1.1521029225683919,1.1394917964052322,1.1056444800626837,1.1682911010995816,1.1469452143003875,1.1287180537222121,1.1418956285315995,1.1396724571577026,1.1489290240564376,1.1232798633101646,1.1523601457718804,1.1396366612220517,1.1413921877239142,1.143190382765011,1.1235234814118196,1.111201718719673,1.1171912002693096,1.1291542749418857,1.1313273317047288,1.1270354510129499,1.1271963919999093,1.1371227412990204,1.2299956847098623,1.1790198203492697,1.271855779148107,1.2243336490347598,1.1354456288345265,1.2013834989467504
1.1758997721412956,1.2193970221545736,1.1763407485318875,1.1665443040863368,1.1387725292612454,1.1616045026270367,1.1323889437099977,1.1887789115388825,1.1382713634340642,1.1426933501494434,1.1590700351977752,1.1343062000622568,1.1446254208320534,1.1272093179137455,1.1440539187837795,1.1428168314616778,1.1504700468369553,1.1475108607174027,1.1409616306145738,1.1377007882436392,1.1348953595192603,1.1372099619676637,1.1596411781998262,1.1530841295672285,1.1564734294839178,1.1505072228875854,1.255409857060522,1.1834331742321553,1.2108575646271298,1.2333188190898554,1.1449886418154729,1.147980806825433
1.1878221457132763,1.2443321473949263,1.1827309977080056,1.1485048934958164,1.115226188124079,1.1410832530821415,1.1052183711832162,1.1737402959537582,1.1476175559291322,1.1181487682243474,1.1212138068266195,1.1290404249994237,1.142423701436974,1.123975031749303,1.1163974881463279,1.1344804369610535,1.1262749601851942,1.1297497729989474,1.1189095615787876,1.116918385347264,1.1251786272234203,1.1273744645228405,1.1324695458838012,1.144777503606902,1.1258271464006944,1.1453670557458673,1.2652748888552743,1.1558312617093602,1.2357896951716736,1.218432452100678,1.1323302391911383,1.1320485533495483
1.200730196186548,1.2592435046370067,1.2051346095522484,1.1798293689055506,1.1252362057742078,1.1420108109790992,1.1096847698898114,1.1653859977873404,1.1405093431443492,1.156575164921879,1.1322337958419237,1.1330369409753749,1.1264955183371674,1.1419339642015984,1.1426122737525006,1.155280025713122,1.14851078300503,1.1321075951510369,1.1089678208711022,1.1072652488551633,1.124980201159978,1.1128150625237776,1.1175695154566472,1.1372826934743276,1.1080418294173242,1.1246914360655138,1.2839070093158635,1.161541935645687,1.1969445523671465,1.241513896402817,1.1334047396804154,1.129466575964398
1.1860242636992016,1.2357030861731209,1.2278510385459682,1.20515496226553,1.1359385946518141,1.118609901787291,1.1029231753263622,1.1339640156633572,1.135151908894474,1.133500594313485,1.109724262218897,1.091511085555718,1.134800132449141,1.100764491649905,1.1037323399153334,1.1254936549248784,1.1264236930436298,1.1224358964860346,1.108912757093766,1.097455221071744,1.1127925850297253,1.1156033727024952,1.1101400865080555,1.1213910876556805,1.1178033169431516,1.1521450495673977,1.260487836612216,1.1554522834821814,1.208469415038835,1.2765239967963145,1.151400072323196,1.136533014851715
1.187775299063542,1.2096716318027119,1.2000154065778137,1.1724606957765458,1.117788675610682,1.1239723476280583,1.1020536276609154,1.1032322593128232,1.1021969744196307,1.1036117757536619,1.080304168405526,1.0710550849044875,1.098973356983575,1.0568226674940098,1.0830473842688175,1.1125413776557842,1.1335489820545834,1.1245329548931589,1.1184168198593158,1.1162299837991891,1.1200272601166787,1.1184788742912732,1.098031826483042,1.1264686370186545,1.093336800695621,1.1200520875968292,1.2332880949626344,1.1263105306625718,1.2079500600445232,1.2404187086178369,1.110167733143905,1.0972117047867735
1.164466332424348,1.1629927954851744,1.1343695870355963,1.1293671374916403,1.1163297214132857,1.1360935240046584,1.1061845872612586,1.1256117825331333,1.0813524940668164,1.1056971723365128,1.0868966459028138,1.0750188671524425,1.1025156279196278,1.0649744577182083,1.1056576343873923,1.1145958317139215,1.129119298454051,1.1462535617198264,1.1410077050755785,1.1153678627936907,1.1193162407424337,1.134204370225186,1.1223801505386781,1.1300458287185056,1.0859986663940502,1.1127124774126533,1.1978963082469913,1.1115785314578683,1.203004628907654,1.245422489968086,1.0935331683930227,1.135330395823889
1.1734952674725878,1.2043366486120484,1.186471148283811,1.167131654986852,1.1206033778103983,1.1388254321450477,1.1078092195187543,1.139246606190363,1.0909142028867436,1.1361978233616299,1.1021918364361294,1.1014108377533838,1.1043893119140116,1.0894504110994545,1.1131984650865576,1.104685608430542,1.1016575790440857,1.111939209992899,1.10298928721483,1.0914365390855802,1.0989328304222516,1.0986035931430205,1.1160255281574791,1.115626464918379,1.1047936830658271,1.1295554122690754,1.2023659121078776,1.1554732563550003,1.2403435928570137,1.3092913196506566,1.1160313555043335,1.1298333781901158
1.2208529494343578,1.2465416818544097,1.2339009801868916,1.2257559819987462,1.136876951471629,1.1659692428589972,1.1159417196676709,1.1161841100318273,1.1043034056663423,1.116894015630162,1.1002033069723651,1.100330914163092,1.0966318640057442,1.0923149610235543,1.109035069891225,1.0931469957872653,1.089851936355238,1.0826784859197154,1.0763280335974648,1.0906297955335242,1.1035378061226437,1.081302494730635,1.1243826782344057,1.1306023028592431,1.1383902385275084,1.1876360521516505,1.2375245106349446,1.190393923070136,1.226976899930774,1.334405296875783,1.154191772735775,1.1084290686534626
1.1706114785353567,1.2187048752340937,1.224440131983491,1.1831422161163374,1.151125102417855,1.155155947217742,1.119136462754701,1.1179354624653581,1.0849893244438196,1.101689266325758,1.092249383823354,1.0740445914488144,1.097287077271648,1.0771686209492028,1.098059769254567,1.087539396614255,1.0989924259011665,1.0927438003873127,1.098565093028009,1.108713363972768,1.1345208484326128,1.1124370389511562,1.1601222949327394,1.1344618004882043,1.1608152163461931,1.1765172889341418,1.2510432414010457,1.1666655635446574,1.2036131093720661,1.2595214112491453,1.1396174377391937,1.1074436971745778
1.19886550816034,1.204479042480066,1.2292842493943201,1.1424672326931455,1.134714757535811,1.1418688867821496,1.0909379631916294,1.1241068260913063,1.1135112266542222,1.1011403285929338,1.1142484101665835,1.0966341610420949,1.113627408284201,1.0984842921371964,1.1244455482001008,1.1007022376080255,1.1043346050501375,1.0976949215228737,1.1018819516700729,1.1067952753153856,1.1286125586530305,1.134361863186785,1.1316521819951155,1.114818111428586,1.145349205848696,1.1590882393946662,1.2486227311981353,1.1644153929090166,1.2176019959842508,1.2158069882835083,1.1401533410117122,1.1315873049665295
1.1922990587522695,1.252650996451069,1.1793702417354062,1.1631881214628248,1.1722470416114827,1.126279364940248,1.0697507383640097,1.0947222064766848,1.1601810252487241,1.0757015474030505,1.0989805054042727,1.0981093156820334,1.1438806321809376,1.1251861902520963,1.1407961996199276,1.1229906537082317,1.1223879387920481,1.119400957194394,1.1063531480345632,1.1139299993048102,1.1268703027705398,1.1041816691001816,1.1133521911565791,1.1154050623465543,1.1243060414719162,1.144536388514224,1.2159510918231144,1.1623206146426606,1.229000241485168,1.2155556810450723,1.129021992181684,1.117961173318157
1.1765835079605744,1.242661519183734,1.1853500272145991,1.1927546509411286,1.1964571873829772,1.1332555312808357,1.0735525325844955,1.0803124442510217,1.1412988495783736,1.077301333652871,1.092534995113121,1.0981036023637392,1.1085607051295894,1.1216490522568487,1.1392886988206052,1.109077672316539,1.1050638261700103,1.094293662193092,1.0946112266428976,1.1112351205206428,1.1043769123946228,1.0815720551967414,1.0927983406894746,1.1099085183647353,1.1179162181796098,1.129984748238127,1.226000166792982,1.1521597959512004,1.2575717473354522,1.253775255821463,1.1265837857603591,1.1135643389011118
1.197341871748375,1.2001249846575965,1.2280613074609812,1.1796776461113083,1.172658043890931,1.1744626612119247,1.1378612452424788,1.1347907047989017,1.1499921899571768,1.134793957116838,1.1372829668033453,1.1361329847231425,1.1209428055869655,1.1594709366222062,1.1614778602565987,1.1392288220740434,1.120493039714798,1.126924368958855,1.126154037348857,1.1206910354173651,1.1289993461969288,1.1249768082289837,1.137987448253821,1.1338026726991766,1.1490816089430436,1.162560523921736,1.2394518278781435,1.1936297599973154,1.2472373732005415,1.2613579067065805,1.150252873282953,1.1574666021656437
1.2121460770574817,1.176114677879112,1.1672963815511517,1.143026431469035,1.1442641059144347,1.1064417115034764,1.0828233165740098,1.1304660518738208,1.105466226993813,1.1024378248284228,1.0912092710271435,1.0750764820078678,1.0849010484177557,1.0803963894830566,1.0946360949168799,1.1000039746594708,1.0935691341686153,1.103044010153517,1.1021304401671204,1.1054121381618875,1.1203917930177416,1.0898484883345179,1.1233105609336689,1.13184423001709,1.1522265271595256,1.1618349833981572,1.2403865536241643,1.205823353162848,1.1979445909745023,1.2346309456488482,1.1416392929161556,1.1389250237199373
1.166542746063276,1.168465189466452,1.1703339052920325,1.1671496799791765,1.114173603061452,1.0971319987715005,1.1018262299411234,1.1438216378927037,1.094222094018611,1.1102762738446161,1.0818782375355622,1.066493935430778,1.085681372456615,1.0631652564157732,1.0768885268020234,1.0692617434803033,1.0578052079423423,1.0605026113863318,1.079792742257735,1.0792629750438547,1.0970098638108536,1.0743855747409503,1.0998121870469275,1.1284358514563546,1.1529386867075984,1.144531389516686,1.2632204791333252,1.1707597971820418,1.2343577177572786,1.234548359832468,1.1400528910014491,1.1078832940427217
1.1737015648227735,1.1712621560943612,1.1919690946903188,1.2128072675081112,1.1278009327595013,1.1396210626596535,1.1461325670706703,1.1547749300708767,1.1112609567626741,1.1312515508795902,1.1142818416713187,1.0984480713027784,1.1192596453935402,1.1048536055478526,1.1138019057394342,1.1071052143103157,1.0957273838523662,1.109453300521863,1.102505999823938,1.101129914978496,1.1203120036573957,1.0897300905721443,1.1077214249267897,1.129113596089947,1.1338622802427174,1.1429235321433768,1.2631723092985443,1.1638149543363243,1.2816782981334591,1.2498514671498555,1.1390512848394854,1.130636918177662
1.21193302241075,1.1875937812768633,1.1868681193574022,1.1782132080188141,1.1552521149869568,1.1417760093182159,1.1344935127247833,1.1243029741034474,1.1221717136620002,1.1389097045289478,1.138751955624252,1.1244321236230441,1.1105291385346456,1.116705151006394,1.1283127814020772,1.1202768249098336,1.1301990071425088,1.1182347597764866,1.1221455325458183,1.139868915462631,1.1355880981037312,1.102039016816048,1.1473233246420003,1.144105444046257,1.169184391863093,1.2051750008197912,1.2471798808247099,1.1826177256842227,1.2549829438519748,1.234022864715138,1.1833212718226755,1.1399367354555823
1.1673150090361617,1.1727997661318783,1.172417531948143,1.1396239912544108,1.1128802711813723,1.1122845518994176,1.0980633431781033,1.115162847566225,1.0967422755032818,1.1341575850017016,1.1282956509158462,1.0972106001559718,1.106748670359844,1.1045490134019507,1.1369198574613644,1.1226253026655,1.1137489349561671,1.105763503246934,1.108476250724795,1.109417659363566,1.099112910472242,1.0970829306966963,1.1091320382926586,1.1073235096064666,1.099444509650363,1.1484733706052976,1.1832697798204626,1.1527515117879015,1.1961974739480064,1.2070301447169471,1.1228609315561235,1.1051175300655156
1.1594522486660355,1.1752675341846814,1.1897836828303459,1.1391044564222554,1.1323344986256976,1.1352025946219908,1.0986374775421068,1.1410120220033662,1.1277989155550934,1.1420462491220567,1.1243348393569104,1.1077143376803271,1.121132400412877,1.121435426022744,1.1496341737482434,1.1235421684722748,1.1077721227072912,1.0935899596699334,1.0924680693961584,1.0894714443520315,1.09171846627283,1.0896677690978835,1.1106660815777236,1.1023670328962467,1.086410477328245,1.13175177317019,1.1980828966226063,1.1548525512334173,1.2357323249854253,1.1830521251773958,1.134063598211355,1.1352654450650408
1.2125859518563178,1.205058034935093,1.218520460253499,1.1692901856281024,1.141710241230776,1.159619364354908,1.1223614243559457,1.1503403894141102,1.1312758579807574,1.144439826974625,1.1293923132815722,1.133235349535841,1.1027377250467028,1.1375079664074859,1.1470006858212625,1.132079352418485,1.1186525932766107,1.0917227762226305,1.0838474504578854,1.1052657376977906,1.1044675234725692,1.0841100422576102,1.125055521818062,1.1513214179026576,1.1254273704942768,1.14238339057806,1.2862249718152947,1.1545171760518567,1.2418134246849037,1.1979787930883465,1.154638478956123,1.1224813121644022
1.1783682238694473,1.1642244232164067,1.179763090093908,1.1709649261536108,1.1022172317346388,1.1271207157347407,1.0804593823186486,1.118876798914623,1.0898119705438853,1.0796320362235834,1.0750362802131355,1.0693314970073873,1.1125969018445967,1.064199410737682,1.0780621111194402,1.0886235423025663,1.0973264426486327,1.0994724733444714,1.1028431437974997,1.1306497834468234,1.149965088887936,1.1024309125110374,1.1179679350368683,1.1823860922635212,1.1198618279154124,1.107361512713497,1.2675076015531281,1.1410019974420824,1.2734500362223897,1.2438032151096068,1.1012328371229807,1.1094871491894622
1.1494137497455597,1.1729595988159531,1.1494218721072007,1.1895853108101937,1.1123291766056131,1.1280857134033155,1.0627845506579554,1.1282082702692955,1.0961110493841413,1.0700732120264105,1.0670823434590808,1.0772763971059434,1.1512507162436274,1.0760463658120611,1.0909840797686507,1.1011773147495736,1.1009895844683277,1.1151071857635715,1.0966660472137166,1.0886868919828667,1.1114076784660045,1.102636591149187,1.0974634100287999,1.1131264269473546,1.08455487685102,1.122234272337921,1.2310280090206422,1.1147735630262654,1.2484000804035875,1.28152172089972,1.1108352072326895,1.1246304934014157
1.1877075654835594,1.2119003012208907,1.2132984581919786,1.190243153924902,1.1527546767263823,1.130904030654813,1.0926303288479815,1.124539687956059,1.1186498184095697,1.1393756673274287,1.116724653763936,1.133969095392846,1.1529992310117025,1.1341368644433552,1.1328168368256823,1.119879790137528,1.1096166769570597,1.119654798465378,1.0960492973272458,1.0726986876259026,1.0789678794233306,1.1004095706638866,1.0942239409469363,1.100739953001159,1.1015872056632723,1.1481395609899425,1.249431021254591,1.1550957211742006,1.195264754913118,1.292658585943755,1.1516129581186458,1.1233351470994357
1.1895730624132703,1.2321235336646172,1.260767801208809,1.183321044166771,1.1545303294407576,1.1773127203026033,1.1145116569575926,1.1429677072524789,1.1419424226239305,1.1401863771642091,1.1224917278039395,1.1396428208132496,1.1443837113635822,1.125522134974519,1.1188696661314927,1.1218049952440141,1.1206999051297908,1.1370689716418465,1.1204504778394118,1.1016678269801377,1.1104625247878972,1.1292480777417853,1.134496990493639,1.1420249609092268,1.1347024725748722,1.175285021463403,1.239774193500648,1.1383769503747965,1.229341745541889,1.2686182912781034,1.1588305468504136,1.131332254802631
1.2050214413952862,1.214664547781789,1.260772861633213,1.1607756486675038,1.1169994382087882,1.2070448911501606,1.1148380110187048,1.1538937433551422,1.124149097250052,1.1089987199761862,1.0944753660860005,1.10808441603789,1.1172276964051382,1.0926395852242343,1.0886203262926109,1.0756102980294735,1.0707230331554218,1.1012461448787523,1.1111459480756785,1.1088451773491423,1.1273850129623015,1.1247462460965005,1.1281705026795208,1.150972025340392,1.12648498973687,1.1485279141482632,1.2561371761314204,1.1682461305262402,1.2156782082858302,1.2165349581849905,1.1263982102212549,1.1113808859123802
1.1940040084799288,1.2226330318760525,1.220676176116427,1.172008775980157,1.153761517014557,1.1562350516750248,1.0857527428993854,1.1151711204118169,1.1498394179738516,1.1224871045683975,1.0928099888821485,1.1134002283911724,1.1204365067696622,1.1170505768808665,1.0965664285241106,1.0807047223770359,1.0771515365988709,1.0899209736681201,1.1057065723490669,1.0912078866720745,1.127070815861067,1.1261372517697077,1.1423997192974835,1.1449378312591039,1.1448936849902116,1.1598354270659836,1.303168618858134,1.2269791809999773,1.2291351741677354,1.292012815781165,1.179271478629357,1.1414107377121772
1.161887562594834,1.2381193438050462,1.1894584886457091,1.1962350554447208,1.190442943609465,1.139305990808658,1.1012296680393248,1.1145956189405273,1.1242413345146884,1.1094567031296938,1.094872229978502,1.1224160534667649,1.1002784083051231,1.1082976816461507,1.1043612801669491,1.096863382368541,1.106218259427325,1.1008213382229537,1.0938868850900911,1.1015015712331235,1.1098350150715448,1.0982824396043713,1.1427827421855437,1.1683641272682874,1.173246088410485,1.2074765149568587,1.2938812576978538,1.2149029029068483,1.2437855587848188,1.3194505040054576,1.2082000411910852,1.1649619591133202
1.2026567766894811,1.195684172135824,1.2296115460987196,1.1522092734900389,1.1176832150849818,1.1466769074922747,1.1330536854536335,1.1264241316236656,1.0931646326912814,1.1115077251493795,1.118190969116165,1.1283552605244096,1.1007962476922983,1.1001023022455234,1.1109843327845779,1.1135364969329264,1.1079978613408343,1.0983701609697558,1.0978636495439493,1.1127112696346086,1.1237685127457282,1.0943907457104973,1.1299983421349684,1.1715102446524286,1.1739564750971412,1.1532179395138764,1.2710215693431073,1.163181814906594,1.272192148952713,1.263489284877192,1.1284507283464584,1.141135977029256
1.2012841542220578,1.1878700078764743,1.177067446622056,1.1467020241504158,1.132058468122291,1.1396241156152345,1.1188069423599187,1.1358090964933025,1.1302445470214117,1.1282379480725424,1.111350297592387,1.1192426081874915,1.117825620845094,1.105760497185107,1.1085120706926064,1.1153926117678261,1.0896351290431094,1.1004969848789266,1.0929681472285873,1.0912025361540476,1.1024323783177856,1.0988699246603495,1.1185315092754182,1.13672479611825,1.1812833581825548,1.1699518042583852,1.295960144534158,1.167156189384746,1.2881931730569718,1.2805248876785562,1.1386614606904935,1.135842891261265
1.2089506690760532,1.2021589946372118,1.1746716842291178,1.1639026068018015,1.1390912085359306,1.1957297202654038,1.1144739479057466,1.1442328744624617,1.1466301708802094,1.1473469527363718,1.1045078466267075,1.0967973035221006,1.1207173993511328,1.1054632064909582,1.1299953285978528,1.1067228503681805,1.0972131875214053,1.101194674552868,1.0979708604271035,1.0850840929722911,1.096866153641746,1.0992886749769815,1.1161490526304592,1.1086702998107039,1.1393517173048453,1.1396243944293425,1.3143813311698533,1.1884885959015126,1.2475234855669997,1.2801695168944296,1.1281343001339421,1.124906658522206
1.2191700744784821,1.2069891920889697,1.2267679844393617,1.1653439436774171,1.111731692734735,1.2113766630769462,1.154563677173095,1.154309920344121,1.135961002325954,1.163028170996221,1.1619183312407941,1.1256667504851905,1.1165357348262486,1.1471762565696713,1.1753154947406215,1.1310467010838645,1.1078406191381553,1.1065439480600168,1.095701667908222,1.0864781254534843,1.0949139629984639,1.1051538906955987,1.1105413078879063,1.1024783999951608,1.1039836533439888,1.12671646582158,1.2900171538972094,1.197551288911774,1.2408684742554141,1.306962112297401,1.1232059520153743,1.1425526231157503
1.2125427855892617,1.22138021736816,1.2123109571068817,1.16992084761968,1.1223962405384185,1.1534060890089926,1.125042520198698,1.1086002292148243,1.1199578730080064,1.1082436909248612,1.128574742377224,1.1114126737771144,1.1493143983560032,1.1264623600867858,1.1364722214906333,1.1434722013594316,1.1223540275539665,1.134268805045135,1.0988824332544003,1.1019546916657978,1.112543408439602,1.1143755160921345,1.1295889599089242,1.142121887144659,1.1393262536724982,1.1618778339779248,1.2922331555502165,1.1748976066989654,1.3039066642066408,1.24386159734212,1.1382383684922535,1.1258912254959768
1.214264356688422,1.2303043991896478,1.2437297190155985,1.2095747420322054,1.186334252008141,1.1923207326092204,1.1488703328489493,1.1440886944432376,1.1749903940009219,1.1435081081149852,1.1371991995694966,1.134037077688279,1.1637592774417957,1.149722020439758,1.1478423412446859,1.1734650528824664,1.1715911240413008,1.169648041544392,1.1455100278814447,1.1466085216868434,1.1600329669736253,1.1511778227848062,1.1658904585226952,1.187663266298561,1.1769660188041746,1.1669827401884443,1.2800119581579927,1.1989717911609505,1.2729251204488314,1.2108011922280444,1.1582819885990479,1.169019084560124
1.1896978087631092,1.2201210415412491,1.2020385945190075,1.1665900804996059,1.1621939651470041,1.1441604826475813,1.0932495159655684,1.1455776647485012,1.1690734485095549,1.1181221777093213,1.0817150562369808,1.1332614370084455,1.1304007889826742,1.1099445959829786,1.1069898512999174,1.122382656753675,1.1242331973643187,1.1169203213726295,1.132043875858765,1.117797101627541,1.1583561219907827,1.1590495685334186,1.1756777652820818,1.1712109768292636,1.1613381673263574,1.1978206957278983,1.22946342807721,1.1767694930954895,1.2043088741866796,1.2043012952164103,1.1720477971735068,1.1987494402457177
1.1573194448375048,1.193546461994214,1.1625165101907096,1.1379912088141209,1.1269603999961155,1.111015368350276,1.0533038360530365,1.1066401091381466,1.129817414478187,1.082566668922898,1.047170198305283,1.10201669694402,1.1013292224116935,1.07927739193889,1.0767355300927635,1.0826470709396203,1.0793024270799363,1.084287470763185,1.0787406056959503,1.074039740479436,1.111539400828925,1.110260415605426,1.1565349343635098,1.1395789869124024,1.1381449079374155,1.169657856224364,1.2559283096450924,1.1546352030242348,1.2311686915402178,1.208927565754178,1.132962675350383,1.155682346488
1.195522580113561,1.264498830038478,1.2080441996659164,1.212738958642817,1.1443729264224511,1.1649251783045873,1.0983495948836748,1.123861538348045,1.0843252730565835,1.0955417012060746,1.078004814819487,1.0926053572464385,1.082837645718399,1.0857153766374281,1.0901190338437459,1.0894167407382378,1.0725402696634943,1.078071229072522,1.0767797414725095,1.082230437506322,1.1024293064064987,1.0874173225095947,1.1340349259046703,1.1508478190761804,1.140454174165839,1.171691537959719,1.2421296574003717,1.1899382856335703,1.2817587967289708,1.2341184688121847,1.1557958316190313,1.1517032821447424
1.1748066241306145,1.260974542538662,1.173695734262118,1.2474320828353547,1.175296141042469,1.1643031419355683,1.1049067853725822,1.0877796962269741,1.096954243412228,1.0919070692902186,1.0946885041920202,1.0958555472560947,1.0890067982197802,1.101671654614605,1.1111794811942541,1.1130073911867424,1.1031403730667102,1.0990000864366156,1.0977486120560505,1.102982432662374,1.1121912043420417,1.0852502503754193,1.1396200884626797,1.147106643298922,1.1758805191623354,1.2017172744485496,1.2637741684264416,1.1667519480009312,1.281886281071932,1.2245416548032868,1.1894096275020154,1.134747463511098
1.1651090693289365,1.2140613910970592,1.1668328632897504,1.2214526970065687,1.1794531802983326,1.1569021370825983,1.1170566422534747,1.08175739394063,1.1712082051981505,1.1061749666392497,1.0958604775940657,1.113168485838438,1.1269178671604072,1.0941693403349129,1.100678605498544,1.0997886691250107,1.0946642218977714,1.0882504494153815,1.0849085223887922,1.0956716417693482,1.0886706376926987,1.1060323474495592,1.1207418082706204,1.1181103929481135,1.1306995061982883,1.161942174298438,1.2551668697850953,1.1460111042213903,1.217609609099249,1.2131086927279762,1.1717287663154605,1.1025150044791383
1.1801276158384668,1.2158897981491914,1.1739869665682658,1.1457950619745647,1.133546914448294,1.1413116686933318,1.1103213124879834,1.117100575086587,1.113295144292886,1.1383528981520337,1.1088539289805845,1.107783388186881,1.110977320455424,1.0913244396743491,1.0981323987461462,1.1012569792438012,1.0884986215605736,1.081173298133572,1.0844762640564374,1.0912275405045282,1.0896335073238073,1.1038644706231442,1.124841489102853,1.1237311436918265,1.1440061006228968,1.177334621076928,1.2311951636488412,1.1624026956659947,1.2249898790550235,1.2481963030720966,1.160048511362645,1.124695509744506
1.192170867877496,1.2373472984633724,1.1907671420260013,1.1422565145821897,1.1226272116540106,1.15926085338126,1.119291848512638,1.1270731574251183,1.0909260184349907,1.1319969743240954,1.107843018384122,1.0973155028915884,1.0955566550861406,1.0921010225621939,1.115551290718947,1.1249355179684477,1.1198321602685029,1.111813756527396,1.1145182781624954,1.1281664855665772,1.1295390672115018,1.1173216969912934,1.1508627821157988,1.1765772708800486,1.175930650628612,1.1621203994757607,1.2818148701290493,1.1625457191840505,1.2796421365109638,1.227213568134712,1.1390274708682644,1.1270539118435292
1.144254280509084,1.1885740719422095,1.1590342364331392,1.1229779797684503,1.0850673564902305,1.1350507979817335,1.0741383848400334,1.090625324093238,1.0554454282492884,1.071589079210288,1.0441305969545314,1.0512771780940906,1.0526825112903286,1.0490345513547323,1.0520764883487883,1.051427720012941,1.0621389742167948,1.0660323429079923,1.0826344751503956,1.0796490556948164,1.1147959220927668,1.0861512682102232,1.129295371570135,1.1377638542921105,1.1165941991555992,1.1308069239327685,1.2347449782394633,1.1202000522905549,1.2186787688327387,1.2034781130065066,1.0961793813005432,1.1076968824382862
1.1110851147737366,1.153804011544413,1.1260654455420005,1.1230842582985703,1.0624005901602065,1.1105639564994467,1.0604417038045804,1.0888680882074318,1.0595946171790431,1.082836823294334,1.047718488975748,1.051341192454487,1.0527419411373207,1.044285418472204,1.05755259077672,1.053601372425917,1.0578008569121042,1.063487854027842,1.0665357517997198,1.0682341052326079,1.090584345792088,1.068074057004423,1.1019515157484803,1.1251086965207342,1.0972569222120652,1.110291392811176,1.192440549685071,1.1055077783449114,1.2213534424149937,1.2621905856681581,1.0798253907535602,1.106411101951702
1.1964845876008166,1.1934823640174526,1.1567617706699205,1.186936741244043,1.1323665244516539,1.107584780799309,1.0600867228520658,1.0792363768801903,1.120292103448839,1.0842868214846886,1.0730466031326265,1.1019060036199027,1.0938248635468835,1.1032079335726004,1.0955490878656433,1.1030068262300023,1.102162866390437,1.1136774514909589,1.0713765962085926,1.0990530385050392,1.0973832925370925,1.0628645651851023,1.1059940747190238,1.1442133560897514,1.1388395249437482,1.1374503037293309,1.225739521760782,1.1575788929222641,1.267144859362184,1.3098348458713436,1.1370398350888982,1.0980311971437111
