Fp1,AF3,F7,F3,FC1,FC5,T7,C3,CP1,CP5,P7,P3,Pz,PO3,O1,Oz,O2,PO4,P4,P8,CP6,CP2,C4,T8,FC6,FC2,F4,F8,AF4,Fp2,Fz,Cz
0.4147787050299341,0.47909872912615736,0.43113671354705396,0.391670944366785,0.35220321045056113,0.35729218979077443,0.40412034384585305,0.34719617889389326,0.3932568736227538,0.35644991544845495,0.3461669762696338,0.36789931719460833,0.3809364823569438,0.3668560253394394,0.36606029332694795,0.4031468293359774,0.38846777165041835,0.39393105174265314,0.36783904984388094,0.37176799751477,0.37778197795027324,0.3874508905556158,0.38504303530767175,0.39654615520768377,0.37784755368970946,0.4000629644499365,0.5048911619931601,0.35392193586897547,0.4487626124156277,0.41396869418113785,0.37310630752562945,0.37824896561978855
0.4172799119407002,0.5156663236389424,0.44278509055812937,0.4469174361031829,0.35293051261779057,0.37406611967015513,0.4067880447129217,0.37273332968558504,0.4308127728462536,0.3708652097731356,0.344948724651108,0.38844740081064527,0.39616432691240855,0.3737118317248955,0.3612301911851849,0.3812678137108251,0.37344066518285657,0.3970840219250336,0.3865455204416366,0.35818580637588954,0.36747634047393446,0.38120532399065077,0.38171858410998116,0.3874298224562622,0.3818162557930647,0.4110848944156876,0.5194941882381068,0.3699198423268115,0.47868457446166046,0.4015404343779498,0.4215172929960993,0.4022151190053217
0.41260486396307183,0.5089610040247099,0.43501891210437754,0.4434299067834033,0.3274945952968727,0.36760699141662717,0.37381886724025076,0.36210106204647097,0.409443848337298,0.3519069192618538,0.33587740350694745,0.36970951769192334,0.36893603211166065,0.34944687327067014,0.3323470684676775,0.35043440381848695,0.34866755601076693,0.36403306024993387,0.36136051302745475,0.34205296707952865,0.3480893845409894,0.3530181521080815,0.37365602851344315,0.36411412798783055,0.37869485099007283,0.4259052936919516,0.5342907634959005,0.38747908015206367,0.4743454799793817,0.4109529295360825,0.4327702382289908,0.3948667168270924
0.40994415475287194,0.4861671493284463,0.40186723197080776,0.40207563899919824,0.31327949176224185,0.3685930351251406,0.3713265212875523,0.3598195915585619,0.38539695659621265,0.32918794267003376,0.33028878214807766,0.3637085753007922,0.3582781575035036,0.35516522780750304,0.3257063146849962,0.34839781501413203,0.35001097315579033,0.3406190207583212,0.3374393042573886,0.3424037992250697,0.354950610162427,0.344379121152905,0.3805461192120888,0.3767801329443164,0.38319318096426574,0.41966120168440246,0.5182633520322549,0.40337395792017045,0.4830734075140822,0.4264628834690601,0.41006276131152064,0.40565988913963436
0.38489176250084767,0.4723653174559507,0.38480405808883816,0.3733433477579708,0.33504420895754183,0.35702490200186016,0.34041937252908083,0.3863868645201163,0.3837476694981252,0.31355292121796907,0.3149714045421315,0.35786636557769474,0.3718980241462376,0.3473676014338483,0.32253726675894423,0.3441999059193478,0.32729091223557666,0.3553425111160278,0.35337815392999533,0.3461150624246766,0.35551077777545886,0.357789722636579,0.3701519203050445,0.3501818432226224,0.3507717857352258,0.3955386129836214,0.5123683173006535,0.3432747492007633,0.48375899714903703,0.38846940717986883,0.3796318874306765,0.4064058200715995
0.34195009803057597,0.4654878436321077,0.3286478035665338,0.3641826241872886,0.39542074707174385,0.32824590390105635,0.27810039253436736,0.3583378735393547,0.38464289141905683,0.2894316955103517,0.293304970418751,0.3432283395021226,0.37795072064824625,0.32416550987051584,0.31496329978586984,0.33293962687134626,0.3072221804345516,0.35047079381914487,0.35727562490667947,0.31100040490647113,0.3249572752956668,0.3762501578278889,0.3694834361248552,0.3136315421005221,0.33440458500182635,0.4064180010612209,0.5107960189567475,0.31717376896319105,0.47408233878802175,0.3378939048464349,0.36390625592890385,0.3923667582241601
0.3283819919806953,0.4599104074284614,0.31705309380591856,0.36539772359598743,0.37228757662035594,0.3423644907438364,0.2800584120105929,0.3670704504441777,0.37573510470848787,0.3194804093539482,0.3169490097398941,0.3574899144711878,0.3754113012736165,0.3433649827946467,0.3473970112940649,0.34666570486858594,0.32621508779699837,0.34887006393937325,0.3521172775559697,0.3041698684525438,0.31474340972266496,0.3551990600728967,0.36230578896196053,0.31165347109350755,0.3444509272451806,0.37824386414984484,0.49525241061870817,0.326064957438322,0.48082381438961486,0.31369636648490906,0.3535079941892106,0.3786099746735477
0.3430786030536342,0.46147861067575996,0.3491384560894853,0.3674868277735664,0.35142688198005717,0.3388183341411065,0.33733891435798924,0.3801539378449055,0.39393898027858726,0.36989266641827584,0.35007933956647574,0.3589720218224437,0.3632884746845409,0.35221988607722293,0.3651577954216521,0.3730327459660917,0.33317111492817136,0.36643765139075146,0.368433785323973,0.37347471326936055,0.3593900712632659,0.3664025773735752,0.394527909686636,0.37424501907418095,0.3818470303086014,0.37175583604671864,0.517988628362885,0.34759104920897055,0.4886847083437177,0.34130944806851066,0.3632121150355732,0.39412874616249166
0.364776028455456,0.47681723727728753,0.3585986348122552,0.35620085061187884,0.3555278936070797,0.3352287094769486,0.37281476656892665,0.37328260378869405,0.38634611874336544,0.3624518526348896,0.3462639564081559,0.3539689369331995,0.37535171736429956,0.3465754584656161,0.35817816423230914,0.37250007982542127,0.3328152950355588,0.38139292433288885,0.38951977925194264,0.39601258460943944,0.39240385970644365,0.40885270820991454,0.4189252122089211,0.42207142323892805,0.4221455066060348,0.39407001936553976,0.5214494354317271,0.36826451061589366,0.4797120345945201,0.3809201410705734,0.37466384558816135,0.3913434559471535
0.40622976412241746,0.5154649142894531,0.3620138111501278,0.3772006915696349,0.36154723787819815,0.35061445647282485,0.4037208985339357,0.39014027267230766,0.38911540534312045,0.3634554673716539,0.3721764346917971,0.38707586619490675,0.4116140151578537,0.39044121457447634,0.4052824835616205,0.40625375208188064,0.37631321912078075,0.41068634940483567,0.36430886528438167,0.41261379708535817,0.41778351909856287,0.4176431576572219,0.44009112721944,0.4299089505925934,0.4607858928062814,0.4249646847503375,0.5159165261432164,0.41843937084819316,0.5173719218800016,0.43649766985722405,0.4202969207222465,0.39646633958232963
0.36793610361335927,0.49000246456759466,0.30199594230159804,0.3675238955465297,0.3907440555463227,0.3544822223589466,0.4020974369744023,0.41747470930926633,0.3845401791308605,0.3865442053244024,0.38622425653698944,0.40066768490418,0.3865050985777646,0.4156977376789883,0.43592292459067145,0.424177513295828,0.3827110312152785,0.3958664203440362,0.33683695587477175,0.42858061219442906,0.41178199906873764,0.4096695844202159,0.44105820423650116,0.41999626336965107,0.41336160788999055,0.42178656785305374,0.5258092888435522,0.431035378928479,0.5333576736851433,0.4472985084953516,0.4418483939537693,0.40654403228899616
0.3083894666747645,0.44417554592883407,0.2586007229684695,0.3108389944705051,0.3767008833795786,0.33370859268529013,0.4037689131067542,0.3892554168121166,0.3827930990976892,0.38202693361793294,0.3721495531496328,0.3831974540043148,0.35791563479954497,0.39693290982470353,0.4073507685868259,0.39078816385360005,0.3837579501318799,0.3843782100392324,0.36996606138206306,0.4128823010497446,0.40564724047465106,0.4183709811570158,0.4257367684686271,0.39394839186502745,0.3622859621469579,0.39934189303512974,0.5099987252044578,0.38661498704351177,0.4956046186453663,0.38903148023489403,0.3689372455996351,0.3963752321396103
0.27260711833633955,0.3739741872587979,0.211154831575264,0.2773612921016661,0.3288147770676965,0.28908287413445793,0.3654214267477254,0.33882205721192477,0.3125631581075698,0.32826281426745635,0.3315869764297041,0.3685742348617378,0.34932971238150773,0.3618342590432475,0.36504719240318106,0.3475722211186263,0.35217920902038974,0.3504113476772864,0.34024771038123125,0.3472902118534426,0.3233997338217495,0.3428446049561412,0.30091758074815655,0.35198691611040733,0.3126446188830328,0.32305931114257286,0.4983011217303849,0.32648304128267547,0.445491521871256,0.37977164019676457,0.32739239385774127,0.31305638731387375
0.2742495516670707,0.35258594852882297,0.20595657051205762,0.29155179502628326,0.32054354534953433,0.2606113374589153,0.3347803976210546,0.31870209109297476,0.3140910359964813,0.3132503393749241,0.3297080753703984,0.3641416442663453,0.371488733737969,0.38396192273729896,0.38091172435376924,0.3614190164485992,0.3348982338859491,0.38604067479326415,0.3631845322885461,0.36213751641407815,0.33091405534944773,0.3240531586040301,0.2583257636049639,0.36861056458219765,0.32580062490564804,0.2806133696736363,0.5105556755584346,0.314825619212675,0.44967229147420196,0.39719075613087923,0.3031054635414444,0.26632316297895586
0.32869934226620595,0.42024674512571475,0.2709588090385694,0.34672318205232433,0.3241827727412585,0.2850891894299579,0.35541527224629144,0.30402621015345227,0.3682029481388402,0.32734308228753034,0.34295438165421965,0.3774491788018907,0.40683465690878096,0.40046244853760543,0.3735832484995413,0.3658155484451035,0.36278988021854436,0.41101769096334034,0.41539830560594904,0.3979345413290456,0.38563073911459417,0.3903573812210059,0.3381187234241904,0.4054061252371791,0.3687604664800293,0.33600435956804975,0.5212860426293199,0.3922939551787147,0.46664867287850986,0.3743137727981996,0.310809649312971,0.3732726421311481
0.36822469065614166,0.45376737639543935,0.35875089943181465,0.3924559563061178,0.384911287674294,0.3389649715387916,0.3996236072765436,0.36190494998492906,0.37642527810972887,0.3684539395709605,0.37532722423864207,0.399661977882353,0.40445498482301323,0.4074209963547889,0.3705168194087658,0.37033734629439935,0.3774679456443622,0.3812247592090053,0.3805861601066301,0.38196712243593267,0.37875429638988667,0.38624227571980335,0.39844764259102305,0.4053374872851498,0.40776005524820097,0.422899099606807,0.5107575015780704,0.4374735206292976,0.487765070821315,0.3937491973855011,0.37915471735579165,0.4387953910158598
0.3436668286230779,0.4674788268639725,0.3129221885293942,0.34968927095822605,0.39146799096324253,0.33390490076775053,0.37711867240834296,0.3885613851929995,0.4108764463126151,0.3590638211331054,0.3710119520614586,0.39600480035029084,0.3764080847888833,0.3997625985897939,0.37214627247085835,0.38478152526599396,0.3796210163486104,0.37733596228281896,0.36991836291861896,0.3776953283476916,0.39126523940183605,0.37920017239839654,0.4084604312145672,0.4009595132840247,0.396462353840958,0.41635119739666554,0.515780922705552,0.4020648100311972,0.4776367331757043,0.3955813389316156,0.4142485607941109,0.41665356856320496
0.3689231166487197,0.48587663640632617,0.3298295560395745,0.32884776190772536,0.3201921525483918,0.3542289554552895,0.36167353634459914,0.39837283555245495,0.41580573333505516,0.3704992326655081,0.3816277928001513,0.4191531543511912,0.3853459731565231,0.3977830148746691,0.3809541933029998,0.4004504221094134,0.4007981773784358,0.39477776815141247,0.38108196266317806,0.3846262643185635,0.40138275118311456,0.38909477176105517,0.3943617325105977,0.3992508099240794,0.38877874186680916,0.3904801718025489,0.5103419871942759,0.40068821423057166,0.47561555497330066,0.39970137997646615,0.42304362299476705,0.3825600014608093
0.41478120767351834,0.47654275385011674,0.4074199695816425,0.3778727620220676,0.3174232142684699,0.39664419597767997,0.3952659067658605,0.4044275234011296,0.4163483214917573,0.40785105592671017,0.3999960451246244,0.43108349903342014,0.4034178358608607,0.393403550771684,0.3728192824739831,0.3854546959987795,0.3929227727692092,0.3972535357433271,0.3931012014859772,0.36870943487950664,0.40103736516799093,0.4028076442973191,0.40427956395500464,0.40237462221530257,0.413432401719254,0.39108977126519234,0.47722989604181715,0.4225675186332122,0.48857942185088993,0.41679126217679147,0.4162250760307498,0.3800164394857679
0.37776620587440024,0.4481474796287791,0.3770403882457887,0.3928230946331696,0.34754538940101853,0.34634547304855334,0.36520252610920567,0.37437108389381973,0.38803894725190535,0.3666664639669931,0.3461405939267338,0.3560107451547708,0.3735413581671557,0.3478800745481913,0.32956863254417484,0.34686617353447535,0.3832920267042976,0.3712697152905665,0.3526021055014066,0.32116492162056265,0.35248426824281776,0.36288887962389765,0.3514005036760079,0.33943971278821683,0.36572263120710913,0.3710116836033687,0.4689928802332383,0.3733450998183506,0.46389781091631904,0.3837629330012069,0.35924772171543806,0.34665093863143254
0.37152650345244753,0.4475009512644859,0.3577904722948691,0.3857244652284203,0.34320088904151574,0.30891460589086,0.3270266399049672,0.35741953419043926,0.3760506322794263,0.3178123270611636,0.28235073258898225,0.31388415986426077,0.34298131078833316,0.2987746426944798,0.2828662241019136,0.29848874985705537,0.3286937113219102,0.31276698228928385,0.31007488161028385,0.2814701985351914,0.3107414604653054,0.3475733736199162,0.32810558821927255,0.2976751223673718,0.3183581010939431,0.3237957318595068,0.4746959591882426,0.3435250471363615,0.41623914954032254,0.36513088920862175,0.31897754376248943,0.32733983741335093
0.3663786215204783,0.4506475262584333,0.3242101332499443,0.3735483555863364,0.3187805273092696,0.2866651388122073,0.3359039673929565,0.33249806923253067,0.3542767469166326,0.30390911169276213,0.2790883786189458,0.2980923522891369,0.2988847149031758,0.2811562445028004,0.27772447231443104,0.2826690952502594,0.30475247050077225,0.29312847713012247,0.3036252102124447,0.28167787655002813,0.30423227877272274,0.3556951977201352,0.3479825712625287,0.29656360276859656,0.31373408578271017,0.315483916009592,0.5083452004032332,0.3451245857409412,0.4903856511623813,0.3927166424674839,0.33082130722778413,0.3563546608691121
0.38585923824215274,0.4653972773352281,0.33969454047582054,0.3912349234669671,0.31320394867958495,0.2886326368816414,0.3755848548404233,0.3402324163673042,0.35816948026131823,0.3342995418444394,0.3246061416418025,0.3190930610140113,0.3151834606590867,0.30833475782184017,0.3095273469647775,0.32148129534250913,0.31678928176586246,0.3171483462315564,0.3180607841806337,0.30579664177377536,0.32325924746708257,0.35514678674687833,0.33556289230650765,0.3233827030530686,0.3291062607128405,0.354860063210213,0.5326073065919166,0.3596178018941604,0.5150223483591193,0.4206411366847289,0.3613214755616547,0.38649013508242297
0.4471063086507469,0.5059925807398338,0.4411810859275703,0.44067422484853813,0.36299442020275846,0.3580624575556477,0.2861394323567314,0.3585397934806934,0.3989678560531068,0.3540255437441018,0.3557048810549379,0.37349653358260065,0.38788687724654075,0.3805238047727087,0.3607021093334571,0.3899834621606062,0.3185250490234596,0.3404772353294877,0.3301582910954199,0.3215823452151588,0.31858916080527994,0.35380628915201984,0.1934843527731677,0.33841170041200314,0.37391574950574036,0.3315496386762195,0.5314987454626149,0.38929829073206734,0.48862544770989197,0.42019164698328226,0.34611428763416024,0.3769361291586846
0.4185878811765541,0.5324653132589371,0.4681742940297287,0.49379813143753243,0.3752958561774421,0.39984404564730025,0.20965642909853724,0.332625557002638,0.3653323836366618,0.3109551833174052,0.3024757337513519,0.3156064826429041,0.37574162820435986,0.31737592475799925,0.3263207818317255,0.3513779808324688,0.2989242902257959,0.3165991247180915,0.3287218475986662,0.3139029378861485,0.30477249988749483,0.33863032397487286,0.1358092616926063,0.3473826149826532,0.38870518436717105,0.35142768986855366,0.5203419167009292,0.350145408326251,0.4638686717373218,0.41658221415886615,0.10539933410641757,0.33691333526321593
0.3686395071325194,0.5148470526648149,0.43080938085521964,0.4950911003165395,0.3785671473925818,0.3979235748681932,0.17091174041420612,0.3345324801168318,0.35304717069766456,0.3232105003491393,0.31334150488038104,0.3302497434239922,0.3468795947268508,0.3276051518782085,0.3397593307487017,0.3501025043847178,0.32876487834103624,0.3305163259057823,0.33953108653854286,0.33199720547512296,0.3390126295396432,0.35178766313126836,0.14433955433091386,0.3750837671313643,0.3690697386580627,0.39244490952595246,0.5361314102255772,0.3726955709534563,0.48251953044909307,0.39093442885462815,0.12553671334626565,0.3215393194569136
0.3765541155553572,0.49944781369489355,0.4292912486054651,0.4944144074810719,0.22790120127164945,0.4087793999486699,0.17073914809893437,0.3834986424037789,0.38372304060119344,0.38103543668333606,0.36152136596643203,0.3558201110333107,0.3505398592795191,0.37176094748214833,0.392711059527854,0.3844249904209298,0.3928718917525743,0.36859171318253336,0.37506287889581025,0.3664094584123323,0.38760393987846076,0.37323336644834343,0.2323335053875569,0.38776722691488813,0.39157933768012415,0.4023502804958718,0.5387643841377765,0.4154572119455557,0.4985380572730217,0.40446150083348764,0.14561609635577896,0.32405741716260356
0.35604632954714627,0.4660368509002506,0.39002087570368005,0.36936241303048556,0.19525951046418613,0.3565352517556687,0.24434799191979575,0.28019770417755546,0.3300022020891032,0.3095067756506454,0.3423803675350002,0.29517795648757356,0.3054269124696247,0.3297622702990603,0.3563965172876686,0.339604511632441,0.3338031281053554,0.3295468222135244,0.31911208414093983,0.34028071049116615,0.3337006291089481,0.2957699062876561,0.3272112959140022,0.3630354998720265,0.3527776531824236,0.30917019792117245,0.48866179396797943,0.34413111340718505,0.43411479315201235,0.3436340413489368,0.2018148052627161,0.25622329465845234
0.3382124185616642,0.4694410343754216,0.3772618508255935,0.3209469638861179,0.14946193276464487,0.3297545394240532,0.4058414548460922,0.26919993144686194,0.3020304852146548,0.2906791707333552,0.33603124593341466,0.2905009863372734,0.3054936566819768,0.3143380169547507,0.36125474872135793,0.3530361699603493,0.3195762323513542,0.32907919749217857,0.30892641265194926,0.3551926254972992,0.32565767907513454,0.2922603672305996,0.24569706208291484,0.37525948332488995,0.3523835811460267,0.2819201342733154,0.4879621363480118,0.36332477648835687,0.4636901339476012,0.33596600352848666,0.2096421441092269,0.2230794603771734
0.3676546436426848,0.5064730884720774,0.4377716664653896,0.4190204921405761,0.15000267543608034,0.38944650695146,0.36240384661098135,0.3822124393455209,0.29936194860372495,0.3540456696470559,0.3645528688420471,0.3476219328730907,0.3399394580880646,0.3340884809122101,0.3582424046172962,0.3520007618472439,0.33805742228504426,0.3402303905054408,0.34290883221511415,0.36570038324495063,0.40966414718217237,0.34302486882558053,0.23563128805351535,0.40095408485810613,0.41564830438608136,0.32639030740266467,0.5265145226948071,0.409925255212963,0.509700841798212,0.39285641779550806,0.2443154328123148,0.1851173240588859
0.394593458433909,0.5094511782044636,0.4488658697467891,0.4472323160631145,0.1700724628996278,0.419558252056139,0.34450343778795733,0.3985344849292832,0.3704308344511719,0.3681769502880764,0.3718547860910278,0.3661506341910499,0.3488708483467754,0.34354382561696367,0.3371427147400393,0.33369449580606203,0.3580809434701311,0.3491573433488238,0.3730374884331439,0.3998529129342184,0.4687558248950701,0.38138991430947045,0.3329501041134415,0.5198509892116597,0.4058772567777625,0.3675477441497065,0.5015848039097067,0.40950749686191046,0.5028293783613592,0.39797681708833643,0.2832127392030623,0.2513998231258201
0.4150279073908418,0.5150781979831064,0.45660761307112013,0.4693685697913643,0.2620402728617474,0.4222092365497799,0.26143233859563847,0.40000722952824286,0.3649944282465957,0.38370020717253384,0.4005938047315435,0.3664046062541494,0.36885003777858133,0.3659162939196435,0.3776833541955317,0.37289735141122854,0.36232803146693093,0.3932589777099751,0.41560220488884997,0.4462036868293841,0.4976946320551385,0.40384813108114254,0.3523565402847854,0.5455616933539612,0.495734173922116,0.3084724899242141,0.5140999970022234,0.48251167583970744,0.5302804208899776,0.3964180952930025,0.22999274948679593,0.3528552102835842
0.3835637460388856,0.47206671504555886,0.4164455030495331,0.5252294491338302,0.32265512811642644,0.43897500871036965,0.1863064124755909,0.3702881077722798,0.4020619665740545,0.3889297529000524,0.4095314261987055,0.3876783348586998,0.4204741787588175,0.40253655539578187,0.4271269935922872,0.4111348092073494,0.372783103038592,0.41675807117989183,0.42029759418766166,0.4387132809405006,0.4639204147662217,0.34857001084484673,0.2661462147823802,0.5226400292185931,0.5233134144858106,0.31366567152447694,0.5326017025191638,0.5029499544263064,0.5328872366949682,0.38284755693561884,0.20991353245090977,0.3455544828593343
0.3747758471248271,0.4871994266734834,0.4451754566760692,0.5223417887480456,0.34442967830263593,0.4634662224083573,0.18562234854501292,0.3694474624363524,0.3788665362715659,0.4008353470977134,0.38215297746233745,0.3853637671811482,0.4260637515208423,0.38553949699041196,0.4193763825115854,0.3918308908117247,0.37763425102537534,0.385087241747185,0.4340152206212729,0.4039527249515733,0.4882007675653766,0.3688015126046498,0.33139383491005725,0.48286255854292265,0.5166235487187687,0.4224166797481358,0.5311485020372092,0.47735490218985477,0.5349312178869912,0.3715988627079238,0.21997274894796875,0.38559009300196334
0.40685719346657545,0.5183977919885123,0.4782003535605358,0.49319470029502954,0.2898080867062436,0.4566467185580299,0.2350068128090667,0.41175762033822444,0.3694218828270603,0.4376526463021081,0.37826175530498246,0.37509607599450556,0.38793638074658465,0.3571157541624057,0.36627079848747324,0.3496662095472437,0.33291512698070264,0.344771691083428,0.4319420443669552,0.37421903199516376,0.5215356000129047,0.4260748251265427,0.40611529037459654,0.5099077664574126,0.509133455798148,0.48191997209382637,0.5230995686976329,0.4901416968438537,0.5292031300332832,0.39125504993770754,0.2611735682526434,0.4660389963201568
0.41642236352644896,0.47842836394519583,0.47101776564005987,0.49824389729893176,0.29811026696740867,0.43075860195697335,0.24494070339856538,0.42367210866004806,0.4127766286190781,0.4332586682132922,0.40153952950006855,0.3998375854515389,0.39131358944294226,0.39266245721691323,0.37127539069556603,0.3807343063207582,0.3597615340252402,0.3659442101849722,0.4069027458067515,0.3839858832201072,0.4930981714003702,0.4156798810731711,0.38590817948406475,0.5105848286954583,0.4918169539388257,0.4672419385581291,0.5348906992779492,0.49605666819633065,0.5162165697049005,0.41468274401651506,0.4217128796112882,0.4356650718173488
0.45264369729076065,0.46717044248506134,0.502408051094228,0.5069435924632321,0.30832351903055705,0.4173726163831598,0.26260426057767977,0.4133950446175617,0.39997340510127527,0.40030197896458114,0.3981219269389995,0.39273195482270623,0.3793135031829392,0.3857649635182068,0.3942885580298466,0.39028105591954027,0.3752153972260544,0.3663160012303066,0.3669067614887785,0.3672291258445175,0.4548773886792719,0.38912278785591764,0.41743249088005535,0.4906764566396638,0.5004720450265676,0.47786463950333374,0.5398599799420047,0.49649687018113264,0.5103613661578357,0.44061518598894994,0.4365557747530785,0.43523893751275444
0.45742879464803543,0.4401800047841427,0.4941016757080186,0.43767605565980655,0.34126879011874106,0.35615238755944256,0.433462858179741,0.44786586215535734,0.3543263274325486,0.3588791836145062,0.3471251799827528,0.34336606701344097,0.35031575129221704,0.3469713431218666,0.36233724505685894,0.3612330150636891,0.32852534442177184,0.33729822477296695,0.3551808731543876,0.3141267795876468,0.4436920925471215,0.4170792721524106,0.47715450797925874,0.4755300100166548,0.4791007286324282,0.4786462202964807,0.4924196088321823,0.4412141928759044,0.4536722929072883,0.4194540742651687,0.4020796144822932,0.4778781930690962
0.4189252802127577,0.456809632007321,0.45814264144096634,0.3882493472187416,0.35048926250301116,0.2803193035071612,0.4353775650488144,0.44458806631709435,0.3457747822147705,0.3598494079870053,0.34042914660731216,0.34505343067487954,0.34812178364570323,0.3419864687999109,0.34544788689543,0.35473001930046655,0.3219409879108123,0.3346735887117783,0.35889560958762207,0.307085676698467,0.43443828631985687,0.4668624453581702,0.5020786039124949,0.462709386294323,0.45969472280859613,0.4642772579255044,0.48891544385013336,0.3975502057337101,0.43839132164044253,0.38264710421211,0.3790563727659808,0.4447149156903009
0.36986001568057214,0.4650320525546245,0.3799432767322998,0.3784760210140642,0.3513915234864341,0.2675624236612,0.37034179511586424,0.38646669246708626,0.3680816294747048,0.3575360690905658,0.32888318123360993,0.37147417590112985,0.3693263745924011,0.34732817897007273,0.34669020049808885,0.3612452132643306,0.36373454306162806,0.3814720759615218,0.3567183179351854,0.35277664889649946,0.3802140725151353,0.41429121605804303,0.42693040802132354,0.4079271966299855,0.4449743651392604,0.41562450806986273,0.5142618002096998,0.42830913554805244,0.4936920897647664,0.3762552498267978,0.3967219650909015,0.3870718254425933
0.35373638786988854,0.452357253180811,0.3634170566084632,0.39702331348861,0.3286223539360243,0.3690974187608392,0.37954201324107184,0.36530049878786236,0.3633754815761572,0.34615398382632506,0.315924221022313,0.3395531047997576,0.36355700840987676,0.3270806947696193,0.32725209319266524,0.34820829274016696,0.3461966521028807,0.36224042609521817,0.34337258731728487,0.3536544083255351,0.35839289591888074,0.36425283291680904,0.40259439569351807,0.42411322061833395,0.4231153523659085,0.4039875291585529,0.508567268016193,0.4275024332980285,0.49405235721201146,0.36080416268503884,0.3627653563604152,0.3582038216495292
0.38487811453680676,0.484687275731393,0.4024618698913583,0.444259871868753,0.3249796604014542,0.3572731361098125,0.4189644058156524,0.37889138433911407,0.36478057707448636,0.35539646843724587,0.34119205264174374,0.3474794140554899,0.3642639997025515,0.3475388214067514,0.34093391118603483,0.3609277556711195,0.35296617627879856,0.346823282859153,0.3379001749928807,0.3376570894594089,0.37035834842281046,0.3572943430642821,0.4344286187066291,0.4201667218050682,0.4693433786387231,0.44379520507127596,0.4866271718817464,0.45052180921344076,0.5143856417566447,0.41112240027381214,0.4022579208123972,0.3602646791701197
0.385162495262482,0.4773095868668117,0.395054691268723,0.41318465596429693,0.35576100480428685,0.3093786249834267,0.3831094964527839,0.3919389234871814,0.3323038438421663,0.34030412599633914,0.34599719801882994,0.357831804019092,0.314934242217674,0.3514486080340605,0.3486889546462073,0.3532132461992944,0.3303374469562225,0.3299162807802489,0.32587378138994927,0.3285340245915314,0.37669614223174885,0.35059316457917394,0.4393509520567306,0.4290434153111202,0.4591019035174659,0.4404896023361208,0.5156634122795603,0.44694335314448014,0.4981346978207107,0.41652886265367856,0.4204434482081256,0.3769917786919495
0.3867036933498043,0.49361386705035865,0.37859461972649544,0.3879376962991186,0.39346667321737605,0.3440647765439846,0.3566919900926978,0.36867521099587125,0.3366333507050675,0.31030292578987106,0.316110417799673,0.31672080920388057,0.319451442525469,0.310402605605466,0.3081801799127339,0.3174233605415268,0.3047142194453061,0.3162652625771611,0.3178396867254886,0.31607491092870516,0.370009575723258,0.3308615431307481,0.40169630387608074,0.45110039170480987,0.4415743246225495,0.39699515379483913,0.529239442989535,0.4348775968990761,0.48372492878708306,0.410225707611626,0.40343539706224607,0.37229928948629337
0.4026127648067588,0.5038399899755789,0.3764114505232976,0.3687959094729095,0.39751504254309744,0.39152021911965285,0.3345017922685244,0.3658078517472757,0.35789021570036245,0.311269178078725,0.2904885862693827,0.31443024536597575,0.3259073522919225,0.3034806906550994,0.3059702083182888,0.30797570495667104,0.31274640340841214,0.31347695300872214,0.3186414167106361,0.32588010162291153,0.36585809598694813,0.3098979471126994,0.3910954455303548,0.4247154293280162,0.46502760787798275,0.40390043979588325,0.523547764961274,0.4678743422319394,0.49540716233450144,0.4384103491321356,0.4210385596281008,0.3790772817041742
0.4085073471156382,0.5046012921750015,0.3798037758259961,0.3649805237405963,0.3317731456481685,0.3865603847347357,0.3675078745367455,0.39593436267564763,0.33731833559255026,0.31825633683410937,0.29746487238587466,0.3180797837063041,0.3193250650966543,0.3079595811669126,0.3143699945116914,0.32209440374129644,0.3189136755495486,0.3184719770868101,0.32730000859432146,0.35005231170429174,0.3732528346864514,0.33177516421989117,0.3996765913587819,0.43019682773978474,0.49689582719018577,0.40751350689226895,0.5214090609450228,0.4906633325272362,0.5116829250325652,0.4388238122474102,0.4137236035777485,0.39138257246546554
0.41389382537485125,0.5129850453891321,0.3915891132721743,0.42801109231766427,0.2638715938547445,0.3971886522666584,0.3998713780544856,0.43138347685827716,0.37412526311986166,0.33189747290312016,0.32377172214891287,0.3282210515306415,0.35076979643164075,0.321546050734346,0.3201667733546727,0.34339120717764837,0.31923992842970295,0.33901694077723266,0.3368358484033404,0.3552258520003404,0.3581353709030554,0.36653776997481213,0.4085200532253886,0.4385010192157957,0.5033235795994496,0.378305889404606,0.5179030531275265,0.4922455404113108,0.5201651490352278,0.41796817283534066,0.39396177680327304,0.4104680235077182
0.4187205222261209,0.5168580540797719,0.4025912657827917,0.4453618890930156,0.2929642243816957,0.4174692188641114,0.3996503152244882,0.417790194286764,0.4158571622792592,0.342974600273735,0.33416424820877133,0.35193578385621843,0.38723916586909607,0.3507397542565795,0.33260584085157907,0.3602040098358375,0.3420052058080926,0.3690457827563518,0.3655554885912977,0.36471303626153884,0.3814268502465602,0.3726552735045856,0.40504092418125065,0.42097909707247205,0.46485449756196145,0.376930059512151,0.528957277776163,0.4751769623616338,0.5116776666932693,0.41531072004277053,0.39207997039614495,0.37818512068608034
0.40835572898562156,0.5025927945460757,0.42034634909028457,0.4169863104150252,0.3615380313347085,0.43134336775833054,0.40019026874442026,0.39586632596697163,0.3550205182804785,0.34595257950819935,0.3374220859016003,0.3291777583665504,0.3379125275545996,0.32804760176520775,0.3277839963763287,0.33668724433213687,0.335362318647014,0.32456245105977666,0.33698127050735943,0.349359730356111,0.36402256498798113,0.3523639606127471,0.37605855727372334,0.4050625115558872,0.4428535738798864,0.38057467053823824,0.5336799347715536,0.45551308304743227,0.4920016033211643,0.39790433982833506,0.3594471225508876,0.37650046546920973
0.4056375748514032,0.4987839884982853,0.42973172887155214,0.38182300943010467,0.3589219795622432,0.39638109298358043,0.40062512744323525,0.40045014588743405,0.32729613340972824,0.3743002883162121,0.35810562950011243,0.3185469962742172,0.30764754583025883,0.3189523874566151,0.3323952456894474,0.3248285508617355,0.3079476897489335,0.30639565937812435,0.3094844531332117,0.3360334095739969,0.3288285418175639,0.3194187226211416,0.37644448289905286,0.4122895911392024,0.43238469776316096,0.41696412719060694,0.5389158001394613,0.4628465292659147,0.5159225682546805,0.3986842700185009,0.34555781837160016,0.40209026534951614
0.4164895764096388,0.48284112974338755,0.4249639389462825,0.3738851105317876,0.3611849688725156,0.4021854203998539,0.40037077066836196,0.379886062539466,0.3189671997371441,0.38369983686471953,0.3472818467590373,0.3211732669974533,0.2959502352968339,0.3155067676557314,0.3366166821417612,0.3218675642595892,0.31141885165703737,0.3038518725621175,0.3018846740511242,0.3239120371511194,0.3247717935596463,0.3073718696296192,0.36501524118842876,0.3618739003362461,0.41072319691192183,0.4297455262953952,0.5161348419871494,0.437405756271169,0.5278332469720908,0.3801915257073552,0.3799309042427557,0.3732500722864445
0.4141618263260225,0.48845948431050734,0.41503375555031835,0.3949820120896799,0.3633711910289741,0.40071732465451476,0.38941697854635915,0.3726992460808831,0.3452214235022387,0.3740396161533466,0.343858194139147,0.3576468217561599,0.3209165283821876,0.33982584053107967,0.3608926007331429,0.3445415621985757,0.3264719803208964,0.31622548569805153,0.3139598052420756,0.3221814320465408,0.32551772699679377,0.3247120143815592,0.3414528989089721,0.3341476093268657,0.40862283449558306,0.4015775423801437,0.5197372560658591,0.42089465981478863,0.5097884741058657,0.37552707503234417,0.3658699708310121,0.3721173582095386
0.3608732323801017,0.48986865630312504,0.3787480417428585,0.41216284375143275,0.3482510899046663,0.3704307767466982,0.3445082753759958,0.39347169070864163,0.39163753320877465,0.3940921016402551,0.3691567567892163,0.3839947020116985,0.3949273963887337,0.38593614113008295,0.37787496217453653,0.38374162266370254,0.34238282175829066,0.36540796443067974,0.3591312383848016,0.33042177577799153,0.3428416617087822,0.3841012993442671,0.36570354526024784,0.3425023453176013,0.4163108443127342,0.4085707842977599,0.5226374232067763,0.44147055855650064,0.5086282071696518,0.38799146485777086,0.1592826429349172,0.4005194592319395
0.389433606902617,0.48532433634573374,0.3700420286587891,0.4083287132610031,0.31724070851172975,0.36991071554270266,0.35801408472559937,0.40193174660598396,0.3806262951444041,0.39186523268891205,0.34648940266275163,0.35926969061510017,0.37559984941831015,0.36057297310543845,0.34914609841509453,0.3721108698305328,0.33664591679371936,0.3627383632713054,0.35543050223711425,0.33621187864322116,0.3477328516089893,0.38123150310098214,0.3793170816207511,0.3537312557224794,0.4116889811889426,0.4089613051427073,0.5514809247889589,0.47522467163248205,0.5472130973580845,0.40105482304541185,0.13956521537186153,0.38881050809796147
0.47052631591260724,0.5124182852409163,0.4082986473080819,0.42130480123471353,0.33343625322403836,0.3910291091565263,0.36607925185190116,0.3645430894682801,0.3643043089563904,0.3378125870032748,0.2978964285309287,0.3353746140406514,0.3605035701173789,0.32029986862576154,0.33540141933816736,0.3341671311692251,0.34045907975095413,0.3280341943523202,0.3422873857674066,0.32770923341286795,0.3336742696935749,0.3506440154446531,0.3673683673819744,0.3407124824735183,0.4460397071354167,0.38956758843828976,0.5532950901591411,0.48423212825137285,0.5445992527421147,0.42656789895053804,0.16587291467805812,0.3603648484283981
0.4475852528068651,0.5083209038718794,0.43746663129192837,0.4196018480938062,0.3238212703538451,0.4196827077582443,0.3493894503142118,0.33920572948672023,0.3519385098928658,0.325939616374152,0.2845669024778018,0.3358718747369967,0.36630717544667274,0.31340550964523917,0.3258121344889657,0.33415336579510707,0.3833990480916561,0.3325572001852277,0.3523161679458739,0.31084819369096844,0.30600626149535826,0.3420814643479524,0.370166391346993,0.3385029660421204,0.4492473727109581,0.3845612871850086,0.5290786798403242,0.43927956303359567,0.5360504186823668,0.3868411108838753,0.28439715626587075,0.3498101459214734
0.40844389348607824,0.49180903969967665,0.41493173853737,0.4428025909439397,0.33506012358128434,0.3584787217488584,0.35857763519134855,0.3368199144584816,0.35540147859900684,0.3338010134988026,0.3132284185585801,0.33972267322337474,0.34576991501965665,0.3193103975401619,0.31334847938206845,0.3491907385199371,0.3852787644421127,0.34628429830818436,0.3523339417718332,0.3526784676912345,0.3315454734209062,0.3486203915010846,0.3904532866433554,0.38382731879614107,0.4487892026388552,0.3846184395227788,0.5279504989851083,0.44241628386119947,0.5323605460908123,0.38252895609049464,0.38548316255189524,0.35917656488009553
0.4008840826236258,0.4751714521119318,0.3875905129426026,0.4452743014271976,0.38036487899654586,0.35527409464639187,0.364026405252292,0.3350058467934699,0.38706696021271814,0.3240320573307609,0.29767356432833636,0.3119692234540032,0.32744824844840753,0.29921586314418225,0.30455094376209363,0.32107075242621014,0.31987845278070903,0.31580639494905044,0.32387958266953837,0.3389025283813669,0.3294421147295994,0.341583855563913,0.3840737446930483,0.377644965851677,0.42393839453311366,0.3883238848328187,0.5469813832511492,0.420322579088262,0.4889378420819118,0.38452032378493206,0.4056144245016573,0.3752335933495109
0.4173347728276166,0.5072445279263099,0.41601063791392257,0.4311466751893874,0.3770437048031752,0.39719998529065503,0.3913353322902264,0.34082906192548285,0.3870509738994845,0.33802890427731547,0.3013826788973675,0.30457279102720575,0.3223893786537629,0.29719111188824354,0.30375805864273325,0.3097950134727697,0.29775241413932185,0.3051353959457802,0.3120836586577893,0.29594748044267244,0.2912655517524184,0.3329415514399418,0.3758256461731317,0.3363197892313307,0.40729752054572693,0.38660499869053305,0.5526950252110598,0.3684599794182716,0.5147084028372474,0.3854051964803644,0.4194876017547207,0.36831900333195633
0.43247419966184664,0.5331916625710132,0.45877282332945124,0.44906757179563617,0.36611435872475684,0.39376131999961533,0.45724420441336705,0.38812156450101937,0.3700505032067661,0.4009869531606534,0.3670389639961336,0.3257727190777391,0.3409567247478818,0.3326959840029119,0.3113035834048547,0.32849700618742034,0.3351655444078573,0.3183008975907551,0.3322251516104687,0.3232697769010114,0.31097475320370327,0.36447351061225863,0.4162562390520468,0.3419384319096736,0.4529303986572081,0.41018638494746373,0.552324784621845,0.4145789699390316,0.5391090086760695,0.42685387493521826,0.41932778274321697,0.3966312709245768
0.4015604480664291,0.5053135841245483,0.4502011877459904,0.4339617479139756,0.3727596467018175,0.4290187640055923,0.443544097831205,0.39091959608598775,0.37248309099383514,0.40366365597320497,0.37265052604802246,0.35871072410011645,0.34788071579031493,0.3717139958826111,0.35276703143526267,0.35979941410143623,0.37067777458597445,0.36119686165370035,0.36627990146631134,0.38494374131520054,0.36593833779702156,0.40015367837006083,0.42803429920752567,0.3838207603786754,0.4411981589465583,0.4201130320562458,0.5315677946510872,0.42379048151836685,0.5188334694188532,0.3989761958170343,0.3896469717323439,0.4105379041497182
0.42445557231826725,0.5005119806584762,0.44816072871146284,0.470657924747577,0.37242174781686255,0.42834992129256994,0.4305062681344821,0.38778409631249494,0.38120262474815336,0.3852012880480436,0.3549986820839898,0.3794278999000059,0.34621443894293313,0.3672741822962674,0.37135267210609657,0.35151112231515086,0.3364301465444158,0.37049324730607935,0.39233605889707895,0.3355446428572477,0.3699646452410416,0.40714021562715164,0.41615510763394076,0.40212385974462184,0.4277179466724297,0.4053343986400339,0.5271014709188573,0.4171406987187112,0.5203664906175558,0.3854486793754207,0.3846502047531494,0.4086699691786012
0.4539855418112094,0.5203557476970238,0.46709018632851373,0.49280193052865084,0.3595749296409854,0.4287987080794675,0.44808342227332887,0.4016778445413718,0.37210725013091167,0.3712690551167353,0.34717961946837766,0.35673243190258425,0.35659485329724816,0.35100360005290204,0.35724129743104294,0.34465019002181185,0.3062456612608225,0.3370768328959716,0.36573156140954616,0.306076970335796,0.3302226087973498,0.37520046668395407,0.3738305907844146,0.3861134859604309,0.44285956524852815,0.38530266750860565,0.5481357210664056,0.46045842839070733,0.5214973791398853,0.422176958631827,0.40922601954295396,0.4123065282574897
0.4204958494258158,0.5105833082226523,0.45382217174483824,0.4426174074013733,0.35659145777963824,0.4395347188568289,0.4674155813201747,0.38506297262635697,0.35170753508130165,0.35383928116498103,0.366772689150793,0.3286789822179299,0.3231378761600622,0.3268435521026613,0.3515531386153045,0.3572112648915787,0.30257607088081356,0.33384794795507905,0.3516215590921009,0.3486920306744483,0.3569603217733641,0.3410979736325428,0.3758010818564342,0.3784744462216427,0.4424066715574735,0.39605850996343595,0.534260026619624,0.4553078888116222,0.5144768766598165,0.41704371312209504,0.40543892358302086,0.37445993791913784
0.4419125769246814,0.5160546968999703,0.4828586041067218,0.45509473037423487,0.3744324136766014,0.42041132713190166,0.44180664824729343,0.3510339192374137,0.36261494177770437,0.3485070935961361,0.3443672860520925,0.32573469313384845,0.33348895045389676,0.314254407299069,0.32732172032892837,0.3511656059792888,0.35755414751855424,0.36102846625949286,0.37199155833895076,0.36225717579019606,0.37650048450317675,0.3559282272783366,0.3641291584339633,0.3605826549421366,0.4405620396842134,0.37930970044102746,0.5134199447336026,0.43183038025520903,0.49116625355067073,0.41235957494454256,0.36474682976295564,0.36007950093981433
0.4338087440738157,0.5123664595642733,0.491234609406396,0.4807718185530664,0.3622037660357102,0.4030614104533866,0.41024346787364496,0.33475937503674186,0.37878278126545617,0.32762782108243726,0.32812334853141484,0.3362272056233126,0.35300471563951547,0.33517826020400554,0.3402916528921105,0.3572103494067312,0.3231867166128747,0.3299980595273156,0.31524836885602653,0.29799685381594615,0.31036668004721557,0.3444643740138193,0.3139858187786659,0.2831772780957436,0.3906901903784773,0.35522565794921657,0.5034581235670271,0.35638554569972947,0.4483422723674163,0.364108174679296,0.3623575587198998,0.3769783681714413
0.40978451822245815,0.508216659117964,0.4472060726632027,0.4469103528501798,0.32276058682424846,0.4324532693685514,0.38176731910136497,0.3454572832099863,0.33994172909242776,0.3105092094478295,0.29489355086121566,0.3067314311598015,0.30844111478719916,0.29495314563633745,0.3014256115069104,0.3067528514967944,0.28718491763373794,0.2937693599076146,0.2893769346981948,0.2775599530317378,0.280998779994411,0.31509643183283287,0.33979890408592667,0.2893270590099242,0.3977560794016535,0.3798034523839034,0.5020292621231125,0.35059307471801204,0.4598762946177583,0.3537395885571885,0.38779410977078005,0.39636609339521284
0.3979162614962177,0.49564338296709465,0.415837015088797,0.40533869054614274,0.31368779434085353,0.4252236059953862,0.38271166068195067,0.34499117830491816,0.3181367159399377,0.3301203623741215,0.2963808498200342,0.2995827776650585,0.2954670410509119,0.2862634729925701,0.2919631672212074,0.3031180845848775,0.30442392902709103,0.30368825618807016,0.310898002053315,0.30943963004822306,0.3070542826821845,0.32402989800493087,0.38309051936604566,0.3442095311750954,0.41291807619210763,0.37636928996728136,0.5089377865935556,0.4134226092587875,0.4971721350438743,0.36266736613595557,0.3626716193803335,0.3823913890225914
0.39065042986298765,0.5067737575223743,0.4087015749889198,0.39602918960201644,0.3230827145083242,0.3803890258019514,0.35645796454859846,0.33984471315750653,0.31053910665618506,0.33374404245372513,0.29662545621141473,0.3047226707401971,0.29421981659229585,0.2878566713501144,0.28849287868383167,0.30335871856839786,0.3111680494422276,0.31336493482039396,0.3259483716409126,0.32536582552717835,0.3285808926470585,0.33513539303050693,0.35709430184346885,0.34198440492050475,0.39151164742059386,0.35488711793590233,0.4992218906706202,0.4081555347908422,0.5046451980939755,0.386974293684146,0.34646689583928914,0.34620518553528823
0.3560948671448023,0.49556353611829873,0.3975421069802514,0.36275260077093646,0.3082518869296355,0.3550658637107135,0.36290813721929666,0.3373620296108571,0.2884952742134794,0.2951236129977126,0.27747207422473824,0.28364895126959794,0.29363259313801465,0.277840137673635,0.2788435176131152,0.2983364690290511,0.31439304133720447,0.31610463556142526,0.32347469453557237,0.3232446436208241,0.3216329056088845,0.34589565708618114,0.3253748263620186,0.3490150396222526,0.37416174877224734,0.33747443098655433,0.4886025370918328,0.41216872368068475,0.46531204387510106,0.3727695078455479,0.32389994516090176,0.31500928421913355
0.3381202650952333,0.48460346094414875,0.39314582860819464,0.37953890374055854,0.3115868119607691,0.3996397714281234,0.42648784078994467,0.37364473634657014,0.29535112847643463,0.30636861364485085,0.2828889085478334,0.2767998916089333,0.29126438402998894,0.2804795589971536,0.29913496117996713,0.30899798258869293,0.31120571632650795,0.2977639504818384,0.2986825169669552,0.2851087315343296,0.29120627228932383,0.3206468363351272,0.3250355756845837,0.3179153857197241,0.35474156454048306,0.34713775788682016,0.5106418500513062,0.3846568469377668,0.47059609565635035,0.3404142137788495,0.3130045129163914,0.3285744084098666
0.32314941745503506,0.46622373009807977,0.3516649396594487,0.3674447938493382,0.34869580840946596,0.3810516048619354,0.3754806086867995,0.3687317184654841,0.34457144420112373,0.3360132836270521,0.29858261396633873,0.2960649639738602,0.2985012331207189,0.2833129218511796,0.29275877606961626,0.2964770333610215,0.30670046103945914,0.28514357599204887,0.2900860820283487,0.27799402171128595,0.28795606577971533,0.31653339462833685,0.32623487141867985,0.31200072479624225,0.3706273921426746,0.38742843975285934,0.529614470986546,0.3898518636467471,0.47698700539578703,0.3374653525575328,0.3286236054981926,0.3538211851237041
0.3169317639805927,0.4528659813764632,0.3313014566398403,0.3402434362572236,0.3252907152531047,0.307854355370877,0.3069352244296086,0.31256125917601446,0.3285043222941621,0.3129995770698421,0.2991389577980018,0.3062559285341277,0.31703198543924876,0.29195047798779605,0.2941240250918937,0.3022866803707385,0.30780239216863325,0.30784526847714544,0.3166026113208317,0.3035774193243894,0.31942010766557904,0.35200931167226357,0.33139623802163465,0.3248125767882559,0.3556142359892549,0.36711367528689504,0.49726433508345763,0.3377336167244871,0.45071307756254103,0.3406803315673973,0.3460841304655111,0.3297095222125575
0.3489923329967684,0.4952931964677868,0.3798438714889847,0.42409740232905335,0.30570947709646895,0.3702587600225139,0.31741713890705475,0.3384332066211997,0.33954625445819037,0.31633576207422887,0.30794087822360067,0.32216378738516616,0.34091665877643357,0.3103915927819671,0.31182383652031886,0.3227981376550838,0.3222437886821716,0.32701001757624293,0.33712487338103986,0.31604423195910525,0.3341861491297008,0.3803808021002837,0.36334806606367115,0.3289828392833887,0.3664534273066377,0.38034541285090384,0.5012171024951495,0.34896155634896864,0.48206415559049093,0.3804767587999236,0.3708562078064565,0.3407729622162052
0.47916953666782613,0.5363735942713066,0.4827884785362752,0.48758914162483075,0.3123406278042153,0.4854414498317521,0.44248942841533745,0.448807338926462,0.42126018518381947,0.3978301842063668,0.3860941197677499,0.40653665404724637,0.415315989528862,0.3875486453542429,0.38486937653954933,0.41436173324059045,0.3882641396163272,0.4091504408975143,0.3977101027564448,0.40998511331120324,0.38534560314037963,0.3985682260298749,0.412613948953678,0.36263090627997374,0.42243829043320036,0.423852859910261,0.5381343111719985,0.4509047751204873,0.5327683348281691,0.4837136785653867,0.4368068826412164,0.3642556286349845
0.49618844454778716,0.5358937291769282,0.4799628999696936,0.49046439414396936,0.37960804090522426,0.48923901298710215,0.4371612703259958,0.4486344588816042,0.4416386933784169,0.4133251193618747,0.3966817892894023,0.4086454034698725,0.40970927480591257,0.3812132327702116,0.389365927595841,0.40172095694430265,0.38085741515678245,0.4107434514188974,0.4006167730520963,0.40252186713081517,0.41030585725539315,0.379641112183164,0.4164576928881127,0.36897251175301987,0.41118494739187017,0.43285403517334936,0.5356373978634972,0.43114776359906576,0.5147383667937064,0.4636555886094097,0.43686752685143165,0.3753948045184882
0.4917235994132624,0.5362944608581036,0.4680070530675052,0.4833106229511886,0.3983927988969346,0.4892182204535772,0.4291434850444835,0.4316839618984247,0.4384493880822598,0.435636176643862,0.4182917184070905,0.42624915131366453,0.4144482650605903,0.40626718798333494,0.40579503500580766,0.40383307457661294,0.38790125339306664,0.39680419334402545,0.3815377266106602,0.3714055692141744,0.39656652855916474,0.38900268349102457,0.4047178385092933,0.36462805679787874,0.4372692335754355,0.43214518535155216,0.5234429088427105,0.4389631236794233,0.521857382926573,0.46075010287754636,0.43400491406988184,0.40915722740235033
0.4535860589609946,0.5445825207483395,0.4515146216981505,0.4739976510089005,0.3425993892259742,0.46325724766743565,0.4105673088896095,0.3725491194851456,0.356056998967854,0.3625752005415129,0.3435470133696059,0.3337322777658937,0.3356940372843934,0.32842630210948737,0.3280715264491936,0.33074585765561804,0.3295676799597988,0.31817227623398137,0.31830036121884336,0.3104723792149122,0.3360527194832539,0.34278052815599624,0.37364985575046666,0.35254496933504104,0.43173758451560407,0.37849610215405904,0.5056745712604611,0.4408744165276419,0.4987486498888146,0.43408819010227195,0.37579279266849047,0.3787084778937796
0.4214758421957713,0.5387762160087763,0.45366709423759266,0.4666092382990767,0.3578707362860623,0.43719005636259406,0.40025831234739806,0.3472967480989748,0.3321062436766823,0.3228036170357104,0.30870274068551706,0.3055331810795498,0.30963449534035475,0.3039140344404973,0.3024969438239002,0.30742225243298205,0.3175956545284913,0.29971307111086176,0.3000848290566312,0.29384167118308996,0.30842128257578183,0.3228758935159698,0.33610130787135023,0.3079323609107749,0.3693342193964552,0.3770309511074418,0.5106822965420806,0.38048278546554676,0.47442023563745883,0.4027003864409813,0.3612414797099465,0.342657729747466
0.40161151921364385,0.5171142461929386,0.42094800123064846,0.4477635604312105,0.38914512805365997,0.4488432351543912,0.39724846272199615,0.32880638242610843,0.367100153389128,0.32216674370269416,0.32746651266636984,0.33175551318882335,0.3387646474403395,0.3373510006874823,0.3327754049818537,0.3027871568891234,0.31392860629802716,0.3019685850300193,0.29535588799832374,0.2761696385818606,0.28511625566752213,0.31974126818823456,0.3108854286022385,0.28168032168425766,0.333718621058631,0.3751605757329677,0.511467377792511,0.34441952712437046,0.47251628823620123,0.35094124312607317,0.37726924238767146,0.3419228941388079
0.36986157799963665,0.4804248877513597,0.3850855235054748,0.39289813432667575,0.35611714270634814,0.37701230244673634,0.3678612564237278,0.33365503735075147,0.33654847703987745,0.31685035384323107,0.3015519532616979,0.3102926549117187,0.3072818507530392,0.3120042370377266,0.3027019120317113,0.28651183542907294,0.2946130203364111,0.28673927008513034,0.28426402427141506,0.26491241478786526,0.278380824716544,0.30358513854983366,0.3076578510186711,0.2786897058295921,0.320168122549436,0.35794137896808426,0.5022300089955823,0.3197502069357135,0.47589907862957587,0.33590474859639047,0.35156191474804266,0.35684753394367885
0.3432611998818207,0.4350906290496174,0.3133987531474385,0.34890011932285236,0.3230000935730317,0.3502044865195764,0.35617785440553634,0.3372693749186356,0.32218295588437995,0.30933775045594364,0.28683349600789376,0.29707110018080707,0.28949906144371257,0.29295900288464055,0.28861068580393606,0.2862997921241925,0.2946745403310449,0.28389473789087594,0.2828247868013782,0.27176915018806325,0.2780454430326962,0.29245150522862867,0.2968720746044593,0.28099942075376827,0.299538876745083,0.3515732702064457,0.49573457557001815,0.28796227037401406,0.4904970025898442,0.3278247080526696,0.3213820193112837,0.31384187756377274
0.31328902759003746,0.4012351946189881,0.2435546942088433,0.34203804750134964,0.3214109943195338,0.3479871393142484,0.2930801439649634,0.2678053991926882,0.32685533264293576,0.28338432423870424,0.28458386340883135,0.30445870646568246,0.304694129704603,0.3029818107762054,0.3113374263071157,0.307996791117577,0.3168497335741323,0.30355336211093903,0.30275979377850204,0.29659084444183537,0.2837031386900376,0.29148763860770144,0.28196765825509285,0.2828280273624185,0.26378048250441927,0.3097711251850067,0.5062587548725817,0.2534550329518829,0.47930666660470034,0.3314588228722883,0.33224539420004745,0.23933487631757042
0.3498390405509507,0.4648272779660995,0.29578226358013254,0.44690407113736214,0.362835360768854,0.3673984745308498,0.3035086905245599,0.2784781077024486,0.3487637807072987,0.28403965538999904,0.30326260264247146,0.33032698362296703,0.34632734315410757,0.3332837158284227,0.3508084266018597,0.3492196824843944,0.32734408093173467,0.3414957232393722,0.3415043238541505,0.335163963157669,0.3113473089928593,0.3356501154368243,0.31140994114470266,0.3015165251003695,0.2714788027746016,0.33515305849834853,0.5342004238572117,0.26305713811998044,0.481093222213054,0.38782645677229677,0.38176064353583644,0.267003132326868
0.44574592959625986,0.5172518758273787,0.4437531148010457,0.525401507968973,0.3978119741555803,0.4605032940663112,0.3773059098707511,0.3620036438422889,0.39388533226254163,0.3054905667919331,0.3198505393787519,0.3519011989621809,0.3640211774166262,0.35519864057146566,0.3666353938886557,0.35359546055003954,0.3359046993532167,0.3468089771809382,0.33696448603718054,0.3222372758212251,0.3386528397160704,0.3597956028493506,0.3702032291613223,0.3235304352904171,0.33761112889477596,0.39077999736346425,0.5287037141068195,0.36025914513534235,0.4935812583443102,0.43298561136718794,0.3877263234037348,0.40348900669870547
0.4101553328773678,0.5174194818352534,0.42106104479174394,0.5025908070334035,0.3622984038327963,0.4228587985191269,0.3463629476209866,0.3780423272798618,0.3925928662900059,0.32234984973245084,0.32020531203012437,0.3308866842077259,0.34905155373744545,0.34176324432014743,0.34783565116662657,0.3483741112502218,0.38556708837658815,0.3516468677259673,0.33088664807577306,0.33963963245305717,0.36271207481623,0.34969464448056764,0.3732719757606088,0.3202889918716689,0.38084993602779466,0.38285461919941904,0.5239728373045794,0.4123139991914452,0.5045308555696282,0.4141302726331561,0.37111404465515585,0.42542813964813087
0.43170270741855815,0.5182636155768398,0.44687685831996776,0.4631078031835542,0.3846700274454864,0.4310394173495295,0.32614954143103014,0.3893559916198391,0.3824089973294483,0.33317251325690544,0.32997116995154524,0.3310857636883512,0.33908500576094003,0.32910071695391824,0.3220410338122666,0.3196115475014794,0.316929205204657,0.3098032604438184,0.31216428421740466,0.3017472118296402,0.31627399897994585,0.35291334183142065,0.3245978735367478,0.32140413508498555,0.3572216226848548,0.4124866442292456,0.5296479389058363,0.41300018852292103,0.5043227357360899,0.42446416166961937,0.4077265806550062,0.4338071379855594
0.403697262526891,0.5222742275010138,0.44108712719923837,0.44059002593286906,0.3860965869504685,0.4642515808119781,0.32249280717577994,0.36752017852228513,0.40770720265692134,0.33418579086111594,0.3336574913680208,0.3349506164848913,0.3582526705388168,0.33210363270207155,0.3223503042963769,0.3133344957077002,0.30782355587120314,0.30591727963740395,0.3139526598149958,0.29444082697288526,0.3066273105669287,0.3625338899129439,0.3278427762084989,0.3182394481825981,0.3464824278508949,0.3888769217718186,0.48496489188399816,0.34475052865819805,0.4503371988970266,0.3836898225755883,0.3405128721739673,0.41507817089674204
0.3752252167433763,0.5167182641469724,0.3968528238843065,0.41099169246424977,0.34161702350010376,0.3680333087533802,0.3231264828749024,0.36291970011818153,0.4240867516169495,0.3575446071251952,0.3624629782169605,0.36760014727720813,0.37490711500201485,0.3686223450608329,0.35778421422695644,0.3550685767897224,0.3328997829108076,0.3336430369278996,0.3299071054239797,0.3287834527187654,0.32266338239806136,0.35856190241135927,0.3380294632405823,0.32103954924603617,0.3533519983328653,0.406546456587227,0.48831929527686607,0.3476462592255075,0.46964935418529113,0.39366013765594937,0.3470120520283129,0.3978026436812404
0.39440517856900725,0.513507875463806,0.3948571496870097,0.4038139029890036,0.35214160421952445,0.3773476026142971,0.3596756166291255,0.3997492546163386,0.3913314560954968,0.37699297020689027,0.36524513468230807,0.38081659491518044,0.3631143318438246,0.3814605240630201,0.36093247065235684,0.377886465360709,0.34525193260698006,0.34917928797916536,0.3363465880198213,0.3513244387477248,0.3360733431164818,0.35219741477734273,0.35255838501747455,0.3488160276433722,0.3716970777438631,0.4289326849948923,0.5428919131827566,0.4080951743174931,0.4857887964386092,0.4165865589999671,0.4055467006051133,0.39614946393633343
0.43351093093406723,0.5231108112022672,0.44642477805051367,0.4331920400688595,0.386612797928498,0.45742049334324597,0.3934868072760787,0.3896306853716716,0.3923204715198897,0.36444092695510705,0.358076348765039,0.36706729626591544,0.3885636921624777,0.3559679747429579,0.36079151621154143,0.38179822218343007,0.38862934108013497,0.3732262721465284,0.3639211394813072,0.3467798861640211,0.3434685109553646,0.37488048577766164,0.3853959386392722,0.38161111593708597,0.4132320050775141,0.4384416689471062,0.5532719228579791,0.4089685905090162,0.4711950758507511,0.4173973018820809,0.4027954042819594,0.43433682209035307
0.38063368726044405,0.4947586336461562,0.39884229761580253,0.432084813281849,0.3527101368815054,0.402586206481622,0.3282622379505337,0.3517242282064716,0.37670552866198204,0.3079396276652066,0.2875234477044661,0.30750182378253543,0.3539690501188068,0.2931126215349238,0.30320423668368407,0.31493176576663595,0.33552803389994634,0.3224829604952018,0.3316865930024032,0.294377150317902,0.32136021220216776,0.3757727245230847,0.355327360049817,0.31297318424946263,0.3567822112767479,0.39347649868215473,0.5428205762158924,0.3347165412516003,0.4684542966358985,0.35917433871440924,0.37418420601376523,0.4106530820074467
0.38808224717977574,0.49560486684207816,0.3949624060300217,0.42028576587052935,0.34880092916059857,0.39912823442763956,0.3309836789865778,0.35649047540597156,0.365322926080593,0.33523579576385965,0.29458495730139156,0.3129412896316302,0.346070815013562,0.29685215408777527,0.2983220508686475,0.31262297037969394,0.32722847265292015,0.3160670642668257,0.33529739860785246,0.2927092691309629,0.3319485454209593,0.3761448420143344,0.36561318569806384,0.30987751413104625,0.3524676836280874,0.37487614314499096,0.5398554167276339,0.34851482316889315,0.49275485320502427,0.3495312334172565,0.34490269201925805,0.3894098777712792
0.4261612217378264,0.501435186361845,0.4251733241211714,0.4137775292981259,0.3930964366519073,0.3935280154259328,0.3610014665126381,0.37523840779306517,0.3570074435615559,0.35194702270816614,0.32960800681825997,0.3168788075675285,0.33924468471966046,0.3096076313439513,0.3150012850402348,0.33100780099013055,0.32722271421286747,0.32067184756102324,0.3420413883176353,0.3213403207676626,0.33058218917419213,0.35608653181729705,0.39244026222155354,0.36122091865947015,0.3919019404834334,0.41749635603264573,0.5404896747366527,0.42243801146495696,0.5109729588288805,0.41654868143784535,0.3907908942000894,0.4217369575474684
0.4125931775996557,0.50411811337716,0.4184016518806849,0.4619761284003681,0.37004204040429983,0.38370939955184713,0.35302404463369946,0.38632805282569227,0.326513320248641,0.31560990713397896,0.2934968666680095,0.28835732393486224,0.29296010960117047,0.27828451620283867,0.28855477655662554,0.2888925037604323,0.29687702253089826,0.2881512942565086,0.29867423338441873,0.3009119777645728,0.306460392942571,0.3334741599078125,0.39164414558023836,0.3845214708481847,0.42899016842412535,0.42224991502400955,0.545151871015775,0.45055741268138616,0.5055820113338938,0.43800989341837543,0.4054196573770816,0.41662812323504134
0.4414378204252935,0.5170112505994544,0.436475439744921,0.48447609290744914,0.35044358200566356,0.42180577335570435,0.40046692991591537,0.3911307114360699,0.3238100401124839,0.33680907770899626,0.3105666667593584,0.3057821384959878,0.3022531922459989,0.292387203686626,0.2989768781506485,0.29964020637050365,0.29540613208205246,0.2925901509831019,0.3021828288279783,0.30039942105220346,0.3177361875374215,0.33998219388364165,0.38347306157822914,0.37113897596793993,0.4343658586132766,0.4080795789953898,0.5441972191570338,0.4519126592712491,0.5164487034830678,0.4523024309218413,0.412918423453387,0.39914535914867694
0.4369023701220332,0.5128595907001172,0.42604372965842047,0.4641950834980441,0.37463933649329983,0.38440016127316734,0.42565860688144574,0.38191057490168034,0.3407851374484001,0.3596140709687952,0.35756882743995916,0.3521411135366049,0.3566449956994345,0.35327539778589223,0.3535614999002595,0.3576541638385104,0.3175704227114602,0.35318755993187523,0.3594506790075204,0.3447503619252246,0.3661478254943627,0.3830948969670771,0.4135999113605888,0.34890943641633404,0.4328865447544214,0.4295716916818775,0.5453222824265709,0.44076207849691684,0.5356091790056476,0.43403652615263144,0.42291902539526766,0.399453618169091
0.44974894008795196,0.5218742115302974,0.4411972871346332,0.47750269174991045,0.4040451182830152,0.3693859452042039,0.3281441792976754,0.3815558794012623,0.33066610156093146,0.3489525652502342,0.3474219592346685,0.3508508666591664,0.3665470514901893,0.3586872798077869,0.3604409711729759,0.3834512601266553,0.35051796896459486,0.3937188843559069,0.3892825436019462,0.388535110016501,0.3908492127142132,0.39968140045020595,0.42762360592071563,0.37319086888137665,0.4567096084781104,0.4378185574781497,0.5519144243114452,0.4623046579025751,0.5432595271900771,0.45080024684455683,0.41267325671078764,0.43085694484318965
0.46021297301592595,0.5125329364508392,0.48828478157165955,0.4684455045771814,0.3457576852675316,0.4273374740143806,0.26882863304001453,0.3830557042903362,0.3353408398383573,0.3570791680358882,0.35701036896431104,0.33706199294111877,0.33788466816687224,0.3465133059866979,0.3583319693754181,0.35813922142546434,0.3212707224716314,0.33702882582116483,0.3250972496886203,0.33633167176686085,0.34633035419643426,0.3562352067934387,0.37453198277105965,0.3934924648796174,0.4460956730793451,0.3752523232839241,0.5493986743497408,0.4678458241046139,0.5419885707597747,0.43126227259885613,0.16631793420761318,0.4189383403733308
0.4382714186687782,0.49767018079262626,0.4678408018494892,0.46159810740604396,0.3302232338377068,0.4233259032071201,0.282555993178662,0.3677368045790107,0.33434087599269197,0.36372672742996676,0.36961818935852153,0.32249758904569786,0.3058893001248401,0.31589310747278987,0.3222606315681681,0.32298099753105497,0.2888353167237516,0.30470703842750557,0.2967077351927863,0.3103528580903545,0.31506831545524705,0.31043220401748356,0.33161360496861864,0.37832387135245704,0.42010959175725643,0.35795420858413807,0.54228631648953,0.4403248348816358,0.5251474798521314,0.40793158165063137,0.1817991434408467,0.3743746717942818
0.45236742963334514,0.5111917162990934,0.44289847748774175,0.4740108854915356,0.34811490552518426,0.3798589842394729,0.3314248412672154,0.36567360573032154,0.3439193655498854,0.3596478699405746,0.3792009004312489,0.3429803819721361,0.32179771431486587,0.32323793002846885,0.32440939436330885,0.3358188771584664,0.29689319801397096,0.32181080957860786,0.31689620456282325,0.3396593948713073,0.34246183425389704,0.308015348007623,0.1430116003791372,0.3958024213646217,0.43141954895785734,0.36435120728281334,0.5375452704568328,0.450098490466955,0.5291708104623336,0.4334050819402574,0.18420355090545537,0.3410727651891051
0.4344002345484645,0.5130646640817891,0.42095713136192253,0.4477639524582453,0.2836054419472022,0.3719768941777279,0.3963310867404626,0.28442009965971377,0.30658715684477267,0.32183452529924145,0.388965200025436,0.35522266254179763,0.34636700800274856,0.36513804949457296,0.3529245497024375,0.3850222601035672,0.31600698475227135,0.3601572451881066,0.35777604827431586,0.3729767994106119,0.37826471857411664,0.35029791124216486,0.15842634404205042,0.4224927720022636,0.4186310930711325,0.3915320971506994,0.5294280166796884,0.451974741992268,0.5385330804159969,0.4389299281410646,0.20052782215618598,0.30844200903479563
0.31606010745706187,0.48024340955932004,0.36454838613506335,0.34107700323603823,0.14149297421065177,0.3317320455579653,0.3401587184353612,0.2185471924424893,0.24492648043566842,0.24918273542508787,0.3189737440971479,0.252582588269932,0.2610233367693851,0.27635462032467806,0.29717949834139507,0.30124800667929,0.30325603745278057,0.27588899481007634,0.2654147987835534,0.3076374687449054,0.2880743535707011,0.2618611877855982,0.17392560623039952,0.34875281788985096,0.32217381539780265,0.2676877276023237,0.4843804375469984,0.3539879938639474,0.4699264425772701,0.3340254999507704,0.23867422195300328,0.24752229144573665
0.310935501088609,0.4918323978991029,0.38021561846149876,0.37993543213934095,0.12466385764731902,0.3308639518230528,0.3607654253939876,0.22380544664358537,0.252597660865792,0.27298184858449925,0.3332488566057714,0.2711234886435616,0.2674627291586604,0.290318535631217,0.3207949237575869,0.3088589239108517,0.3244346079138832,0.2769305600004281,0.25898616244885064,0.29572728969580214,0.28248683325085044,0.24351336008729982,0.20431633479277433,0.31558493228253554,0.30431084064457187,0.2476874994427643,0.46156247135275763,0.3369596803948885,0.4756094230826486,0.311363470847219,0.2101032929844805,0.24853085042966497
0.38451869204664696,0.5289729379095206,0.4648049813845294,0.49708043562936266,0.11260643019222998,0.4114264377116436,0.4133590728586729,0.2937301610756183,0.32287480041988176,0.3485398025268834,0.36306583912132695,0.3532284646822494,0.32812570494475274,0.3383401451293207,0.3429875962073112,0.3424861510122783,0.3562783726061094,0.34159716235924226,0.3485336803086384,0.3676255634499672,0.44266351116946684,0.3171431861096785,0.3257342074910152,0.506281230608608,0.4102829459878576,0.3182197490588185,0.49414766815719846,0.4051448621816677,0.549850608144614,0.3888201681990402,0.26151067739010975,0.33820858550239996
0.40861200665984354,0.5208589128287969,0.4393459004314622,0.46920451283381104,0.09709897154337939,0.43420562886570946,0.3582180149369385,0.2941860895982168,0.31160462579201204,0.328810775029148,0.35774704540207475,0.36332809882763933,0.35440649021274956,0.3554641717104383,0.3755359161046768,0.36961990732457256,0.3606998310173356,0.36263374747330973,0.3682202401017715,0.39492345756373737,0.4629321400672101,0.34968255468867077,0.3089602379965344,0.5162133310962687,0.4449204562194152,0.2622861963904566,0.5098537941181065,0.5058734304570771,0.5436521769078168,0.43150990158968827,0.26214206307050325,0.3348296943519558
0.31620741033940863,0.4566338615942893,0.2672484132614953,0.4136271571945454,0.22401387015119592,0.3012746517364472,0.3914395016885559,0.27239605462841165,0.3029573307320665,0.3413409858416796,0.3659953489072695,0.3751779565070141,0.3554819710870624,0.37452932790502313,0.39231090573937144,0.37376071906714214,0.37447436325095335,0.35774027518564655,0.34956646967914107,0.3737454049777349,0.3972100123908705,0.3308413639840817,0.17161085001703827,0.4207098443678739,0.4231626532395529,0.2787657645229939,0.484190152698376,0.38057823266988833,0.4991257736421064,0.44559740538988557,0.28979568399798816,0.34189496945834497
0.23838748472643026,0.4124767292880564,0.1786606140800814,0.3513499088275391,0.28322215200982276,0.18779016664621642,0.2971767343296774,0.22418394559991217,0.2619671145093372,0.34582790787828166,0.36900984433699735,0.36134981800402144,0.31419217057249815,0.3537193034036899,0.360436080796025,0.3462338058645584,0.3469743581208727,0.3086645217116216,0.26780644502469836,0.2942657944516597,0.26486278300133853,0.27412044298815486,0.14134552093852495,0.24455023889183475,0.27692243780845494,0.29574441785730643,0.43354704970227503,0.173260768669287,0.43709890447571587,0.4361546069112939,0.28516364712157,0.24502362488226356
0.23780413558440608,0.3346301219705615,0.17621171260227508,0.32222472411600855,0.3561264638815537,0.1962837768985457,0.20430330128384194,0.21146512108870272,0.2488338121415346,0.30705634327502446,0.35477593444109085,0.33061726137020786,0.3022281859092503,0.3377675528724245,0.3192090998362311,0.31630740274663394,0.29960730023003623,0.2798943771626519,0.2607640243055502,0.26032637103920303,0.30839248363489374,0.2860969489893504,0.2129366416869889,0.2673559911843063,0.2946902598925416,0.3198679661950318,0.45118778945267446,0.18023967598465646,0.41781476230463827,0.4167395409098618,0.27763247368880206,0.25645545386945084
0.3112383561237575,0.4493532036055275,0.24775015384218224,0.4474635047460677,0.4567711920448942,0.28840360661117564,0.22916510556794586,0.2861568431180578,0.34965321536429417,0.3633311464362466,0.39385866044718426,0.37336529774689353,0.37185837655000636,0.4076884185527522,0.36050700875407204,0.3748770259838818,0.3358717274874949,0.3521686188852399,0.3331754328523149,0.3004361863848426,0.3632511280413642,0.3285261291409558,0.4040928114443595,0.31785909269868684,0.3582413751029802,0.36489862416700714,0.4922943002102382,0.24934343677929044,0.4687114743491798,0.3987188077127007,0.26868423366245714,0.29007479056199714
0.33164584059714847,0.45402706469042525,0.2557513237097191,0.4329036273455494,0.42170035458003163,0.3102635833578116,0.3065293654269526,0.39914251867271006,0.359418558996153,0.44554823630618196,0.4215874666590834,0.38644847957828526,0.3448192907261783,0.3928270840440705,0.3678223426762357,0.3633815810273211,0.3283257491900182,0.3350333873460427,0.31052331081503204,0.29126460645380753,0.3068303610527194,0.2881997006854721,0.33075913452049127,0.2895111802694232,0.29525761085645125,0.3463313098362623,0.46768016150421887,0.2260010769355706,0.4506239965654727,0.4052169572743226,0.23341149358461816,0.26225542291175463
0.34761900225367637,0.3922753015161839,0.2748006071193365,0.3955457801431643,0.3987406095762561,0.30966469101610283,0.36875021003442215,0.3914349730125388,0.38117394556912587,0.412337694525499,0.4130780993776028,0.3794762707271944,0.3489237864971424,0.3777758976119043,0.3928239961629469,0.3723355063937464,0.3506358055442202,0.3495814852542935,0.3282551581334836,0.33889603127018303,0.3324172182721297,0.3118219036198858,0.3486411270237044,0.3396808783156976,0.34724675989983267,0.3501672365673283,0.4787321574039721,0.2506057326452744,0.47023091402638734,0.44010784586994717,0.19403549666187958,0.27614160329361914
0.4576992868344304,0.49648408539322536,0.41161958216527067,0.44668052966253063,0.38439983659705773,0.3788915511403513,0.42339086075562127,0.36712199713588206,0.44097709521511014,0.39520405635492784,0.4345051986916668,0.4044772977778089,0.42012983678205884,0.4100724778279535,0.4361641014338539,0.4202574094975279,0.38809437627110455,0.4029749314367062,0.39449499215399836,0.4129933725354623,0.4363137695434072,0.41258613966526086,0.4483652692104914,0.46878586192389643,0.46981817350265115,0.4528606814495559,0.5124992762504892,0.3639881640581933,0.5088408285315468,0.45336863372275693,0.43089786724787144,0.36341396443852325
0.4500733607060238,0.48717549371094354,0.40392496268213074,0.44743490794766094,0.3284536551765833,0.4165636112394881,0.4096366160406085,0.3515763352554267,0.4193249502260742,0.3886635606933673,0.3961140054650775,0.3931471698906075,0.4098551154189416,0.41096027337834495,0.41960477521018086,0.40253387142311875,0.34993831591493796,0.40383132459513693,0.3986060470625035,0.4381021788485271,0.4690475184562179,0.41645365965514575,0.4364415424423921,0.4904231915523519,0.5066849191488626,0.43881818168711384,0.5144983400989405,0.45980220408790856,0.5089551926022868,0.49192277653027705,0.4484053732211657,0.399123458132386
0.5066521504952652,0.5445074838785551,0.4946840229975597,0.46589338951739495,0.3693111363185372,0.4729304149558892,0.4043090842054619,0.3857682143580965,0.39988178045387335,0.3893455436512186,0.38631746875082956,0.39386949463288223,0.4187974884060719,0.40765318340423834,0.4011633469656817,0.414448949371567,0.359100648236526,0.4461430322223809,0.45401887974598,0.41852749276443574,0.49314343497668645,0.43946429499038014,0.49272740195835846,0.49425054608952945,0.5241380759226609,0.4526009966325018,0.5242788692608182,0.5110001347075624,0.5270196076542031,0.5048370218412923,0.46003739678411293,0.4138068604329171
0.5075798178529862,0.5378180385512866,0.49897929783259254,0.47128785028151443,0.430617020633683,0.48112181543997384,0.41662774165796596,0.40220906841141696,0.42418040013743524,0.40723335723190207,0.408350995815894,0.4247865332374442,0.43673775754595484,0.43315611162294876,0.45485217905834885,0.4447333497692318,0.40314126944760004,0.4408122231933316,0.44402733239327113,0.37930846696230086,0.4381273354190967,0.4459041173960826,0.49108405897357843,0.46794357110350027,0.5025649753478837,0.41844458687098673,0.5444030523334972,0.46629989527493154,0.5181283622712746,0.48434493082445945,0.45573589184376534,0.44728980253952744
0.4762387004891519,0.5135127727506589,0.4670930994897755,0.4833607993667538,0.4002472278100532,0.46702410393504423,0.40398422790144267,0.42245951559451933,0.3878096792562831,0.41386346046458633,0.41317725610203265,0.42224681704918027,0.40671091337033183,0.4205341125347054,0.4366909010874833,0.4240870091599182,0.3741467523386148,0.3739587227132762,0.3623912800523555,0.3437569959545507,0.34811192373658045,0.38101417442742386,0.35952860409959897,0.35419287679865713,0.3939984370966977,0.3390736323237492,0.5334289248386014,0.3996877144111329,0.4668867487246227,0.43481096941713615,0.3945201074857524,0.43761252434445874
0.3894964208598166,0.467735165853472,0.3706973215431162,0.41907953069919385,0.3761887524694998,0.3794924781685745,0.3951578729035089,0.35524847505747426,0.3451145699183729,0.36929585156326555,0.3834652836733602,0.3716098212830844,0.37922902067409775,0.37179547724103257,0.38352504208753047,0.3804472099566923,0.3298939920674085,0.35657106913853404,0.34468668662409474,0.34008487910953344,0.3376235318067501,0.34814598138892644,0.34165741533447497,0.3295942378205342,0.36257043534264344,0.3154561569824223,0.43601658222564804,0.36975304571914935,0.42496292270284874,0.4095650807082206,0.3228754323638547,0.3870843512236565
0.37938341054949676,0.5043912334259046,0.3849956532131914,0.41963027185392215,0.35986499891205675,0.36413697949955154,0.40720923661359726,0.3234430369113882,0.33193882801882435,0.3461103349158531,0.34355011120631784,0.3439929818125977,0.3512646077982494,0.35387686856141337,0.3533559763807485,0.3513129981976589,0.33571516813799646,0.3579151878111238,0.33034127961293613,0.3332626923008036,0.32312033770990645,0.3315619562599973,0.34410686111127853,0.33585029344536166,0.33897211653220827,0.30861940920457687,0.4456479647102512,0.43146398820047066,0.4173850253461926,0.42212463835383873,0.31042121080318263,0.3855824363148192
0.3602439468704222,0.4858787467021144,0.35252712437726536,0.43259903793203575,0.34628700772373533,0.3644957080309149,0.4206193699221779,0.33439500640474906,0.3360488744528055,0.33761037115351444,0.3247829393399991,0.3203302854151814,0.3366935317001969,0.3228800628230767,0.317699999577343,0.3283041091146126,0.3209487333875264,0.3360516459348539,0.31917927721106687,0.32839989277028264,0.3326051961089973,0.33179294835833967,0.33058338234115225,0.34828923535542267,0.3266026486483115,0.3093408908344173,0.45594440536804454,0.3877147177150138,0.45677620720172435,0.39229225895777975,0.33578917766115707,0.37672644630963803
0.3447280412917262,0.46460238640566637,0.3099197589701368,0.40550682209597166,0.3473301030077055,0.32773651190160474,0.440454904247615,0.32903458153902687,0.3288177483435513,0.3299027830249258,0.31946577277732013,0.3054702816104383,0.314472677561625,0.30765717231587086,0.30636759325872276,0.30093161195445284,0.3087881866831348,0.30207613454259974,0.2930170495493748,0.3139879156353718,0.34048942702637597,0.33466530242245596,0.36162389277746076,0.35833835885023113,0.34463999674453627,0.3549529891957185,0.5031008584863464,0.38131006085883207,0.5242856829871071,0.40206303383644276,0.3662348039694533,0.36862135898588716
0.38346053109709033,0.4895642394610459,0.3361253724183894,0.41909475839008287,0.30622539516321695,0.32432893337059343,0.45973499961903963,0.39980673281742557,0.3633614147255009,0.38200563267974635,0.3525318520713278,0.3344756795362957,0.3367258461739667,0.3317103616591509,0.33871754779308505,0.3065944208559767,0.36913757102581507,0.3175159278841109,0.30821656773385464,0.3245724563594552,0.3525302096366782,0.3773166719584353,0.4037075626135577,0.34466858539853207,0.34324166334326023,0.39390145007975597,0.5372359023201422,0.40038363946957495,0.5170090163871494,0.43518997470910464,0.40077380551046315,0.39790382419674025
0.41737278781785603,0.49374855403859225,0.3785394389390044,0.4493104947569335,0.35141072404958706,0.37737215696269655,0.4368957715080636,0.3965348603586469,0.41001914751768803,0.4027323410325244,0.3912927214053722,0.38106655234968806,0.383395273191889,0.38546060085799067,0.40117203987762895,0.3869888498014257,0.40512129438515215,0.38503402146849197,0.391858924661985,0.3982611211532575,0.4184459310470179,0.4184653657482272,0.4258681890655923,0.3666027393587142,0.39415148271343725,0.42346499467729287,0.5448434538066649,0.41593814191634065,0.48614126004821206,0.44439771828196056,0.4231816468231335,0.4283689085143374
0.3998127976997104,0.5027608047133472,0.39335592445989837,0.44245798388968816,0.4043114863246751,0.3962375462069348,0.3880810962478834,0.36679439738857544,0.40038381730606987,0.37374339507764576,0.3834650132648644,0.36753235316454114,0.37585432342774255,0.3920887854863031,0.40565866022658403,0.39604963234757146,0.3441626045773225,0.36897182618547036,0.37010287675631737,0.3481788473136632,0.3333148975938191,0.3712775921948185,0.3556707033046599,0.3099052967636404,0.31327460156229875,0.4216395651753496,0.514626567463133,0.31388018208620394,0.4396856213005701,0.37281397365259655,0.4094211038929465,0.44044903589254386
0.3557333215793511,0.4918887012995906,0.35974294785936933,0.40885200035461977,0.3931996682754738,0.36416328072323045,0.3704647110133455,0.32122017193727787,0.37615574107385996,0.32483427866109743,0.33480048893146513,0.32488114061482104,0.36490371549520767,0.36978605368253886,0.36119980216519415,0.3852687371281185,0.31326806054090967,0.3575546415006113,0.35610437191193345,0.3257115769280179,0.3094404958665439,0.3514128467487871,0.31820772804448927,0.30291917709336263,0.26233041756186537,0.3564843631738437,0.4449812200086822,0.2663079336242021,0.3719102095293927,0.3284960442432649,0.3593887500825706,0.4076449670493746
0.40745643253255404,0.49308520794552424,0.4107551217112789,0.42649037879796137,0.38424414435335646,0.3731747897514434,0.422883203947471,0.32164337313186997,0.35785324786562345,0.34409075189442145,0.3303058370725487,0.3174357713210745,0.3357010167730687,0.3258532747001941,0.3243114492235971,0.34609002662644056,0.3330766447705032,0.33262139915381245,0.3670606352210834,0.32669302985694915,0.37558938603559305,0.3879414455555455,0.4017133258882916,0.36108111236135987,0.35468617614484305,0.3890204879092726,0.39688110226490303,0.3678174466089824,0.43000978537060724,0.3928261382285434,0.38254985643074074,0.3698638752076919
0.40694694505947915,0.4901602181288942,0.4348609129877329,0.42525683331231695,0.34127071700094513,0.385334311942054,0.4444809067208052,0.3638999931406913,0.3541139209013095,0.36061798148224944,0.33443226876156695,0.3251008205503088,0.34049832354630527,0.3200160394855846,0.32401316304321975,0.33552991884987177,0.3358662696753913,0.34044440439010465,0.3825902776073298,0.33197668208737396,0.3831353154367141,0.40670483051290124,0.410764681852786,0.34619319255402053,0.3603995808205148,0.39271474877381723,0.37220074549799453,0.35196757725476074,0.4052607693599543,0.37542877245084844,0.36688077063989727,0.3823438145382052
0.37728344882378667,0.48958331515607556,0.4138136061206667,0.3850428330671697,0.3293596484940646,0.3784573405992095,0.4359771418384943,0.39639118119591354,0.36933595219353993,0.3646939061866269,0.3243073756513637,0.34911334055904464,0.3378345899023882,0.3296320383417537,0.3285915350533562,0.31355342853511475,0.32671747632734444,0.3219092903294931,0.3248142498528887,0.308793264252832,0.3369134063412656,0.3700063969645837,0.3542181939183603,0.3269351251863195,0.3431569081494171,0.37862651069318276,0.37798842710104913,0.33043260113950956,0.40500125246625623,0.36638098381484435,0.3645792360038985,0.3994558927451591
0.33008955193327516,0.4864473316559709,0.35424466115229897,0.3465016386418789,0.3637725661591218,0.3406361631236902,0.37009956787117493,0.3539919504164599,0.36011339817033805,0.30991636737628764,0.2877623473283035,0.3298409292957615,0.3118929935532758,0.3113669388212092,0.3026781769690183,0.2906248464608489,0.2996878269167365,0.29094718406364084,0.2928055163035121,0.28433928366448347,0.30238740438898726,0.33184181500735854,0.33146477544841885,0.309344750064247,0.34838291072597255,0.3610022240948794,0.4199092421788285,0.3289664796201499,0.42298032696408683,0.35298851634062395,0.35942104494132726,0.39079674597803843
0.3123876079502571,0.474151550430624,0.33108169414748095,0.3680509137822804,0.35201073544867406,0.2967992142016999,0.36769110738095645,0.36430711671664323,0.3090082714189882,0.2886379371848908,0.2874160854984634,0.2846524841891644,0.27924489981174155,0.2876040402570588,0.292170767126704,0.28711269004923534,0.28986787769216626,0.28051611711948204,0.28953334474942966,0.2889052401866553,0.3052800240176416,0.3132875579046872,0.3449156239065648,0.30461700259654234,0.34066423089426046,0.3552859209520766,0.37103056442078464,0.3089081017446268,0.37524179543704833,0.32842719903395023,0.31809276104995005,0.3935425475220174
0.3334167253126418,0.47535884994251865,0.35729293579393406,0.38554685966141744,0.34426705459174395,0.28858863570566073,0.39344924924065355,0.3517576720755993,0.3126698783245967,0.3101567687398833,0.3072593359667178,0.2902640539504679,0.2895266017386016,0.2855050967588507,0.3012494025804766,0.3001979840800122,0.31355329153955724,0.2921354999420259,0.2896377663236299,0.30143046089613146,0.3130201505944655,0.30960085351940286,0.3334110406711376,0.3286167947473305,0.3191430241118305,0.3516327776443959,0.3613612704786031,0.2947800378784257,0.3799687861009632,0.3425002623633595,0.33264341212239623,0.3740637925844887
0.36217444954120853,0.496264243431038,0.35875403075345585,0.4114737349253148,0.3465030555803816,0.3136660427332105,0.3901423685804396,0.31918157408703074,0.35873637858104623,0.32076294647937537,0.3140646241930922,0.3176754373584757,0.3231341849959893,0.3160342236407421,0.3333641104429066,0.33293503036354133,0.3216362251304993,0.32309224112346724,0.30927467900899946,0.32195655899175796,0.3278323427221254,0.33216509485708606,0.33618480324206274,0.352172561845122,0.3489849808315497,0.37651779159841503,0.40685693421334795,0.3298747598229081,0.4224942384514213,0.38967569472023,0.3766429072639964,0.36003927230359145
0.40766912224813995,0.518047189785309,0.385223835296064,0.4255847010428379,0.36942133172778674,0.34764295321320643,0.4439799712408474,0.3463465195364144,0.4043225408819781,0.35132993839922116,0.33039984393009264,0.35262016510410865,0.355650385381279,0.3541318472412118,0.34903837848146513,0.35297133562586575,0.32846078060699124,0.3497140237711525,0.33884947870657467,0.3240528260348577,0.3507361535336948,0.3672810996421739,0.36180394814675826,0.36485142290479816,0.38094558710709503,0.39313993138176706,0.44570764308807237,0.35777693856370574,0.46804966104903023,0.4100184054795477,0.3822709603925243,0.37854954420457304
0.4267975542928199,0.5265293294319561,0.404654591827717,0.42844196106749277,0.38164083914839514,0.3953959201419745,0.45643145389532724,0.38237008024882746,0.39017191745226243,0.3912023476484326,0.3507781391963259,0.3698825247348443,0.3729716773256855,0.36875537820615245,0.3564892141085989,0.3677526842875342,0.37520366112811204,0.3491330083777695,0.3512344813695546,0.34375516821640706,0.36061052323045206,0.36306235611466176,0.36404116175272805,0.3753420904573451,0.4090824592085404,0.37019109908902814,0.49607938161178977,0.3982327971593384,0.5050621709417213,0.41931583297540787,0.3577660326175812,0.3989290646457898
0.3136144275328182,0.4665326210049874,0.2635204566619111,0.31253717814080223,0.33166774364272905,0.27853615798760595,0.40115291173520096,0.3228021667033808,0.35793824785390316,0.35877502495705826,0.3529007925715032,0.37543613012724536,0.37273132837863604,0.37610653608480893,0.3648426687593092,0.37273606822677563,0.3522600215624674,0.3579022097237239,0.35089157767231,0.36372004289496784,0.345948269173633,0.36095301190253715,0.351690068186469,0.32054238154833375,0.34160270643628615,0.4046348533219938,0.46990536905336877,0.3299249494042198,0.4924475956163587,0.40081629175668854,0.3652270941270722,0.42201173169827616
0.24281381826250117,0.38143160682029315,0.1788837235156032,0.23984713341672254,0.3099783875655923,0.19376222559923453,0.35783799379848236,0.26700823065625157,0.3742832634256455,0.3117036370299336,0.37785609037178797,0.3853866028384543,0.3708686095029624,0.37584252743437774,0.3913217046012407,0.39705439250857166,0.35623502318460604,0.36723140287647754,0.3202946016708987,0.3640421072254067,0.3126872171890079,0.30919451486474037,0.29091830072687735,0.2802431681010873,0.2444166612610899,0.2921334103918573,0.34523459135997453,0.2349790247343296,0.3993392286686939,0.4027872259359415,0.3734876537541488,0.3155832155495293
0.23166806377076263,0.38376965191189066,0.16603059078769103,0.23678781509619462,0.3207279216486934,0.19060845090336836,0.34557333494518805,0.29385479754745075,0.38910881922196583,0.33773410655192954,0.39207169307305534,0.3944054959837906,0.37502186265653514,0.3883462633421149,0.4051418435507688,0.4035772247178079,0.34863376859989165,0.36934443221868823,0.33192701305690886,0.3516985651425662,0.32873907935156127,0.2886324374674612,0.29731010899122357,0.2899361866083278,0.2587393264342404,0.2843702897228045,0.3519052063673166,0.23645826715915677,0.39015812677826767,0.43466713091768,0.38940504952592464,0.273501552646027
0.3378234693702869,0.5043413451304312,0.26445233106011085,0.3212397079266114,0.34327307208943714,0.3198035838584203,0.39094696699592063,0.3988307578639983,0.4102250706986843,0.4027563467309007,0.4078090021281029,0.40258520083090316,0.3863498328872461,0.39289376006717724,0.40948313661858193,0.4024026884490642,0.35343210498851585,0.3871800563639356,0.37523282744685416,0.3551071374936352,0.36155969451379294,0.34039796997955635,0.3655425541843015,0.32064415900386883,0.356676757272826,0.35310384135802814,0.4551380964569087,0.3215811246903125,0.48678807720373074,0.42301885462841987,0.40556479800468287,0.3340153116335488
0.3968774406341482,0.5194556094441657,0.4048871016351025,0.375194409978008,0.36528295648313414,0.3904081816541402,0.4525591220106945,0.3921588253062788,0.408053639206701,0.41712381192450215,0.41131645743273654,0.3985136142733174,0.3762695638664471,0.3773521309932382,0.39497658688264264,0.3857183842453605,0.38040709172374915,0.3704059605550442,0.3377823366544739,0.34902590150798685,0.33165092415521197,0.33904630987417855,0.3626388367782524,0.3434744884409077,0.39287047229791183,0.3876612104075151,0.4544232017556477,0.392729942360806,0.496302030676851,0.4018285238090784,0.399989842798216,0.39149853683104846
0.36474382621601026,0.4845728729554172,0.37548441078954836,0.35118872821823294,0.37650608583742984,0.36476022169931976,0.436867176245803,0.36423706536401756,0.383674886755518,0.39276821138213885,0.3854818889177483,0.375597385933468,0.35489930771963196,0.3642780438131903,0.3754719945570434,0.36167258170827654,0.3636041038257355,0.338785730691439,0.3068948542696158,0.31680026749987183,0.30604616849173927,0.3114880701201842,0.3310529184097441,0.32338805390643277,0.3534936156432921,0.3674487974997737,0.4235970159884792,0.3448274759791264,0.4662369016286244,0.36349243382126334,0.38223807274357385,0.37622845054490167
0.35853269962242906,0.473029482729422,0.3738065723567751,0.3775727839494246,0.38157811830155947,0.34954665293300224,0.3713139424174777,0.32420489196538876,0.3613464433353264,0.30050933248394635,0.2911002569447672,0.29947500945988276,0.3505325396120735,0.3056564897667781,0.3072249321090488,0.32289185749096533,0.32694050342645886,0.3103160135186888,0.3030093080600744,0.3085184381187943,0.309533567314372,0.30487956961526075,0.3174470499754395,0.3093178065656736,0.3197161481911449,0.32500035929005877,0.3898526394586192,0.31618852298499484,0.44824575796594984,0.34385528618219346,0.3423754569203775,0.34602093015533614
0.330924236194293,0.47022477199710067,0.36085439230414446,0.392300421772884,0.3734117022728947,0.34491663047195115,0.3676720172076482,0.30720860376954345,0.3495471669725744,0.2869437905765661,0.2793495767959301,0.28344971010772346,0.32063605064145057,0.27133034177430143,0.28363987768254717,0.30615971966300776,0.30238874964618073,0.2943518370600044,0.30490756004345027,0.3023785379630611,0.302199461361758,0.31794572596252685,0.31013081778769697,0.3078831668905074,0.3046423710242888,0.30706059620892573,0.3907646193019619,0.3110426702147714,0.42997540324912775,0.3357257397054588,0.31986316678640453,0.32945981243122074
0.3358635532200593,0.47400110570237236,0.3601835780348166,0.3728021255096749,0.3487382880430147,0.3440448025073068,0.411704479867414,0.34339400320863434,0.33288566873180364,0.3408330019437327,0.31211963086497113,0.2994721003376314,0.29809028402409493,0.27538118204817996,0.2890579923450911,0.30133431896517443,0.2949947848124305,0.29459359500885524,0.2963330168720555,0.29799990632682655,0.2941710722569906,0.30799660430208137,0.3016610196211602,0.3117317941271366,0.3163317920423426,0.32331298009420834,0.42907646273111477,0.31968450495202105,0.44976017048731226,0.34377610027996636,0.3357872866262778,0.3545312399288715
0.351163645832088,0.4690328809537038,0.38324213274673585,0.36161529141155185,0.3266921554111977,0.3538722289443454,0.4183390959833219,0.369382737953548,0.311163820504737,0.35567190931204967,0.311851020086252,0.3051001771396184,0.2978928902424799,0.2889033923498557,0.2994508791771528,0.3090722852691436,0.3095162439827941,0.29983522528373535,0.2933355315695633,0.3001114486456718,0.29578209501406844,0.3054014067251094,0.30423307489981605,0.3108745782099481,0.32700767578949314,0.3229296847336349,0.4125214084114173,0.3266406628299287,0.4416920925168953,0.33375562044140933,0.3309179077301977,0.35802677324974314
0.32600547761799553,0.4635438195232396,0.37365125752303946,0.35731893111736424,0.3183501721679858,0.35073082037530784,0.4136748507072296,0.38490526774647255,0.3139928173435893,0.3425690319022371,0.3075765628752747,0.32383882338638653,0.3275170227994208,0.3226522682205937,0.337967385949938,0.3509255286557879,0.3374603708418045,0.34208709460450526,0.3330342952400283,0.3092094616573528,0.3221933027180407,0.345188769691859,0.32366348249530297,0.3124576596262096,0.33259589527657757,0.30349409320299553,0.3561296301284349,0.32953358999604704,0.4043150361601153,0.3213369022921418,0.296654210457226,0.35869059632692757
0.3299665744093538,0.4883383160753992,0.35839936177591125,0.3658736547820804,0.3099498452954864,0.34853289343159993,0.4029753907480246,0.3899787900488519,0.32409692132479706,0.3455021287415081,0.33359503579158334,0.34260904532383124,0.32404708488205347,0.3694772267751845,0.3584196268438698,0.3405648479525865,0.3306951001007682,0.30931927144505816,0.303263113247335,0.2953415134809409,0.30967137465694927,0.318001273283368,0.340248070480247,0.32059317792045483,0.3389804258781628,0.32657745633800095,0.3463596070936747,0.3375645419054265,0.41584762623328675,0.3429358620430805,0.29582565518036225,0.3710033997257292
0.3230419988442689,0.4887286382479023,0.349939586560089,0.34905218730027915,0.3068686837670209,0.35782339648755057,0.4138072264531811,0.3908202041626264,0.3091625962479907,0.3694713545479691,0.3609648469819903,0.3407355938239524,0.3037017152496455,0.3468059864359642,0.34132548903959503,0.33502694070184647,0.32663172529754225,0.2959520693739632,0.2924114885474051,0.29388821373344703,0.3007221151797775,0.30596275288496666,0.337192863379915,0.318256608355264,0.3293297254254637,0.3566761717167068,0.3693170211314963,0.3263634275614043,0.42603365840414387,0.3392478232398673,0.31871068394381497,0.37613102423176964
0.30298215066833317,0.48043179699828265,0.3044055729307685,0.3281189706191829,0.313088894115849,0.31179749214445324,0.3377076698184161,0.3029923229999161,0.3130799991616148,0.2952220812952312,0.27355266285008684,0.31838152230190225,0.29983405706316724,0.31578406082104876,0.3115948189400179,0.3220443582358276,0.31360084359021556,0.3000086053207894,0.29199511081264,0.3040316450507327,0.2897458584194489,0.2872632423610238,0.29716187314523496,0.30559442040188145,0.31572909708039204,0.30202349703736714,0.35527167772845114,0.31216876370844243,0.41405587550044337,0.333278513987058,0.3366437706049587,0.32732330292208395
0.30521108702936117,0.5088010367567667,0.30343384880734414,0.32335560007262815,0.34240659504998794,0.2729531772954811,0.304341181986359,0.28819191957955764,0.37030339876923374,0.2729464033097764,0.2619185096236998,0.3063174771028495,0.3255850719694146,0.31464562445734334,0.31534113252992596,0.31779801097245297,0.332003991533683,0.3151354169579057,0.31091087527085653,0.3066317385783976,0.2941032544314521,0.305849849927297,0.306646272766741,0.3057410752648864,0.31787683450498105,0.2896749480216907,0.36663650404008763,0.33869689379231915,0.44365274791339787,0.37095239091394006,0.333693493627714,0.30602112492895506
0.35685723600781766,0.5139846087739723,0.3321132793515976,0.3541054649030768,0.359061078709033,0.2986582227308613,0.33203704313228094,0.31353906811683513,0.34671918613002434,0.2842379310003745,0.27277501696179723,0.29918029829483517,0.3166286331261781,0.2922155956947822,0.29120144096200196,0.2968822372837999,0.318663719972748,0.2983505216054534,0.30164804543810086,0.29976408287102646,0.29760478065439266,0.29898759595077734,0.3120239418780951,0.3097883057731018,0.3218622442261647,0.3300234006215829,0.3974230596253078,0.35611332579838956,0.4715746974424545,0.3922961157338775,0.3592512907028711,0.31260169082263844
0.3648224909031647,0.4882290036125881,0.33393456832832996,0.3774384521411972,0.36900107631276735,0.320877183101438,0.35828690574084915,0.3336237028696737,0.33035085902205763,0.2992014029494436,0.28526998734742154,0.3088631461249498,0.30857885822751413,0.2878303415104493,0.287017654708289,0.2880263786762037,0.29550711617025643,0.28586071253087303,0.29731271110878166,0.2876127919355969,0.2957689261950517,0.29344950288456484,0.3026677374932503,0.31054515364404595,0.31584531848995834,0.349583745593258,0.38728662288423843,0.33257355951720374,0.4493598069050395,0.3741945731970087,0.3723077112390377,0.32877223728043503
0.3511305729213433,0.4941171787616275,0.3297391614995927,0.3830190090032304,0.3660584702552868,0.3276571110732166,0.39402012801264036,0.35468440153603426,0.3871719173321526,0.35129476412506516,0.31549885069313394,0.36309958262261705,0.36093755369064184,0.3439268424007047,0.3351940894446223,0.33997320172479834,0.3201821590794181,0.33772013973156495,0.35366168913123175,0.33055086373490583,0.3503909584993045,0.3612333220527467,0.33810522841725266,0.3475491269018553,0.3454412029173527,0.3654005330159718,0.3845710235043312,0.33031372571006457,0.4350048882076878,0.3818640364861814,0.3728498956443468,0.3724251640167831
0.347834999242123,0.47816048943028167,0.3446972708664937,0.3673512255033417,0.3492446242046694,0.33902893452112887,0.4176954349464337,0.347624028933578,0.3792725915345416,0.3626087928577191,0.32740945088288553,0.3776196394840597,0.37401466471905287,0.36281653197514147,0.3486927042863523,0.35286320307176794,0.3307562819878585,0.3425434460851271,0.3358331416697079,0.3206807383760297,0.3354832699751587,0.359393563681747,0.34868979561509045,0.3310828613108847,0.3908424442873832,0.34750599692802564,0.38564552230704213,0.3481517073290527,0.4387017750183291,0.35702502839844896,0.3503683509997923,0.3817277334887831
0.37884217856900637,0.4840603345148344,0.3911471646648432,0.3781156955600059,0.36983875889522944,0.3636264152693651,0.42204747123189024,0.3686788815112208,0.36869656370012494,0.34882919670799617,0.32456116340040786,0.3560088694949256,0.3657026372220226,0.3367941377399026,0.32854937140750395,0.3318746142758397,0.3187776296024325,0.3235844315167061,0.3166873458935652,0.3078617374487668,0.3170633648414255,0.33035667832690463,0.3254109984897258,0.3203660704989505,0.3618324106120296,0.3396919566451428,0.3910697209014037,0.34440274479126015,0.4458546678620479,0.35175043102433196,0.3616856363966866,0.3631910811178639
0.4162473292861752,0.5023186706186845,0.41933163740486756,0.38903345683708046,0.3587860062762595,0.3954062449120406,0.4440034109690931,0.39881898856088416,0.37859566237532793,0.3368346617890628,0.3081191737799025,0.31582147766504337,0.3444953889035906,0.304536348404761,0.29819190633579007,0.3044975578648493,0.29721735104249886,0.2997995302182436,0.3058845862192311,0.29608244426184105,0.3072669472685357,0.32040201909430505,0.309719473111139,0.3207613395706637,0.35705066555370435,0.3900156861382658,0.3928668000610496,0.33382013295931956,0.4617852825286272,0.36497403233429404,0.38161257385578407,0.3611372042944329
0.3396867049805985,0.4748457761802874,0.30949582467946396,0.3504029042528157,0.30724422968123244,0.32525090432334575,0.43658676516422856,0.34647724825978315,0.37470633066633374,0.32864239705396797,0.29345171309803353,0.3023065756190765,0.33060196680657583,0.2958002432633158,0.2928724847817059,0.29390667569112605,0.2868454570988339,0.2830422848257182,0.2974532324494799,0.2748360108263119,0.29744224434237254,0.341382626461856,0.30093410776720914,0.2987186246382688,0.34986854768683834,0.391111217307491,0.3541953975475029,0.3119756302060183,0.43450366610864827,0.34996110839062156,0.3289564209354714,0.3937385294835995
0.33726084700834447,0.4716008222168094,0.2985640445039687,0.34897403948469125,0.30082770660642716,0.31682995786882484,0.4291939141666937,0.34595659849582716,0.3770914952635673,0.33199566306871936,0.2910195989451985,0.3300561607203235,0.352240744516291,0.3239473480753577,0.3198845816352843,0.33009208987787064,0.29814933466333043,0.3188432704305747,0.3305934029888436,0.29171903765667306,0.31546877470033385,0.37421310797162194,0.30342257095686614,0.30959559256066366,0.34744939373921857,0.36406146915232346,0.36388731869299956,0.3089203521823769,0.4355490313375726,0.34943732355527535,0.3155660935200455,0.38760396660306484
0.3643295064318557,0.48672871356928077,0.32975820221944613,0.39351856715388456,0.3455895146421493,0.34374512793217443,0.4091064397003515,0.3502307353594764,0.3781583547355669,0.3249117982620292,0.29595211306302827,0.33248497557365114,0.387651203725351,0.32157400701351935,0.31407184289788104,0.3320204097339108,0.30378871863090884,0.3438981561825241,0.3755314470051683,0.31565286039850954,0.34687562076552536,0.3926646549931041,0.32750365831715933,0.35034669274133945,0.3790579773586398,0.37369714119118214,0.400627069229262,0.31516149202915195,0.4576017608786405,0.36020300239154374,0.34046008141567674,0.36090279728735236
0.35131365536836445,0.48221968810640176,0.35146251323199224,0.38229582123241823,0.3363117403297335,0.3509736538905484,0.40749624046910243,0.3327976778564981,0.34457148126021464,0.32298886749741146,0.30229460789352713,0.30774939459048933,0.3561082182080304,0.30299126445572416,0.3065431695232731,0.3148341767767683,0.3231564051811728,0.3240674555637149,0.33229033231408944,0.30933339234788626,0.33354570112289067,0.37420933337774964,0.33724275619475785,0.3433396844529907,0.37639334211502407,0.3673283012396763,0.38177189447960214,0.3204365758331234,0.43714064145306586,0.34425583375854185,0.3316783663163357,0.33916228644837554
0.38142582382637846,0.48451169429071034,0.41165836815248763,0.3970559666004554,0.31337778127774424,0.3744725591087525,0.4264726196188746,0.3499830118923758,0.356803764716923,0.32609138739182947,0.2873887058065036,0.30943613928245506,0.33799884410707753,0.3079645204602299,0.29886564201637716,0.3081800326816347,0.3115982953627627,0.30322970069869043,0.3011622189396857,0.2817138780437881,0.3023880831350617,0.33018797102714564,0.3256904350148047,0.30241046394081905,0.3609442326391349,0.3399192288763397,0.38002779671983933,0.33263901103761806,0.44412980385214645,0.3468383872396873,0.3509094741674497,0.3311214875593525
0.3575503823128222,0.46441131193571294,0.3685124988296846,0.37383401397089744,0.2929370242915122,0.3676364239005455,0.4338065188924908,0.3667592605941841,0.3616815647294853,0.36312552375680357,0.30300535070496765,0.33242409882309787,0.34331351105581887,0.32671424090056683,0.3054037580117202,0.3120270096308681,0.29652269304460066,0.3046888903707238,0.3101001280166218,0.276140687990264,0.31444363299642636,0.3090722094729146,0.32546401790874074,0.28953325291559123,0.35711563517083683,0.3351270984862497,0.37957367494472355,0.32214907015552996,0.4296068002677886,0.3231544782964826,0.35387310334478456,0.34006312776183634
0.33161482551058047,0.4585436719494855,0.3376032574899257,0.3609145495545846,0.29677371199420116,0.3762388576407581,0.4300538773811469,0.38962020166888645,0.33927077193711647,0.4002463196465387,0.3552411892105781,0.35221159463795565,0.3187274795658019,0.34493669678495137,0.340307296961992,0.3337960759898734,0.32050561685515755,0.3221889597899185,0.32030983086383213,0.3069960820377213,0.33723886348414717,0.3186402673443597,0.3405234186176407,0.3186013344226172,0.3723559905618456,0.34250845720591444,0.38020509553719223,0.34233934738922034,0.4220743153941789,0.32184690776492947,0.3425275050376981,0.37020143763460484
0.33970106791779947,0.4701067966827913,0.3376175423866533,0.3610768805569155,0.32558340546367104,0.3582839673215775,0.4160063787700537,0.34063313851153876,0.33402379846597596,0.3551546328606822,0.3166473756335407,0.31709014094378946,0.28661808430144897,0.3146352330514685,0.3188997723507189,0.29444658153371295,0.2848769358405378,0.27593896041942684,0.27416401662914475,0.2683276366660116,0.2713555875434255,0.2846183756429301,0.28865233597577283,0.28224902832820475,0.3397530418898353,0.32180670298984687,0.35299530909191146,0.32810213542764927,0.4397582118860139,0.343488627885825,0.33454335779010014,0.3450346710546762
0.3474601165086094,0.5104662368676784,0.3226326033256829,0.35623991445467257,0.33394850168748647,0.3259260229052338,0.40716314046486257,0.31241845899850473,0.3377553006054757,0.3250349026229386,0.2962897320939838,0.3072996302010238,0.2942991238446756,0.3071637626749459,0.30540118899423113,0.2883733573026547,0.27683273796401764,0.26599833443131543,0.26503543043590927,0.24780687213516467,0.2642441443949505,0.2821955682889837,0.2865751131630024,0.25769462874569715,0.3152341475809691,0.3251658278425459,0.3162298198935845,0.2649735423544391,0.4263877838648628,0.3574023522751076,0.35305443972002565,0.316495594297849
0.31069858324819816,0.5007603137437932,0.2991512446831813,0.36456714830929376,0.31549026405336184,0.3102837226455349,0.41094260916521286,0.3356152411120012,0.36648607956278695,0.33317086395047957,0.3027870028743679,0.3326365018525314,0.33782142406210836,0.32239789072399505,0.3274330058987749,0.3353437088955131,0.32615247238749073,0.32477281306296707,0.3290231172630009,0.27797291432215676,0.3240947016635657,0.34006923407320777,0.3463399529121776,0.2812721669577857,0.3432341812048178,0.3427581712238594,0.33378280404606075,0.2690713683799613,0.4201463977718231,0.3392874205204589,0.35955404310925015,0.33632770952454955
0.24160896153669717,0.429786977696335,0.22650834106055584,0.29936816075834605,0.31845616564021406,0.2592704084887067,0.3487440337423695,0.2906600102553342,0.333708806845251,0.32106851314712387,0.29574097427324986,0.29440926653996374,0.2986163330339597,0.2886700036899344,0.3014392069088645,0.3047706080493346,0.32282940995156484,0.3053000499903139,0.3203345598549183,0.28616219701274526,0.3303567482365845,0.3244448319186584,0.3467742302765763,0.2931218526668367,0.40546403753062604,0.36289659392085516,0.4041532243199265,0.35631603191835426,0.4683034815432993,0.3063223105342082,0.36124133340349307,0.3730756917086575
0.23348681927321357,0.42361361175359447,0.2224114427126526,0.29339189063339133,0.3318150165721094,0.26335978132882554,0.3524456460713723,0.2871124385309901,0.3144269027750881,0.31044554408870106,0.29618608367708843,0.2850660870736097,0.2928940805620413,0.28994473036747903,0.2885789053697896,0.3012313394332664,0.3367353696266103,0.3015353747435216,0.31024130818282175,0.2937023239331788,0.3199017581511939,0.31343944652501066,0.3346199673968032,0.27989452008094695,0.3427966709782986,0.3602106650349507,0.3673256805270236,0.2906220511503667,0.443349555543203,0.2939011270058683,0.35585610771664106,0.36997861022756534
0.28491584486662885,0.43653039560526613,0.2774698329267459,0.3483122044149781,0.31146152037859015,0.282729490747938,0.35956640712693116,0.3008415674370356,0.3350846237498893,0.2989564577893292,0.2981719107088425,0.301185084741039,0.3241557518224452,0.33549259987318764,0.30531253521908125,0.34204991046320954,0.35323710775836303,0.33477403257419086,0.33946369500010887,0.3177139025518795,0.329517855213869,0.3235593911590652,0.326497938128284,0.2764410615603503,0.3170366082281851,0.33761425954413105,0.3275619859270411,0.2665586034962472,0.40565944191009135,0.2987435845645518,0.3090686624264757,0.3350112971251522
0.31279919005875,0.4663379425241883,0.307111243144966,0.36300219930375505,0.31156288285799233,0.29162001853227837,0.37823939674767754,0.33884525072214705,0.34597917514268434,0.3289740044852247,0.3193456426142771,0.31691477232339943,0.31841679332851136,0.3249273818723512,0.3070666124079157,0.3361075680020404,0.3358803935635442,0.3357694035268758,0.34029844392281833,0.32177182766378404,0.33517333505061697,0.3260672718661711,0.35142338328877804,0.29479388936870154,0.3744907097504064,0.37980908647804906,0.35662708557367284,0.3290534932593655,0.4285016951574386,0.3440717202180413,0.31784519513170784,0.35842959589438067
0.33342500822703336,0.5001992949916222,0.3403959236238216,0.3788683777418452,0.33597758034741876,0.3487375424922025,0.4336066559102965,0.3487344870283593,0.339950469447462,0.3689395876204759,0.3546634430193152,0.32512787952826094,0.3064837667162468,0.3181997660668838,0.3151212931755272,0.33293586387400725,0.3355674967286392,0.3212443624264742,0.322142026637262,0.3040811663824188,0.3149031153172915,0.3212904412507922,0.3394633292056739,0.3159663170455079,0.40427235608390116,0.3821474847993073,0.3987590311163298,0.3483680520133803,0.44118760053715417,0.37675879695768355,0.34795648941320745,0.35009281543153037
0.3285863534704337,0.5001211483234116,0.32987429472630153,0.3768259832714696,0.29577123606834527,0.3370553042118476,0.41705796602038564,0.3190291492381822,0.34505635716329186,0.3544982746320179,0.33705864851682904,0.33633562605288475,0.31495976149180077,0.3342993629876607,0.3345280996058246,0.3346080338251753,0.3359653422794549,0.3040515750807454,0.30796365706647516,0.2959430735198404,0.3123122118647614,0.31455120317288016,0.3270457358472259,0.32065621029355557,0.4163349258354769,0.3583519260925544,0.4157452463479068,0.35172744187222976,0.43594351755466654,0.3779845226141066,0.35641344792367924,0.3190171044110359
0.3180058511056001,0.48491492014539167,0.33443767118342904,0.35789039811249934,0.26378917004353375,0.3355041187296676,0.40517831617051914,0.34330456098241374,0.3009041822603197,0.31996769167824596,0.29715707502224714,0.29963773653077413,0.2922216198963673,0.28780147952240037,0.2932845680378629,0.2906837143831117,0.31445399985670147,0.28423967736994843,0.2790463030976845,0.2779273246126701,0.2988790661811811,0.29549858824311487,0.31370780850222013,0.299011219213029,0.3953176280066696,0.34176535652370654,0.4097664241127468,0.32579341264993633,0.42954878257123424,0.3479411329997769,0.333916577744666,0.3144732644233779
0.3441843482858147,0.4799656957616697,0.3485998731409113,0.3554914306494961,0.2965440224870312,0.3557365049809632,0.40639626131461143,0.3260004925699036,0.3097718137271568,0.3105598249587156,0.29057639749134956,0.29656226662967583,0.2969261173679773,0.28678350534627367,0.29201744279000763,0.29159266357317304,0.30892924636444574,0.28880619736974195,0.2887715864012331,0.28531084548513824,0.3002187924038122,0.306279890852328,0.3252760274598976,0.29980205240057817,0.3812695045220937,0.3380864245278734,0.4035583255182734,0.31599616992669516,0.44130567155292544,0.35764458805399746,0.33579288754091585,0.3341340276139554
0.37284666205756595,0.4883174167334926,0.3685663065850306,0.3604145997128157,0.33190640126594384,0.36369003947827155,0.39802796801294943,0.33533917228146815,0.3345392837788667,0.31971159814653616,0.3003419161244042,0.3131579766373188,0.3297433720459884,0.3142446013377858,0.3218460288050521,0.3280504049057259,0.3135670098056609,0.3189066962076042,0.32089217349760285,0.3067262470678539,0.3213695316528892,0.33405708812647456,0.3825981481316769,0.32271417232573407,0.40980027466823604,0.39475845404057097,0.42606899345013743,0.35619291557601024,0.50113235107764,0.39623385775463893,0.37485872528488223,0.3439650225562012
0.35929741189959025,0.49333274347488154,0.34957819729430206,0.3668725968250793,0.3595865833393367,0.3601881289215874,0.420401683675832,0.3771214685158657,0.35123071507972636,0.33909484003592716,0.30551294779947885,0.31799672669014334,0.34811234039237576,0.315662888716284,0.33028144639205514,0.3500078352336682,0.3163210580005396,0.3379657290669938,0.33747830822969355,0.3229579753386787,0.33967228959402895,0.3281348352886839,0.3796432449476432,0.3349750137867894,0.4296194226363877,0.39735291504687514,0.4372548592947036,0.3779763755360587,0.5058964131390201,0.4053201996884432,0.38655585781371676,0.35066898747246694
0.3602074804149798,0.48878646234977324,0.3423534845247225,0.368327904475019,0.3696391765276734,0.3641890751132052,0.46402702222888176,0.3731477883088783,0.3704565775487701,0.3818619038418497,0.34004702058929637,0.36274028097331706,0.36670129461439316,0.36232507660354357,0.36425884532766056,0.3827704345362666,0.3099513386562675,0.35509111808569915,0.34555243189996737,0.3553398981780277,0.3584263609032733,0.322197988582936,0.37989632604756246,0.36241222417875596,0.4247270825358579,0.39234171329485734,0.4677409028824287,0.40148617475566784,0.4832218979516079,0.3905916237920693,0.37941693079574884,0.38604174300976024
0.3829331121479356,0.5257257863543758,0.39035996992581945,0.39993711919956243,0.3647546858487222,0.3789259343124358,0.4332208897857734,0.3747158017810115,0.37550515878470886,0.3829719185589535,0.365826948151215,0.3778170001073733,0.37711237794343777,0.38862387635470064,0.3898528813778673,0.38430249996534505,0.30016572646577705,0.35301981788508086,0.3289351717357134,0.35411421398476745,0.3651689941144754,0.3562357067971679,0.3945345711639265,0.3710715071540395,0.4535817336042347,0.4103028932517035,0.49983483647180227,0.41518020204270156,0.48827080556947094,0.3912885339164567,0.38658899843763017,0.39861280212208566
0.3925478930247837,0.5408511318791196,0.40021363112162606,0.4346706723210856,0.39124135543211574,0.40067002273039354,0.42972046429635496,0.36450007572023113,0.4007491018326081,0.39105159314925214,0.3688761561798404,0.3793986153673883,0.37994341289716665,0.3824139079152138,0.37970730706761857,0.38838850918406004,0.3496085207839293,0.3906466914681444,0.35429088895280386,0.4100428177290981,0.4023908853418099,0.39697539356650025,0.4276967733371731,0.39419773009363074,0.49777127874780785,0.4157947014083895,0.5159739757108298,0.46650101263155125,0.5098578340458625,0.40930352969985645,0.39644688455716354,0.3839089806446327
0.4020364458549816,0.5312544255415057,0.4120407556944898,0.4328145302656537,0.39079633971384364,0.42062178641498116,0.4544101301555936,0.36391436766130486,0.40505826443666426,0.4198741042315972,0.3688751263886047,0.3955645135787728,0.3667456991730681,0.39672198815134485,0.3879609202989929,0.38430906874241283,0.3664032746348431,0.3771622385586145,0.34236524598915674,0.362071750999569,0.351872872564701,0.38170524534398376,0.3846470522966307,0.36429472055944057,0.4133305894239897,0.4010466337972744,0.5266451191959475,0.4404636406757861,0.513293485856316,0.40683811332407555,0.403546891889248,0.3911648145801351
0.3975230960696835,0.5057900769832946,0.4148675393541087,0.42959462357248085,0.3702158873757546,0.4099766656220362,0.4439335459222217,0.3935676547877668,0.3912998517651142,0.4202088270500461,0.3749791611416886,0.4028190827190436,0.3475859236134218,0.39099151692121975,0.400976121267253,0.37587448168504345,0.34012196364123043,0.3534156319517973,0.32730293136038185,0.3438618533862942,0.3247972897668831,0.347878105180808,0.3535531312415754,0.342407868156144,0.38741095806815906,0.3896637789556408,0.5088540053362365,0.4038622196667397,0.4973732877067326,0.3858316038010959,0.37804730941245374,0.41270617395581577
0.39669243559607914,0.49164439744225774,0.41070948854475353,0.420207284421091,0.3443731120738983,0.38999031805266,0.419901594867552,0.3785098451353338,0.3691366770553302,0.37706356851353034,0.352179710285409,0.3746857476728808,0.35199150892788067,0.3635560009871195,0.3796864023522137,0.3768622060443212,0.3372356468765461,0.36320851464438025,0.34738918888746234,0.34805857264641116,0.34203295009671575,0.34532432997285434,0.35215636249079846,0.3403922309462941,0.40770707492403574,0.38863878194152895,0.505694309043073,0.4115001757638642,0.484803137163485,0.3848797926075661,0.3605043351246713,0.40174860507862903
0.4226967771160749,0.5133679473990003,0.4245788808354445,0.4271043077331199,0.36961537392903115,0.3901936176293494,0.4247745637797348,0.35085956041428024,0.3685733692835243,0.36143134989160286,0.3372138941201739,0.3625262943346582,0.37016401905691787,0.3500452031670637,0.3669632261822719,0.37440859675570926,0.3650722907910651,0.36638779402311406,0.35744634120042923,0.33500327064116286,0.34176929455360117,0.3728848360255218,0.37407566006167664,0.32206692373243684,0.42729289800549125,0.39414910289804117,0.519281617850022,0.43339402161199064,0.5077575218232968,0.417865956936983,0.3929564816206118,0.4153336134862351
0.40800868145953495,0.49978019098535886,0.4046315340673183,0.4205602396761295,0.40657487719085156,0.39786838494443216,0.4312524558903048,0.380166326336736,0.39934531205702606,0.38281538366822926,0.3566763499382962,0.3823286487202784,0.38811838111075453,0.3677634690772153,0.37891565833869356,0.3884298085378581,0.402167026342423,0.3804141211547367,0.38145518436773557,0.3655802713172896,0.3685157372210629,0.4085002976021914,0.4148977322231983,0.35700245314830903,0.4403329598629437,0.41519005828239475,0.5049298660514311,0.4257262493006214,0.5174005857843647,0.41202172995170777,0.39937103582699673,0.41195025123047385
0.35528275195851833,0.47028609968767277,0.3217315235590343,0.3747630618568511,0.3882061328165816,0.3481914547472822,0.40631146292960146,0.34911356932046955,0.36966930753412675,0.3588084387947016,0.34070084459065153,0.3799758257861671,0.3469288712474134,0.36976501159848285,0.35587951896629527,0.36151294523682187,0.33193711744244286,0.34989287962284965,0.34117642854200675,0.332826508960243,0.3318666132373844,0.34930633322219296,0.34235338961572787,0.3052086500824741,0.3699801958150027,0.38286833673734205,0.4838780471064109,0.3372258914944339,0.490754698813478,0.3804145660773811,0.3712651174093794,0.3407004394345472
0.3221739898990188,0.4640640020782387,0.26432340376817753,0.33767043810745606,0.31449767852513527,0.3080485945191475,0.37789285837648445,0.3180606647503213,0.31071897576267654,0.31474396817641764,0.28926599148356325,0.30036272113197593,0.29352158922996285,0.2866049042796075,0.2885472452218905,0.2914319992756576,0.29648588058645764,0.29771060795045007,0.2954638653855705,0.2958449075260585,0.28342741772180735,0.30349786840953585,0.30421764061825773,0.2826588904193128,0.32906267775574766,0.3344162669125282,0.467085108605904,0.3240633101535306,0.4730264177032321,0.3609738549742944,0.30637381052130624,0.3107623947652145
0.33287747956674113,0.5073355396085808,0.3148727220182354,0.3709358753049186,0.317947231006303,0.31078483906040744,0.3925624659161193,0.34412385172436916,0.3018017632349603,0.3220114880629566,0.27848157022183884,0.2893003983159298,0.2820661434614629,0.2697293442366324,0.27331077225023837,0.276031642112199,0.29884514761425823,0.2801977577424339,0.2913655686204529,0.30141127624176867,0.3093107756596705,0.28721761163977455,0.3314353429992143,0.34363213428549527,0.35898119357180713,0.34279436537103575,0.4623128686280386,0.39754936940776564,0.47757895625395025,0.3906468473655756,0.30641828154273987,0.3376526712126636
0.3335812469656259,0.5281539450999899,0.34509896279961955,0.39157513150905343,0.35294097687145637,0.3134058655741958,0.3866161298797418,0.3830775761883524,0.3248870765988312,0.3119804513073285,0.28666214306016785,0.30160895934100745,0.29534084103063146,0.28167438742765055,0.28072421330570296,0.29103848626486106,0.30040871648484824,0.28839709818829457,0.30140931902775175,0.31109802560147354,0.3373820767140423,0.3112257875128032,0.37778494168281124,0.3773082298292693,0.40496240835544334,0.39927283888295356,0.47700489501760684,0.41504776975248975,0.5298618824377643,0.3960194554415801,0.36008256333733824,0.3841661379148984
0.3349415476756468,0.5157106586639703,0.34487446455823006,0.3867132000515726,0.36137157715781915,0.33939700596269673,0.3994743168567327,0.37891574208054285,0.3399224860775853,0.3105710106675678,0.290399429367692,0.31071412682937966,0.31192838457766725,0.2923011501901261,0.2899358783799673,0.29865723477777484,0.28974453140755524,0.29784625029620515,0.30538487802163894,0.3051231184021636,0.32064025524317097,0.333752535600585,0.38138448647932,0.3373949869927971,0.411518992537523,0.40364067748916327,0.4635485583441835,0.3703883840662042,0.5132027340273057,0.368842008373297,0.38862420998682573,0.38905780039095283
0.38073549276603286,0.499119145155962,0.42695592835260465,0.40616567152795596,0.35484323287915615,0.4218856771724735,0.4476604176504628,0.3641554731736667,0.3649058496479053,0.3467190157993484,0.2983579137512219,0.32951714634193524,0.33712042899874095,0.3082399848120118,0.3027069223281277,0.30732112706279274,0.30317381092586115,0.3131054194698866,0.3268517404045412,0.31174446652621185,0.3286776256855929,0.3359468333830378,0.377023686326774,0.3266393666600715,0.3859775430841677,0.3711464272579911,0.47780669435344353,0.36740950595049243,0.48136803948263257,0.38000263484225427,0.3870228127371101,0.34634087980045547
0.3679043135265417,0.4952809481696508,0.3956540331706713,0.41102451293504216,0.37532813642382973,0.37346835975608217,0.4497002967637209,0.35754322812062306,0.3921424438084667,0.37207424221591645,0.322936994677111,0.36123371551697553,0.38685093924705066,0.33851072289175005,0.32026002632561135,0.33626071298844007,0.328953215966046,0.31972691931077835,0.3357777770851845,0.3012925996508714,0.3153732335346659,0.34521764853628084,0.35619235917617015,0.29143623007126573,0.33803216996229696,0.3727167079364894,0.4636776925968922,0.34776933529423776,0.4615942622312007,0.3692013352986044,0.36876529008170006,0.35690367862451455
0.36387087157904024,0.49128341729137515,0.35183846879799346,0.4212386529176123,0.40703903740587466,0.33585811442038577,0.41394959133374376,0.3642156035204887,0.3672542845491821,0.3670544076929583,0.33252207451016946,0.37101564040185403,0.39474702531648936,0.3536632383948301,0.3253499195397009,0.33998534186045554,0.32952571251850105,0.30779234507028386,0.31676165274790696,0.2810439033163987,0.28485878764761524,0.3577859527883246,0.31877054061441806,0.25768549231247656,0.2855518313709322,0.37474272943204323,0.4401271054109958,0.27735085085271427,0.4686797662782798,0.34744546473477655,0.38271650449346195,0.43830764872423483
0.4012929190986901,0.520232812400891,0.3734260013897316,0.41086020533583,0.39590885382423774,0.3607418779198248,0.40947029333280616,0.3600781784868822,0.352194513301873,0.3445556156315572,0.3212983881763764,0.3402991783645498,0.3625096918890489,0.34507539275372656,0.3188754425500037,0.33388160979247994,0.3328996666011218,0.3132573799172681,0.3187865526032898,0.2806424332772399,0.27044436756546947,0.39623096025592225,0.30425566926393516,0.25622529404578226,0.281691133935126,0.358639988814993,0.48509104134446873,0.26558618396147254,0.48774440606563896,0.34708738385740107,0.40716038294082535,0.4368819503613128
0.42790642807724416,0.5414841492178225,0.4234258276893631,0.4159864942254471,0.33234142334727274,0.39695854406879355,0.44196923077287154,0.3766858586114923,0.3875725498199947,0.3625658132633806,0.3602818699402156,0.3522207419874383,0.3664174830959719,0.3624459813083913,0.34738133395855003,0.3673614164971306,0.3382553166487081,0.34152228320935146,0.32414292151340646,0.3080308265136406,0.3042632310958246,0.3786925693765545,0.3421174753851017,0.28586210005189194,0.3762603195708793,0.3866682381291892,0.512912048439541,0.3365121351058173,0.5180167591655662,0.3841067870391285,0.39505983646622367,0.4352681541719631
