Fp1,AF3,F7,F3,FC1,FC5,T7,C3,CP1,CP5,P7,P3,Pz,PO3,O1,Oz,O2,PO4,P4,P8,CP6,CP2,C4,T8,FC6,FC2,F4,F8,AF4,Fp2,Fz,Cz
1.503359520520018,1.459581533573212,1.4405917658985814,1.5351364425295744,1.54917534837562,1.5665521133758693,1.5759991200207362,1.5557034396489655,1.6679814727103577,1.6480515726511542,1.6883319032061999,1.67713575637487,1.732521457575338,1.6820406209130598,1.6891363006403044,1.6618102015584975,1.6781099712997227,1.6924296984486746,1.7070860344929322,1.7307675828784441,1.7196661276884297,1.7288513850084148,1.700383409625261,1.6517742042537014,1.6810311700767055,1.6909262743122737,1.6557244585427306,1.6950768735734938,1.5848162315037804,1.5091180914067324,1.6320789028535194,1.5972959435700538
1.4189412432003785,1.4643262513951005,1.4333265907107517,1.5029682471356984,1.5220885923752234,1.5152639508704442,1.4977544137803491,1.5560946293564961,1.6277443504930622,1.595949508050527,1.5823661094447066,1.5763573207373844,1.622077012485488,1.5433076235880314,1.5419510465803148,1.562722059934098,1.595783307388857,1.6539966282631278,1.6402736679274172,1.6486021291946986,1.5961046168680222,1.6518993502736607,1.6318613065737915,1.536542133189999,1.6617593525982524,1.6122762575779264,1.5803157650462525,1.6199031446685392,1.5359890196354775,1.5093735687286676,1.525349099361564,1.5399837049416776
1.426973290762051,1.327931624477441,1.383615990938381,1.4440526838989036,1.5362659937264138,1.4968182901306437,1.4648549250983047,1.598507338408128,1.5459456110875966,1.566071639434436,1.5325759652780717,1.5503255055618554,1.690675141110894,1.5556955034343092,1.530825716513428,1.6044671213309998,1.6666562173447705,1.7159465521175519,1.7383229264065785,1.7055283596077915,1.6439858931085338,1.7150551365270568,1.696766260693852,1.5383751139810529,1.690141692121637,1.6320653909042848,1.5523744727222506,1.5836084293463801,1.442160763815786,1.4968163474511509,1.529340219128713,1.589433743898401
1.4793744221868959,1.3474404291524886,1.4060818749073045,1.4291493045989443,1.5372988841351096,1.4431251435183907,1.4581699705126303,1.5793441912830561,1.5343176032437031,1.4906173829126366,1.5325581206409127,1.5328621607715935,1.6059052659791266,1.5217586142658457,1.5158965234442863,1.563309486867767,1.6576225586883475,1.617997569271325,1.6951742662650582,1.6988780857595605,1.6816219258592948,1.642717395624395,1.6379098013899243,1.6245693262395169,1.6454343889511356,1.5660568993267185,1.57122799706097,1.6345207114608145,1.4185707429525316,1.4824294972217735,1.5279752693435145,1.5586718827014308
1.4611579390444156,1.3449715453687612,1.411276908876414,1.4535443040167597,1.5558755635725607,1.4893060964723788,1.476649056164528,1.5513754646947238,1.497610264802462,1.5225512895569526,1.5312002646092473,1.5031679251020715,1.5731197299208606,1.5014803894029582,1.5145408842783017,1.4888199345892132,1.517844409575078,1.5228365924824232,1.6055085562131683,1.6734111200252615,1.6776930285295122,1.616872429399814,1.651818681239363,1.5750146714325641,1.5917452421512521,1.585995277746166,1.4976867866021881,1.5516550947790355,1.436736091931991,1.4562908787627782,1.5175917762306068,1.543012801117172
1.493192354748116,1.4068750294057153,1.4056867390106902,1.475438275618107,1.626264331774327,1.5319503889367556,1.5337882010682666,1.659291404350957,1.5381050717243923,1.6550882789104202,1.7179158106995427,1.6356265997261532,1.5896743339522181,1.642603583345655,1.620092497369265,1.5645681786147951,1.5620329039251712,1.5908887541985572,1.6349982253313444,1.6243021881660757,1.6309248438414055,1.652856969376599,1.6255886060808895,1.4835754008481723,1.5875186911088042,1.6289892187064694,1.359320867731496,1.5877355521019276,1.5060138361155173,1.451828384173141,1.5829617400813905,1.5783490608893938
1.4140599471497866,1.5048769590065383,1.4374010329055933,1.420570717107189,1.602227095725636,1.313313217986824,1.5200219034377884,1.5566520086400566,1.5312012578470398,1.6407039751643677,1.7138765630938382,1.6677525190971252,1.5772797171696427,1.6662683383916705,1.649072389637092,1.6248992486510196,1.6432221366458077,1.6516228397563233,1.6742052371892895,1.68444893707841,1.6653247495497068,1.648612344539567,1.6263578842239201,1.5322941722558372,1.5594173040943518,1.5902769478951628,1.3880187449270094,1.5388672596161521,1.3898804177863588,1.3586422383365602,1.5592191988909958,1.5799983201246885
1.5010033804311396,1.5217617816306086,1.4496670704525156,1.4785046842616865,1.558158665318783,1.3422000536514829,1.5350829362403204,1.5103723253053176,1.5228368654723665,1.5922685134619154,1.605123694812231,1.5780137808707517,1.576363582212103,1.6346139981517487,1.6335294473127429,1.6627313223690874,1.683099301840137,1.682968109481336,1.6842503050415016,1.733415719227819,1.678162113952664,1.6162832683230144,1.6297331545702303,1.552904337645959,1.6280510438416766,1.558115210308679,1.3631146668809855,1.612879023823781,1.4274600418809908,1.3926386468216954,1.5489320018368147,1.5890869656458149
1.6263600411484467,1.4940620482960556,1.531434416639475,1.4639504675362924,1.5739714934778357,1.3912194192564216,1.6085436368623043,1.493930704514043,1.5887256906278502,1.6827537721583121,1.5976415757112887,1.6283387955244593,1.6246290168300832,1.6645503791039478,1.6217311210424068,1.6529680410465282,1.6335406414595197,1.6020644133359043,1.541827824091321,1.6477230265405391,1.5363563476281032,1.556964994828023,1.573728548366894,1.5586986398020373,1.6690616154645865,1.6131240307385524,1.4064852877737954,1.7003025449075904,1.5202453911787883,1.4646959029005735,1.642615873375563,1.6630719642079566
1.5979424276174907,1.526466560193174,1.5687601152488555,1.534445321039923,1.650120216628629,1.5918636687030598,1.6325800611349026,1.6320271774155706,1.620671923900479,1.6694901643934212,1.650245803122162,1.646890386229568,1.5804343100435214,1.637047121446848,1.5992956356487529,1.6334966792326628,1.641196382318979,1.6463479893681767,1.6399502016746026,1.6826559875384768,1.6286986134086052,1.6239954585997756,1.6506247100342117,1.5956038834775947,1.6767743792846808,1.6797980438856954,1.5752447134710041,1.6543597542994097,1.5950322154533072,1.5002464495967764,1.704681326061127,1.6817498361357524
1.591301769473923,1.4819586559450058,1.542640031428333,1.5322059434452426,1.6112320438124859,1.5675950365303666,1.6028296998074065,1.5609122387969123,1.6232289728004847,1.6521476313797023,1.6917030896724474,1.6560281574697937,1.6180166133441358,1.6674244816899046,1.6511423069260551,1.665166481011291,1.7088308678805992,1.7376118215607572,1.7870332176434347,1.8157335916885076,1.790790972938194,1.7251513187625998,1.7199395054163311,1.7009531538596812,1.7238938004843027,1.6454800711352089,1.515814437294426,1.7089606132987418,1.6108286845998363,1.5151608874215554,1.6320900030839076,1.5993303480495527
1.4712357132931724,1.3679166005433403,1.4350104636696477,1.464444290446744,1.4719080171605337,1.5031116799553599,1.4809912997774057,1.517868207414396,1.5821435461354716,1.5170825604294655,1.559769649724161,1.5729619139657671,1.660180325158166,1.5539937700006754,1.5767350108611986,1.6309751283088059,1.6955959855247906,1.7213972911274058,1.788274722837584,1.8327372040971575,1.814753742625216,1.7199591861279109,1.7292563804763927,1.7461747403419858,1.7156374029658752,1.6095233286702686,1.4588958766288191,1.699793310527621,1.5485030844215621,1.4250840423022249,1.5597175752357675,1.5429690472663928
1.4696078386881912,1.401540389761939,1.4141562930993716,1.513037923616498,1.641969093569416,1.5277121231131419,1.5166608054690227,1.5639236835911399,1.5964931118990795,1.535021267616077,1.5900982453414718,1.6069879790240351,1.7240517282394083,1.6169683624638354,1.6314943800611068,1.6514362205244464,1.6980804430921983,1.6926175575016387,1.7660835373797839,1.789052396393578,1.7467776182234864,1.7151642674168743,1.7058890016982564,1.628524019311378,1.614128336447251,1.6093054110392124,1.4488412738379743,1.5778360917686636,1.4475036323378183,1.3696495677340665,1.5494689783396511,1.5732943305055669
1.5628217229471917,1.495763065664777,1.5000739978363848,1.5977381057752988,1.6782846734978891,1.6247433167612686,1.5834669110600514,1.5637058959676322,1.717075900737196,1.640230638898348,1.6291900871879974,1.6331010374812103,1.766202924272003,1.6439141307506835,1.6073733848151843,1.6344866737071684,1.6895254483997002,1.7241553505702492,1.7678588675051872,1.7700453707901,1.720475837636597,1.7506547876221208,1.6833230632545233,1.6095818242489246,1.626542868633598,1.6252904889239297,1.551784204816381,1.6167603273979017,1.478049329634249,1.495176372893208,1.637109406966626,1.5698663280190863
1.616418461597319,1.5944991008848817,1.55639223320128,1.6187153187166867,1.6667987752803033,1.6325564096473502,1.5931040240192376,1.5709865327653527,1.7765221318032205,1.6690578138282233,1.6818284286189025,1.7161435935788125,1.7980525974800752,1.7222271016214046,1.6969190647164636,1.7252106055554564,1.7771956119932548,1.8126303791105165,1.842775724178906,1.8155695832910386,1.7993655804963928,1.8126239348954531,1.7384908644008032,1.6430926734031204,1.7053623712549035,1.6557919183102043,1.5976978292645736,1.6993140526827148,1.524141784491026,1.5448805426151602,1.662232780373843,1.612186044652499
1.502534734916322,1.55046244375378,1.4898530224940494,1.5820972289057702,1.640913970557089,1.596101206261983,1.595347732112822,1.6286872213074188,1.7033074594738271,1.6922182461833706,1.706548897927751,1.722141332926285,1.6771445581714286,1.7041069830496234,1.6992456195613241,1.7015613582307978,1.7502878147390075,1.7643373365265977,1.7878329010528655,1.7930852951722953,1.7590797026136795,1.7430931566321488,1.6754297535916036,1.5801297162168155,1.6191772553209371,1.6041296759229564,1.487300276484325,1.6022299209943516,1.4586008890198041,1.3727357427499887,1.6084041729457481,1.6317004668457389
1.4553243236131606,1.4664464787657252,1.4754400953519178,1.5292890074144871,1.5738635503473237,1.6054813395397198,1.578755114734482,1.6211116287215956,1.6762064258854565,1.6486871076597942,1.6343821428038554,1.6685898281536937,1.6133877933578717,1.6416077006351308,1.6118162532396745,1.5752255156596584,1.637862004200912,1.6421714289643754,1.6847378757480063,1.7873008517353965,1.7186734414293343,1.6030827919648178,1.699309594531366,1.6387181042279821,1.7063245472225321,1.582398740975853,1.503456783796377,1.6235545911383236,1.461203198129425,1.3886688597670438,1.5568753420814616,1.6334935010343004
1.5472426564047568,1.5040949112128084,1.576305348520249,1.5647492948750554,1.5675167121122562,1.649949206631022,1.6902705310216881,1.6562574066038716,1.7258727271881869,1.7150436845736436,1.7434912327690806,1.745914132186718,1.750756632047285,1.7367353551278506,1.7468748838597286,1.7425375825755325,1.767894500936967,1.7794154475460242,1.7854928247095148,1.8190846164929348,1.7891040370174616,1.7636074327049622,1.7521568433898627,1.7262623622703355,1.7328575216090172,1.6354677881253785,1.568379143143619,1.681596078494597,1.5516735172448104,1.4147876128246466,1.616100206390578,1.6964902817626524
1.6237020831285938,1.5296209626677295,1.5719047194455678,1.5626949459224582,1.6401724347995355,1.591626940150716,1.6552837522042185,1.6459106241758692,1.7153141633928572,1.7128094863102805,1.7344231586761796,1.7704050484164482,1.711893155405909,1.7410419352189488,1.7273191933175236,1.6869383125061335,1.72475112933406,1.743368607212377,1.7904571172987225,1.7798189878045423,1.7815722503207976,1.7852197037245932,1.7571528713189348,1.688374900590737,1.7058205081941746,1.7199049479275565,1.6074904250178497,1.673740424291048,1.551870157885666,1.4932926175759962,1.7164036987364575,1.7132980257272936
1.6861179651173985,1.6119174071817122,1.5728325988772962,1.592317162242959,1.6697305266016509,1.6104313399773817,1.6492264321391152,1.5581848132031124,1.7027728133598263,1.6922504911731069,1.7071733569089094,1.7421179265582156,1.6198361941753212,1.7135991907805481,1.6690306430426536,1.6282027906066907,1.689162624074586,1.695685139912975,1.7075580128556722,1.7639157414575959,1.6758197877401868,1.668529257421018,1.68163131779495,1.640635733352574,1.6845011563554384,1.706371747660232,1.5512155349025434,1.702944783169836,1.5890542697483776,1.5285055006076043,1.7282783659640402,1.6409435760728452
1.7471324537470332,1.563337953186233,1.621216848004689,1.6239947010241147,1.7050828165116891,1.693654294819459,1.684519298142979,1.6004269652765803,1.7375821924558177,1.631495520385256,1.6439686686664599,1.708037203750201,1.6562179504934686,1.6900665938642054,1.6550918060282052,1.683408350794498,1.748912254321888,1.7260207418350342,1.7182744470266083,1.7883113778227344,1.665130157613855,1.6657626376759742,1.6357187038881984,1.7040752912423116,1.6751428258395056,1.6386096471302949,1.4544237766817791,1.7141282612362074,1.5274858044016355,1.4782247895133422,1.7087079637752682,1.5834747138503589
1.693003442632003,1.5922823145098004,1.653938652229236,1.6704551725133316,1.6879380614102721,1.6867400372330998,1.696364619736132,1.6498330954212008,1.6928575385771647,1.6097440120059974,1.640364387863268,1.6939620418711192,1.6865774333376453,1.69070283655786,1.642405220213815,1.718624252344924,1.7778887051901968,1.753625422033495,1.785352306862971,1.8248778329772803,1.7849216076676793,1.770562388265239,1.7456859596849286,1.7013454875114793,1.7089795095632154,1.638458891657829,1.394204987255791,1.653117737327964,1.4183381628110587,1.445093424783316,1.706024653649922,1.673908007047224
1.5130352568111562,1.491070968898611,1.503248195218811,1.5724321575307896,1.5651732720646891,1.5450137600647331,1.5834858837146175,1.5960456033077026,1.6654254426360842,1.578196509088716,1.6448458151364527,1.689928712228558,1.7423134262406972,1.6498698554286697,1.5950093446101479,1.686948040634859,1.7874957306111612,1.8344058477024165,1.8966184481280834,1.8740215317302469,1.863826536430121,1.8695119943838898,1.8155003364770472,1.7157734240510567,1.7014901560878954,1.592766611622329,1.416406702876799,1.5968883728320005,1.3352451108032202,1.4039818831421964,1.6299200586912062,1.6737377407492613
1.5502811940448704,1.5175954120672273,1.4770146617869662,1.56784815549788,1.647672278047414,1.6043368865558818,1.6894269355130727,1.692336363816683,1.7211058725816402,1.7840156118394566,1.8171762207083086,1.8022547385849972,1.6891268951644587,1.7782596635601142,1.737182621298853,1.7084609183523212,1.7228452891849366,1.7437597464766283,1.8002354535199967,1.7781718440068817,1.8226567882376898,1.799347429082683,1.8510850636756193,1.7532368968277237,1.7741255434787786,1.7369738478678256,1.587941486195555,1.7861366044756293,1.4751325660315888,1.4608479121488382,1.6759237839540773,1.8042329032845579
1.6742912286325724,1.5248254082915011,1.577979827220679,1.56417378665665,1.6327119354450241,1.6688154466061997,1.7113097481286743,1.673063542961153,1.6715475153153405,1.7658432618717537,1.8084147603349847,1.8136590877894707,1.6910707479262164,1.8071333188066792,1.7650953923535226,1.747875816927173,1.756166377519554,1.739346740539342,1.7688900690168081,1.7970292741385585,1.793278265534378,1.7465255725412612,1.776626736880941,1.7687463143176276,1.7924193450039998,1.7114641087059372,1.6086918139031787,1.8074549148044998,1.5453483358960256,1.5440487434883545,1.657999661511376,1.7560601539930027
1.6376594131665918,1.539321603216113,1.6600822649664322,1.5636559745489547,1.6806960180789705,1.7290511558200325,1.7497820124081838,1.6373728762853321,1.6434958549079492,1.686154668890142,1.7318721203573066,1.749389318921337,1.6829375922797993,1.7386514357512504,1.735723617244243,1.7098945647550812,1.7620300978087649,1.7441057101903508,1.7171774972187372,1.7647993365061216,1.6697441915921147,1.6769152537713625,1.6643084565215098,1.6895512261054995,1.7466304987934547,1.6946044006714078,1.5727911120416755,1.754995117848905,1.5901270612117362,1.4988178121164355,1.727781738826213,1.6336166417926992
1.725945060382678,1.5465035615983078,1.6268680895865153,1.5914040662619444,1.6995021732008602,1.721805261415201,1.7407006994608534,1.6438797716462652,1.707910128297289,1.7723248527823803,1.7901198818203599,1.7610749548810534,1.6842690800492526,1.7830364731624357,1.7988743204996225,1.7662153356400438,1.8020863004718368,1.7684896919079847,1.734001265054444,1.8421723765476505,1.7285314230030604,1.707050222965873,1.7298086916381648,1.7541952653275605,1.7676820734740295,1.725199659871005,1.6477668791516447,1.8096179768004965,1.6635750231720585,1.5736584563109117,1.774467791453846,1.6619195458431246
1.6816803997659122,1.6319665141147597,1.5922971116143378,1.6167118559243172,1.701047639692223,1.5948798743213164,1.6385799207488312,1.5886744549813907,1.6830632320296413,1.6894052956326855,1.7442032853100684,1.7339679572961992,1.6651525073614057,1.7371443607936428,1.7485797692407223,1.6818090242249468,1.691797352621186,1.6764303404350112,1.718851046191308,1.769628446807876,1.7320770267848318,1.7063062612235835,1.7320531989296286,1.736720302755699,1.7522887376782135,1.7120410454036756,1.6430508674162454,1.775130843094617,1.600086299273433,1.5029583397625448,1.7380515032609125,1.6258220773984289
1.5711823276993706,1.540015884659225,1.4769885026888339,1.5489430096597965,1.6729308762954624,1.568143468926656,1.584110885976387,1.6096490513980275,1.6563142641135329,1.589129880216387,1.7060398255111344,1.6461089392181898,1.7409597743384815,1.7027463337561741,1.727949449665811,1.6913469798505383,1.7036273021834156,1.7192750994174453,1.778546784895099,1.7180334666092578,1.7175877243087363,1.7396012596562218,1.6846497131542293,1.6831349781188238,1.7359796673188317,1.6621471596347042,1.554840167784591,1.7160880225117483,1.53260372130649,1.3747873558864336,1.6628371670161168,1.5731116064043056
1.563932126463126,1.5595836905487364,1.517064947903332,1.54814618500637,1.710211021170249,1.603676185943207,1.5535591407384457,1.662489861802533,1.6770937303365003,1.677002361996667,1.689578526907065,1.6849890644269072,1.706618267811131,1.7314219182782846,1.6906631201512998,1.660079161277929,1.6903489909811036,1.7137410807963016,1.7404205988520216,1.6891619217843439,1.6765273700302217,1.6947819968020184,1.6962093183631122,1.5996047674545353,1.6917500908767795,1.6956960004834052,1.582726176844013,1.6876831244209252,1.5489135253345194,1.4170581283883155,1.6923634440303077,1.616124168177536
1.509143228011443,1.3993652621487351,1.4397359558515268,1.4116998412690902,1.5337522324954125,1.456706162876487,1.51286895437457,1.568199865521769,1.5654643810081024,1.585456571513998,1.626830338410124,1.5636579385784124,1.6103166640770894,1.640557492219419,1.6441496847572818,1.636186580800707,1.6723872487292004,1.7014527048158763,1.682392137651128,1.6598837687116643,1.6762616415560974,1.6917694423632863,1.6755845527592665,1.5434836351316554,1.628434284953482,1.5897070898104828,1.437171206940828,1.5927550034007356,1.4308751472516912,1.3677346486700168,1.4858955548255333,1.562972309600596
1.45663560330726,1.5391626524985655,1.4444427255164745,1.5619352267696551,1.5246411626074372,1.5182355513569705,1.6151165260723788,1.57940655206531,1.6288592445995986,1.5940913704870276,1.652889182259432,1.551563990518965,1.6678673316368149,1.574448761514303,1.5997199686867032,1.5857368676987338,1.6290940902291104,1.7000575732304202,1.770360868758195,1.6464698208945079,1.6977640510339342,1.7864751648026986,1.7299405896414424,1.6053773857671811,1.654236235541339,1.6120457291943318,1.38070284019868,1.5931401489172496,1.4333662259397342,1.3707211194770674,1.572155086071158,1.5805709819730287
1.6032469041274922,1.60934110458299,1.599097272881829,1.6912815673318102,1.646998516033392,1.6489583135575174,1.6456879615267368,1.5865675356187288,1.7920150488849202,1.625358077725102,1.609272552228429,1.7386598825962063,1.7267923661140057,1.7190151245834508,1.6201091840573711,1.654116402768982,1.6869420203316978,1.7440809039432401,1.7508521349202755,1.7027542380152283,1.6698723791711807,1.7669599553991067,1.6904752662086728,1.5753654706283637,1.6372871532400348,1.6370194230769382,1.5249934576703918,1.652275137279081,1.5607990105982714,1.4267708304285336,1.7070126330030164,1.6011147589631034
1.6984410218289119,1.6029048371739116,1.6996794283359609,1.6768551208903533,1.6372820845764655,1.729843863219478,1.7423693955580029,1.7397898212460936,1.732550100989437,1.7064036384689885,1.6561735159334063,1.73829215736606,1.7064506702862567,1.6913433597217884,1.603707747528679,1.6348466233623111,1.690743356011664,1.7251858435356986,1.7163426839683107,1.7259025664906407,1.6455826429114653,1.7377830465319262,1.6697889514579134,1.552935211032901,1.669974206331992,1.6508555167940444,1.6205321626940514,1.6490300205706774,1.5124387587715273,1.4464129022863756,1.7052099427507486,1.62209883107026
1.5402343915724441,1.4728794733475898,1.606158576043744,1.5432116268555913,1.5372843510121723,1.6860271390560344,1.7182851837744975,1.6636782414610602,1.6240584227392227,1.6751064217017944,1.6562700797916223,1.5788278065788512,1.6296196035271933,1.5153395855515552,1.5044154320149563,1.484554590314746,1.5173251606898848,1.6046193211574098,1.6381976261427678,1.5460648430903738,1.6112745298331428,1.713230080269665,1.6105529528363622,1.5424963636897597,1.619058780046234,1.6409450136671824,1.5712539756237625,1.553835239162455,1.4154482045323755,1.3282130944646422,1.6386860706277915,1.7137273316847235
1.4258630258239982,1.4022906407838147,1.5130767979877595,1.4656035619950696,1.5571873768991658,1.5954678863019423,1.6777458173794906,1.5756459912125438,1.6895741050015725,1.6805342852924758,1.7186348633152164,1.7302070139070636,1.6305856567083183,1.7061647393468833,1.6389117937591011,1.6881257656928528,1.6517380039630802,1.64261210077302,1.6112259750971456,1.6498224489832527,1.6519554749728707,1.6181523001985574,1.5602202529658802,1.586263794658981,1.6017109163879715,1.5622809014098462,1.4842631063981937,1.5885093539428474,1.4609848617119097,1.396939163018788,1.6000915115858347,1.6556134917822756
1.611738057241347,1.4641779414270983,1.708798757915789,1.519891325798284,1.6052859303305957,1.7429887266573778,1.7792126486752653,1.6940388757511087,1.7160818997097604,1.722069773169506,1.738554229055294,1.744779656098454,1.670091902470213,1.7251481926222099,1.670765228302199,1.6948057258715332,1.6757122127252961,1.6530913043571587,1.6620519315183588,1.6824715681777422,1.6721984010117488,1.6510993834533154,1.6272871346183677,1.6251413323286106,1.6398485074463955,1.5801864960516867,1.5554638716276838,1.6715521949884669,1.4857007485742713,1.422087137128861,1.5948584392773995,1.621360958639093
1.681960075383756,1.4904004914793196,1.6786998077973807,1.5322725833651687,1.6498901526871563,1.7083505731416107,1.7850117475813676,1.599530665318585,1.6759352090926998,1.7427560089172685,1.7398228639913347,1.6979925231001072,1.6849413609921504,1.696162397448809,1.6080928166374349,1.611900105422994,1.613687793362599,1.5930590770092679,1.657054996063991,1.6766909886177,1.6709983118685339,1.6649437393451774,1.6416074096373015,1.6572083020182953,1.6745727845455411,1.6241697410036624,1.6027466951401859,1.6867472917736361,1.4824640955191404,1.3961036599462162,1.5898237202392558,1.6177567304670688
1.5566680218592177,1.4244887113757492,1.4880135185773893,1.5133038806841783,1.5901487893549489,1.5799070368497392,1.6739832974898887,1.5821778342769741,1.6061680407343584,1.679536330055609,1.703953768365227,1.6338436819010116,1.6528573079651905,1.6933821745979925,1.6664065630537164,1.6785451871952195,1.7054297652273727,1.6452371094218956,1.6840297054192201,1.7274333484102098,1.6626010209914313,1.635354410962502,1.5919203571117504,1.6335963944762997,1.6380549666349193,1.55288989490441,1.5176209357228054,1.609890918099228,1.4322964635623836,1.3518361902071407,1.6076727643965105,1.5344812237815082
1.4958805455308148,1.4158105539296486,1.4993131769992236,1.4708457639022425,1.557499353826408,1.5033306549354168,1.5956992398058176,1.5594279815774867,1.4910059807403846,1.5752504536799583,1.5725671152303946,1.5293222838631466,1.55525649737284,1.5639408201810059,1.550183863445377,1.6032828908580483,1.646495632102136,1.6173329673465435,1.6444280948143528,1.6784072454641656,1.6664957871695691,1.6328862522329033,1.6666216165556191,1.6524487229801461,1.6707026959262097,1.5927243028483136,1.5341963664436264,1.6473144895729805,1.435616337106086,1.353549081665998,1.607991316253603,1.601824790157094
1.517545073618991,1.434388225553401,1.5232922972485254,1.5039550415537832,1.556457784205951,1.5821880671895459,1.672724557946638,1.6098905881258225,1.640086063487856,1.636209808709,1.6712191902518647,1.709791072442772,1.6657075637163075,1.700595709196192,1.606132679439236,1.6745418095255873,1.703117103358477,1.7031959408205657,1.6929470157102686,1.7054438132570753,1.7186899078342144,1.6374413061361919,1.656455095561195,1.6204262244499081,1.6574321382093238,1.6372007894613234,1.6637767262014471,1.6922997323227043,1.5963269618187736,1.4099781718187554,1.6452074727793706,1.5377050620668447
1.6756248542531906,1.5917473307593235,1.7577845500442313,1.6718194979575207,1.6521780255905727,1.7486624523246612,1.800643358202253,1.6126180149389153,1.6473645035494364,1.6935696881612174,1.7246733022520977,1.7150053500550175,1.7063501794777658,1.740193809285545,1.7264534136182343,1.7422565672628647,1.7541727666274345,1.762694235107032,1.7853029558344466,1.798785733458164,1.8101042682602126,1.7140093924211572,1.7383203412614252,1.7192354881716827,1.7005025319265523,1.6943344317145288,1.6743098033941335,1.714038652158273,1.6078052114203134,1.4543632086787728,1.6933460596745853,1.598020978948251
1.7412380241781977,1.633473869690875,1.7788779306955038,1.6824071977327488,1.7034920519175052,1.8251558740559461,1.8398349595721388,1.691504240345138,1.6869299492504128,1.7345463720677405,1.776940332787367,1.7228293582736376,1.7330354981929001,1.7481471094563565,1.7655020711400167,1.758492313069701,1.7613800150061165,1.7669036267996887,1.7944995631014193,1.8555873004762407,1.8273541105539466,1.7612582694968049,1.765481641312225,1.7944246524927057,1.7821299936504027,1.6605597888260668,1.5931223794120397,1.7865505771520636,1.5788515787226394,1.5160536857664157,1.6204590803558445,1.6752594476687441
1.5004009037336563,1.4550097441064886,1.5750646580221659,1.531846305958372,1.5702410312021386,1.6959376317532153,1.7474865265901798,1.6642934957956803,1.594436901243038,1.7387193967333772,1.727384135857352,1.7392440901483754,1.716898739033267,1.718910897523408,1.6917340223805053,1.711316193287325,1.7274924324630911,1.7004104471518486,1.698766249629697,1.7510242234900701,1.7081175124437213,1.692541067556159,1.6255841849756656,1.6776391373055795,1.6469606247535353,1.6250617611172624,1.55647986725848,1.61447162030566,1.5319205911122717,1.4596313656175437,1.52532525075567,1.6963107770056567
1.6071090467661855,1.4490424317676394,1.6202519167048381,1.5904859264669304,1.5434773849713783,1.669627344141603,1.7044704334519847,1.545834794569497,1.5233412241164714,1.6720527884293879,1.655173617041631,1.6519178644330863,1.5778650458770533,1.6453291831293184,1.61543918727018,1.6218215739436315,1.6396620492704166,1.615054466272623,1.619602138288868,1.6949407169974677,1.6264893367001438,1.5481444271221485,1.6485277703797794,1.6553328416593651,1.6570188197896003,1.6358779437350222,1.6443210821564758,1.641540181956906,1.559515076847931,1.501874917453263,1.6101842166000795,1.5945287159974035
1.5970127211812906,1.4204064240486947,1.5702058496312863,1.5049855388041717,1.5207933782527667,1.6403571724517212,1.7087628438480007,1.5504059484566826,1.5587437084042217,1.7238511894005828,1.62545884396295,1.6110614147815692,1.5811791655567962,1.5813246266272198,1.5492091107298174,1.6255545611716904,1.65871888767482,1.6342439136827738,1.6855468749371663,1.729150850448972,1.6391347383772885,1.6501723060516436,1.6836365407204088,1.6384356423834747,1.6650143647158149,1.649381980522911,1.5167487156995678,1.6807193301045584,1.4972582083126398,1.4503721440969999,1.621774095229685,1.5581869200345635
1.5431019572059559,1.400191375898546,1.448923207981546,1.5496726352206855,1.6409321396603698,1.5816977818871858,1.642336282595853,1.5355914530439394,1.6120763189220264,1.6767464591995167,1.6131694066773776,1.6194236748919117,1.7152276823000498,1.608378177791022,1.5587609580114827,1.6618857794980528,1.7172322105730764,1.737321998438316,1.757004118711771,1.7424110318921835,1.7225853941751033,1.7431478857396763,1.732905377303761,1.7078187991581553,1.695606533902123,1.6403664570905254,1.5149621145788235,1.6550149531194143,1.422868515604946,1.4131230597952995,1.6293519248533903,1.5646825720277744
1.5456534122225227,1.4761358847699328,1.5410404081686198,1.5845941324979658,1.6794107194128434,1.6780749409518254,1.6706078486873241,1.530579119372556,1.6289780974109251,1.5933995863054569,1.683438776394545,1.6749597004203152,1.731076401917529,1.701027610005243,1.6653909396003483,1.6729083855076894,1.7116020726345633,1.7446772625211768,1.7663488204503888,1.735954222525599,1.7567474977884365,1.776966423791116,1.7561556356648842,1.704329822150191,1.7240956991186958,1.6795926008095796,1.5604718442849252,1.668678785031329,1.483045943766591,1.3925358974452184,1.6610652808594148,1.6286655245816346
1.5336338148639401,1.4772721196852179,1.5791910496500075,1.5451172162146474,1.7060975746624873,1.7002114059190123,1.7949918736561592,1.6477045945975117,1.6399391976015993,1.6781252122734758,1.7358742227084591,1.715953971525601,1.6611986945485808,1.7337199438021522,1.6949675218312765,1.6312971183869964,1.62001373129238,1.6484510075994772,1.6767962791275115,1.6606141263512129,1.6758284849336635,1.6676425891769469,1.65138440872858,1.6060011148123414,1.6604800539043372,1.6254894820278702,1.4607342965658887,1.6558658321240376,1.4722099841779852,1.3922465402851576,1.5660059534461752,1.5868438712350204
1.5471427243647573,1.358119532798933,1.4684606545987928,1.4875735183934782,1.6232383816397904,1.571783683541133,1.7603096658503814,1.6433757765767092,1.5797759287080633,1.6095930228524034,1.5438688753652812,1.5551103469942753,1.6892629220834938,1.5782322820641137,1.5575837253126965,1.5722395721774804,1.598662858808463,1.6777598954929585,1.7486498958105672,1.6108144554526866,1.6947207113610603,1.7445141793815682,1.6628956634719552,1.5485822058736007,1.5883345932163262,1.5488928157704442,1.3914321191883567,1.6349689255690614,1.4562481878774802,1.4117439100953002,1.5881769791591784,1.5639522232716296
1.425267174856204,1.409064075963765,1.4231786277255194,1.5023714333592715,1.6450377092707817,1.5304651434233059,1.5947845052533027,1.5921102467829786,1.6212718480774553,1.5502457028137986,1.5814145033793205,1.5996872025239495,1.7803715746960007,1.6116203005283325,1.635042069695676,1.610999325529484,1.6541947745270769,1.7328612988088228,1.8122839332412857,1.6855177685025053,1.7607777267921763,1.8416408238655477,1.7561491890791665,1.6155564191819147,1.6302383094414272,1.6060626412397871,1.4396336511569523,1.5839387394734497,1.3876503240331444,1.3195549646221616,1.5790712853646556,1.6266645464340652
1.4552312596172412,1.48716787174062,1.5561573895716463,1.525465171819861,1.60147482376641,1.6503201870540811,1.6451536764684815,1.56727787024368,1.6463419348717312,1.62728096337894,1.6727059546095664,1.7177227642984303,1.6952452565940046,1.6806634757381307,1.6923905000054285,1.6810187838227242,1.705107610388906,1.7295471049423656,1.769353955280694,1.702940599933699,1.7045847320598337,1.775149192717253,1.7073553040262928,1.575416840591339,1.6006777414196365,1.6017940678593465,1.3876618430884993,1.5599757327342005,1.3662251993824146,1.278591188231171,1.565486531797546,1.6303233876778527
1.5373946731421164,1.5148246892508022,1.5963290095108644,1.5939805560452953,1.660398404905715,1.7084131253282497,1.6963996774419243,1.6455889201572262,1.6760687172565358,1.6361489570261032,1.7168284641782947,1.7074827025806334,1.710113823673041,1.7174274714464506,1.7334480401152466,1.7261544483926536,1.7189882919179476,1.7121761202470993,1.735821688618325,1.7498238812556812,1.6911532998215282,1.748117215700712,1.6975532360690773,1.6597747243416852,1.6736995044508984,1.6325226568735902,1.4787465527479686,1.6798654332888305,1.4455474279447345,1.4061831331257229,1.6179392670040538,1.6035558901930094
1.5483579084993715,1.5387301974718566,1.6553160262415474,1.578607313759443,1.59221681484295,1.7340540620043714,1.7484206439890457,1.681718085935594,1.6143167307709263,1.7018600920947364,1.7416923689278128,1.6806152297631434,1.725457394314823,1.716773514622761,1.7381164865575287,1.7293288294265978,1.729717721380145,1.7234228873237865,1.7367813737751119,1.7542204687679552,1.711722173403352,1.7717325493947973,1.6933677186217961,1.6689078121054253,1.6776899242715524,1.6256893927642997,1.5133578460100507,1.671332252017356,1.493892399171576,1.3784293110106023,1.6103460428623355,1.6312536453423818
1.5387124033786255,1.5002540585802058,1.5572961283406215,1.5611749000667796,1.5766632909350102,1.743423625884099,1.7802451742545624,1.6486749194031958,1.625438101682502,1.7382250430923065,1.6833197529829453,1.648697820118476,1.6109950616905102,1.6134680391429863,1.6528981564276946,1.5695724522829013,1.5628282919073062,1.5366313109901881,1.6301871190661323,1.5887844288614819,1.610109614348619,1.687720258300137,1.6125060803698692,1.448704843794548,1.5348621446996393,1.5746277238696684,1.5240113863255391,1.5250237955544264,1.416460002618697,1.3035862317458802,1.5675946320281666,1.5746929987136145
1.5083566874045853,1.4727841238539476,1.4462355463526944,1.5384020409421884,1.6109054417441973,1.6228736459258337,1.7000389069334918,1.6336602100877697,1.7268168160435773,1.644772810668513,1.7029789234183075,1.7113068571335925,1.7124920005313107,1.7209128278829258,1.6986829681686983,1.6933041096699306,1.709786228638684,1.7148165275677436,1.7386314381865728,1.707590002554595,1.6941830795060282,1.7223596825225207,1.6659429795552778,1.582117675806095,1.708600612580352,1.6748492166350675,1.544332642442497,1.634711358179058,1.4342667383671854,1.3785369257861912,1.608838184829287,1.5725046259117945
1.5560713218348374,1.4728029493529127,1.5472020651018823,1.6329919842271199,1.6620775154275864,1.611466848129869,1.6827644121043455,1.675186625436532,1.7178732430836476,1.5840216408493453,1.703573188771096,1.7195613054920407,1.6975999814565874,1.7246785498954846,1.7179534178388958,1.7120515024049647,1.7406856391103274,1.735733516103425,1.7435655202389506,1.7489764991896122,1.7468346315142513,1.7314651565005945,1.6954558653517366,1.677934052814382,1.7860199359853226,1.6947018949271235,1.5311288405445798,1.6978883066236639,1.4732100213304895,1.3844049210596014,1.6450515824194145,1.6491096089427288
1.4907247729968587,1.4413820217950903,1.5282632291288119,1.6150947491111693,1.6500105900584205,1.645304698309015,1.7070026725208236,1.6810956347601815,1.5988983677564907,1.6645293337434959,1.7325411401979993,1.7359266762125498,1.7064094354108792,1.7421192537197496,1.7167583719437802,1.6925310146483519,1.7280997030405003,1.7444925592728788,1.7177266560740432,1.6876004123064097,1.6252611203994918,1.710246891207061,1.6355460691107464,1.5153497588168956,1.6190440169207907,1.6522314166168475,1.4316908262874,1.5759172231494027,1.4035339216338134,1.3419886070220695,1.6158072717916339,1.6301951285350706
1.5348427795087474,1.4533508176007268,1.5664594886903296,1.5291494805901618,1.627977095393831,1.6373848833537334,1.7409719186763721,1.6749802390824744,1.575204257691439,1.748427146184105,1.7446529956133743,1.702598042371749,1.6782354858781738,1.7358111975767303,1.7198620937442932,1.6876385178756477,1.683637267734938,1.6852374269562425,1.7016055739654077,1.691900428928985,1.657921638567215,1.663138666019778,1.582633043011966,1.6137511828890205,1.6327892105295707,1.505069178491477,1.3763936739889224,1.5369314365610296,1.3248002718872154,1.270569720690251,1.5499418206242221,1.6108452676149485
1.4991198011333449,1.4382473374005456,1.5233598928947365,1.5746483812752639,1.6414078293399026,1.6042476015605818,1.634836207935912,1.6565037155105442,1.591551434436504,1.5789338039542107,1.5982751655474492,1.595454430400797,1.6133738732188927,1.6058374563954356,1.629097218859446,1.658339522496825,1.6840519334070372,1.6531465282431497,1.6933114101178168,1.702273117371928,1.658313632961216,1.6188217051440852,1.5807324298439105,1.625106959382581,1.6008885647082822,1.5132568883325028,1.407187423783955,1.5519818832943406,1.4352679735826963,1.2486851818760236,1.5965944107736976,1.5813662149253631
1.4297091513167166,1.3968843229410215,1.374263858269751,1.4864814316887052,1.5597330653765282,1.4802433354230748,1.5074791298511159,1.5098341574167522,1.583614187217563,1.5390034520011557,1.5981018909718445,1.5543299672190705,1.6317590150378096,1.5746274164047538,1.5872623924309857,1.6057701563567142,1.6130761254120944,1.611294327594642,1.6381098269186756,1.6271597754279712,1.6157194832253672,1.6216368203397693,1.598698634970223,1.504950586132055,1.549361359750265,1.492986544056692,1.395946591142559,1.5540894206818716,1.3797688602249802,1.4073740935272545,1.508357535531619,1.5105709443060265
1.461175911575794,1.3519292254622033,1.4792724656285616,1.4312800101895182,1.5285190221534632,1.5665565067842906,1.6213940785853047,1.6332398527969023,1.625752662528754,1.5752199979536674,1.5952017588222922,1.5960748810175613,1.6927554747404097,1.6099259161635788,1.606178174350612,1.645087118187808,1.6599200878928295,1.681268439649658,1.6969704312146432,1.6628725490605858,1.6809381281418496,1.7051351943785262,1.6792060230631982,1.5805617117146158,1.5609658506989783,1.5367237178426465,1.4796443263856407,1.6023005872946103,1.388949045003901,1.393012052339486,1.5059103021419364,1.5871239797036834
1.4443264050524938,1.3638965778201073,1.49564110815647,1.4289498465236807,1.552094834348646,1.586376554111848,1.7072711048863767,1.6393165853274163,1.574849644266381,1.6516210450719353,1.5986916036291172,1.5848679749254762,1.6742015242499222,1.6205319166768788,1.6336033425290248,1.6650694669627981,1.6993814627621329,1.704405007950549,1.7172756778896898,1.7141150982759834,1.7096880062384074,1.6808820566288454,1.6545601319021477,1.5852998124978739,1.5859086538221439,1.5354737019312081,1.4398256792091229,1.528390772039769,1.3937263288588053,1.3745382541855726,1.5495013054376499,1.537433721539909
1.4576589041085384,1.43058713874658,1.4643664575804896,1.556070394932264,1.5791002310212858,1.5722519638673587,1.6478862530806575,1.5567529578639856,1.628387790725391,1.6494799674447922,1.6232023735984131,1.6433370731717276,1.7518687202027075,1.6428091612078217,1.6740174904230096,1.6826079036870756,1.71796376850131,1.7573668400349767,1.7668799405289948,1.7330006046581834,1.7563464580107113,1.7890976137191226,1.750363313912016,1.6476471492543372,1.6740130879573605,1.6000359848852188,1.4954445009920205,1.5412621696301496,1.4791325547001284,1.3475793807524126,1.6306335289932175,1.6417191545491934
1.4557609695028635,1.4656017137568116,1.4501079621834312,1.5471784512934266,1.6532201160942563,1.5595877643712077,1.656644931776272,1.6317423533518176,1.6631647923421546,1.681834186447506,1.6745717157391942,1.6884368028253687,1.7284625301942045,1.6786003821326805,1.6168849323613117,1.6945712920063947,1.7284701617248242,1.726750677115586,1.7408761524396985,1.7197592359498761,1.717591844770592,1.7428169184566464,1.6757015972870557,1.6162786473793584,1.6228773553491564,1.6151803623191385,1.5014203265448944,1.5814607953804407,1.443959769454167,1.4259613481027906,1.6751791038051695,1.7281901315175954
1.4552384450690428,1.4393971635460812,1.4509066110503068,1.4891066618769802,1.5799293542332629,1.5903813843842094,1.6866219656433226,1.6753591413360498,1.660283758105931,1.6778585894040938,1.7011184379868434,1.6731941532366306,1.6549792776745824,1.6996814356798908,1.6005826704004662,1.6964943632134861,1.740750827057485,1.7251375675962166,1.7196871316784412,1.7763987191954185,1.7172897734729404,1.6779236902319163,1.6871426026625478,1.6690665737172188,1.6291969785923384,1.5764252123149471,1.4191025813237796,1.5868406995853284,1.3959229098509276,1.3704115712775482,1.5910089531752416,1.5879805688253918
1.5089813248685522,1.433906289966965,1.4606430184093497,1.5183916085684133,1.6030152302192915,1.63773606838033,1.7140369986501105,1.5465170201728116,1.6548161244540498,1.6533637326723087,1.743280248472057,1.6922839995629289,1.6932404727953008,1.757837801253295,1.7266772912747845,1.736811875675162,1.7264477289181146,1.7478938543819917,1.7251526692276289,1.7445682642669282,1.6933693319538634,1.670242965206771,1.692638744047784,1.649088478318521,1.6561136789571946,1.5381358184198768,1.4514355761228543,1.591586143967084,1.4125214684578025,1.315663746264949,1.5272315315267584,1.4790162873769752
1.5514926507117794,1.485073608084104,1.5332748041676074,1.6310745442236707,1.671330768324597,1.639390322106838,1.764683753841941,1.594407703217194,1.7288032509524882,1.7817215920060991,1.8267249623045332,1.8204011906842283,1.7274072464635533,1.858175702272014,1.8274650761900286,1.8163196434217455,1.8017087113469001,1.7755995453032412,1.7543487079612645,1.7859794832116271,1.7483636546361825,1.689932390328513,1.6775342231744617,1.6915065997666014,1.6435139247893604,1.581378632899305,1.5066594987590047,1.6880515614259421,1.4738227845522913,1.4104754257704715,1.6327428060422775,1.6385388748437801
1.4733066114942102,1.4603680954770681,1.534605665411113,1.542417549774578,1.6731487299817682,1.549269560707781,1.720482176859786,1.6178555200751479,1.7061498018963175,1.738236452754982,1.7673920165755304,1.8070317514081964,1.673832807526506,1.7981891813899669,1.7512167181635208,1.7506436994661974,1.754116803768497,1.7127749683584248,1.7099311614136692,1.7449038207054495,1.7126909763933702,1.670560907524573,1.6823448401722423,1.6747878506064187,1.6571895764758815,1.6069903711313263,1.5085017277029593,1.6802242166324521,1.500576806324915,1.4284309126143728,1.6479996423076926,1.653587368915294
1.4025179464469928,1.4394126757281414,1.5088579329688614,1.4584485029452194,1.5628522047431233,1.506594618310429,1.5768327340783368,1.5853217245678652,1.6954809552353296,1.5667486615788744,1.60882622415219,1.612679788342136,1.7148939138063262,1.6806242729938494,1.643680204294097,1.6723398626210275,1.6616710233971987,1.6480784540137872,1.6610024721997418,1.6580488112122602,1.6937684011154786,1.691329041694887,1.6876846415609597,1.5914984412383648,1.6556583508600213,1.6086728313524168,1.4262065927942453,1.5734219240314644,1.4440981180843262,1.400503781049689,1.5303442686704667,1.5999755783230127
1.4500333830656633,1.422658964812919,1.4537550055960522,1.4073591473514266,1.5311835468768131,1.481427407737842,1.5384064371825243,1.5897837568847377,1.6675347465774646,1.622840769381465,1.6608372691513884,1.6181736380888785,1.704584642459637,1.711438644290368,1.6731700430082421,1.6789369369411666,1.688125062831982,1.6880314237178067,1.6700060237966594,1.7027056960738578,1.7071293087139174,1.7038502910111926,1.699991251142878,1.5924661134170228,1.6577642192165793,1.611974236123825,1.4225663697475202,1.5913110808869086,1.322106327714276,1.370402568236558,1.4891816832994784,1.5603924157283309
1.4713954514614018,1.4234074044571776,1.5180958323221008,1.4389117749047162,1.5628256897576718,1.5914289686850926,1.6694739003000645,1.6807082993796456,1.5370369768421857,1.652685019528207,1.656197605844436,1.5922999367654598,1.6550598049883474,1.6149427415787245,1.590017727742733,1.5586566413517382,1.5788371782966846,1.6167844475839501,1.5984713314576182,1.6399215814291164,1.6140104697348157,1.6537171427303947,1.6727604204732065,1.6220815047041814,1.5977676566324448,1.5809435170737596,1.3537771563655683,1.5140752155288455,1.3607642446789132,1.2894239435546735,1.4787326440828563,1.6620468802095756
1.4555080659356863,1.4539201757396485,1.589342865292867,1.4901483312765067,1.5489466939847012,1.7233300165538201,1.7576675191852398,1.7278164706990988,1.5579232443767506,1.727463256468988,1.7453650007472248,1.6902430413224965,1.7039085979133748,1.7199181097504133,1.7219990680565926,1.7180834491233619,1.7203752003080839,1.7325298433721659,1.7509031204421348,1.7531234884507472,1.7065467196170356,1.7466470076134863,1.7478087920078502,1.6976288524778838,1.6847648577200376,1.6471437270542602,1.3891836336836698,1.592542084849213,1.4834820533481063,1.352944295403798,1.551574725335938,1.6902192183974512
1.5303679251767608,1.5090302668984044,1.5796388678136362,1.504796588031532,1.6219482811935602,1.6387061445558864,1.7193148997218357,1.6315707445676952,1.6571080962182247,1.706793505384406,1.6863868013579995,1.670989240692652,1.7193685856960035,1.7240955222295433,1.683857119092333,1.6993273863032212,1.694079403099432,1.6965363145526322,1.7145497800347311,1.7071930190281417,1.6322226028935947,1.6964153614388924,1.6503292406970789,1.5817813371549367,1.6110426320270639,1.6096852206899614,1.4497428090347346,1.5335374356271512,1.3982660329968357,1.3502800343618908,1.6046154888057742,1.652755443434059
1.5596463586124214,1.503160647424023,1.4793014418063914,1.5614331418076592,1.7174532245970981,1.5878908160432434,1.5612522121081494,1.5812013194698948,1.6965752808944319,1.631023635400862,1.5505235543754765,1.6300155191837937,1.736056897976547,1.6068820663643457,1.5612289826707464,1.5459674162530554,1.5791521942745568,1.6335431623076877,1.644257552680063,1.5891683968578354,1.5607262891354288,1.6547566930542534,1.508740711679759,1.4924071919076596,1.6108622929258087,1.6086131845225882,1.4006731429955221,1.544016645164768,1.3886932191986943,1.3934016759921155,1.6808232523406403,1.6188261686551546
1.6265437415001864,1.5127122244594393,1.5656695074895774,1.6354753911533797,1.6892941571865563,1.656455031979774,1.7226627990741459,1.6418737992799137,1.7108973577867215,1.6678522761344807,1.6528045895674681,1.7415165681248688,1.7600722030188287,1.7548367586638534,1.6838553243285557,1.6701279217799059,1.682097153683127,1.7200494549816514,1.7250419131232304,1.6609087577817239,1.679973004487923,1.659088815120563,1.522510020924856,1.4991840566691805,1.6796133752496958,1.5605692335312358,1.4248329103371937,1.6212558833157404,1.3841153485143813,1.4695086702972582,1.6691484837536215,1.5586314284508542
1.5315633525377583,1.5320155087365936,1.5985457349623933,1.6198462844451633,1.6919598103712647,1.6438353709249485,1.7336264955671017,1.6182464594071793,1.755036769514107,1.7011628807045602,1.6732229451772485,1.7448176417881414,1.780866954239099,1.748215674887918,1.7417823365633025,1.7142550577117777,1.7413752084824774,1.749751001025932,1.713692594536104,1.6871287459752002,1.6673320425162919,1.6771849997216413,1.6077998765231238,1.5341543995231557,1.6959870965653825,1.5285231789217504,1.4168816598093454,1.6228984253588912,1.458506926259287,1.376146291882706,1.6490616702045116,1.564298271602354
1.5298784353500885,1.4880709221524395,1.5634213770162666,1.554923224314974,1.6649877225174952,1.6598200757973922,1.717676457110325,1.646643223858724,1.7834045894550177,1.7027584954253485,1.6896313419075182,1.735313748687771,1.7948328396058226,1.7358943317710411,1.691127465282588,1.7066163268425445,1.7476868856203545,1.7533193217174365,1.734379916283038,1.7285818466461516,1.6705294690114807,1.7091160034679713,1.6280227925699073,1.579689445794082,1.6013515215949576,1.5637865694335025,1.3690020114562376,1.5188598944351959,1.3821020033106055,1.3455917159186708,1.6736244780309986,1.6130673219137133
1.539997394372478,1.4585245413467527,1.4824154021304696,1.4478650312764363,1.6557764093486993,1.5227004007563494,1.7280701214016565,1.7032608435046954,1.712839805329031,1.7567645574906046,1.764916730886746,1.7791751927915345,1.7058003111900628,1.7814582224351192,1.7395282822460907,1.7491961915984868,1.763196446310461,1.787429767579517,1.812478666183359,1.8307298791866107,1.800098107530909,1.7875527590499392,1.7756213928942992,1.789916290881579,1.7673543693968234,1.6673588384110318,1.5131385573725038,1.7084633274577883,1.4459024780373388,1.4215336910424616,1.687876865834778,1.6436397132044525
1.5283938629256428,1.4801546144773046,1.489684655463995,1.5296775182797688,1.5813516944242088,1.7546511011840762,1.7631977737427493,1.7039707235822703,1.5898433652327053,1.7432940574996807,1.7802432111910529,1.758851623898732,1.6573593301834064,1.8040548425037484,1.7804871101176023,1.7063267401283344,1.7202484687358364,1.740651662307657,1.7739411227851087,1.8135720317833828,1.7754350224798527,1.775069463521827,1.7944666205310928,1.7780214435978123,1.7665319254572402,1.6642303262447289,1.5606288635551526,1.7479811901867672,1.4922677425455912,1.416246595601709,1.6188335256902031,1.625253975937614
1.4924909624056413,1.375185255470847,1.4452415410597599,1.4306839035924679,1.5938648366093617,1.6372050997980097,1.683717896919428,1.6773105176447178,1.5431708893490188,1.6767682196102303,1.7635968929562547,1.659763218647342,1.655989452477714,1.7071221353121688,1.6619031572597387,1.6286711373492324,1.725015509407347,1.7351671835350733,1.8016004067752656,1.8236532732770043,1.7894756873152953,1.7764293176370585,1.783873818571703,1.68574825951873,1.696186891196096,1.6835325007429314,1.544285698237228,1.649197638901705,1.4698537506630986,1.2904655283236082,1.5798581860444667,1.6725421504681073
1.5560042812535073,1.468485595116071,1.6022824667471811,1.5249838068429016,1.6649322644522353,1.6062104227216223,1.7587132711771303,1.5906100076072653,1.6161407391781324,1.6058284662470228,1.6646116536288555,1.6059383815736703,1.6488983443816252,1.6306782079931752,1.6073105243535408,1.6252331402880853,1.664950544450347,1.6461965760356447,1.7174811970612271,1.7903297199018973,1.747661115733656,1.6669979942295592,1.7295634165779434,1.6829008593031503,1.7289163877575249,1.7110203199056249,1.5624132553943417,1.7479113211444182,1.4769912655290662,1.46751777054993,1.6625353452787617,1.5911042469007335
1.5888842574977262,1.5633612592055075,1.6918953525296345,1.601197655463172,1.669538349464913,1.7706110387756189,1.8526431907878866,1.6874508222398692,1.6738425862353432,1.7761638761851464,1.7829972808971746,1.7298503526982691,1.6290064281737682,1.7183746107144027,1.6978129561395394,1.6747013421373567,1.654534289218345,1.6351903757751394,1.6773440216583992,1.7542149517568248,1.7053346586782139,1.71081567250219,1.7527601671847943,1.7069766143969751,1.7514840224872645,1.7186352812723675,1.4963751090024027,1.7166957234753322,1.4898044056073254,1.5059394761894715,1.6694116437554007,1.6797051756825478
1.5527563463733063,1.5624069320727119,1.6311646721596629,1.606934541961904,1.692650739873969,1.7502542482392183,1.848213478246022,1.672710410479835,1.7252955972300903,1.8023382078164092,1.838139686333062,1.816831591504726,1.6708811411778417,1.8143333257485919,1.779967717596591,1.7532674471962133,1.7044365773291235,1.6997352385217779,1.7069536784029387,1.6873482551934431,1.6913778448297148,1.6508589931523268,1.6506896850313195,1.6284332013857823,1.6382583588605304,1.5536230442836247,1.4364780887043251,1.5871379277146023,1.3382126102536287,1.3590154229324338,1.5504122455057676,1.6480251927690988
1.4130594661694942,1.37706801346136,1.509520878136098,1.5642579684864109,1.6424318571312881,1.6658669430228734,1.7858267602251439,1.6067257555096919,1.6394931146881355,1.6974560780463237,1.7391400162762252,1.7019518452194327,1.67519915827784,1.742773888291655,1.7066864871047036,1.721838849471901,1.7282251412602931,1.7009014636267876,1.6999902561611688,1.7042548212925155,1.705547236640297,1.6372592686612055,1.6312311403401094,1.5662214239822643,1.6493631727817513,1.5521779410383174,1.4217388786682879,1.4760347119102306,1.2744783303914247,1.2888785303346972,1.5167787220542197,1.5793435563134424
1.4395044074509467,1.3441600714573387,1.4210983591503852,1.4337848833446543,1.5663126263012124,1.5455619560450617,1.705845852302813,1.5768177440985152,1.6019108783306943,1.7177726534560436,1.7906253447179252,1.72300471801307,1.6059293589903594,1.7454578632815214,1.7702984638870674,1.7579303385192004,1.744340242056025,1.712292145533416,1.7390798468667026,1.7389336387119554,1.7318907533110635,1.6331566404801314,1.6123044060630487,1.6420466539876497,1.6808083186219869,1.5332730958162397,1.318465471529084,1.5323854557039234,1.352816091128714,1.340496551896752,1.478749621093382,1.5035162707113126
1.455265025478116,1.4265346881460466,1.46373514515248,1.514355005838868,1.66742837207811,1.4746865333976646,1.6434091859781004,1.574131396549064,1.7137153032611634,1.7171901412640973,1.7572365564010608,1.750665767244784,1.7053976743421075,1.7393684152906663,1.734426625674409,1.7570531560626474,1.7597178222367762,1.7392189135534377,1.7649210096602195,1.71928775152452,1.713552950403432,1.7055519775083159,1.7043432353851544,1.6561399794653355,1.72673586760284,1.6579669828201922,1.4095045948604747,1.5912981076104333,1.4063131458960993,1.3622017476426114,1.6371570843656118,1.5436514125775804
1.5253915345405502,1.4259776665385748,1.5234842864616387,1.5757221886769577,1.7054549738354665,1.5843142869235416,1.6073812484931642,1.618058407225273,1.7447944680148553,1.7246289098199528,1.735801012715019,1.7735821191649703,1.7665116786409922,1.7578142046016323,1.6974483053360732,1.7145196189327536,1.7208273770845541,1.7241984254914209,1.7362411844431644,1.7252693623509812,1.6626260648816669,1.7017167347614108,1.6250836806621725,1.5606633022618421,1.6170346884253963,1.6125983474657117,1.4234846140272144,1.5601594896433355,1.4091619651612095,1.352438404641094,1.667876055723562,1.5957415351175768
1.5213497789090102,1.455507216819909,1.5651965362950853,1.5989681416315928,1.603572402210902,1.6669319431110048,1.6887586012166689,1.601769694867236,1.6722559197478057,1.6696207528522071,1.7407897574705813,1.7046981269798485,1.744617117307094,1.6992299652118492,1.6848142719485972,1.6572393843568545,1.6446985081917063,1.6629064176133197,1.6712051891359585,1.635740895210539,1.6212232786968905,1.7309158522463353,1.6519846815080381,1.4920621808791796,1.5682502226174513,1.5747025971319988,1.3499350367138934,1.4780650443254824,1.390659574752172,1.378918515464383,1.593412548872292,1.6716016451771842
1.4910545877701677,1.4265260602993677,1.5541784970551558,1.5625107626870756,1.565664258013043,1.6415178423486194,1.7178584800094632,1.597703587027671,1.6888468664695264,1.6204978479546366,1.7203081645347613,1.7146100378287548,1.7349725546506332,1.7360673170013705,1.7516521371653735,1.678920115129456,1.676225253918654,1.6966465098603292,1.70893471486532,1.6628845538162402,1.6312062349558638,1.7521278376823655,1.7201058765421495,1.5240998263847958,1.5805670985010467,1.599816631072706,1.3883170654188433,1.5083695479222035,1.4532079315950497,1.3765662226843742,1.5750802458677002,1.6569706729143623
1.3936385541790532,1.411571416030793,1.5891332288069855,1.6029093975497866,1.6169528628372236,1.648530962058596,1.7846837662994128,1.6541164774755714,1.7590242553765123,1.7220536861957398,1.7738333461241318,1.778640316801836,1.692888184956012,1.7773092315510635,1.7393765924385807,1.7429957138368894,1.7718892813005505,1.7714420613487565,1.796723242568144,1.8210310695448475,1.7883360964494996,1.7390786436520123,1.72180634230928,1.7211854451266109,1.6559654039940117,1.6054759674054346,1.4161048241184144,1.531822708038522,1.409832621186925,1.3013160504975745,1.6175500883091327,1.6425062110540114
1.4969732676657341,1.433136965534562,1.5647846924618567,1.5562820962192767,1.6235559008429274,1.5815514181582906,1.7415915854958162,1.6085949389350631,1.7235035969772516,1.7505240162252897,1.7549796203197077,1.7801551539931897,1.7385749462384963,1.749801883723971,1.734002632307339,1.7592171347207182,1.8018213024966094,1.808874207205529,1.8178052460054317,1.8491461983407937,1.7911551315744136,1.7347456467266227,1.7000105230502827,1.7245440975651267,1.6209123353299368,1.5673644919119032,1.4247425288033084,1.6354799945753673,1.3521520656835269,1.3568454383499562,1.588808774153334,1.6031889448939145
1.549575194761827,1.5101879473825606,1.6286393135436081,1.5809614155858314,1.6175365829308483,1.679851196379629,1.7104463515339103,1.6853425897570355,1.702736314080442,1.668749119159998,1.652821907863577,1.694101873722198,1.785505464316654,1.676887832421263,1.6862628113676041,1.7009374466865623,1.7216596912872366,1.7597681552110225,1.7911617747543542,1.7788832076508008,1.7751370199202123,1.8364595768178726,1.769505321096973,1.6685505493123436,1.6695584973216386,1.6764879766099317,1.4076137401012059,1.6580398247730452,1.4123256174784034,1.351904551256692,1.6097052105667926,1.6986852435848827
1.542310830149349,1.4881696207292738,1.5989737688563643,1.560908547187716,1.602086426830335,1.6715825905413766,1.737995802024874,1.7129960113132334,1.584391302408954,1.6588003640637525,1.7554521529153226,1.6572137732469947,1.7281170242158723,1.739607177641837,1.7507435000898905,1.7049031940107013,1.686612872940257,1.7091434556831593,1.7623824817041027,1.7490619276139405,1.75637745830417,1.7877211909466475,1.7702182947410348,1.720590962513633,1.7022398968354957,1.675702498482499,1.4276631867257565,1.6730473289951755,1.421811149913077,1.3518410727729377,1.6182900794212443,1.7030891420728367
1.5137227202703032,1.5191091141142863,1.5585221270733354,1.5745034629083252,1.7348557597768879,1.6552216676003617,1.7167389710363443,1.6195986341195139,1.7169477222481564,1.714890678987902,1.754075942724011,1.7357568451923213,1.7416210097523825,1.765569136502349,1.7352777078378192,1.730881890422199,1.773916497288761,1.7808963609861523,1.827861940519485,1.81994820224645,1.8070377889151557,1.7433696880026648,1.7781459266268769,1.7288343653720235,1.7059619329988815,1.6560960189200722,1.4570863733953532,1.6878238746689012,1.397786925562905,1.3807698908951653,1.6519392415796703,1.6269041947660186
1.5267856104540927,1.4248880363788914,1.507627573625984,1.4862956280757478,1.6864897935404806,1.5855787577856635,1.7259366746117575,1.5671694611243248,1.7442057232164119,1.7319493884694703,1.762359154718977,1.8036830221425524,1.7937462746346846,1.8224166382496378,1.770636032604557,1.8062911724800015,1.8156327577375102,1.8088282772532631,1.788550833289629,1.772292918184251,1.7461315654997995,1.7515872260765397,1.7396955286139208,1.6654317773653473,1.7261205791853549,1.697619774561593,1.3987711624547956,1.64839755208563,1.4015715440930798,1.4050816213612545,1.6577324201607455,1.6410875625748809
1.35567705778268,1.3392861975001076,1.39627540416371,1.4403030893652518,1.624342155267228,1.5185423541732583,1.6722337199968442,1.6458119795453547,1.714519736463748,1.7495051865971813,1.7822080303512988,1.7826046470197792,1.750468514084999,1.7723813625057931,1.739516184612292,1.728833853342979,1.7275854803804043,1.7582411558394506,1.760501174762403,1.6883335119189573,1.6729791527383695,1.7713261462631071,1.6525252349348543,1.5478449061666335,1.5942927363379165,1.5938067671138243,1.3345253384607947,1.5201228387636738,1.330654781791045,1.306853353234294,1.5960372479153193,1.65910417702755
1.435979546693985,1.4319045503385646,1.5582309063645574,1.5071195925971381,1.7181343381141398,1.6545535820867507,1.753106078035173,1.720202715573903,1.6846485879596325,1.7696484374951305,1.7860105146208107,1.7471594858983293,1.7453098999586418,1.7363328921769805,1.7044224069015117,1.7039566014716856,1.743319421553295,1.787085501278175,1.7877384668188954,1.7510187864288285,1.7218429716499675,1.7866066766104356,1.707129248091957,1.6332549239505232,1.656075600490719,1.6170445433878473,1.408932296348334,1.4763487734466163,1.342948737903954,1.3100562845067738,1.6110806806931992,1.673551545283684
1.532306444499709,1.5110633759774135,1.6401384225890676,1.60261745703026,1.6870969017475064,1.778814443774429,1.8440205084238037,1.7822625814907598,1.6632178415783194,1.8246623655022607,1.8214561035641528,1.7540700877547957,1.7588387994971908,1.714815491862035,1.708580419345427,1.7253519073925545,1.7845543382858593,1.8251109864428035,1.8152431457606308,1.7786108274951624,1.7452918231811247,1.7969679303480304,1.7330306815311933,1.6358809606816658,1.6371616363751889,1.6429752984205075,1.3895287193450687,1.5473091664650103,1.3789157600200337,1.3462172113551738,1.6269619556845651,1.6739516802793835
1.5746521713820756,1.4884579855992521,1.556771183365489,1.5306966750757907,1.5862874379406917,1.6877471172432068,1.8071295580053004,1.7062427542584806,1.633746113155221,1.7720389004166333,1.822899483347526,1.7757552182221819,1.7184708539391689,1.8016663256763055,1.7854642976817674,1.7827223664125502,1.7791104087615999,1.786826403067386,1.7717071711587646,1.7409209014700688,1.6943540254479905,1.7999558796305388,1.7248965844809547,1.5796137285922924,1.6087949543722626,1.6672241520427538,1.3623205322010892,1.6167493428188904,1.4069438307767506,1.443572710684774,1.605021746751176,1.6346907141858544
1.5924312299553165,1.4970405371374331,1.58805572753874,1.4880209740030894,1.5959184068039225,1.6064885943065228,1.6847523102145596,1.5918782130282005,1.6362527881329492,1.707148576912104,1.858324494230855,1.8170583783496166,1.6732550035644533,1.8574076395842425,1.8295132620965713,1.7889718375512278,1.7640451376649087,1.7456496543784357,1.7257940403047745,1.7803931088487104,1.7040710287318879,1.7403487302474574,1.7313679861000255,1.6126973285529878,1.6486057443569557,1.7335623911626559,1.443052771181421,1.607595872942828,1.4193774231298635,1.4582157382269902,1.681060521262999,1.6326533871174553
1.5116511636643868,1.4418057798712598,1.5945325136433974,1.5121266317749855,1.6649864604344613,1.6622669010723243,1.7410972263338012,1.601789184914629,1.5862084300320767,1.7338404009719208,1.8271003469383404,1.787008497295073,1.6994106129278448,1.8173309342354977,1.7810417574875232,1.7821241052393277,1.782982672937232,1.7789775058607846,1.7608152086904694,1.7961312352513417,1.703028375486157,1.7467180781984708,1.706379990851413,1.5495349812046737,1.6180042117177054,1.672129657065409,1.4103443276667846,1.5200499790914421,1.3424133663874798,1.3608209991194422,1.617672844362361,1.6597325014904063
1.4567517484524337,1.4034582888374019,1.478226188020138,1.4994170532469093,1.6793518311647477,1.5771194262589587,1.6799090334791704,1.579137165778277,1.5927233145356972,1.742633354333454,1.706185862816316,1.7096372603626329,1.7446715806756457,1.718782648267819,1.729484617436078,1.7661861946224477,1.788542897725809,1.793300434453858,1.795305495602378,1.8323800054025323,1.7419484331432609,1.7951217329800342,1.6998722991349628,1.5271564606937083,1.6310082610050944,1.5980500840592418,1.3773947391056351,1.5632616944102522,1.369815277069671,1.3566840650474168,1.6341910615716395,1.6642028614769317
1.444544299519686,1.4292085398008072,1.3954938837509414,1.4886455919762167,1.6409202435961077,1.5278676471308472,1.6843460980820937,1.6094666496254402,1.6189744068126035,1.6906145418810967,1.6945965884990504,1.6767467839551766,1.7109657439058432,1.6777458173117616,1.7356206315295273,1.7139846423968188,1.7363881168131026,1.7180947867138139,1.7294093511135054,1.7999644011101823,1.7212263523950038,1.69512079582625,1.6167894512270986,1.6071221199111634,1.5808954363563603,1.5489184513278553,1.340352566876811,1.5188430367578425,1.258530532468184,1.314802280066792,1.6089950526095742,1.7140472100722879
1.4929025853271984,1.5001705925376518,1.507356257488763,1.5720207115080143,1.6014372723177686,1.6339571563676232,1.6836872947893142,1.6767280019675856,1.665297946551006,1.7001519222770831,1.720489038396199,1.7412158409400234,1.6722008578785181,1.7279672101736612,1.7714529115854152,1.7611487670798704,1.7730887415798002,1.78217004138426,1.8136658440054085,1.7883861317295824,1.7803999713151004,1.7019027691370288,1.702984976031064,1.6558194945158564,1.6346435565676487,1.5704825270311509,1.3816347735828272,1.5499765604920734,1.293941908603381,1.3103420133206132,1.6258691030395513,1.6416147382187072
1.441899362289783,1.532311920739471,1.5705793396855983,1.6177273684491162,1.6536510514494769,1.630162001913683,1.7062105484301175,1.703877176604808,1.6841266059710418,1.6996365599390872,1.7000618463784305,1.722647549336563,1.7420976194869238,1.7357818911907628,1.745822607782437,1.769850394677329,1.7943908813718796,1.78743309095664,1.8138121998114625,1.8143344977601858,1.8006763028377009,1.7791906021296362,1.7423181954942157,1.6963466889683914,1.651680115718346,1.6062824150802106,1.4277452840582987,1.5338310698762223,1.4246103729955164,1.3080853247065776,1.6422136730060124,1.6222797666668258
1.4948419398695774,1.440085188404983,1.6265993886969359,1.5882593156213558,1.5560833286714568,1.66305175676025,1.755377221320923,1.7215637450112113,1.5615993277770899,1.676009471508934,1.687573141039705,1.6584851831415852,1.652487996981034,1.6758012045269468,1.6917975301286592,1.7159796919291888,1.7461658557303505,1.7120986802200966,1.7474369191499848,1.7662565782067838,1.738862667234622,1.7335297410932602,1.6703529580972032,1.658400342953446,1.625369279148956,1.5607326016183665,1.3944907890995164,1.5309431867378576,1.385180727731842,1.3543853376063972,1.5270080013226115,1.6307711663362292
1.4091903253643676,1.3485760942897675,1.4980958463583665,1.3874229912295657,1.5400653174255587,1.563690706091289,1.6679700567714837,1.5234163644852392,1.633984013505797,1.605147807539376,1.6343488139809497,1.671551510885502,1.6534627676408935,1.6479399868370532,1.6079961268903036,1.6557614413287467,1.6650440569224343,1.6128163445700074,1.6590634496104075,1.6870075760058463,1.6095002662707458,1.5610742825642852,1.527958518198745,1.5928412947126216,1.5235324849335488,1.4947348843083308,1.4035185343414367,1.4316916398369242,1.3809805195764422,1.2774907983799366,1.4972251375838974,1.5348322567027537
1.5067158248240893,1.496599306493104,1.5498174825851603,1.5692333293883667,1.6351252396356815,1.7233258259124735,1.7328929043915127,1.60432062711623,1.6426151443107555,1.6526520679812948,1.6860235471982725,1.6555013442116073,1.7011653207365092,1.680172649767478,1.6642145069527272,1.6552393901013727,1.6793847580682777,1.6757899048863254,1.7224806577064078,1.7770617219584564,1.6947138534769983,1.7219407476476245,1.6572299024210149,1.6638613153982824,1.6215168249449077,1.579952763772967,1.3777302746601803,1.5901204566766287,1.315334091877685,1.2525078698840646,1.629237500877279,1.5713992421926897
1.4251891796715834,1.4051693415147422,1.5311033480408391,1.5339953443228176,1.6130970406525371,1.639792779516747,1.7293264227437817,1.6482454222983223,1.675457836375762,1.6099479936679728,1.709527911098731,1.7073077896864581,1.7653479657763607,1.7009830046199967,1.6916304757863037,1.7192468782474675,1.7716308264706164,1.7804378319456555,1.825663824534078,1.8473170355294417,1.8080336581808532,1.8090681629558494,1.7398722243654932,1.7355796054742296,1.7495612662231592,1.5698997106597956,1.3451380060868043,1.541515892650313,1.299530619977787,1.2825956958457219,1.6174272877645575,1.601189524363471
1.4742541534044182,1.420257661945727,1.5694213707594484,1.4473006597290154,1.643337180822026,1.631546444073077,1.7460961727461146,1.6999575767330906,1.744612978791479,1.7255064403516458,1.797707691495345,1.8497417771561877,1.826562900539025,1.8320098937999265,1.789116455606117,1.7455625735171798,1.745345713681511,1.7879445231763482,1.8093007293821761,1.814750039206307,1.8051141268046098,1.8188755014856945,1.8044419604896376,1.7390028957578063,1.7825102006472227,1.708380518223375,1.4431504119311809,1.654868411950138,1.4388615754347538,1.352949169171744,1.6755011379977574,1.7363875337435921
1.5779366184079977,1.4989946752641048,1.64118348031071,1.5254490014799515,1.7162342997420645,1.6868419101862642,1.7609732788445693,1.702243002075894,1.759968858749377,1.7651729251003658,1.7713813097133697,1.8494377694816546,1.8035479207251432,1.8436255971723088,1.7828010282701237,1.7279144034867309,1.682974881188236,1.7231963711629326,1.7597748883354427,1.7278488526290872,1.790227123181242,1.7872712884296447,1.793785841108767,1.7817475121783186,1.7184435333668655,1.7034984671622435,1.4684033415722355,1.741797612445429,1.5186014228063522,1.3625886497689252,1.6680140527150669,1.7452743093126988
1.571703728663293,1.3825305926756495,1.4922956090319721,1.4698619463899318,1.604321827045041,1.5531272298577787,1.664524879219066,1.6305186938287066,1.6465080431634718,1.6989339278317654,1.684278749498908,1.6859693392460295,1.72715404260306,1.7205464091007054,1.6931234184727626,1.7425145713383698,1.7570360547903279,1.7524987485973424,1.788439217426491,1.798343734482004,1.7677544349949004,1.7773265548823338,1.7959298282131826,1.7251742469822369,1.7092375661425137,1.656224342936167,1.397339179587416,1.7031749376282563,1.4033290027485381,1.4024363906068176,1.5833972722353484,1.6477236491323577
1.5789678591669793,1.4360152393494554,1.59656741294401,1.5795457702108944,1.6269072728672185,1.687728204531341,1.7921223326566398,1.6772288961583235,1.6771323788058123,1.7292017102342887,1.7111727296733354,1.7187537514123417,1.7180786949807128,1.7568897639125238,1.750030677283922,1.793626532030799,1.8131696049390815,1.804752625467571,1.822038522505309,1.8170661994859092,1.7751247895561577,1.839701216364401,1.7755687352114156,1.6801163504772318,1.679968960770042,1.6367731811392046,1.3823050971873974,1.639131509790604,1.360950091670919,1.3479651441793952,1.581977165727393,1.6802886449755565
1.650601889590459,1.5689761642048319,1.6601863550387028,1.6853410554452941,1.7555958127460496,1.7464347553389297,1.8369736409935575,1.769464691685206,1.7747968561779146,1.8255784964572757,1.7978592376373603,1.8160316800733984,1.7797511111410986,1.8025050946008987,1.7513101652756935,1.7170907181341348,1.759410402167121,1.7935705896809795,1.8365021911573307,1.8450390155971061,1.8455599704039227,1.8412343396764297,1.7759383706108491,1.7328777574748402,1.6665413458844378,1.6316604069572596,1.4842444302290672,1.6479949519555623,1.413084238713125,1.4211185491833975,1.6924156283187648,1.7502892812404471
1.645533559923377,1.574917284329208,1.6557595795854612,1.6591892010636546,1.7463560713607587,1.7263653429342787,1.7895227500364017,1.7236950136666034,1.6995380821763273,1.7777342628931605,1.797600953460363,1.7599224983597381,1.6777092991180877,1.7663029713282756,1.7494978583250778,1.649981003914819,1.7015179662114592,1.7198976770136722,1.770907160881012,1.8127218388309598,1.7945569145821925,1.7383287361131265,1.7414729831170275,1.70982416403993,1.6610712009827304,1.6629315925907855,1.4966923851109877,1.6929907270083568,1.387692284678144,1.4479575586806421,1.7563899266065761,1.6876474443279055
1.4593781635287943,1.435740673658587,1.5779399541610466,1.5640687600118555,1.673966960340597,1.5176046902047098,1.7026954295093382,1.6178673939036843,1.6138723718539734,1.6965737225989959,1.6450311551171557,1.6594456408499498,1.6223626633104962,1.6720742524669807,1.66094166797025,1.6469634430929727,1.70048520843232,1.6509299845666034,1.706243582290944,1.7519486816057759,1.7012346323400995,1.6611561051189547,1.6536758138877434,1.6530190989463058,1.7118877204797103,1.6321664472718334,1.4525334768532572,1.6773902136962389,1.3237561547017207,1.2866466940965675,1.6766388357340711,1.646003845895065
1.462968246267864,1.2939753178772664,1.4737189939562143,1.4520613003149656,1.6026305628641173,1.5089231622994739,1.6673088348188587,1.628556169634625,1.5418621400883643,1.6879251167725398,1.6023750966439287,1.5534058170149287,1.6187078186017774,1.5785222457018095,1.5631391768273353,1.550736629241245,1.5783905333721069,1.56150407440664,1.6214859954200793,1.6653763948820908,1.6552734241540155,1.6226427255016593,1.669496723459785,1.6190989586056819,1.6691125050393107,1.5565449925517587,1.3850763966973545,1.624820749615733,1.3225883761715245,1.3469149687523465,1.5910610488916923,1.6811624801096379
1.4452719209439635,1.3255494959290692,1.4150576149241072,1.4197576724556957,1.5376782607647017,1.4634460768577415,1.6462522417922865,1.6660487752024435,1.5415640149614065,1.617863995492381,1.6119852508553814,1.5771078687365658,1.5835793775665707,1.5390964835545784,1.5437011642027507,1.548282770602988,1.5751668847981037,1.6235237265174347,1.6597164950738157,1.6338417930131925,1.7015631991324844,1.678657716129555,1.7146339350863293,1.5805965364513381,1.6249741439278833,1.6147857132771666,1.3783293207386162,1.5114866923353545,1.3210735474514215,1.393262762040531,1.5957549882619937,1.6828921206971084
1.5227571556848745,1.4289665342562656,1.511362646412756,1.3903407557331797,1.5921309748189987,1.510131124864502,1.5133818332446103,1.6731874047840687,1.4909681291994414,1.5578923758037369,1.5868731975046513,1.5116042497581144,1.5659023154668972,1.5233730963120757,1.5766833306130044,1.5772741354701987,1.612966633311936,1.6465736969765643,1.6583895708728742,1.6697062866159058,1.6872641211726767,1.7017321946828474,1.696315809501971,1.5954689163829456,1.6493503138769974,1.6178019560075794,1.3912488354835466,1.561863656507807,1.3791510326191523,1.2994603476041917,1.6191635726699622,1.7053896538916737
1.4249534884242523,1.362590380949847,1.5156205832876684,1.4570808350700066,1.5804814846443627,1.568897141918473,1.6514495690525042,1.6419411991555115,1.5947354731582952,1.5900920208510096,1.572185212434392,1.534558319174361,1.6031900600296065,1.5417512948986118,1.5595609430394857,1.5860907422740669,1.623277396338327,1.6279802002269665,1.6657959606007025,1.6462054521988245,1.6415693793093205,1.6960901550900649,1.669890300167857,1.51778081737251,1.5705863848832495,1.568452546853686,1.3469960807233667,1.4980527128716765,1.411834031188042,1.2441238674825568,1.5145731840199108,1.6251374479973915
1.4864343544444136,1.3919267941286375,1.5477036655554177,1.5043626297383694,1.5591519633873465,1.5405182265982555,1.6234295577822817,1.5311079993458148,1.6917816238041383,1.618779966630191,1.6491990886618293,1.6843284681004647,1.6984318558022995,1.7060981760896734,1.661604101836263,1.6728699954131971,1.6535552995044283,1.6898120803937147,1.7341393704736399,1.688370518078208,1.7390126603106477,1.7278678520713442,1.6581444725236165,1.6391882424330435,1.583700925326317,1.5297418231754332,1.386444705013574,1.602728815524782,1.354865380620067,1.2831445603083245,1.5188750849267276,1.4500155017312701
1.5338116445242866,1.400356790965669,1.4848414180075828,1.443000066181803,1.5660947347285914,1.5291634203768996,1.6663209502377827,1.6021049827672715,1.6340178150401312,1.655575621636981,1.6961278817367473,1.712057665772416,1.6860549497922201,1.7270016593165676,1.703117106546052,1.6843931453692564,1.6838242990419856,1.6877059389674602,1.6945863860219637,1.721529940059612,1.6720615955121891,1.6601768014500478,1.6576650435696467,1.6906815042369838,1.6324615736228032,1.5877777463639744,1.4269680715909898,1.6691370433996815,1.435426599834435,1.351953281914883,1.5923884796147483,1.5103850604962323
1.458077981926453,1.377719682179525,1.4227888089003788,1.4423333741821227,1.5451497502846343,1.5742231176168426,1.6748468698157646,1.6585839907387663,1.5879956236071802,1.6192247061738156,1.7120742342644346,1.6826913572195898,1.6826228598605966,1.713776838402514,1.7403816654490507,1.7255686613780417,1.7483153375875973,1.7395567719190175,1.727994886132233,1.741189444978068,1.6991056732769787,1.717336234023722,1.6997677120431718,1.6589205051991323,1.6861184686503254,1.550409558713386,1.3753536690826207,1.5949558505867945,1.4469484969698152,1.3817099475554464,1.5080562832561981,1.5859121232169855
1.470606497024612,1.4882038094743353,1.5581237700595094,1.5395089282105048,1.5917060783493948,1.720322286827233,1.809119975671922,1.7288549780768403,1.5568106608537144,1.6726932836233244,1.710498216855506,1.6842336012519437,1.6598933263653493,1.6866373902355525,1.655487190931725,1.6148576024851418,1.6351607262707235,1.6589250298133678,1.6388531309422374,1.6466715084161716,1.6422561936512952,1.661129429989435,1.6208084577481234,1.60273248043471,1.5832066599143642,1.5954782290829732,1.3317080360452453,1.4810082523264965,1.3577794356193624,1.3439776999103406,1.577222430858197,1.6682388829842705
1.4706718665076954,1.47479175785745,1.6321073907139116,1.5325212433202067,1.605968764046134,1.7187173252819326,1.790104511705318,1.6216391596375725,1.6073642964201564,1.6305207767120302,1.6646176583051422,1.6262375171212768,1.6669373544313177,1.6496408272800347,1.6112087406034823,1.6181823399637763,1.6228895550190465,1.6660479135698367,1.665541113780615,1.7282063819990514,1.6709084019045466,1.687451592630436,1.6284073527210685,1.6405394399664075,1.5921403069411466,1.5884352843579341,1.3626562368287576,1.4841746132011815,1.3852102438084837,1.3045914447959865,1.5458144257125055,1.6560137510153974
1.399521263507384,1.4255525856926228,1.5484557172918412,1.564008944062828,1.5991722206255952,1.6447579394768592,1.718283106438167,1.620149742784989,1.6850349870709849,1.618126284218985,1.6695162390842357,1.6492904793183036,1.6636215953893747,1.661414119423965,1.6339580660382478,1.6483534879273416,1.6626913211726317,1.6658882388190963,1.6644473864974003,1.7155260737872344,1.6874556934993485,1.6284356304041243,1.6358009878952346,1.7077465196990063,1.6766027460157529,1.6126246963900024,1.3939864502333335,1.5563553685474423,1.3573029072001406,1.22877756951302,1.5580797700620412,1.609023404766619
1.4338284907573873,1.3945893652255352,1.4207957999199454,1.4955292323605243,1.5898365539990513,1.6293007127709545,1.6663584751840883,1.6191219303766655,1.6777713523834505,1.65089709858736,1.6641952424098219,1.6715552015644584,1.7019329619967767,1.696582389287531,1.6536091712040462,1.6565506201463585,1.6831362084625678,1.6799979698321172,1.6733346513191456,1.735394653219895,1.6890865394286345,1.609949658752621,1.5996557759235728,1.7036320894916839,1.617402090766122,1.580948579906133,1.3985313222716362,1.5235505339251636,1.3334145249223222,1.2431267769486924,1.5801765335417077,1.6062063658212722
1.4328254923024708,1.348735699877264,1.3895108463989498,1.4214085352709693,1.5838004597000717,1.4539082841305724,1.5381795416782718,1.5373426420729257,1.621463777719099,1.5506628568464331,1.6043741372973266,1.541056948954954,1.7612876683963343,1.6297174185167247,1.640130750352889,1.7070562646412086,1.7279157777745742,1.7504967338381356,1.786366684979693,1.7548306548334665,1.7810614032449668,1.7911292278633584,1.7515588301750658,1.6771813338325687,1.6804203523604908,1.5980281340030646,1.3836931473226064,1.5214068208969516,1.3478597481190238,1.3463740524226022,1.589064834353233,1.650657239180144
1.4492504410391527,1.4198013028804153,1.437902670415651,1.4983893403221662,1.5979589034483743,1.5196563177237892,1.6244982748708088,1.5801064089403167,1.6149554384712614,1.521248899656394,1.579114166786018,1.5453038782263693,1.7858530521125413,1.6095003049464474,1.6341411487809094,1.7459255533875235,1.7683029438991689,1.818549768528812,1.843685613966831,1.807790647445366,1.8255532377464367,1.8233777163184743,1.7909432652590789,1.708098686076001,1.7592509907334835,1.657567097754535,1.4658679240365737,1.594158389992299,1.4283495389271508,1.3518118266914745,1.6405288443289856,1.6865050563072508
1.4848402932368503,1.4141997422493913,1.4166548071436338,1.5007824906529472,1.62192203719393,1.4666507114741738,1.5879802836905266,1.5623010387554,1.6878879720014974,1.571029381063079,1.7126582575758449,1.7036982315821407,1.7452304838452677,1.7315754046575396,1.7252408895365892,1.7082219794774092,1.737069192414941,1.7641317321191718,1.8155336970321798,1.747580558135081,1.738720185278746,1.7899056210460553,1.730343624830891,1.6327190237647218,1.6588275607259007,1.6347101914063074,1.4396195287440277,1.6107080958557203,1.4748239759393964,1.3574777378607605,1.6219677861832835,1.5658197489466705
1.4823419096468162,1.4474821949748191,1.4902024054177305,1.49093889863995,1.5448368215878696,1.4492430602997222,1.6418623187455337,1.5513807330807383,1.686496658757951,1.6510312276813364,1.7451490578376752,1.736923844523783,1.7060518631707275,1.7742182359050824,1.7735285957124063,1.7265129094214038,1.7379012007103027,1.7154957098087227,1.703778633798862,1.7304854328924923,1.6715888735020334,1.663291136983998,1.60666101388823,1.5728093859033916,1.5683511978911056,1.5548612689331998,1.4212800666825116,1.6014702289227483,1.3949427139531494,1.3787967203620364,1.5906798516935858,1.5690535406481907
1.58848817754119,1.4893809322367313,1.6338703690387424,1.521081712428308,1.5587314121662887,1.6258993817591973,1.7381834705093997,1.611730960381033,1.7763003051954716,1.6510550593319873,1.783522238929564,1.7808626214646215,1.7731481412916463,1.7961019619819873,1.7775033929520259,1.7771780505436554,1.780567878635824,1.7603840476389516,1.7631141247295032,1.784673954740685,1.6982015729680293,1.7415810268944247,1.562825971601545,1.6211725078189005,1.5482895291987246,1.5153179291914827,1.3785791460406518,1.6655790649961597,1.382946719847432,1.4046922622422922,1.6015626224975552,1.5312508353795062
1.5736470369747184,1.5248131221107348,1.5984938711841443,1.6050872088169648,1.6482193298034653,1.6646090867473071,1.677084131761702,1.5573887861195042,1.7686004519337406,1.6703082916712453,1.7779075652508076,1.8053681394984478,1.7747533594223805,1.8149567464472298,1.7770769363266883,1.7628735210871163,1.7812070660851835,1.7696282980213844,1.7501330470389205,1.764271647288439,1.6862557080533775,1.7190973379087429,1.592528726582495,1.6112315868193858,1.619708002064034,1.5908860566612308,1.408806934310819,1.6200431244901996,1.4256936567523588,1.3844869437170393,1.688778052935897,1.5934853123331414
1.4967610103080915,1.5031270757692663,1.5074253516262692,1.5260207398351224,1.5903878150048727,1.5684882390925976,1.6765601210323826,1.541742921481509,1.6973014420390262,1.7399475583560187,1.770602237029632,1.755408705766606,1.7479714692294788,1.786599519742693,1.7763605517831693,1.7530426489689428,1.7507534307430468,1.7410653861416328,1.7109101193313687,1.739094305062737,1.6833660987661907,1.7046820650966694,1.646055960491572,1.7038560234585292,1.6778309656895547,1.5361029991885076,1.4115930294535555,1.6087028817608908,1.4273657576724779,1.4146283316392514,1.5738165342798183,1.5793932269800246
1.4786077906421864,1.4524967336547818,1.5208292268382273,1.4743586661701167,1.5382962398699072,1.6122903365542485,1.7100133767684653,1.606157846830909,1.700670575045765,1.692110855253845,1.6939615241056367,1.6465554398508486,1.724130198000292,1.680758811445139,1.6922608880255787,1.7427745605072966,1.7780551780940133,1.7841051646672565,1.784178350267254,1.7514241510694661,1.6878957493887634,1.7802812056141364,1.6999444397090195,1.6656078872237197,1.6528200855291086,1.4939887955208404,1.390294035151862,1.57428885177771,1.3698195381070029,1.377699151684084,1.5078271928140126,1.5886098160625588
1.5049168371823884,1.44890266947958,1.5249596596920745,1.4821914963485847,1.5699862734571592,1.6264197572322048,1.6952521338376516,1.6715911149573621,1.6862406720237457,1.7034211129553483,1.7348561092013017,1.7302477399319485,1.69441084346017,1.7146954677639952,1.6283335266443055,1.7306177956978566,1.822196913641426,1.8320472186493229,1.8706597473720405,1.8247552739785144,1.8481511614464763,1.8555386244437402,1.813201501945799,1.7238106622090679,1.7053501770570227,1.660865624288355,1.4738867342362183,1.654152561058656,1.485236308163447,1.36252416354225,1.6205514995853199,1.7378179503409508
1.5221152837168068,1.435444721029134,1.560007514598564,1.4803436760339215,1.7018598921186439,1.675676490461901,1.8493310975134416,1.7401616354078733,1.7615296742631823,1.8473196968480012,1.9018995934883112,1.863355231376335,1.746098970079294,1.8884474445285486,1.8780332349137654,1.8715147137056485,1.8859995362952247,1.8598469998812182,1.8562825079652754,1.8828610794406473,1.8398078687247266,1.8164501929537893,1.76153453409777,1.7000870313562673,1.7410584293897449,1.6965521437209443,1.4662738256356698,1.7030224224210624,1.465309722027405,1.3614827661151867,1.6967902896398106,1.7651357305547046
1.5145791135185571,1.4238596364015843,1.6419849511813882,1.5257758274504327,1.6537849564225537,1.6454711497160208,1.8044664378975372,1.6870809347444211,1.6979506615329203,1.7922981837856435,1.8403353938837232,1.8058962751423837,1.7209996559852057,1.8437403570901367,1.8318746838695363,1.84444949985033,1.8634732674321022,1.8259486564812353,1.7792947938771342,1.81297288665585,1.686740080342526,1.6524449210660668,1.550421916717194,1.5722379302203209,1.6238325613121327,1.5111799720506276,1.365929330852766,1.609685989558845,1.4249088946738642,1.3650407464252534,1.5703059487931024,1.6138458370159594
1.5684919715211878,1.517652134595542,1.7047480980481857,1.603620662670102,1.5493743339740866,1.6949347442999323,1.792943608832425,1.6855800937010665,1.5552671256712738,1.7521171236301387,1.7861209970826715,1.688600219743652,1.613598911496894,1.7135579187822938,1.7288260123509311,1.6985017633853265,1.7263672676434634,1.707142948203914,1.6798117950504112,1.7629668193262344,1.6905932037598221,1.607767904446801,1.5741986175158573,1.6955433508394142,1.6550223499524257,1.5353553974331178,1.3812142532993252,1.5955608967109107,1.3869300360231362,1.3593859298178785,1.5765136380744345,1.6036308278816598
1.4595115942291506,1.4758282593090628,1.5892516630902394,1.5455857941597697,1.4887194143256752,1.661023433488378,1.736647583552869,1.6550912462261376,1.5451945301686145,1.7217591673438057,1.756815533241339,1.7268275739066286,1.6353438265299711,1.7055633327591782,1.7634473178993189,1.689118925605368,1.6790100175070237,1.6168932215565301,1.631661423308789,1.6765336149853025,1.6059310736160965,1.6085265596245746,1.5904312706954389,1.5957241480362652,1.6421422849510139,1.5733365385427387,1.393527954086651,1.6049680770073302,1.4171153746577494,1.3458631295977141,1.592674662668637,1.6059327639064398
1.4737086904690744,1.4368560522682787,1.493342251572757,1.5429250711419673,1.5714997593233069,1.6804362830151411,1.732423784888871,1.6353271987403797,1.6182002312543644,1.6234723235207111,1.737922313296029,1.6964101583640694,1.709391428197791,1.7483684094135619,1.785654394360177,1.7758057168147388,1.7959579369782055,1.756873229154793,1.7148679957474153,1.7489445731534397,1.6315111525246293,1.687336204147517,1.5881653318704543,1.6006016790863145,1.6145333995529596,1.5437829733282031,1.4222671064325374,1.5761540839616994,1.4407911129604303,1.3748721009388007,1.5514285137404331,1.608835004608423
1.5550852059966915,1.5685452464269038,1.569794519955345,1.6660307975319812,1.669516084937104,1.7121179577957661,1.776245406892074,1.7310652470490826,1.7392584842201266,1.7362511842100432,1.7667012824767048,1.7992792603142143,1.772931248928787,1.813162863645963,1.8079290917518254,1.8246114029955607,1.8348119570835804,1.786418522684603,1.7779366025046432,1.8403390623995532,1.75705252896791,1.7475212286373634,1.7535271625669053,1.7713203114538163,1.7322880373203686,1.7082910569243843,1.5274244987872336,1.6440590399132153,1.4602719296288749,1.3639628831157522,1.6890739527809207,1.7283511320114522
1.697139864085784,1.6639997586046897,1.680993685100853,1.774578570605556,1.8291573437785642,1.817824126717752,1.8194597533355825,1.7880357161453981,1.8632713591351748,1.8106827390265532,1.8243290531688934,1.8825488570842304,1.8730424575170028,1.883611532545205,1.8661195553708605,1.8689638626458218,1.867719281095228,1.8511435839731163,1.8446769872151438,1.8148609532274487,1.8166527734596893,1.827554608642653,1.8263549835828077,1.8399882579152074,1.8299460629267672,1.7626889450682273,1.6033097198492035,1.8013892833425036,1.422838451922913,1.4694900859781055,1.82370699025967,1.775360318301811
1.6335327580406702,1.5983014233507793,1.687802954871411,1.7300959594423369,1.8266784817990047,1.8491846799239715,1.839384108432781,1.7279124220949187,1.9023259575990563,1.6580632404983933,1.8138972896550907,1.907950252168676,1.923155611607011,1.9258583926340322,1.8893735588317364,1.9021228644378088,1.9088973311826454,1.9011362244789363,1.8968897506730062,1.876500420857462,1.8571396425907873,1.8810630487192737,1.7588676143362434,1.7320474334203126,1.7240904787336162,1.6435299960618341,1.4921865363661788,1.6675303793364935,1.3289697573806087,1.424500522469825,1.7979175184725693,1.7001542052266598
1.65286111290459,1.5569575059295742,1.6984936240901611,1.6771996528621635,1.7870791093661127,1.7949896662610314,1.8244303697336584,1.6987684364048528,1.8459542529530197,1.7858887361143283,1.8759885319828338,1.8908462668352999,1.8442758045263195,1.8867122087061419,1.8501252147242118,1.834499128966932,1.8428165718533271,1.8262521938942322,1.8308808223898105,1.8126496985976697,1.7803858233350205,1.8289658964194497,1.7566106129638162,1.7679474731706395,1.7773359660971237,1.6950837368974638,1.501960780274243,1.7563562211789945,1.4052768349146407,1.4716298391636535,1.8028573510476358,1.6851052762677197
1.738506352617842,1.55984819905184,1.7159425846705734,1.6777769966994789,1.7450609697492812,1.8035208816986472,1.8929777267440182,1.7998345450442885,1.8354871526034882,1.8514197678530147,1.8796736183920217,1.8895894268668951,1.8754219810799257,1.8683212613193367,1.8315623717993001,1.8167475659749335,1.8144105931524157,1.8351450009434427,1.8040747876720309,1.8174202667152632,1.7572741292021432,1.800156801623327,1.7680190198443146,1.8024459014673175,1.7865917045995983,1.7098867936539865,1.5138515889669764,1.7446531288223,1.4536886537704825,1.4206981559620688,1.767773713526737,1.7311324966513453
1.7021744868916497,1.569796453229457,1.6356812842163735,1.5908636974768753,1.7237400848007267,1.721779382193751,1.8400936348042867,1.7671235131833136,1.8398228584932377,1.8056732794932524,1.8940298534932294,1.8660648003695168,1.8674894779757996,1.8608564368260458,1.8726182711066246,1.8622804751431583,1.8594518362465557,1.8632108772759965,1.8518017987889726,1.8414656899613968,1.818253802056424,1.8412802985367478,1.81749990807485,1.7898385775090941,1.7734510234619678,1.7395742580150408,1.4906990969729152,1.72804497855782,1.4747137985801015,1.4779771191982176,1.7393098216142715,1.7378049222666485
1.5457917175546392,1.4643376347905057,1.5026524679932898,1.590068382849863,1.6949600195261447,1.5611003640897714,1.6286718565475307,1.6698197012835099,1.7394324042423346,1.7309967858948212,1.806845765858558,1.804284080532553,1.8211050028209756,1.8326158469127611,1.836405852063384,1.818105960095584,1.8075977600407491,1.8236141905098706,1.8280410170019779,1.7870375543672279,1.7897232382912458,1.8331867628130978,1.7557115515295845,1.6443417227528352,1.6589209998108956,1.6441191918163574,1.402611292425416,1.5725048437253242,1.3821921959324157,1.3638831867387322,1.7113928966587761,1.7172419545976019
1.5270730506154486,1.4533223218500495,1.5460793197126719,1.5284585090670597,1.6105897947732482,1.5770567341390407,1.7038698356372106,1.7577749849466677,1.6857725642848893,1.775006603759692,1.819265087719311,1.7948595937970755,1.7579543261130377,1.8158395494214392,1.8079438624736814,1.7662471847554069,1.7736446795798018,1.7541191925692052,1.715238332550027,1.7476054368147131,1.7143271398068693,1.7574826797164578,1.7856758557980414,1.6090469295309562,1.6558734340805108,1.686572954478569,1.4844894695477977,1.5586104701796166,1.3877979186645701,1.320286240915943,1.6708270070970295,1.7674494716838585
1.5383603858199104,1.5301024569862445,1.5720024614573813,1.5479067254876417,1.6426370749824404,1.611885638722587,1.7309037859756242,1.7962690411224824,1.6671690612166,1.8144268083154462,1.852713876781121,1.8049326239054435,1.6990992540183583,1.811617158205296,1.821084187249163,1.7692305324054147,1.7802730690544806,1.767672429402438,1.7850100888851765,1.7822126534474882,1.8001347087916804,1.75266585415553,1.8197817714544242,1.7121359102264313,1.7649300124887877,1.7109654883570573,1.5542474948947873,1.6027919231245158,1.4398910491385624,1.3816218545225767,1.7121653955003886,1.763874250435613
1.5827391758636804,1.5673083923185482,1.619741752742198,1.5668206227102877,1.6767894759484283,1.6164737912540215,1.6911295929074408,1.6691093158261996,1.7826817401721309,1.6406223400470565,1.6851018072037829,1.7513009153164216,1.8393711344138035,1.7485493912666912,1.7166913046140246,1.7968650493715213,1.82547022427411,1.8601371822256108,1.8671691209505394,1.7807293841687204,1.8327659637082039,1.84863721590771,1.773001854434272,1.6597085435760017,1.6971024703736755,1.5840630530802278,1.5083124028121737,1.5497217119305244,1.3806632575414222,1.3980188017188309,1.6690075422419524,1.6676867819686936
1.5865396461796428,1.615025703278858,1.6359445011970173,1.6665504768132313,1.734025523434988,1.7350541348997717,1.7962324688364921,1.7405752377951154,1.814780130540128,1.7268313350815623,1.7915796834176885,1.7869602228566417,1.8646396243016823,1.8523651645235,1.8594544400644055,1.8891182566261284,1.8955118744307444,1.9097189044220066,1.891492670284356,1.8312627266207917,1.8061272787136506,1.8782101674578444,1.7348238150461128,1.596082011545748,1.5951355008125232,1.5475241988070698,1.4725222152324835,1.545699947675977,1.3565058582083098,1.3886965565538565,1.6810379125576929,1.7284048219261245
1.5321401062563271,1.545070065929719,1.583043179103044,1.6003702051197002,1.6652504750339292,1.6038567163485522,1.7570807421625954,1.7177176994558119,1.7951990336682329,1.824108275814834,1.9180370158200695,1.8670767875341188,1.8475966065192964,1.9213746876081916,1.9341834977957733,1.899549798974764,1.888043716553493,1.9039402452474394,1.8781628094664482,1.840153229756959,1.772474864321318,1.8451152072858268,1.6582274232648069,1.6867977623873296,1.6710768603078248,1.5881188528276708,1.4514651608516758,1.5630536684379015,1.3769592755631062,1.3870137776714075,1.6830815252247218,1.6630644905875323
1.5719897780218868,1.5020861075411356,1.6459510412434888,1.6044237034497746,1.6052982446740525,1.658471600808541,1.7443579671380716,1.616524680022566,1.672118378267397,1.768184651630937,1.732223552620247,1.7225605156834205,1.6742248525465726,1.702677087086967,1.7452740701658358,1.7554894844309423,1.7887090996490178,1.7577053476212066,1.7300193121815004,1.7779001175616562,1.7020998386545918,1.6899593448963615,1.6429066642209007,1.6780729651505257,1.6382819064237248,1.5883557561294763,1.4802000172123793,1.6285385517525495,1.3786500052097685,1.4272067970406277,1.639059736963403,1.577283889293929
1.496179203076775,1.5508267713973645,1.6526200808740574,1.5348350145791407,1.5963678052394374,1.662446859474167,1.7830367933967364,1.6060010056370657,1.6582644493560599,1.7364354249086993,1.6862595415474628,1.6624520462779782,1.6690555341119937,1.680270853596404,1.6871378727222395,1.7177943368297484,1.7344768313145256,1.6932702549754195,1.732126137096875,1.7606166240425611,1.72745548100113,1.6802718985304967,1.6545243182770273,1.7099250437009206,1.6446186003799743,1.5798292085027823,1.4340993801691209,1.5991225514054093,1.3744464126994433,1.3907601054305885,1.5955169592203446,1.580668001364267
1.5045250331820728,1.4753922565540951,1.5775408079013125,1.5522344385602647,1.6095693874198538,1.6290683773639871,1.6971891064039,1.5304093988634386,1.651656367367898,1.6198159171338582,1.61184171045119,1.6209339252062267,1.675430269257782,1.6775158991883268,1.6602798255937894,1.669657674734081,1.6728905868714459,1.651874331851781,1.6628211682995178,1.6900823367623963,1.6834281248647507,1.6334960651680626,1.6174043112252259,1.6786898635001113,1.6389558801920976,1.540105289705828,1.3887725759977023,1.563525073987625,1.441714973695398,1.3569864146474546,1.578648653140366,1.6072061082099534
1.4780120634414307,1.4842439606406472,1.5741610903636778,1.5903990899349487,1.638381607614915,1.64661327771201,1.7595147729121594,1.6157887872565828,1.5709829642730353,1.7357199139583164,1.7007618183140378,1.6536705553279727,1.6573714301726425,1.6978318556357033,1.7009684343867826,1.680631487801858,1.6863864512732512,1.6603776113449396,1.6318460643314674,1.692790206369459,1.6445761525415057,1.6356220465136726,1.6165692592601162,1.6713363946555346,1.689377225122875,1.6111717542271857,1.4259356836776738,1.6091598485330425,1.4381812338451891,1.3899936726514495,1.634054022433844,1.6739326814361581
1.503037227014247,1.4598603825385632,1.5748894049705189,1.5930691617362895,1.6614324735081123,1.7017100746409797,1.796859081571456,1.6790746435993702,1.6457973851483476,1.7238963510946674,1.7128548862446729,1.6977306986661524,1.6967474255192372,1.6563901603131959,1.6297117268132928,1.629410269298484,1.6412932426119313,1.6797951814617087,1.742329343746465,1.7728113532334742,1.7374786274139618,1.7295952530815775,1.7367628726274438,1.7100620945236005,1.7331340903708299,1.6641594103118271,1.414826877755343,1.655820836683297,1.4800279816273307,1.398710164880706,1.6407053227348662,1.652637401750515
1.6411325325481245,1.4948244103663146,1.5548950061204114,1.533214180699478,1.6778579735717916,1.723532973001687,1.7615849826404575,1.6751441064987704,1.7235498799043607,1.7247042698011037,1.7817559213966694,1.7759810778278655,1.6659113601858935,1.7602652605892755,1.759090198675441,1.7432427940583768,1.7592741203341515,1.7480366094917932,1.8032287090922143,1.876772401188108,1.8214529818206877,1.745234684229316,1.785984837053975,1.8263512926011471,1.7585974721432298,1.6725021375543325,1.371846247772699,1.716624993370954,1.4871921933508148,1.3745242697953,1.6715970176041857,1.6478498411005251
1.6565216339393911,1.6170358164926781,1.6592456246732792,1.6612169873170792,1.7316933469921427,1.743423573462423,1.7590089742602408,1.7024410551517604,1.7923727443447919,1.7570091419431542,1.8124413370355645,1.8204796923388962,1.843963577481722,1.85395781412431,1.8113957019507292,1.7952175803841515,1.7764582682302728,1.7916493860530884,1.8079031145811895,1.814874213528642,1.8037293564006418,1.795937051707188,1.797652260700558,1.7963200945342046,1.8521044384351888,1.7285848243351885,1.4560231831572146,1.778905649294441,1.5150553422507598,1.454437373335943,1.7571392552231493,1.73121367533794
1.6939662594000882,1.7036993525403188,1.725543365140337,1.7370075198880737,1.731972318228655,1.7556298930303993,1.7371877769168054,1.6904075401034948,1.7745483067942192,1.7828312231375096,1.8383898582299611,1.8028708170256615,1.826462195649685,1.8401099983922777,1.7877498895133346,1.7411127717332144,1.7410450645733262,1.7501929094970479,1.7912503624163463,1.7961805813239828,1.798064889535021,1.798198553851414,1.7516357697716485,1.771813808456519,1.8176364001709815,1.7322055033286767,1.5241010922687843,1.769422666108915,1.5309719925758014,1.4399517518661453,1.7509979523654686,1.699866741814078
1.6714585350519715,1.5854328570059533,1.601967201818593,1.6446807305001152,1.7293204219872458,1.712544519010464,1.70949547221621,1.6995664864910838,1.7520299435470033,1.6930497233080521,1.7478920836996676,1.7714841445126641,1.7611287548947545,1.7975700679740088,1.7764492201403614,1.7587028411160055,1.769776099882427,1.7751845899066734,1.782308646191984,1.847320266745834,1.8022003131914661,1.7778086027442792,1.7584746629156385,1.793463380862242,1.7850868259189423,1.7180781126415696,1.4305180075242092,1.7175263378981724,1.4379733717614793,1.327237653940345,1.7150351669658668,1.7290843931410265
1.4944513218452034,1.403901295831279,1.4520982916812273,1.4776407602618824,1.6644509893444583,1.5785157816369524,1.7049176840129967,1.7522995336716587,1.7433202563995753,1.7269260720145645,1.749748137444814,1.7654188288774744,1.7486671235332965,1.7550038477815397,1.7500395480652426,1.7771651768311905,1.7814855458947187,1.795060404835397,1.7901782931367145,1.7769683889627812,1.746587748449754,1.7672736211808953,1.725631341296848,1.7080817320251525,1.7287478619588161,1.5823485515655127,1.3766772871856652,1.6129786893003872,1.3888134147859104,1.211050602932411,1.6144223311867842,1.7337804119598352
1.5933816300122412,1.4799516648968574,1.5400550405703322,1.5796302187036868,1.6720530183126836,1.622107949748825,1.7548196034401216,1.7475475551018558,1.830992985493313,1.7794548382067867,1.8034648235418043,1.8618699593875174,1.7973989138177884,1.8262761168813577,1.7827676606437781,1.7996164014158378,1.7879401328331086,1.7692880565896756,1.759763028279869,1.7134491912087073,1.7159925254581625,1.7320524264636947,1.681689885798499,1.6680951904374637,1.62464303719175,1.6195688923346014,1.3941232761834974,1.5955867110107695,1.4636426289474767,1.340655185632261,1.672727364022863,1.741912889066811
1.564075837959244,1.5632046646236857,1.5532415384060902,1.612773322351542,1.675523851911331,1.6665452952170414,1.787663681925142,1.694449195885033,1.771195713509774,1.7667668256890008,1.741919323737378,1.7949277240440138,1.7656881666941886,1.8030472609449208,1.745528347569832,1.7842383065248029,1.7804729693214583,1.7727289955720267,1.7816648897792897,1.7930613429382605,1.7448498489214208,1.7538054094885076,1.6835710153936057,1.7266949890542667,1.6332469357733495,1.6069058126838753,1.4052830990729026,1.6483213116892816,1.4647447099247886,1.4516576854848615,1.6628438651178132,1.729680437270642
1.5444192000205692,1.4721738985831094,1.6562133974857005,1.6109021448469485,1.6492367540996244,1.7700437415938595,1.8332239372701606,1.8200865353310232,1.60062062917426,1.8164483044087578,1.746022721347375,1.7448042523448306,1.6646023793122735,1.6789086375307007,1.6146940055617605,1.6200674315054386,1.6364970900525142,1.6781099047842432,1.7241908285473337,1.6943095543850093,1.7148138764177807,1.7839561390016727,1.7305219975050756,1.70560746177824,1.6468392368233011,1.7084479011314835,1.4746254981494902,1.616148892457258,1.382678695086596,1.3880126014508904,1.6925079227950854,1.7791292877124623
1.591030046670692,1.4773978144882216,1.583606751756825,1.5454975489495661,1.61596103259479,1.7213524174672135,1.7931305258727446,1.774444555909289,1.6722702024135407,1.7731936088657196,1.7750225434564948,1.7713822927300231,1.7612638519542716,1.7419153046637885,1.7146209984443408,1.7209106414258424,1.73775811057502,1.776633719354721,1.7777622773681188,1.7274076077043081,1.7372663017720562,1.7987564836898333,1.7249585685930167,1.7283633296582952,1.6816477906436789,1.6743334922231687,1.4125191758706994,1.6006199607448917,1.3728389329065118,1.3788139570133358,1.6820269951560332,1.710552297939376
1.5243859552802963,1.524327075911351,1.5424205240005573,1.5255563956161993,1.589155776674585,1.5776357517786777,1.658289285272418,1.6704560666970563,1.6508394971445441,1.6631265350607025,1.6872157111512902,1.664302058818446,1.741093918246555,1.675821387622264,1.6520066430207734,1.6843124957959401,1.727755571796782,1.742504943831269,1.7299426106906064,1.7288465471369598,1.7135009175683884,1.7194718104031788,1.6237919689850486,1.6921256041169555,1.6275546077240906,1.5259667447165786,1.4282264514743093,1.5321765283978523,1.3790531353826674,1.3314786886740706,1.5889186379443596,1.6444810888224608
1.5453919000524465,1.5853091021596033,1.6428537730917727,1.5970696652287153,1.6839281848854468,1.6921958016116532,1.7433962023532952,1.701330688989454,1.7501372365707069,1.7287507815855276,1.77697088932787,1.789185905959877,1.8349599214228487,1.7969941746953082,1.7367903953810266,1.7520086191136135,1.771560142630421,1.795629232915836,1.802101154417164,1.769833030311949,1.7617208520467489,1.841161604023469,1.7109720911884732,1.6827869712583472,1.5927310252160076,1.5633443849729394,1.3792104622758403,1.5022202820396229,1.3863285137817805,1.3615898685786803,1.6266146512798083,1.6578672750777048
1.6272513222231395,1.6568535974699932,1.6773174506115713,1.6648223945356357,1.7599753189288987,1.7702252895820911,1.7661579163635694,1.7145799344760524,1.8143903941326731,1.7671967352782274,1.823379622105599,1.8692073038324644,1.8258035315206833,1.8782374993292512,1.8150087269934285,1.8232886085695228,1.8217054608955736,1.8487148360168153,1.8110020468110268,1.8085371270840622,1.7830023716971248,1.7867472830476685,1.728232463767111,1.685481015285411,1.626421411634191,1.6532104184385126,1.4065671181624881,1.5494276568878207,1.4329414590924128,1.3425621466232422,1.7297706282046343,1.7324987474490885
1.60311467680403,1.5601997018461324,1.6200625651291323,1.5747412702032049,1.6940927609575025,1.6790872905844574,1.6957458177186313,1.6580966536498642,1.7567270940542834,1.6899573524511418,1.7687365359583074,1.7822032962638534,1.7267887610396324,1.786732277281456,1.7676902236059067,1.7708245146575219,1.7878296469295707,1.744846382298363,1.7792342021324612,1.7410216657357953,1.7460978371217863,1.7513285807263343,1.7194543184503854,1.660079048711447,1.6933672651235518,1.6634329672794057,1.3702890571031763,1.5504784104960538,1.3752037999095252,1.3651517251598886,1.6997152468651902,1.6959264877651208
1.5164287147561037,1.570835134388913,1.5830281220534426,1.6050369428764564,1.6581844704766107,1.646490063804262,1.691527951366946,1.6910505489062817,1.7035573427271322,1.6745746842065259,1.6484107043166925,1.7305089199385486,1.7661114660943507,1.731585962017227,1.6573354768523603,1.705222526571792,1.704998064025659,1.719883124125342,1.717818399465748,1.6890947494937343,1.7027046497846607,1.72049475366128,1.6661716788582859,1.6988888512868443,1.6185546260423338,1.5194170816761852,1.3832564762696866,1.583326224949878,1.3952703971062248,1.4177278537751805,1.6256047692248794,1.694145057635263
1.6068544628436305,1.6701869667404563,1.6626119486209308,1.714271047947153,1.7878489377339768,1.7515048081109013,1.7890604399855052,1.7533228464033654,1.8120749119497732,1.695818209993777,1.6832304966274898,1.7794480567022988,1.7597112540957647,1.751710085028623,1.6772781061187885,1.6618471684151976,1.6692599041686949,1.6734593928848902,1.6873746816284712,1.7662157415406146,1.7639415433786492,1.7009897584162035,1.740769796719014,1.806248178966088,1.7930034650428681,1.6665727306700184,1.585232971874257,1.6706978256625975,1.5422878053900824,1.43675771372969,1.7664475609159418,1.7266181712934927
1.6390714969878861,1.633529037911082,1.6341798710559847,1.6564684032721426,1.7090436930425095,1.6911213074130638,1.7387611808775216,1.6720800958026005,1.702639036847182,1.664427175189043,1.6904207022477684,1.7023745553642686,1.7062147902862754,1.6858465913217497,1.6758502099568584,1.6747886325489583,1.7212441632502538,1.7296569335568701,1.7571264533749014,1.782144575209052,1.7693733312037083,1.745014855796627,1.7392677428390537,1.767760396627489,1.7702261264335544,1.6776574456189157,1.550702495139789,1.6947785648065874,1.5123459147362852,1.4692112705590017,1.6868644622366487,1.7490616515606947
1.5655394483350709,1.5211072899734501,1.539023655852893,1.623777229316786,1.7015273546800858,1.636460614975218,1.6258318465323962,1.6025457438311228,1.6445247098039792,1.5839621421137642,1.5936882196962283,1.632032042521426,1.7364567150243606,1.6144496841681695,1.600790118344945,1.6475776860036548,1.7055864719643217,1.7527833068261494,1.7785718868179332,1.7563871415567778,1.7399591740856022,1.7709136519832063,1.6941928227043475,1.6847443349912965,1.64801105267405,1.648914577920893,1.4020723726810975,1.6637791929882584,1.5036693511130426,1.4402151200315298,1.6784552393494134,1.7091854063343863
1.5736034937649508,1.5916455502999773,1.6432578151171322,1.6295376344518364,1.7741369886904692,1.7129974271001749,1.7937895439187321,1.7237161876575227,1.7712761699836832,1.7699493826540118,1.8232741890206756,1.821276422021129,1.7551790734090278,1.8383665754818073,1.8134672310430133,1.7885610690825953,1.745766471477358,1.7556535333255798,1.7226910732304872,1.58508502850086,1.601583215765722,1.7352081150008458,1.6633424967120316,1.5528341584219998,1.6288340855176597,1.730638097589971,1.4444815179792956,1.6112854849178113,1.4427016680091058,1.3888478252414669,1.7832072846449272,1.74678698543055
1.6502416511361164,1.5705711300521026,1.6735680365846441,1.6319244783605558,1.8035783152505596,1.701519798311162,1.841479831303889,1.6829274205028386,1.8499403050727155,1.8269656781902068,1.8893583415166133,1.8835669398605752,1.788815574948974,1.905258206121589,1.8509619846544298,1.8188624378229201,1.7903194662696549,1.812738721666094,1.8180503800894614,1.8111049748510777,1.7658952698412322,1.811305738255411,1.7808659902875312,1.7915870001260379,1.7775738121599165,1.7481478191497368,1.464559197092227,1.7302297578496373,1.4716568929806428,1.3794668173563678,1.806403378225274,1.733083319555052
1.5901871419342861,1.4897811157851195,1.5567146516384252,1.5421913958065847,1.6718994349085716,1.6277349433426656,1.7270283460465303,1.6684607067422508,1.7197058612761242,1.666379298139629,1.7156002881023293,1.6680289464318836,1.6686555745438434,1.6828646051527627,1.6714199675281423,1.6983481132068534,1.7102011157777652,1.7220521698859834,1.7718729015849979,1.8173207371058653,1.8006027379749672,1.7554757922702198,1.7725487761322316,1.806109623321412,1.7952783816676212,1.653281173070397,1.3957620248603293,1.660536498843385,1.4787805042070103,1.3306679583924823,1.6525850331388687,1.6474915838389808
1.5975462827972409,1.4356043019091669,1.5323394983785554,1.4990490014307343,1.6055017962765241,1.6053506794288257,1.7325915865839803,1.7199790970374436,1.6531392296125875,1.6458718499361245,1.7084001397096575,1.6578636386938976,1.7124799467712253,1.6835612104877837,1.7046816773983708,1.696478671178488,1.7048322609970916,1.6861205797713334,1.7346405089137977,1.7861769720855607,1.7461352751197514,1.7171804705999387,1.702241574598046,1.7446451694011293,1.7268693834332223,1.593930557120195,1.4313198833058254,1.7028051780709208,1.4941410560351915,1.3542824571082546,1.6255543124124505,1.6440473520940189
1.5804024397196226,1.4981271501313114,1.53034785975121,1.5704632419406204,1.6700742756258498,1.6150890449617992,1.7947455295547676,1.6821967031865956,1.676446730517548,1.7484059108536707,1.7854202719896382,1.7423004110411282,1.729589458728937,1.7597241586565044,1.7847302326710033,1.8364929216034787,1.850981951652651,1.8049136888036807,1.7604295764665325,1.7825782731546465,1.680366988352547,1.6993097029616842,1.665639279231481,1.655637863356716,1.6875089106943069,1.6184691660151032,1.4911721476839137,1.667817188716841,1.5116922099775294,1.4364416856164883,1.6999842310694613,1.6977116834308965
1.6094496399086562,1.5294030549387396,1.6135611842851807,1.5800670634941147,1.6141045914864731,1.7051121729821839,1.8398307299716656,1.7186390353232732,1.5711832211844958,1.7178836789575587,1.771766497668962,1.6962334423518535,1.7055397057408204,1.7367401157046178,1.768699475635465,1.8167525299357827,1.8398235047276001,1.8175512630661015,1.7811976147285722,1.804735752362943,1.7271544580358704,1.7139101430732429,1.7076453369804132,1.6894807168010297,1.668806873116468,1.612976517634171,1.3004063054942931,1.5540089052350499,1.4087933096829852,1.3662958021266443,1.6234487522971994,1.6587559098164035
1.6257219212300424,1.513478039074341,1.6510240180703697,1.5515988309438546,1.6344002382694678,1.685386511676351,1.7875512840490375,1.7111289504468468,1.7364448760825042,1.7301122664394675,1.7659593384563026,1.7162373790119148,1.7808536600582276,1.7834893938382412,1.7620322683978655,1.802806654100813,1.803244729652241,1.7932744192054813,1.8214922654171897,1.8384273819823154,1.7888179757924703,1.794247853166353,1.6812354467447035,1.7338800662691787,1.6742630661782725,1.5380896423030677,1.2573064730590506,1.6103048475739234,1.422247405784338,1.281787556714337,1.5998484350514832,1.626162941958069
1.5435994868355238,1.525408685706507,1.4913831474649173,1.6295960718547968,1.7583662267001188,1.6147440847476275,1.6566592735956749,1.6663352196034855,1.8049938469225768,1.730767543559252,1.747837647946872,1.7062641192763195,1.8008243345952353,1.7749956624308092,1.7581377528857147,1.7619859720801394,1.7748941848423385,1.7856189950300148,1.8197653425147942,1.7849775004223216,1.7622192980016056,1.8008228807581075,1.6826093708251653,1.64251081995204,1.6798507265653482,1.6786942795163888,1.3415937651609118,1.6334203488438899,1.4367940967482076,1.3218776059317763,1.7465414226236504,1.6615240486213343
1.527099782111878,1.5558531737518067,1.616269568468848,1.5926305036777852,1.6991331614452212,1.5978935651442687,1.7543048996216979,1.6713664987202042,1.712126413093482,1.7271809669366804,1.7898082822701844,1.7246448936852914,1.695020039035119,1.762451163043993,1.7446337683965327,1.7459741638607318,1.778810653716431,1.7562620438713257,1.781571570599975,1.80298685610035,1.7688296439118665,1.739645949020769,1.7378011619098073,1.6852527614498114,1.648965749134525,1.62958913398923,1.3527746229706297,1.5326791135700657,1.3996595735286308,1.2861110243653273,1.6983115765767611,1.637781081512834
1.589862343841669,1.5338972488910676,1.6452134086241268,1.576173455927264,1.680818960175792,1.605831132178355,1.7507652784690226,1.7459453946181813,1.7063702694068459,1.7375133010589734,1.7617761575441953,1.771117914815676,1.6776583107277967,1.7462084957162218,1.6838269855532364,1.7185813705692956,1.7510689171007159,1.7452110648779695,1.7595102271012708,1.7829431224104204,1.7714595389667893,1.7536639476873488,1.7369206917862385,1.7519269829173982,1.7325644941767413,1.6850734115064556,1.3575036220193908,1.5829934181206702,1.4320531704685744,1.2936449041233593,1.6967130027965174,1.7337395492305119
1.5329546362090585,1.5115604939471163,1.5239603415846674,1.5886297714556077,1.7255865152333694,1.5926705147601403,1.658639384534494,1.6479803245925966,1.719510382977639,1.650633361132783,1.5903038803855487,1.6874403467863486,1.73851395424533,1.636072512676974,1.5853168779429472,1.701469757070124,1.7644128307185634,1.7592589765901805,1.7845493135586699,1.8149088015626642,1.7970758725509803,1.7569024123930739,1.7594941476919876,1.7840476015586484,1.786545649223638,1.7136107232236606,1.4316051891294843,1.6538438362828194,1.475774781113376,1.2466844790623262,1.745143023467426,1.673498344439723
1.4861923800474153,1.4885353948019877,1.5573093979564894,1.6170886951000456,1.699926257293733,1.6284236168139503,1.6738330311106768,1.698559857703971,1.7466317182633035,1.6974106219378013,1.6511285978038046,1.725044865184931,1.7307216253810105,1.6920691533908976,1.6758028090683168,1.7025526245306448,1.733295763305441,1.7506314499061055,1.7930107396094674,1.7258377058528869,1.749225933148111,1.725168530449201,1.6711907773568526,1.6773901633516075,1.678185004810559,1.5929086758334963,1.330482790250058,1.5310635385910005,1.3706615118119667,1.3499157900495697,1.6804041603842306,1.6186606596188986
1.5033029472561168,1.4750000557548448,1.5263889340413497,1.4594931356019811,1.499310499983403,1.5671882645497677,1.6350344394568574,1.6442873386400487,1.5883289410743466,1.6520198739508962,1.658104597523115,1.6515337707973121,1.628334413088642,1.634261775757776,1.6709278291866814,1.6085470311527919,1.6089074398523031,1.6277093137073486,1.6868954301580275,1.6853674078372907,1.6885421701719727,1.668842497424635,1.577242789044965,1.601078366385964,1.5725137690014446,1.5012847018811417,1.3589468906279638,1.517009897712654,1.3885183670787913,1.382291759842951,1.5750673347885829,1.6106161208222325
1.6222049859134093,1.602637149739492,1.6659208536039867,1.6871347424079663,1.732186043422431,1.752496983286379,1.8353051164412386,1.7004346455464558,1.6943960049494027,1.7954374712321373,1.8579383391134563,1.7257430474966529,1.7459600923260654,1.7954671389006005,1.8243068924983703,1.7525812835802637,1.7300321329163828,1.7340147374133283,1.7307019104997905,1.7562805055735589,1.6919457576283432,1.7286765831172066,1.6423825933966196,1.679151299087439,1.6733074460447517,1.594425301336554,1.5015784697651045,1.6168435715123044,1.5014981779723247,1.406836080776292,1.700818835721708,1.6214482439531193
1.6313862346652075,1.6553539543831863,1.7033890937289005,1.7296087801844633,1.7544870325700304,1.8347887522465962,1.929369786933965,1.7959614918068378,1.7195023355907995,1.8665883873227658,1.9280445535870843,1.792011625162868,1.8087133412273533,1.8606341164372462,1.8624232566785541,1.8538500920305907,1.8548779952295156,1.8569530858125836,1.8631068766362324,1.859217174287881,1.8118107516056141,1.8244652226425286,1.6817362697376317,1.7453575715439116,1.7250334966108067,1.5815468478228158,1.5425680351041007,1.6640078408579502,1.5390902367255388,1.3977975958973172,1.7219122258519406,1.6146344990768586
1.5146621013798658,1.4059287553173843,1.5272509230965323,1.4815660183619996,1.6567907972560778,1.561182156502241,1.7363857653125,1.663522522597222,1.7913143213084488,1.7749099714714693,1.8530767775576706,1.8222960072691656,1.8132312330380564,1.8255022068926556,1.8406192528881267,1.843087067182751,1.8715684442711855,1.856709521667083,1.8577599855757545,1.8687427177802451,1.798750472781888,1.8031920612148642,1.6292514013073176,1.676917119935601,1.600498735166378,1.5043990851901259,1.3779622312123105,1.549310430329936,1.3292499564667162,1.4117417762070006,1.588102906847132,1.6356374883176725
1.5147524750445838,1.4361370820667843,1.5654884363738755,1.5078601458236294,1.6410022274549354,1.6436437190907938,1.7382788120852022,1.7954366380977838,1.8099936161616426,1.8114622926284707,1.7860663297194366,1.7763833651477472,1.7789916767754728,1.7691131593419773,1.76275388649119,1.7346148523866756,1.7486480129490478,1.7445798978969083,1.7263744203882383,1.727567078708213,1.6484467597455035,1.780060471154171,1.6229455734887703,1.6283742737901017,1.5702961726550653,1.4939565580783087,1.3599973391473021,1.5203160215980258,1.3778286434588842,1.3745921495057982,1.57853687471933,1.7314664202043233
1.5619334298381473,1.4648866879015632,1.563420565144759,1.4980428590501493,1.5487756663778924,1.613212602817603,1.6914001471263362,1.7640414480773348,1.5919187915953463,1.732047738448016,1.7006567737034617,1.6832192533413295,1.6968509448021045,1.6977749610532318,1.6706246591906257,1.6799829963294852,1.7057616486067586,1.718620286466179,1.7477215245197824,1.7250964729616822,1.7724155845635212,1.7669990028687208,1.7440646101376827,1.723040252555613,1.6632712656176996,1.5669011316957198,1.4175944925204722,1.6032853356641148,1.4536185721542454,1.4007757882255796,1.5645963832724106,1.7207293079375146
1.5420567880964549,1.5722145004602792,1.6218390090860286,1.6316694858750553,1.6721419077416795,1.6458335551279581,1.6988849254609528,1.7499571321920981,1.729666750456565,1.6811767509402782,1.7066358862171636,1.722124878268855,1.7557953943026026,1.738025326778146,1.7016579626104527,1.694065462249583,1.7278469083280608,1.739717015132349,1.7706461188497051,1.7620859919187135,1.7893161729921692,1.7883557344343322,1.7593624219588253,1.7460274438854242,1.7109660752850964,1.6096443817805322,1.4761749952596452,1.636252855191877,1.46157582969075,1.3565621201174445,1.6523670247402993,1.7468766265300675
1.5611408514786147,1.5028699119158986,1.6088148561956692,1.5990538066842233,1.6973426708285295,1.6043301378937167,1.7473063780063163,1.7033299306356868,1.7908239675808308,1.741343874515216,1.8015235558172966,1.799722456041109,1.7447113660528923,1.796074356024829,1.7630662480115262,1.7611427586554744,1.7607606912507092,1.7536465459384725,1.7575164238098693,1.7708100349872802,1.7346439919143866,1.753198745491868,1.65505465692149,1.6859803362547112,1.6687469133746324,1.580247863973078,1.3920480071099115,1.6308402481265665,1.3853834459802934,1.4003838086309943,1.6660002057979317,1.6999023974772796
1.7241821794640093,1.6770408936918555,1.718233923859898,1.7492122142233317,1.8434192418369144,1.739668417930194,1.8143658664184779,1.7632940051867716,1.9055370614221678,1.8269750752053406,1.8570378745634861,1.913783234527829,1.913007502955325,1.914416339654333,1.8764271041492477,1.8808555103222422,1.87085735023149,1.8753190477437203,1.8441665936459841,1.8021920621298246,1.726738753134915,1.864695756894623,1.6772926101131376,1.6781895047732278,1.7314399682095565,1.7075329505384558,1.5094062003028177,1.7514319979259634,1.5728853858892264,1.4791550176439907,1.8349019625948668,1.7737025368879702
1.7308382257446,1.6766007946993398,1.717583084287435,1.6956718778849211,1.8131981831850452,1.7551059821914887,1.8220589593647853,1.788830408044245,1.8513946067875968,1.796600276222391,1.8607246079757258,1.8840314991830012,1.8579528268223244,1.889710264334997,1.8703940368862304,1.894622856096678,1.90529105371088,1.8836248691232522,1.8564253092299916,1.8990754899506461,1.8281882713016229,1.8233311142206705,1.7759823617379478,1.7411997963237535,1.748478806269748,1.7497081466038138,1.5712128459003916,1.7683208845869713,1.5411891398315656,1.4661680350009307,1.7677870671398108,1.7908965585446432
1.657877863819395,1.5650300055924828,1.7010954055556649,1.5405218379652166,1.700123966797156,1.7453591912431765,1.862289269164378,1.8038779969277938,1.7057240777829814,1.7708605067948642,1.7726729089201843,1.7213350507947651,1.7928953893727273,1.7382006833536072,1.7535459014616712,1.7603564831831244,1.785239949065799,1.799860140666935,1.8574135519931074,1.8245950348099738,1.8531672456614614,1.8495551324691817,1.816799667343553,1.7528856580190426,1.739725647696218,1.6948962719961955,1.460875238461086,1.708838233941411,1.3797071665181824,1.3864496380474463,1.6701361698083255,1.7474996351554444
