Fp1,AF3,F7,F3,FC1,FC5,T7,C3,CP1,CP5,P7,P3,Pz,PO3,O1,Oz,O2,PO4,P4,P8,CP6,CP2,C4,T8,FC6,FC2,F4,F8,AF4,Fp2,Fz,Cz
33,38,28,32,26,33,37,35,24,22,22,28,20,26,28,37,35,22,30,24,22,33,29,29,18,26,30,14,26,20,28,35
31,40,32,34,28,33,39,29,26,27,27,32,23,29,31,36,35,23,30,27,23,32,27,29,17,27,29,15,24,18,32,34
32,44,33,35,30,33,41,29,28,27,25,33,25,29,29,37,35,26,29,26,24,33,28,29,17,24,29,15,27,19,36,36
32,45,33,31,32,36,48,30,25,27,25,35,26,33,33,38,37,28,30,28,24,33,29,31,17,26,29,19,26,24,39,38
33,47,32,29,34,35,49,27,28,28,28,38,27,32,34,40,36,28,33,32,26,32,29,33,16,27,31,25,28,27,37,39
35,47,35,27,33,37,49,27,28,26,29,40,29,34,35,38,34,28,33,32,31,31,30,37,19,28,34,29,32,30,35,40
33,42,38,26,31,37,50,27,26,24,28,39,27,34,33,37,35,29,33,33,31,31,33,41,21,30,35,31,37,31,35,39
36,43,41,25,29,41,51,28,28,28,31,40,24,34,36,36,34,29,33,33,31,29,33,41,22,34,36,34,40,34,35,37
34,44,43,24,31,38,50,28,30,29,32,43,24,36,37,36,36,31,32,34,32,28,31,39,21,33,33,31,42,38,33,42
34,44,40,26,31,38,45,27,29,29,37,43,21,39,37,37,37,29,31,34,32,25,33,42,26,36,35,35,39,41,34,40
36,44,40,27,30,38,45,27,27,30,38,42,18,40,36,36,38,28,30,36,32,23,31,39,25,35,34,36,40,44,33,38
36,45,36,28,29,36,42,32,27,26,38,37,18,38,36,35,37,27,29,34,30,23,34,38,26,33,33,36,42,46,30,41
35,45,40,30,29,35,41,36,22,24,41,36,16,36,35,32,34,27,30,33,27,22,34,38,26,37,33,36,44,47,30,40
36,43,39,33,29,32,37,34,26,24,42,37,19,33,33,31,33,29,30,32,28,23,33,35,27,36,35,33,46,46,28,37
37,41,40,35,27,34,38,37,23,27,41,33,19,38,29,31,31,29,29,29,26,23,31,34,26,36,33,32,46,45,28,37
38,41,36,34,28,34,36,34,26,25,44,32,15,38,30,34,34,32,30,30,26,24,32,31,29,33,35,31,48,45,33,33
36,46,36,34,29,34,34,33,27,29,42,35,18,40,31,34,34,32,30,30,24,24,30,32,28,32,35,33,48,46,36,32
36,45,37,32,29,33,31,33,28,30,38,32,22,40,31,35,34,34,28,30,24,24,28,33,30,30,38,34,48,48,36,35
41,47,40,34,26,34,31,35,27,33,38,32,25,40,30,34,34,34,30,30,26,28,31,37,33,32,40,36,45,47,38,30
39,47,42,32,24,34,35,36,31,35,33,31,27,35,29,29,29,37,28,27,26,31,29,33,31,29,40,36,48,46,36,31
38,49,43,28,24,36,36,37,30,35,32,32,28,34,28,32,30,40,28,26,28,32,30,34,32,29,41,36,48,46,35,34
40,49,45,28,26,38,35,34,27,35,27,31,29,33,23,31,29,41,28,26,28,32,28,34,32,28,43,34,44,42,34,29
40,49,42,29,27,40,32,31,31,35,24,29,31,33,24,33,31,41,27,29,30,31,27,34,32,27,43,32,43,41,35,28
42,49,45,29,25,41,30,29,32,36,24,27,28,32,26,32,30,38,26,28,30,31,27,36,34,27,44,37,43,43,35,30
46,51,44,31,26,39,29,28,30,34,24,30,28,30,28,32,28,36,24,28,32,34,28,35,36,27,45,38,44,45,37,31
42,50,44,34,24,37,28,31,28,35,22,30,30,28,28,30,26,34,24,27,31,33,27,34,32,30,43,35,40,44,33,34
45,50,44,38,27,40,30,30,26,32,23,29,28,26,28,30,26,32,22,27,32,32,28,32,34,29,42,33,38,46,31,34
45,47,43,38,27,39,35,30,24,28,24,28,26,24,28,32,26,34,23,27,31,37,31,32,35,31,41,33,39,44,30,31
48,44,41,39,28,39,36,29,25,26,22,30,27,24,27,35,27,32,21,29,31,35,33,32,36,30,42,33,43,45,29,33
50,43,38,40,31,41,35,29,25,25,24,33,28,27,28,37,32,32,21,28,31,33,32,32,34,30,40,32,40,47,32,32
52,41,37,43,31,40,34,28,28,22,25,33,29,29,29,33,29,31,23,29,31,33,33,31,35,34,42,33,43,47,34,33
50,38,35,44,31,38,33,30,30,23,27,34,27,31,29,33,29,31,22,28,30,35,34,34,36,36,40,34,44,49,36,35
50,38,36,44,32,36,34,28,29,23,29,35,23,31,31,31,27,27,19,23,26,34,35,32,36,37,40,36,44,52,36,36
48,39,37,43,32,36,34,28,29,24,29,36,24,32,29,32,28,28,20,24,26,33,35,32,34,37,40,34,42,54,37,34
45,40,36,40,32,41,31,28,34,24,30,34,24,30,30,30,28,28,20,24,24,30,36,32,34,35,43,28,40,53,33,33
48,39,37,39,35,42,32,25,36,26,30,34,26,30,30,30,28,28,20,25,21,32,37,34,32,37,44,30,42,55,36,33
47,41,38,38,38,42,31,25,38,25,30,34,30,30,30,30,26,30,20,24,20,34,38,30,28,36,46,26,43,56,38,33
47,39,35,39,37,41,29,21,39,26,31,33,29,29,27,27,25,25,19,21,21,31,39,30,26,37,47,25,43,54,38,31
42,38,34,38,38,40,31,20,37,27,34,31,27,30,29,26,25,28,21,19,20,31,37,31,25,36,45,24,38,52,36,27
41,39,33,39,38,37,30,18,35,29,33,29,27,30,29,24,24,28,24,20,22,32,38,34,28,34,48,24,40,50,34,27
38,38,34,38,36,34,28,17,34,31,32,28,26,30,30,24,24,28,24,20,22,32,38,36,27,33,46,21,37,48,33,22
37,39,35,35,36,36,29,15,34,31,32,29,25,32,32,26,26,28,25,21,25,31,39,35,29,35,47,21,37,48,33,22
36,38,36,34,33,36,32,16,33,32,32,29,25,33,32,26,26,30,28,24,28,31,38,36,26,34,46,20,36,48,32,21
35,37,32,37,33,33,33,16,29,31,32,28,25,31,32,25,24,28,25,21,27,31,37,35,23,31,41,17,32,41,29,20
31,37,28,38,31,27,36,15,26,30,30,28,26,32,30,26,24,28,26,22,28,32,34,32,20,29,35,17,30,36,31,20
32,39,24,34,30,24,33,17,25,30,29,28,22,30,31,24,22,28,26,20,32,28,32,29,21,26,32,15,25,33,30,18
26,34,24,34,27,20,32,19,23,33,26,30,19,31,28,24,23,27,27,21,32,27,30,32,22,24,28,16,22,26,25,20
26,37,25,33,26,19,29,21,24,31,26,35,21,33,29,25,23,27,28,22,31,27,28,30,20,24,27,13,19,25,26,24
21,40,22,34,26,16,24,19,26,29,22,35,21,32,29,22,20,26,26,22,30,25,23,26,18,23,24,12,18,21,26,28
21,41,22,36,27,16,22,22,26,28,27,36,20,33,29,25,20,24,24,20,28,24,24,22,14,26,24,10,16,20,26,28
23,41,23,37,29,19,23,23,25,28,28,35,21,31,26,24,18,22,23,18,26,22,24,22,13,25,25,9,17,21,25,33
26,42,23,37,27,19,26,23,27,28,27,35,20,29,27,25,19,23,22,20,24,22,22,22,10,22,26,12,16,22,26,32
24,42,22,36,25,18,24,26,27,28,26,36,24,31,26,25,19,23,21,19,23,21,23,21,10,22,24,11,15,20,25,34
26,42,23,32,24,19,22,28,26,30,24,40,22,34,26,26,20,25,22,21,22,20,25,23,11,27,29,15,21,25,25,36
32,40,27,31,28,19,22,30,28,33,26,42,21,36,30,28,20,24,22,20,22,20,26,24,13,30,34,17,25,29,25,36
31,39,31,35,29,23,25,30,27,33,25,42,22,38,29,28,22,24,22,20,19,22,27,24,14,33,35,18,30,34,27,40
35,41,31,35,30,26,28,30,29,31,27,40,22,37,32,27,22,24,22,20,19,22,27,23,15,38,40,21,33,36,30,39
34,41,33,39,33,29,30,29,29,31,27,38,19,40,33,29,23,25,22,20,19,21,30,23,17,38,40,23,34,37,28,38
38,39,37,37,30,34,35,31,27,31,31,37,20,43,34,35,25,29,25,19,23,24,34,25,19,40,43,27,39,44,30,37
38,35,39,33,27,37,37,30,28,32,28,34,20,42,36,32,24,28,24,20,24,24,32,28,22,40,40,30,40,47,28,39
39,39,36,33,25,36,41,31,29,33,29,35,19,43,38,32,24,30,24,20,24,24,30,28,24,40,39,33,41,47,29,39
38,37,37,34,28,33,39,34,25,32,31,34,20,42,37,30,22,28,24,18,24,24,30,26,24,41,37,31,43,45,27,42
38,38,38,36,28,36,40,34,23,30,30,33,18,38,38,31,22,28,24,18,24,24,29,28,23,41,42,33,46,46,30,42
37,38,40,37,32,40,42,34,25,28,32,30,22,36,40,32,24,32,25,19,27,25,26,26,24,40,42,31,42,46,30,42
34,39,38,36,29,40,39,31,22,22,31,27,24,35,36,29,23,29,25,18,27,23,27,25,24,39,39,31,41,45,30,43
33,38,37,36,30,41,39,33,21,22,32,27,27,35,34,31,23,29,25,19,28,23,27,26,24,36,38,32,40,42,30,39
33,40,36,34,30,41,39,34,21,20,33,26,29,36,34,31,23,29,25,19,29,23,27,27,25,34,35,31,39,43,32,40
33,39,35,31,29,39,37,35,19,20,32,25,31,32,33,29,23,29,25,19,29,23,26,29,24,33,36,32,39,42,33,41
33,39,35,31,29,36,36,37,20,18,31,24,30,27,31,25,23,25,21,21,25,21,25,29,21,31,37,31,37,37,31,40
34,41,35,33,30,35,35,39,17,16,30,25,31,27,31,27,21,27,21,21,23,21,25,30,17,28,38,30,38,35,34,36
31,37,37,32,32,36,30,39,16,14,30,24,31,24,30,26,20,24,22,22,24,22,27,29,15,27,38,30,38,34,34,35
32,41,36,31,29,37,33,40,18,17,29,26,32,24,33,28,20,26,22,24,22,22,28,32,16,27,37,31,39,36,36,34
34,43,36,33,32,38,32,38,19,18,30,28,33,28,34,28,21,27,25,25,23,23,31,31,17,27,34,31,41,38,35,32
34,41,38,31,32,35,31,39,19,19,34,29,32,31,35,27,21,25,28,28,24,25,34,35,18,26,32,32,40,36,36,29
36,40,40,34,32,34,30,39,20,23,32,31,31,29,35,29,23,27,29,30,23,27,36,38,16,26,34,32,40,38,36,28
35,42,42,33,30,30,33,38,23,23,36,30,30,29,35,29,24,28,26,30,23,27,37,39,15,27,38,30,39,38,34,29
32,38,42,32,28,28,30,36,22,23,36,29,29,27,36,32,28,28,26,30,22,28,36,38,14,26,38,28,40,36,32,30
31,38,42,31,27,28,30,35,24,24,36,30,31,27,36,32,28,28,26,30,22,28,34,36,15,25,39,27,41,37,33,28
33,39,41,33,29,26,31,34,25,25,35,30,32,27,35,31,27,29,27,29,25,29,35,37,17,27,39,27,43,39,33,27
33,36,40,30,31,24,28,32,29,27,35,30,31,26,34,29,31,27,27,31,27,29,36,35,18,31,40,28,42,39,32,30
37,36,41,31,29,23,30,30,31,29,33,29,32,29,33,30,32,27,27,31,26,28,35,35,19,31,39,29,41,41,33,27
35,36,43,31,31,24,32,26,31,27,32,27,34,29,29,29,33,25,27,29,29,29,35,33,19,33,41,29,42,42,35,25
35,34,41,29,31,22,32,28,31,28,30,24,32,26,27,29,31,24,26,30,28,27,31,32,20,31,41,27,37,38,37,26
35,34,38,30,28,21,31,25,31,27,28,25,30,24,24,29,31,23,24,28,25,26,29,31,19,31,42,27,38,41,35,27
36,35,37,26,26,25,33,25,31,28,27,23,29,25,24,29,28,22,21,25,25,25,26,29,20,32,40,26,38,38,34,26
38,32,37,29,28,27,30,25,28,28,23,22,28,24,24,27,26,20,22,24,24,23,24,28,22,33,38,29,40,39,34,28
39,33,37,31,27,31,31,25,27,29,21,23,29,22,21,25,23,21,23,25,26,23,25,29,24,35,39,31,39,41,33,26
39,32,38,32,28,31,31,25,27,28,21,22,26,22,21,26,24,21,23,25,27,25,25,31,25,35,37,31,37,41,31,26
35,32,38,32,27,33,31,22,25,30,23,22,26,24,22,26,24,18,22,27,25,23,23,31,25,35,33,31,35,39,31,26
34,35,39,35,26,35,35,22,22,26,21,21,24,23,21,26,22,18,22,24,24,24,23,31,26,32,31,29,34,38,29,24
33,36,36,34,27,34,33,25,20,27,21,19,21,19,19,26,24,21,24,24,24,26,23,31,23,31,31,27,35,35,27,23
35,35,35,34,27,34,29,30,17,26,20,19,22,19,21,27,25,21,23,23,23,29,23,31,21,27,31,27,35,33,25,25
33,31,35,33,26,32,28,30,18,23,21,19,22,19,20,26,26,22,21,21,23,30,26,31,23,28,30,28,38,34,22,26
32,32,37,37,25,35,27,31,18,26,22,18,24,20,22,27,27,23,21,21,23,29,25,28,23,26,28,27,36,30,20,27
28,32,35,40,27,33,24,28,17,22,22,17,24,20,22,26,29,25,20,21,22,28,27,29,22,24,29,29,38,30,21,29
28,32,34,39,24,35,24,28,18,24,22,18,24,25,24,29,29,25,21,21,23,29,27,31,21,24,31,29,38,35,22,27
30,33,31,36,22,30,23,29,21,24,23,20,20,25,27,29,29,25,21,21,22,31,29,31,22,24,32,30,41,32,22,31
30,36,31,35,21,30,24,30,18,25,24,23,23,28,30,32,32,26,22,22,19,30,30,30,22,26,34,32,42,30,24,30
32,35,29,33,20,29,22,34,20,23,23,22,22,28,30,32,31,28,24,20,20,31,32,28,22,26,37,30,40,28,24,31
30,32,28,30,18,26,18,36,20,26,24,22,24,28,32,32,32,28,24,22,20,30,32,27,22,25,38,30,41,28,24,33
30,33,29,33,18,28,19,33,22,28,22,24,26,30,35,32,30,26,22,23,21,28,32,28,26,25,38,32,39,30,25,36
26,33,29,31,18,28,19,30,25,29,23,25,28,33,32,34,30,28,24,22,20,26,30,28,26,28,36,30,36,30,24,34
29,34,28,31,18,28,18,29,25,31,23,25,29,33,33,35,31,31,25,21,20,26,28,28,24,28,38,30,38,34,24,32
29,35,30,27,18,27,20,26,27,29,21,25,27,31,32,33,29,29,25,21,23,25,27,28,23,30,42,32,41,35,26,31
31,34,29,28,18,31,25,30,27,31,23,27,26,31,33,35,26,28,26,22,26,26,26,26,24,28,39,29,42,36,23,34
30,37,30,27,21,28,24,28,29,30,24,28,25,26,32,32,26,28,26,22,26,26,26,24,24,28,40,30,40,33,23,33
33,39,32,30,25,32,28,27,27,32,26,28,27,28,30,31,26,27,25,22,24,23,25,24,23,25,39,29,41,38,25,32
36,36,32,30,26,32,26,24,29,32,26,28,27,26,28,30,24,27,23,22,26,21,23,25,22,25,42,30,42,40,24,30
34,35,35,33,26,31,27,23,30,34,28,28,27,26,30,32,25,28,22,23,25,20,21,25,21,23,44,29,43,44,26,29
35,37,35,35,29,33,29,22,30,34,29,28,28,26,31,33,26,28,22,22,25,20,24,27,23,24,46,31,44,45,27,30
35,37,37,33,28,31,29,22,28,30,31,29,29,27,30,34,28,27,24,21,24,19,24,26,22,25,48,28,47,47,28,29
39,37,40,38,30,30,28,21,26,30,31,29,24,25,32,30,26,25,23,22,25,17,23,25,24,23,50,29,49,47,29,29
39,38,43,39,31,32,29,21,26,29,31,28,24,25,31,28,24,22,22,26,28,17,23,27,25,23,49,31,47,45,29,29
40,37,39,39,32,31,28,22,23,28,31,29,25,25,31,29,25,21,23,25,25,19,25,27,27,22,46,29,49,47,28,29
37,37,38,36,32,27,25,20,24,28,29,28,24,26,30,28,26,20,22,24,22,20,24,26,26,24,46,28,48,44,30,25
36,36,35,35,31,29,25,25,22,25,30,27,27,26,31,30,28,22,24,24,22,22,24,26,26,22,42,26,45,44,32,25
31,35,35,35,27,26,20,23,23,22,26,26,26,26,30,30,26,20,22,22,21,23,21,23,23,21,40,26,41,38,29,24
28,34,34,34,26,24,21,25,22,21,26,24,24,23,29,27,23,18,22,22,20,22,20,22,23,19,35,22,38,36,28,24
29,37,32,31,26,25,19,24,22,20,22,24,21,22,26,26,20,16,22,18,18,24,22,22,24,20,34,22,38,34,26,26
30,40,31,31,24,25,21,24,20,21,21,24,20,22,24,26,18,16,22,18,18,24,18,20,22,20,31,20,38,34,28,24
28,36,28,28,26,23,20,25,22,20,21,23,20,21,23,24,16,17,22,20,20,26,19,20,21,24,29,21,33,30,25,24
26,36,25,27,23,23,21,23,23,19,21,23,19,21,23,24,16,18,21,20,17,27,19,17,20,23,29,19,33,32,23,23
24,36,22,27,23,22,21,24,25,19,21,24,18,22,23,24,16,17,20,16,14,28,22,18,20,24,30,18,32,32,24,24
23,39,25,29,21,20,21,24,27,20,23,24,20,22,23,23,15,17,20,17,14,30,22,18,18,25,34,21,28,31,25,26
25,39,26,31,23,20,20,25,26,17,23,23,21,22,22,24,17,20,23,19,17,31,23,19,21,27,33,21,29,36,25,26
28,40,28,32,24,17,19,23,27,17,23,22,20,23,20,21,16,20,20,17,21,29,24,21,21,28,36,21,32,36,23,24
28,39,30,30,28,20,23,25,27,16,25,23,22,23,21,22,18,24,22,19,24,30,26,24,23,30,36,22,32,36,24,26
27,41,35,31,27,21,24,26,29,17,26,25,23,29,23,23,18,26,24,21,26,32,26,25,23,29,34,21,33,35,23,28
24,39,37,33,27,24,29,27,28,17,28,25,26,29,24,20,20,26,24,22,28,32,24,24,22,31,32,24,34,37,23,25
22,35,36,32,29,24,26,27,31,16,28,25,27,30,24,20,21,27,24,22,28,33,24,24,22,30,32,24,32,36,21,24
21,35,35,33,26,26,28,27,30,16,30,24,27,32,24,20,20,28,24,20,28,34,26,26,23,25,32,23,31,35,21,24
21,36,35,33,26,25,29,27,28,17,29,23,28,31,23,20,20,28,24,20,30,34,25,27,23,25,28,23,29,32,21,25
22,36,37,34,26,27,30,28,26,16,28,23,28,33,23,21,21,28,24,22,30,32,22,24,22,24,27,22,30,32,22,25
24,35,39,33,30,30,29,28,28,15,26,26,27,31,22,22,22,30,26,22,30,31,23,26,22,24,25,21,30,32,20,24
24,36,44,32,30,32,32,26,27,20,27,25,28,29,24,19,20,27,22,20,28,28,22,26,22,23,27,24,32,31,21,26
22,34,40,31,27,33,35,25,28,23,27,27,27,30,25,22,20,27,23,24,24,28,25,26,22,25,28,24,29,33,21,29
25,34,39,30,24,33,34,26,32,26,25,25,25,29,25,21,19,27,24,26,25,30,28,29,24,29,28,23,30,35,20,30
28,34,37,30,27,30,36,26,31,28,26,25,26,27,26,22,20,26,22,24,24,31,30,30,24,31,32,26,32,38,23,31
29,32,34,28,27,25,30,29,32,29,26,25,24,27,26,25,25,28,21,25,28,30,32,31,23,29,32,23,31,37,23,31
31,34,36,30,26,28,34,28,32,30,26,26,26,30,28,23,25,29,21,25,29,29,33,31,23,32,33,25,31,41,24,31
32,36,38,32,26,29,33,28,32,30,24,28,26,28,28,24,25,28,19,27,27,29,31,31,22,32,34,26,32,42,24,31
31,34,41,32,26,29,31,29,32,30,23,29,26,27,27,25,25,27,20,27,27,28,33,32,23,32,35,28,32,43,24,31
32,33,41,30,25,28,32,28,32,31,24,30,27,26,28,26,25,28,21,29,29,29,33,31,23,35,36,29,31,41,25,33
31,33,37,29,23,27,33,30,27,30,26,31,23,29,30,27,25,27,19,29,28,28,31,30,24,34,36,28,30,44,28,29
29,35,33,28,21,23,31,33,32,27,24,32,25,34,27,30,26,32,21,31,28,31,33,31,23,35,36,27,31,43,28,26
30,35,35,30,22,24,33,32,31,26,24,32,27,33,26,28,26,30,22,30,28,32,30,30,24,32,34,28,32,41,30,27
30,35,33,28,22,20,32,29,29,27,23,31,26,33,27,29,29,28,24,29,28,29,27,29,22,29,33,29,33,41,31,23
30,35,31,27,18,21,29,25,26,25,21,27,25,34,24,28,28,28,26,30,28,28,28,26,21,31,32,31,35,41,32,23
33,38,35,30,21,22,35,23,25,25,21,29,28,37,24,27,26,28,29,31,26,28,28,27,25,31,31,35,37,41,35,25
32,37,36,29,22,21,33,25,25,25,24,29,30,36,24,32,28,30,30,34,26,28,28,28,26,28,31,34,40,41,34,27
35,37,37,29,23,21,35,25,24,26,26,28,26,36,24,32,29,28,31,33,27,27,29,29,27,31,35,35,45,47,37,29
37,39,35,26,24,25,37,25,26,28,29,30,28,39,27,33,31,31,32,35,29,26,29,29,28,32,36,33,47,48,39,30
37,41,36,29,27,24,37,27,28,30,31,30,31,41,27,32,33,32,33,32,29,27,29,31,29,30,36,32,50,50,38,30
37,41,37,31,29,25,37,28,29,31,29,28,33,38,25,32,35,31,33,33,28,26,29,32,30,31,39,34,52,48,38,33
38,39,41,31,31,27,39,26,25,31,32,27,30,33,26,30,35,26,31,31,28,24,27,33,31,29,40,36,46,50,37,34
40,37,42,30,33,28,38,29,23,31,32,24,31,32,27,31,35,26,31,30,28,23,26,32,30,27,39,34,46,53,37,30
36,37,41,33,33,31,39,29,21,31,34,25,33,32,26,30,34,29,28,33,28,22,26,32,30,29,39,34,48,53,36,35
35,36,40,32,36,30,40,33,22,31,36,27,32,28,26,31,35,29,28,31,31,26,27,35,32,25,39,32,44,54,34,34
33,33,36,29,33,33,37,31,21,29,38,25,30,27,24,30,32,28,28,29,28,24,29,35,31,27,41,29,42,57,31,35
32,31,33,29,31,29,37,31,19,27,37,23,27,23,25,28,30,24,26,27,30,25,29,35,30,28,40,28,41,55,32,36
30,33,31,29,31,30,35,32,21,29,35,23,30,23,27,28,30,26,26,28,30,26,29,32,29,26,38,28,36,50,30,34
30,30,29,28,31,25,33,33,19,27,33,21,27,21,25,27,29,25,24,27,28,26,27,34,29,27,38,30,36,49,30,35
28,32,28,25,31,24,32,30,19,25,31,21,26,21,26,29,29,24,22,27,26,24,27,35,29,26,36,32,34,48,28,34
30,30,28,22,28,23,33,27,22,25,31,21,28,23,25,29,27,26,21,27,27,24,28,36,28,26,33,30,34,49,25,36
29,29,24,23,26,23,32,25,21,27,29,25,30,23,24,28,25,26,22,30,28,23,30,36,26,28,32,27,38,47,27,37
27,31,25,24,26,24,29,26,22,29,31,28,30,25,24,27,27,24,22,30,28,24,30,36,28,32,36,28,41,47,25,42
29,34,24,27,26,22,26,28,20,26,29,26,29,25,24,27,23,20,22,27,24,24,34,36,30,34,38,28,39,48,25,39
26,38,26,30,27,24,24,26,20,25,27,26,28,26,24,25,22,17,18,28,21,21,34,34,34,34,38,26,42,48,24,38
29,41,27,31,27,23,22,28,22,24,26,26,27,28,28,25,24,19,18,30,22,23,31,33,33,33,37,27,42,47,25,35
32,45,30,32,30,24,20,24,23,26,24,27,27,31,27,26,27,19,19,30,20,23,35,33,35,32,38,27,42,49,28,35
33,45,30,31,31,24,20,22,24,22,26,26,28,34,27,27,27,20,22,30,19,24,34,36,37,32,35,26,44,55,27,33
32,48,28,32,30,26,20,18,24,21,28,26,30,35,27,28,28,20,24,32,19,26,36,37,35,30,34,25,45,57,26,32
31,47,27,33,30,27,17,19,23,21,29,25,28,33,28,25,27,21,25,33,20,27,37,35,33,33,37,21,45,59,27,32
31,47,25,37,30,29,16,20,20,22,29,24,24,33,29,23,30,18,26,32,18,26,36,33,34,30,35,21,41,58,29,29
36,46,23,38,31,26,15,22,23,20,30,21,21,35,30,24,30,20,26,30,18,28,36,32,34,30,40,22,39,56,30,30
37,49,21,37,32,24,15,20,23,18,27,19,18,34,29,24,28,22,26,30,18,28,38,32,32,30,37,22,35,54,31,27
36,46,22,33,30,26,16,20,25,17,27,19,17,35,30,25,31,25,27,31,20,29,35,30,30,24,35,22,33,50,31,24
38,43,20,32,31,24,17,20,26,19,27,20,20,35,31,29,35,28,30,31,22,30,33,31,25,21,31,22,29,49,29,23
36,44,18,34,32,22,18,16,26,20,24,18,20,33,26,29,32,25,29,31,20,26,30,30,24,19,30,20,30,48,28,21
35,44,16,34,30,20,18,21,24,18,23,16,18,30,22,25,26,26,28,26,17,26,28,30,24,17,31,19,29,47,23,20
31,41,15,38,30,19,17,24,24,17,21,15,15,26,21,24,26,25,23,25,18,25,29,27,24,18,33,19,27,39,24,20
32,36,15,41,29,15,17,27,25,18,21,15,14,24,25,23,24,25,22,22,18,24,28,22,22,17,31,16,23,34,23,19
34,34,13,43,26,15,19,27,25,18,20,13,15,22,21,23,23,23,21,23,20,25,24,24,20,14,30,16,22,30,22,18
32,37,12,41,24,11,17,25,26,16,21,14,18,21,21,25,23,26,22,24,22,26,26,24,20,16,31,18,24,32,22,17
27,36,14,39,23,12,18,26,25,16,20,14,20,19,21,25,23,27,21,23,24,28,26,23,20,16,26,17,24,31,20,18
25,33,13,39,20,12,21,28,25,18,22,15,20,18,22,26,24,28,20,22,24,28,24,23,22,16,27,17,27,33,19,18
28,32,16,40,22,9,21,29,28,18,24,18,21,15,22,26,23,27,19,21,24,27,24,24,22,20,28,16,28,36,22,24
27,33,18,41,19,12,22,29,29,16,25,19,24,15,22,27,21,27,19,21,23,26,24,21,23,22,31,18,32,38,24,28
29,31,17,39,20,15,21,33,30,15,27,21,26,14,23,27,23,29,19,21,26,27,26,23,25,23,34,18,35,40,24,31
30,31,17,35,20,17,21,32,29,17,29,25,29,17,27,31,25,32,22,23,28,29,26,23,24,25,33,20,35,38,26,32
33,35,18,37,22,19,21,29,31,23,31,30,29,19,28,29,23,29,21,21,29,29,26,25,24,26,34,20,36,41,26,34
32,37,21,34,22,21,23,26,33,25,31,31,28,22,25,27,22,30,19,20,32,30,26,26,30,26,34,22,37,44,26,36
33,38,26,36,26,21,24,25,33,26,32,33,28,24,27,29,23,32,17,18,32,31,30,26,34,26,33,24,40,45,28,37
36,36,33,34,27,25,26,27,36,27,31,30,27,28,29,31,21,29,16,19,32,32,28,26,33,26,33,22,40,44,29,38
35,40,33,32,27,28,24,28,35,26,30,28,27,30,28,32,22,28,16,20,29,29,27,26,31,26,33,24,41,45,32,36
35,41,33,32,26,26,22,26,36,26,29,25,27,29,27,31,21,27,17,21,28,28,26,25,28,24,29,23,37,39,31,38
31,46,29,33,29,28,22,27,35,30,30,22,28,32,27,31,22,28,18,23,30,30,26,24,26,22,28,22,34,37,32,34
34,46,26,30,33,24,20,30,35,34,29,20,26,33,30,31,24,28,19,24,31,30,24,27,25,24,30,20,31,33,35,32
33,45,27,29,32,23,23,29,34,32,29,17,28,32,32,32,24,28,17,22,30,31,24,27,22,24,28,18,29,33,36,31
32,43,25,31,31,21,21,25,36,31,25,13,26,31,31,31,27,28,17,24,32,31,23,28,22,26,28,18,30,32,37,31
33,40,24,30,30,20,21,26,33,27,24,10,27,29,29,31,27,29,19,25,29,29,22,27,22,26,28,18,30,32,38,30
32,40,24,30,30,18,19,28,32,25,23,10,29,29,29,32,28,28,21,26,27,28,22,29,18,26,28,16,31,30,38,28
29,40,21,26,28,18,17,29,31,25,23,10,29,29,29,33,29,27,23,27,27,25,19,26,14,26,27,17,28,31,36,25
27,41,17,28,29,17,18,30,30,25,23,10,29,25,28,30,28,26,23,24,25,22,17,25,13,27,25,15,27,29,35,24
28,37,16,30,29,15,19,29,30,27,25,14,28,26,29,27,25,24,23,23,24,22,16,25,15,25,25,13,25,30,31,23
28,38,17,31,29,16,18,28,31,25,26,14,28,28,30,28,26,26,22,22,25,23,18,26,17,24,26,14,26,34,32,22
32,33,16,32,26,14,16,24,30,21,23,14,27,27,27,27,25,26,21,20,23,22,20,27,19,24,25,15,27,38,26,22
30,32,18,34,20,16,18,21,28,20,22,15,25,26,25,25,23,25,19,19,21,22,21,25,21,22,25,15,26,37,26,23
26,30,22,36,19,18,16,20,28,21,22,18,22,27,23,21,22,22,20,20,21,22,21,22,22,21,24,16,22,36,26,22
25,32,24,41,19,20,18,22,29,20,24,20,23,26,22,20,20,21,19,19,19,21,21,20,20,20,23,15,21,38,25,23
24,33,25,38,17,20,18,24,29,20,24,20,21,27,23,19,21,21,21,19,19,21,23,19,21,20,21,14,23,36,24,23
26,35,25,36,17,25,16,25,29,22,26,22,21,29,25,21,22,20,20,18,19,20,22,20,24,20,24,18,22,36,26,22
27,35,27,39,16,24,17,26,30,22,26,22,20,28,24,18,22,22,19,20,20,22,25,21,27,20,25,21,24,36,27,24
29,32,28,37,17,26,18,25,29,23,27,21,19,27,25,18,24,23,25,21,21,27,30,25,31,21,27,25,27,39,27,24
33,34,29,37,19,27,19,25,30,23,27,20,19,26,25,21,27,24,25,21,21,31,34,25,33,26,30,27,27,41,32,26
32,33,27,34,21,27,19,25,28,25,25,23,18,27,25,19,24,20,25,20,20,30,32,24,32,28,28,26,28,40,32,26
32,35,31,29,22,31,21,27,25,27,27,27,18,27,26,19,25,20,25,21,21,29,32,23,34,30,30,28,30,40,35,29
32,36,30,28,22,30,23,26,26,26,30,30,18,30,28,20,26,23,27,20,20,31,30,22,32,32,28,30,30,43,32,31
35,37,27,25,20,25,21,27,25,27,29,31,19,29,27,23,27,23,27,21,20,33,32,23,35,34,28,33,33,43,33,32
34,35,26,21,20,24,20,28,22,28,30,34,20,32,28,26,28,24,26,20,22,34,30,23,34,33,29,32,30,39,32,32
36,36,28,22,19,25,19,24,24,27,32,34,24,32,28,28,28,24,24,20,24,34,29,26,32,32,30,33,29,39,32,31
35,36,27,24,22,21,21,21,23,25,28,32,26,31,26,26,29,25,25,19,25,37,29,27,27,33,27,31,33,43,31,34
36,35,24,22,27,22,21,18,22,25,26,30,26,32,27,28,28,22,27,15,24,36,29,27,24,34,28,29,28,45,31,34
35,40,24,22,27,19,21,18,21,22,25,31,29,33,27,27,27,26,23,16,22,33,26,24,22,32,27,25,27,43,31,36
32,41,25,25,27,20,22,20,18,22,24,30,27,32,26,26,26,26,23,16,24,29,23,26,21,31,27,23,29,43,29,35
36,42,28,26,26,24,26,24,20,21,28,29,28,31,27,29,28,30,24,16,26,30,26,25,23,33,27,23,30,45,29,38
38,42,27,29,28,21,26,26,22,19,29,28,28,31,29,30,27,29,23,15,27,30,24,27,20,32,28,22,31,46,30,37
39,45,28,30,31,22,26,28,23,18,26,26,30,30,30,29,28,30,24,18,30,30,26,30,21,32,30,21,33,43,31,34
39,46,30,32,35,25,29,29,24,20,28,26,31,32,32,30,30,31,24,19,31,29,25,31,21,31,31,21,33,44,29,35
40,49,31,33,37,26,30,30,29,21,29,23,28,29,31,27,26,29,24,18,30,26,26,32,22,33,33,22,39,47,29,35
40,49,31,33,38,27,35,34,29,23,29,24,26,30,30,26,26,28,24,18,29,27,27,29,23,32,34,24,38,51,30,36
39,48,30,30,36,29,36,39,27,26,29,25,25,30,31,27,25,29,24,21,27,24,27,27,25,32,33,23,38,50,30,34
38,47,34,33,32,29,35,42,26,26,30,26,25,29,32,29,25,32,23,24,28,23,27,28,28,31,32,24,41,50,29,35
39,45,31,30,32,30,33,39,25,25,29,25,23,29,30,29,27,29,25,23,29,25,27,29,27,31,34,24,40,50,28,32
39,44,30,27,32,28,30,39,31,24,28,25,25,29,29,29,27,29,25,23,28,27,26,28,27,30,33,24,38,48,24,33
39,44,30,31,30,27,27,39,33,25,26,27,23,27,27,29,29,29,25,25,27,27,25,29,26,27,33,25,39,49,23,32
37,44,30,30,28,28,28,39,33,28,26,27,23,27,26,29,29,27,25,25,25,27,26,27,25,28,33,27,39,47,22,32
34,38,31,30,25,28,28,41,31,27,25,25,22,27,26,30,30,27,25,26,25,27,25,27,26,28,35,26,38,47,23,32
34,39,31,29,24,28,27,38,31,23,27,26,22,23,26,30,31,26,25,25,25,28,27,29,27,29,37,25,39,48,25,33
37,39,34,29,22,29,27,34,31,21,27,27,25,25,25,31,30,27,25,27,25,30,27,31,29,27,35,27,35,47,28,34
35,36,32,26,21,26,22,32,29,18,26,26,25,24,28,34,28,26,24,27,25,28,25,31,29,29,36,25,35,45,27,32
35,37,35,27,20,27,21,31,32,14,24,26,24,26,30,36,28,26,26,28,26,30,28,34,32,32,39,25,35,44,27,34
35,39,35,25,22,29,23,30,33,16,27,28,24,27,31,35,29,27,26,29,24,30,28,35,33,34,40,24,34,44,27,34
34,40,39,27,20,31,22,33,34,20,31,30,24,28,30,36,28,26,24,30,24,28,30,32,34,36,40,26,38,43,25,36
37,42,43,30,18,32,23,31,30,20,33,32,26,30,32,38,30,26,24,30,24,26,30,32,34,34,41,28,41,44,29,35
38,42,46,30,21,29,23,30,28,21,32,33,28,32,35,36,28,24,24,30,24,26,30,32,33,35,44,28,41,42,32,35
39,41,49,33,19,33,27,29,29,23,33,33,27,31,35,39,30,27,26,32,25,29,33,35,37,36,43,29,41,43,31,33
44,46,49,34,22,32,24,27,31,27,35,33,26,31,33,39,29,27,24,31,24,28,32,34,35,35,42,30,44,47,33,32
41,45,47,36,24,34,24,26,30,29,31,33,24,34,30,37,27,26,24,32,22,26,28,30,32,33,42,30,42,45,30,30
38,41,45,36,24,33,23,27,27,28,32,34,22,32,33,37,29,26,24,32,24,26,30,30,32,33,43,30,42,48,25,28
39,43,47,39,27,35,23,29,28,31,33,33,23,36,29,33,31,29,25,32,24,26,31,29,32,31,41,31,45,49,28,29
42,43,48,40,28,32,24,28,26,31,35,34,23,33,27,31,31,29,25,31,23,28,30,28,29,31,42,33,47,51,28,27
41,45,47,42,29,31,23,29,25,30,34,34,23,32,26,30,30,28,25,30,25,27,29,26,26,27,41,34,49,51,33,25
39,43,43,44,29,27,25,28,25,26,30,33,23,31,26,28,28,26,24,28,24,26,26,28,28,26,40,34,47,52,35,25
35,41,38,40,29,28,24,27,25,25,29,31,20,29,25,28,28,28,24,30,26,28,26,28,28,28,41,31,48,53,33,26
34,42,35,40,27,28,22,24,23,22,30,31,22,29,24,31,31,31,26,33,25,27,28,30,32,29,40,34,51,53,33,27
30,38,30,34,28,24,18,23,23,17,30,31,23,30,24,29,30,31,24,32,27,25,25,27,29,29,41,31,51,56,32,27
29,39,30,35,27,26,22,22,22,14,28,30,23,28,22,26,30,29,24,32,28,24,24,25,29,29,38,30,48,54,30,26
34,38,31,35,27,22,21,22,24,14,28,30,24,29,22,25,29,28,22,28,28,24,25,26,28,29,37,30,48,55,31,27
36,40,31,35,26,24,24,23,26,16,25,27,25,29,20,24,28,28,22,26,25,25,24,26,28,30,37,30,50,53,34,29
34,41,28,31,25,21,23,22,25,15,23,29,25,27,23,27,29,25,21,25,25,25,23,25,29,29,37,31,47,51,30,28
33,39,25,33,27,23,23,21,25,17,22,29,24,28,24,28,30,26,20,26,26,25,21,25,30,27,34,32,45,49,30,31
33,38,23,32,24,20,22,21,26,15,22,28,22,28,24,28,30,26,18,26,26,24,20,28,32,30,34,30,42,51,27,32
34,39,25,30,22,21,25,22,26,20,23,28,22,29,26,31,31,26,19,27,27,25,23,29,30,31,34,31,43,50,28,29
37,38,24,31,23,17,25,23,25,20,25,28,21,30,26,31,31,25,19,27,27,25,25,31,33,29,37,34,42,46,29,25
36,34,21,30,22,20,26,23,26,21,27,26,22,32,25,29,31,25,21,25,29,25,24,30,29,27,36,30,37,45,28,23
39,38,24,34,23,22,27,24,28,21,27,28,23,34,27,29,31,23,21,25,26,23,24,34,30,26,36,33,34,45,30,25
35,33,25,34,23,21,24,25,28,20,28,30,25,32,30,32,30,23,21,25,25,23,25,38,33,29,37,35,35,46,28,25
33,34,28,34,23,21,24,26,26,18,28,28,24,30,30,32,30,24,22,26,26,22,26,40,34,29,39,36,36,47,28,27
33,35,29,35,24,21,23,29,26,17,29,28,24,31,31,35,33,25,23,27,28,22,25,40,32,27,37,39,39,49,27,26
35,36,33,40,27,24,24,29,26,18,32,26,24,32,32,34,34,27,24,28,28,25,28,44,30,29,37,42,41,50,29,29
33,37,37,37,24,25,23,31,27,16,32,26,27,30,30,32,32,26,27,26,29,25,31,42,30,33,39,41,41,50,29,29
32,37,38,35,25,28,25,31,26,16,32,28,29,29,29,31,33,29,31,25,27,27,35,41,28,30,40,41,43,46,31,29
31,37,38,33,25,29,24,32,25,14,30,27,29,28,28,32,35,30,31,25,28,27,34,39,27,29,41,39,42,47,29,32
30,38,38,33,24,31,25,32,26,17,30,27,31,27,27,29,33,29,31,22,24,25,32,38,24,28,36,36,38,48,28,35
31,39,41,33,27,29,25,36,27,19,26,27,29,23,26,28,30,26,28,21,23,26,31,37,25,29,35,37,39,49,31,35
31,42,40,32,26,29,25,34,26,21,26,26,26,20,24,28,30,27,29,21,24,27,33,34,24,28,34,35,42,48,28,33
35,46,40,33,26,30,26,33,27,22,26,25,27,22,22,26,30,27,29,22,25,29,35,33,20,26,39,34,40,46,30,33
34,45,35,33,26,31,28,34,27,25,27,25,26,22,24,26,30,26,28,22,25,28,35,36,19,28,38,34,42,46,28,29
36,45,35,33,23,31,26,31,29,26,27,25,24,21,23,23,27,25,27,24,23,27,35,34,22,31,39,29,39,44,31,29
36,42,34,30,21,30,26,30,29,25,25,27,27,19,23,25,26,24,27,24,25,26,34,32,24,31,39,26,39,45,31,28
39,41,32,31,22,30,26,29,30,26,23,23,25,19,24,27,29,21,27,26,22,24,32,34,24,28,40,25,39,44,34,26
40,38,34,36,27,27,24,29,31,28,23,21,24,19,23,28,30,20,24,25,23,22,29,32,24,28,41,23,38,44,32,25
42,38,33,36,30,30,24,28,34,26,24,22,24,20,22,26,28,20,24,27,24,22,28,34,24,30,40,26,40,44,32,24
43,39,35,37,31,31,22,27,37,22,21,23,25,19,21,25,29,23,25,28,26,23,30,36,26,32,42,28,42,47,33,24
41,41,35,36,31,33,22,26,37,21,22,22,25,19,22,24,28,22,24,27,25,27,31,35,25,33,45,27,45,46,29,23
38,39,34,33,33,35,22,27,38,22,19,23,27,19,23,25,29,22,24,28,24,26,29,36,24,33,46,26,45,45,31,24
36,37,35,31,34,37,20,28,36,20,20,24,28,20,24,28,32,23,23,28,23,25,30,36,28,34,45,26,47,47,32,21
38,38,37,29,34,39,21,28,39,19,19,23,30,22,22,30,34,22,26,28,23,28,31,31,31,34,46,26,47,50,34,22
35,38,38,28,36,38,21,29,39,18,18,25,31,22,22,32,34,22,26,26,24,28,32,30,28,32,44,28,46,51,34,24
34,40,38,31,34,37,21,31,42,20,20,26,26,24,20,30,33,22,26,25,22,26,32,29,28,32,44,28,46,51,34,22
34,39,34,31,34,37,21,29,41,21,21,28,25,23,19,28,30,24,24,23,22,26,32,27,27,33,44,30,48,55,32,22
35,41,33,27,29,37,21,31,40,17,24,30,26,25,19,29,29,23,22,25,22,28,33,28,27,35,42,31,47,57,31,23
34,38,32,26,27,34,21,31,38,19,23,31,26,25,20,29,28,25,22,24,24,28,35,28,28,33,44,30,45,58,30,27
32,38,34,29,26,36,25,32,33,24,25,32,28,28,21,31,29,22,22,23,23,26,34,28,26,36,43,29,45,56,28,26
34,39,34,30,23,36,27,33,29,24,27,34,32,28,24,35,33,23,23,29,22,23,33,33,25,37,41,29,43,59,29,29
38,37,38,35,22,36,30,34,30,24,30,34,31,29,26,33,31,25,23,27,23,25,33,31,27,38,41,31,42,60,28,31
39,37,38,36,20,35,29,35,29,23,29,33,27,29,27,32,30,27,24,28,21,26,30,32,23,38,39,32,41,55,28,36
38,38,37,35,19,33,29,35,28,24,30,34,28,28,28,32,30,28,22,28,22,24,28,34,21,37,40,33,39,53,30,37
36,37,35,34,22,32,30,34,28,22,31,35,28,29,27,33,33,29,23,29,23,25,27,35,22,40,42,30,41,51,33,36
39,42,37,35,22,31,33,33,23,18,31,35,31,29,27,33,33,29,23,29,24,26,27,36,23,39,42,29,41,51,33,36
40,44,38,34,21,31,34,38,25,18,35,35,32,33,29,35,35,31,25,31,24,27,27,37,25,39,43,28,41,47,33,38
38,44,34,36,24,31,38,36,29,22,33,35,32,34,32,36,36,31,28,32,23,28,26,38,24,38,44,28,43,45,32,36
40,47,35,39,27,31,38,34,27,22,32,36,34,34,31,38,39,32,27,32,21,28,24,37,25,40,41,29,44,44,33,32
44,48,32,37,24,30,36,34,31,20,33,38,30,32,31,37,37,32,26,33,21,30,24,35,26,37,44,30,45,44,37,35
42,45,32,37,25,28,34,32,35,17,34,38,24,34,30,36,36,32,28,30,25,30,26,32,30,36,44,33,46,43,36,34
38,47,28,35,24,26,30,31,32,16,33,37,23,35,28,37,37,31,29,31,26,31,29,33,31,37,43,33,47,44,36,33
40,48,30,36,24,26,32,30,31,18,34,38,21,36,27,37,37,29,29,31,28,29,29,33,33,33,43,30,48,45,37,28
37,46,30,38,24,24,29,31,29,18,35,39,19,35,25,36,35,29,29,33,27,29,29,31,33,32,42,29,49,45,33,25
42,48,34,36,22,24,26,31,28,22,36,38,18,35,26,31,31,28,29,32,26,29,31,30,32,29,41,30,49,45,28,25
39,46,33,32,22,26,26,30,32,23,36,38,19,36,26,34,33,29,29,31,26,28,30,32,31,31,41,30,47,46,28,31
37,41,35,30,27,27,25,27,31,23,34,37,18,34,25,35,35,29,29,31,24,27,31,33,31,31,39,31,48,44,28,30
37,41,39,29,29,26,21,27,27,21,33,35,17,31,23,33,33,27,27,29,25,25,31,31,33,31,38,31,48,47,29,29
36,41,40,29,29,24,19,29,29,21,35,33,16,31,25,29,29,23,28,27,24,25,31,30,30,29,40,29,47,46,29,29
33,40,42,28,31,23,21,30,29,22,35,32,18,33,25,29,29,23,27,29,23,23,29,31,27,28,38,28,43,46,26,27
33,42,43,28,29,23,21,33,28,25,35,32,20,30,22,26,28,24,26,27,21,23,27,30,26,27,37,27,41,45,27,25
34,43,44,28,28,21,21,35,30,24,33,34,22,29,21,26,28,24,24,26,21,20,24,30,27,27,37,26,41,41,30,24
33,42,44,28,31,26,22,36,31,24,32,35,25,28,22,24,26,24,23,24,19,21,25,28,25,29,36,30,43,42,28,26
35,42,44,29,33,26,25,39,33,24,31,31,23,30,24,26,28,23,23,24,19,23,25,27,24,31,31,28,41,39,28,27
34,41,40,32,33,27,27,37,33,25,31,31,24,29,27,26,28,23,23,23,19,23,23,27,27,29,33,28,42,40,27,25
36,40,38,34,32,26,23,35,31,25,27,28,23,27,26,25,27,23,23,25,20,23,23,24,24,29,33,30,44,42,25,19
36,44,38,35,27,26,22,36,29,26,26,29,21,29,27,23,25,23,23,25,21,25,23,22,25,29,35,29,43,43,26,19
35,43,35,34,23,27,23,36,29,27,26,30,21,29,27,26,26,24,24,26,23,27,25,22,23,29,36,31,45,42,27,23
36,41,36,31,23,28,24,32,29,29,28,29,21,29,27,27,27,25,24,27,25,28,26,21,23,32,34,31,46,43,30,24
37,41,37,33,26,28,21,31,29,28,26,29,23,29,27,27,27,27,25,24,25,31,27,20,25,33,33,33,51,45,32,28
40,41,35,34,28,27,23,27,31,31,25,31,22,33,31,27,25,25,25,24,24,31,27,20,24,35,36,34,53,46,33,33
40,39,36,35,28,27,23,24,29,32,25,29,23,35,33,27,25,25,27,24,23,31,27,21,20,32,37,35,52,49,32,35
43,41,36,35,26,26,23,19,28,32,24,25,24,34,32,27,25,28,25,26,25,31,27,24,21,34,39,33,51,48,34,38
46,42,35,34,26,26,22,15,26,32,22,28,26,31,29,26,23,31,25,26,25,29,27,24,24,37,42,36,50,54,35,39
43,41,37,35,27,26,22,15,27,33,22,27,26,31,26,25,23,31,25,25,25,29,29,23,23,39,39,37,48,51,37,41
42,42,39,34,29,29,24,18,26,35,23,26,24,29,27,25,23,32,25,28,25,30,30,24,25,40,40,35,47,51,41,43
43,40,38,35,28,29,27,15,27,35,22,25,28,28,25,24,21,29,24,27,26,32,30,25,25,38,40,36,46,55,41,42
45,40,39,39,29,30,25,14,27,33,25,24,27,27,25,20,22,30,24,28,25,31,28,25,24,36,36,34,43,56,38,40
46,46,38,42,28,30,24,14,26,31,22,24,26,26,24,20,22,30,24,29,23,30,29,26,27,33,41,36,39,53,38,43
42,43,41,39,25,29,24,13,24,31,21,22,24,24,24,20,22,28,24,30,24,28,29,26,27,31,44,33,36,52,35,39
42,43,40,40,25,34,22,14,21,27,20,18,23,20,22,22,24,30,24,30,24,29,29,25,29,29,43,31,35,51,33,35
40,45,39,41,28,35,23,16,21,27,21,18,19,18,20,22,23,29,23,30,23,29,29,23,31,31,42,29,37,48,33,35
40,46,38,40,29,31,22,16,23,27,22,21,19,20,22,23,25,26,24,28,24,30,28,19,32,29,42,28,40,48,34,36
39,43,36,39,27,31,21,19,21,25,25,17,19,21,23,23,25,25,24,27,25,30,29,23,30,27,42,25,38,44,35,35
40,47,36,42,26,32,22,20,17,23,26,19,20,24,24,26,28,24,25,30,27,29,27,24,28,27,42,25,36,44,35,33
42,48,35,41,27,32,22,16,17,23,27,23,19,27,25,27,29,22,27,27,27,29,28,25,29,29,41,25,35,41,35,33
42,47,32,43,30,32,24,17,18,23,28,24,17,26,24,26,28,23,24,25,24,25,24,25,24,30,42,24,37,38,35,33
40,45,32,43,30,32,24,16,17,25,28,25,17,27,26,27,25,21,23,23,23,23,24,25,24,30,49,25,39,38,35,33
38,40,32,42,26,30,26,18,17,25,27,29,18,29,25,27,25,23,23,22,24,23,22,26,20,30,47,24,42,38,34,29
37,42,30,46,25,32,24,19,17,22,27,32,17,29,28,27,27,23,23,22,24,23,22,26,20,30,46,24,43,36,34,30
34,43,29,45,27,30,24,23,18,22,32,33,19,31,27,25,27,21,24,21,24,24,22,28,21,30,48,24,45,38,37,29
37,44,32,44,28,32,26,24,19,22,30,35,21,31,27,25,27,21,25,23,23,23,22,30,21,30,46,25,45,41,39,29
35,41,33,45,24,35,28,25,19,22,29,35,21,29,25,23,25,24,27,26,21,23,23,34,19,31,45,27,44,42,38,29
32,43,34,45,24,35,30,24,23,23,27,39,22,31,25,24,28,26,28,26,24,25,22,35,18,33,44,28,48,44,39,27
32,43,34,43,21,36,30,24,23,22,24,38,24,28,26,22,26,28,27,24,21,26,25,38,20,31,43,30,50,45,39,29
28,40,33,45,18,34,30,26,25,21,25,37,25,27,27,22,26,29,27,25,23,23,23,35,19,28,45,31,52,46,39,28
29,43,37,44,15,33,29,28,25,22,25,37,23,27,29,23,27,28,28,28,24,24,27,36,23,27,45,33,51,45,38,27
34,45,39,44,18,34,31,31,30,20,23,36,26,26,29,24,32,32,29,31,25,27,27,38,25,29,40,34,50,48,40,26
36,47,38,41,21,37,31,32,31,21,25,33,26,25,29,25,31,31,29,31,23,29,27,39,27,30,39,35,49,49,41,28
38,46,37,39,23,35,35,34,32,25,27,32,27,25,27,27,29,31,30,34,26,30,28,40,28,32,39,40,48,51,42,30
43,46,38,39,22,33,35,30,35,24,24,36,25,27,27,31,31,35,28,35,26,28,28,38,26,32,37,40,45,46,41,30
41,45,38,37,21,30,32,28,35,24,24,34,25,28,28,31,35,39,31,32,26,29,27,35,23,31,35,38,44,47,36,27
39,42,35,37,21,27,29,30,32,26,24,34,22,28,28,30,34,36,28,30,26,26,26,32,24,28,37,38,43,46,36,22
36,41,34,35,19,26,27,31,31,26,24,34,22,26,29,30,31,33,28,29,24,25,27,29,25,26,38,38,42,44,34,24
34,37,30,33,22,23,25,30,36,25,25,33,20,27,27,31,31,31,27,29,23,28,25,27,23,27,38,37,41,44,33,24
34,37,32,31,24,21,24,30,35,25,23,31,23,25,25,30,30,30,26,28,21,29,25,28,25,29,39,34,40,45,32,26
35,37,30,32,24,22,23,31,35,25,23,33,25,25,23,29,29,31,25,25,21,29,22,28,25,30,39,34,38,45,33,27
32,37,29,34,22,23,22,30,30,26,24,34,22,26,23,31,29,29,24,24,20,30,24,26,22,30,38,31,36,45,30,30
32,39,33,38,24,22,25,29,33,29,27,37,23,27,27,33,33,29,24,26,20,30,26,24,24,31,38,31,36,46,31,30
32,40,35,39,23,24,25,27,37,27,27,37,23,29,27,33,35,31,23,27,16,29,27,25,23,29,38,28,39,46,29,29
30,39,35,39,23,25,27,29,33,27,27,34,25,26,27,33,35,29,25,28,18,31,28,26,25,30,38,29,42,49,28,30
33,41,32,39,21,26,27,30,32,25,29,35,26,27,27,34,32,26,22,31,22,32,30,30,28,32,44,33,43,48,30,32
33,44,33,40,21,30,30,28,35,23,30,35,27,29,30,38,36,29,25,34,24,33,30,30,28,32,43,32,42,46,28,33
35,45,34,40,24,32,30,26,37,24,32,33,29,29,31,39,37,29,24,35,24,32,30,31,27,33,43,32,44,48,27,34
35,44,37,40,24,33,28,26,33,26,34,33,27,30,32,38,38,30,26,36,26,29,30,32,30,32,44,33,45,49,26,32
37,44,34,39,22,35,30,26,32,26,36,35,25,33,33,41,39,33,27,37,27,31,29,35,30,30,41,33,46,46,25,32
35,43,37,34,24,33,30,23,33,24,36,35,25,35,37,43,41,35,28,38,28,31,32,37,32,28,41,32,48,45,25,34
35,42,37,28,23,30,31,22,36,23,37,34,26,34,37,41,39,35,29,36,30,29,32,38,34,27,42,33,51,43,25,31
30,37,32,26,18,29,26,24,36,21,32,28,26,34,35,40,36,35,31,33,32,29,29,41,31,25,41,32,49,42,21,30
31,36,32,23,18,30,24,25,32,22,30,26,26,32,36,38,34,33,31,31,32,31,27,39,31,25,41,30,47,41,23,31
28,37,31,21,18,31,21,23,32,21,31,25,25,32,35,39,33,32,30,31,29,30,29,41,31,27,41,30,47,38,23,31
25,35,33,20,20,32,21,22,34,23,28,26,24,32,32,38,32,32,30,30,27,28,31,41,28,26,38,27,43,35,22,28
25,35,35,18,22,31,21,26,32,24,27,24,24,30,29,35,29,30,28,27,22,28,33,43,31,28,41,27,45,38,25,30
26,34,36,21,21,30,22,26,30,22,26,23,23,29,27,33,28,29,28,26,22,29,34,43,33,30,44,28,44,38,26,31
30,35,35,21,23,31,23,27,33,21,26,25,24,29,28,35,29,28,29,27,21,32,33,43,31,33,45,29,45,37,29,33
31,36,36,21,24,29,22,27,36,21,24,24,23,26,28,32,28,28,28,26,20,30,35,41,29,33,47,29,44,40,29,32
31,34,36,25,23,30,22,27,33,22,24,21,23,23,25,31,27,27,27,25,17,30,31,39,25,33,50,27,41,41,27,29
31,34,38,27,24,32,22,27,31,22,24,23,23,25,23,31,27,27,27,27,15,29,30,38,26,34,48,28,40,41,28,30
34,36,38,25,25,35,26,27,27,22,26,25,20,23,21,29,26,27,25,26,13,27,31,35,27,33,49,31,44,43,30,28
33,37,38,28,24,28,28,24,26,20,26,24,21,23,21,28,27,30,27,25,13,27,33,38,27,35,49,33,43,43,29,29
38,37,39,31,23,28,30,24,28,22,26,25,21,23,23,26,26,31,27,22,14,26,30,38,26,34,50,34,42,47,30,27
40,38,38,34,21,26,30,24,27,22,29,25,21,23,29,25,25,29,24,21,14,26,27,38,26,33,52,36,46,50,29,31
40,38,36,34,23,25,28,21,26,24,30,26,20,24,30,26,26,30,24,22,17,26,24,34,24,31,52,36,48,49,28,31
40,38,36,34,23,22,28,22,28,26,30,28,20,26,32,26,26,31,25,23,16,25,22,32,22,29,50,35,46,47,29,29
36,39,37,35,22,19,31,21,25,27,28,29,18,25,32,25,25,31,21,19,16,22,22,29,22,26,46,31,45,46,26,27
34,38,38,36,22,17,30,21,24,26,28,28,20,25,30,24,25,29,21,19,15,23,21,29,21,26,44,32,43,47,26,26
32,41,37,37,23,15,29,24,27,25,29,31,22,29,29,25,24,30,22,19,17,24,21,27,21,28,40,33,44,48,29,29
32,42,34,36,21,13,27,23,28,25,27,29,22,27,29,25,22,28,20,18,18,22,20,25,22,27,41,33,42,48,29,29
32,44,38,40,22,9,24,21,31,23,28,31,25,27,31,27,25,28,21,19,19,22,21,27,23,28,41,30,42,49,31,30
34,42,37,40,22,9,23,22,30,23,27,31,25,29,30,28,25,24,19,19,19,21,19,24,24,26,43,30,44,52,30,28
31,40,38,38,26,5,23,23,28,23,27,31,25,29,29,27,25,23,19,19,19,21,19,23,23,23,41,29,43,48,29,30
29,40,36,38,27,3,22,26,29,22,26,30,26,28,25,28,26,24,21,18,18,22,19,20,22,23,40,27,40,47,31,32
32,40,38,39,26,1,24,27,32,18,28,30,26,28,26,28,24,22,22,16,18,22,20,22,22,24,36,28,41,50,30,32
35,43,41,43,26,1,23,27,33,16,27,31,26,29,27,29,25,22,24,16,18,22,22,22,22,24,36,29,41,55,30,32
37,43,39,43,24,1,21,27,31,16,29,30,28,29,25,29,25,24,27,19,16,24,24,25,24,26,36,31,40,57,30,32
38,43,40,45,25,4,23,27,33,18,29,33,29,32,26,32,27,25,29,20,17,25,27,27,26,25,39,30,40,55,31,32
39,40,39,45,27,5,22,25,31,20,27,30,27,26,24,31,27,23,29,20,17,25,26,27,28,24,37,28,41,53,29,29
42,42,41,46,28,4,20,26,29,18,26,34,27,28,26,30,30,27,34,25,17,28,28,32,29,24,39,30,45,53,32,32
42,41,39,42,30,9,20,26,27,19,25,33,26,30,26,30,28,28,34,24,18,28,27,34,27,26,41,31,46,50,32,34
41,46,35,41,31,10,19,26,29,18,26,36,28,27,26,29,27,29,33,25,19,28,28,34,27,27,37,29,45,48,33,35
41,43,31,42,29,11,18,25,29,16,23,35,29,27,23,29,27,31,33,25,19,29,27,31,27,27,39,27,45,45,31,35
43,42,34,40,30,15,18,24,25,16,24,36,30,28,25,30,28,32,34,26,20,31,28,32,30,30,40,29,48,45,32,35
37,38,32,38,30,17,18,24,23,17,21,35,30,28,24,30,30,34,34,28,20,30,26,35,29,30,41,27,43,39,32,34
32,34,26,34,30,18,16,22,21,19,23,33,31,25,25,31,29,33,31,29,24,31,26,34,32,30,44,26,44,39,30,32
30,32,25,32,29,19,16,24,24,16,21,32,31,25,25,29,26,30,30,24,25,29,24,32,32,28,46,26,43,37,30,31
32,32,22,30,31,20,13,25,21,15,23,29,29,23,25,27,24,30,28,23,26,28,23,31,31,29,43,27,41,38,29,30
33,33,23,29,29,21,15,25,23,15,24,31,29,27,27,29,25,29,27,24,26,29,23,31,29,29,43,28,41,42,28,31
31,31,23,30,29,23,17,27,24,16,25,28,30,26,24,28,22,26,26,20,24,27,24,28,30,27,41,26,41,40,27,27
32,31,20,28,28,19,16,26,25,13,24,26,28,24,25,26,20,24,24,20,24,28,24,26,32,26,38,24,42,44,26,24
30,28,18,28,26,18,14,25,23,13,25,25,24,26,23,27,21,25,25,21,25,28,24,28,34,28,39,24,46,46,23,22
32,33,22,29,23,23,16,26,22,13,28,24,24,26,26,28,22,24,24,20,24,26,27,31,35,30,39,28,49,52,26,20
31,33,21,29,22,21,17,25,24,12,27,24,25,24,24,26,20,22,22,20,22,26,26,30,32,28,37,27,47,53,27,16
33,36,23,32,21,23,17,25,23,10,27,23,26,22,23,24,18,20,22,19,21,27,27,31,35,29,38,30,48,56,27,15
36,39,27,32,23,24,20,26,23,10,25,23,27,23,19,23,19,21,23,22,20,27,26,32,34,30,36,32,50,55,31,19
42,41,32,38,24,24,21,25,21,10,24,22,24,22,18,22,19,22,23,23,21,30,26,32,33,32,38,32,56,58,34,21
40,45,33,37,21,22,22,24,24,10,22,24,26,22,20,22,22,20,22,23,19,29,27,35,34,33,41,35,61,59,37,23
44,47,34,38,19,22,22,24,22,12,22,24,27,20,22,20,22,20,22,22,19,29,28,34,32,35,41,35,61,59,36,23
42,49,34,39,18,22,22,22,21,13,22,23,25,19,23,21,23,21,22,22,21,29,27,33,28,35,40,34,59,59,34,26
39,48,34,40,18,24,22,23,19,14,22,24,26,20,21,22,24,22,22,21,20,28,28,34,29,32,45,36,57,59,35,28
40,49,40,41,19,27,24,23,22,16,20,23,26,18,22,21,23,19,19,18,18,25,27,31,25,31,45,37,53,58,40,33
41,44,38,38,25,25,22,24,25,17,19,25,26,19,21,21,23,19,23,17,17,25,25,32,27,31,48,37,50,56,38,35
44,43,40,36,25,26,22,25,23,18,18,24,27,19,21,20,22,18,22,16,19,23,27,32,29,31,48,36,50,56,36,37
45,44,41,38,28,25,24,27,22,21,20,26,28,20,22,26,26,21,22,16,19,25,29,30,26,29,46,35,51,58,36,37
43,42,40,39,26,27,24,28,22,20,20,26,28,20,22,27,27,25,25,15,18,25,31,31,23,27,43,35,48,56,35,35
40,40,36,34,26,30,26,28,22,22,22,26,30,20,24,30,28,25,27,18,19,23,31,31,23,25,41,33,43,56,31,33
42,36,39,37,25,32,26,28,18,22,22,24,28,20,22,30,26,26,28,18,22,22,30,28,21,25,39,32,39,53,30,34
41,36,38,37,26,32,29,29,19,20,24,21,27,22,20,30,24,26,28,18,22,22,29,30,23,24,42,31,42,53,31,33
42,38,41,38,28,33,32,29,20,20,26,22,28,22,20,28,24,24,28,19,22,20,28,30,25,26,43,31,46,54,32,31
44,38,43,40,30,33,33,30,20,21,26,22,28,22,20,28,24,24,30,21,23,24,29,32,24,31,41,33,46,52,30,31
45,36,43,38,29,32,33,32,21,22,29,21,29,21,20,27,23,26,32,25,27,28,30,32,26,30,40,37,44,55,28,31
43,39,43,41,28,30,35,30,19,23,29,21,28,21,23,29,25,25,30,29,31,29,30,31,24,32,38,36,46,54,31,32
39,41,41,43,27,29,37,28,22,24,29,20,27,20,25,31,25,25,31,31,32,30,30,35,25,32,38,36,48,54,29,30
42,42,40,38,24,30,37,28,23,25,29,20,23,22,25,26,21,25,31,33,33,29,29,34,28,33,38,36,47,54,31,31
44,42,38,38,26,28,35,29,22,25,31,21,23,23,24,26,20,20,28,30,32,29,27,34,30,32,42,36,47,54,30,31
42,43,38,38,26,26,32,28,24,26,32,26,22,27,22,25,21,21,27,29,31,29,27,35,31,35,42,37,47,53,30,31
42,43,38,36,27,26,32,29,27,27,32,27,23,29,23,25,21,23,27,29,30,29,29,37,32,35,43,37,48,53,31,31
38,40,36,34,30,26,30,28,26,27,33,28,24,29,25,27,23,23,29,31,31,29,29,37,35,37,42,39,45,51,30,29
38,40,35,32,32,29,29,29,25,29,33,27,23,31,25,27,25,25,29,33,33,29,29,39,35,37,43,41,41,53,29,29
40,40,35,30,30,30,30,28,24,30,35,26,24,31,24,27,25,25,27,30,33,25,29,38,36,36,42,38,40,53,30,28
39,39,32,30,34,30,30,26,22,30,35,27,24,31,26,27,25,24,26,28,28,22,26,40,36,35,42,34,42,49,33,26
41,37,33,29,31,31,29,27,22,31,35,26,24,29,21,23,22,26,28,26,26,22,28,39,38,36,46,35,41,49,34,26
42,37,32,30,32,32,28,28,21,32,34,27,24,29,21,22,24,28,28,26,26,22,28,36,38,38,44,36,37,49,34,27
40,39,30,33,35,32,26,27,22,30,32,25,24,27,20,21,24,25,26,23,24,19,25,36,36,35,45,36,37,49,34,27
40,38,32,32,35,32,28,26,25,32,30,24,23,26,24,22,26,28,27,25,23,20,26,33,33,35,44,36,40,50,36,30
43,40,34,32,34,34,28,26,24,30,29,22,26,24,25,22,26,28,26,24,22,20,26,34,32,34,43,38,42,50,35,30
42,39,29,32,37,32,28,27,21,31,30,21,25,23,27,21,25,25,26,23,20,20,24,32,33,35,43,38,44,50,35,29
46,43,31,33,35,35,29,28,23,32,28,21,25,21,25,21,25,25,23,21,19,19,24,30,32,35,43,35,45,51,35,32
48,40,32,33,37,31,27,27,23,31,27,21,25,19,25,21,23,23,21,19,17,19,23,27,29,35,44,35,46,50,39,35
48,42,32,36,36,31,25,27,23,28,25,22,26,20,26,22,23,23,21,21,17,19,21,26,30,36,44,36,48,52,40,37
51,44,33,37,32,35,25,27,25,27,25,22,24,22,25,24,24,24,22,24,19,20,21,25,31,38,45,40,50,55,36,36
47,48,34,38,32,34,26,27,26,25,25,24,24,25,29,27,26,23,21,23,19,19,19,26,32,35,44,36,50,57,33,33
45,47,34,35,31,34,26,28,26,22,24,24,21,26,27,25,24,24,20,22,18,18,18,27,30,35,45,36,52,55,35,33
43,44,33,33,28,32,25,28,26,21,25,25,24,27,29,27,25,23,21,23,19,22,20,27,31,36,44,33,51,53,32,34
43,45,33,31,25,33,26,28,27,22,27,27,23,29,27,27,23,21,20,22,20,21,18,28,32,36,44,33,47,51,30,31
41,47,31,31,25,32,26,30,25,22,27,27,19,30,25,27,23,19,19,21,19,20,18,27,32,36,44,29,46,51,32,32
40,47,32,29,23,31,25,28,26,19,26,26,18,30,21,29,26,22,20,24,20,20,17,30,31,33,47,29,47,51,31,31
39,43,31,29,23,29,25,27,22,20,24,27,19,31,23,31,27,23,21,25,21,21,18,31,30,32,48,31,48,51,30,31
37,43,31,31,20,29,24,28,22,20,27,28,18,32,23,32,28,24,21,27,22,22,20,32,32,30,50,31,47,53,27,28
36,44,30,26,18,26,24,28,24,25,28,30,21,33,23,34,28,26,20,26,24,24,20,30,28,28,49,30,47,50,26,29
34,44,31,27,22,22,23,31,23,25,26,30,21,30,22,32,28,26,21,25,25,25,22,30,28,26,50,27,46,50,28,29
34,45,29,27,20,22,23,31,20,26,24,30,20,28,20,30,28,25,19,24,25,27,23,28,26,29,49,31,48,48,28,32
36,45,32,29,19,21,21,27,23,27,25,31,23,29,20,33,31,24,18,26,24,28,22,28,27,30,49,32,47,49,29,29
37,47,37,31,19,25,23,29,23,28,25,31,22,28,18,35,30,28,17,26,24,26,23,27,25,30,49,31,49,51,31,25
36,44,34,32,22,24,22,30,21,24,25,29,23,27,19,33,31,27,19,26,24,27,24,28,24,30,48,28,50,50,32,23
35,44,34,31,22,23,21,28,22,23,24,28,24,26,20,32,29,28,20,27,25,29,24,29,25,28,48,29,48,49,30,21
36,43,36,33,20,24,22,31,22,27,25,27,27,23,22,30,27,25,19,25,25,29,25,27,23,29,44,29,46,53,28,22
36,48,38,34,19,26,20,32,24,27,28,26,26,21,20,26,24,24,18,24,24,28,24,26,23,30,43,29,45,53,29,22
37,48,38,34,18,28,20,32,26,26,24,24,28,20,19,24,25,25,18,23,23,28,23,27,21,32,38,26,44,49,28,22
36,43,39,38,20,31,21,31,25,23,23,24,27,21,21,24,26,26,20,26,23,28,24,31,22,32,42,26,44,52,28,20
38,44,37,35,20,33,21,27,25,23,25,24,27,22,22,24,26,26,20,24,21,27,23,30,20,32,41,27,44,50,28,21
37,41,41,31,22,32,21,28,26,20,28,24,28,22,22,24,24,26,20,25,21,26,25,32,20,30,43,28,43,51,28,21
37,42,43,33,23,33,23,31,23,23,29,23,28,21,23,23,23,25,21,23,19,24,27,35,20,28,44,29,43,53,28,21
40,42,42,35,23,35,22,29,23,23,28,22,25,21,23,20,23,25,24,25,17,24,26,36,20,26,44,30,42,51,25,23
41,46,44,33,22,34,20,25,23,23,25,21,25,19,21,19,21,27,21,24,16,23,24,36,20,26,46,34,44,54,27,25
43,46,47,38,23,35,20,26,23,24,26,21,25,19,21,19,22,28,24,24,17,21,25,35,19,25,47,35,49,54,31,24
45,50,50,36,23,36,19,24,22,21,24,22,21,20,22,20,21,27,23,23,17,21,27,37,17,27,46,33,49,54,34,24
43,48,48,34,25,34,22,23,24,19,24,24,26,23,24,21,23,28,23,25,19,22,27,37,16,27,46,32,51,56,34,23
41,47,45,33,26,33,21,21,25,19,23,24,24,24,24,24,20,24,22,24,18,25,30,38,18,27,48,34,54,55,35,22
42,49,43,32,26,29,19,21,24,20,24,22,24,22,22,22,20,20,22,20,15,23,29,35,18,30,46,34,54,54,38,22
39,47,43,33,21,27,19,23,25,20,21,21,25,21,23,23,21,21,23,19,12,23,29,34,16,30,43,29,53,51,37,21
40,46,39,34,19,26,17,21,26,22,20,18,24,22,24,22,20,20,22,18,12,22,26,31,15,32,38,27,55,49,36,20
42,46,34,32,18,27,15,19,26,20,20,18,23,24,24,22,20,20,22,18,14,23,24,28,14,34,39,24,52,47,34,20
38,47,32,32,18,24,16,20,28,19,19,17,27,24,24,22,20,18,20,16,16,23,27,25,16,36,41,24,52,48,36,20
36,44,31,31,20,22,16,22,28,20,20,20,29,26,24,25,21,17,23,18,17,23,27,26,17,39,43,22,50,47,36,19
36,43,30,28,19,22,17,22,29,19,21,19,31,27,25,25,21,17,21,19,16,24,26,26,20,40,40,22,48,48,32,20
32,39,27,28,19,21,18,22,31,19,21,20,31,27,23,24,24,18,22,20,16,24,24,26,20,40,40,24,48,45,32,21
32,40,26,28,19,20,16,21,30,18,20,18,27,27,22,22,22,17,22,18,15,25,25,27,20,41,43,24,46,43,33,21
31,42,26,28,18,20,18,24,31,19,21,21,27,28,24,21,24,20,24,20,18,23,24,26,22,40,41,23,45,43,32,23
30,41,25,29,18,25,22,23,30,21,21,20,26,28,24,20,22,20,25,21,22,25,28,28,23,36,41,25,42,41,29,22
30,39,24,28,19,29,23,22,30,22,22,20,25,28,22,18,20,18,24,20,24,26,30,28,26,36,42,26,43,44,27,23
30,41,27,29,22,32,23,23,29,23,23,21,27,29,23,21,23,21,27,23,27,28,33,31,27,35,46,27,43,45,29,23
28,43,30,29,23,31,24,26,30,24,25,23,29,29,22,20,22,22,26,26,28,28,34,33,27,34,47,29,45,45,30,23
29,40,27,30,22,32,24,26,28,25,25,25,25,30,22,20,22,22,26,26,30,28,34,35,25,36,42,29,49,45,28,26
31,40,29,33,23,32,24,28,30,24,24,22,21,28,22,17,23,23,23,24,29,27,33,34,25,33,40,28,50,43,26,28
32,40,28,34,22,30,22,28,31,25,22,23,19,27,20,17,23,23,25,25,31,29,34,32,24,34,42,30,50,44,26,30
32,41,27,35,21,31,24,29,32,24,22,22,20,27,21,19,21,23,25,25,31,31,35,33,27,31,43,29,50,42,23,29
33,42,27,36,20,32,25,29,31,25,22,22,22,24,22,19,21,23,25,24,30,30,35,33,27,29,38,31,51,40,22,28
35,40,28,36,23,30,25,28,29,24,23,19,21,22,21,19,19,22,27,25,29,29,32,35,26,27,38,31,51,41,25,25
33,41,31,32,20,27,25,30,32,20,25,20,22,24,22,22,21,23,26,27,30,28,28,40,27,27,41,29,55,43,25,29
36,46,31,32,18,27,24,29,35,19,24,22,21,26,25,21,23,28,28,28,30,28,26,44,24,28,44,30,57,44,25,29
34,48,29,31,16,25,25,28,35,22,23,23,17,27,23,21,21,25,25,25,29,26,25,43,25,28,42,28,56,44,23,28
35,43,27,29,14,25,25,26,32,22,21,21,15,25,24,22,22,24,26,22,28,28,24,42,25,26,40,27,55,45,23,28
35,49,29,28,16,22,24,26,37,20,22,22,19,26,26,22,22,24,26,22,25,30,25,44,27,24,45,29,52,45,23,26
33,47,33,25,16,24,26,26,35,20,22,22,21,26,26,23,21,23,27,23,26,31,26,46,25,26,43,29,50,47,23,25
32,47,31,25,15,25,29,25,36,20,23,22,22,28,27,23,20,25,24,20,25,29,28,48,25,30,45,28,50,44,26,22
34,51,31,27,15,25,28,25,36,22,23,23,22,29,26,22,20,24,24,20,25,27,27,45,25,31,47,28,51,45,29,25
32,50,35,29,16,29,25,25,39,23,23,23,22,29,25,22,20,24,24,21,25,28,28,43,24,34,50,26,49,46,28,28
34,49,37,28,15,34,23,24,37,25,25,25,23,30,25,24,21,24,22,19,25,28,29,40,21,32,52,26,47,46,24,30
36,50,35,28,17,36,22,25,36,28,22,28,21,32,24,22,21,24,22,18,22,28,30,38,20,34,50,28,44,44,28,28
35,49,39,31,19,36,24,28,35,28,24,28,26,32,22,27,23,20,20,20,24,28,32,36,22,33,48,29,44,41,28,28
34,44,40,35,20,38,23,28,35,24,24,29,29,31,22,24,22,21,23,23,23,29,33,35,25,35,49,27,44,39,31,28
35,45,41,38,22,41,23,28,38,23,24,30,30,32,22,26,24,22,24,25,24,28,37,37,25,37,52,29,45,42,31,30
35,42,41,37,21,40,23,27,35,25,25,29,27,31,21,27,25,23,25,25,26,27,37,33,23,37,51,31,47,43,32,29
36,40,35,37,21,39,21,25,33,26,28,30,27,32,22,27,27,23,25,27,25,27,35,33,24,35,51,32,46,41,31,30
36,40,36,37,21,39,19,28,29,27,27,29,25,29,21,27,27,20,25,29,24,26,33,35,25,32,50,33,45,43,31,30
36,34,34,34,22,38,20,26,28,27,27,29,26,29,21,27,27,21,25,29,24,26,32,34,24,34,48,31,41,43,28,29
36,33,31,33,20,35,21,28,27,26,27,29,23,29,21,27,27,21,25,29,25,25,31,37,27,32,47,33,43,44,28,28
33,33,31,34,22,30,23,31,29,26,26,28,25,28,20,26,27,21,24,29,24,24,30,36,28,35,48,33,42,45,33,28
33,33,31,35,22,28,23,29,28,23,26,27,25,25,20,25,26,20,22,28,23,24,28,32,28,33,46,32,41,46,29,30
33,30,28,33,24,27,21,27,29,23,28,26,21,24,21,21,22,20,22,26,21,22,26,28,27,35,46,29,39,46,31,31
35,31,28,29,25,25,21,29,30,22,26,26,19,23,23,23,26,21,23,25,21,22,24,30,23,32,45,31,36,48,29,31
34,32,26,28,25,22,20,28,31,25,25,27,18,23,25,23,25,21,23,24,21,24,22,28,24,32,43,31,35,46,30,28
34,36,24,29,27,25,23,28,30,24,26,28,19,24,26,24,26,21,24,26,20,24,22,31,26,33,43,29,32,47,31,29
36,42,27,31,27,29,23,31,29,25,24,28,21,24,26,24,24,22,24,24,21,24,23,30,27,35,43,28,34,48,31,31
36,44,32,34,28,29,23,28,28,23,26,29,21,25,28,26,26,23,27,22,22,26,26,29,28,36,44,28,36,47,30,32
38,48,35,36,31,29,22,29,25,25,29,31,22,27,31,29,29,23,27,23,24,29,27,33,29,35,44,31,40,49,31,33
39,47,33,37,34,30,24,28,22,25,32,32,25,30,32,30,30,22,28,24,24,30,28,33,31,37,46,33,40,49,33,29
38,49,33,39,31,31,25,26,22,23,30,32,25,30,32,30,30,22,28,25,25,35,31,33,32,37,44,33,40,53,27,26
38,49,33,42,31,31,24,28,25,20,32,30,26,30,30,30,29,22,29,30,24,34,33,32,33,36,46,36,41,55,27,24
37,51,36,43,29,31,24,30,23,22,31,31,32,29,29,33,32,23,29,29,25,35,33,35,33,35,48,38,44,54,28,24
38,52,36,48,30,32,26,29,18,21,32,29,33,29,30,32,30,23,30,29,23,39,34,36,34,36,48,42,46,57,28,26
38,51,36,47,31,34,26,32,16,18,32,28,35,28,30,32,30,22,30,28,24,38,34,36,34,36,47,39,47,57,27,29
39,49,37,47,31,31,23,35,16,19,29,27,35,27,27,31,29,22,28,27,27,39,34,35,34,36,46,40,47,56,26,26
36,45,37,43,31,25,23,33,17,18,29,27,34,27,27,31,33,25,29,29,27,40,35,35,35,34,51,40,47,57,26,26
36,43,31,36,32,26,25,34,23,20,28,29,34,28,26,31,33,24,26,29,25,41,35,33,32,34,48,40,46,57,28,26
33,41,28,33,30,26,24,32,25,16,24,32,36,28,22,30,32,26,28,30,22,40,32,28,30,32,48,36,45,56,27,25
31,41,29,32,29,24,23,33,26,17,25,33,36,25,21,31,33,27,27,29,23,38,33,27,27,29,47,33,47,57,25,28
35,41,29,27,29,24,22,34,26,20,26,35,35,26,23,32,32,26,26,27,21,33,29,25,25,30,48,34,48,54,30,30
37,43,32,28,33,26,22,34,24,21,26,36,35,28,28,34,35,29,29,24,21,33,30,30,25,34,48,38,50,55,34,29
41,45,31,26,38,25,22,31,22,21,27,34,29,29,27,31,33,27,27,23,21,32,29,27,27,35,46,38,47,58,32,29
42,45,30,23,35,27,21,31,26,24,26,33,30,29,24,31,32,26,24,22,22,30,28,26,26,33,47,35,48,57,35,28
44,46,31,24,36,27,21,29,28,26,28,32,28,30,24,30,30,26,22,22,20,28,26,24,24,33,48,37,51,60,36,25
43,46,33,24,38,30,25,27,28,25,29,31,30,29,26,30,30,25,23,22,16,27,25,23,23,33,50,36,52,60,37,27
46,47,33,27,39,37,25,25,28,29,29,31,30,28,26,30,26,22,22,20,16,25,24,24,22,33,48,36,52,57,37,27
44,47,34,28,36,35,22,24,26,27,28,29,33,27,26,27,23,21,23,22,18,23,21,23,23,29,47,33,51,56,35,25
48,51,36,32,35,36,25,27,26,30,29,23,31,25,27,27,23,19,23,19,23,23,23,25,27,32,47,35,52,53,36,24
48,52,36,32,33,36,26,26,26,28,24,20,30,24,26,24,20,18,23,20,21,24,21,25,27,35,48,35,52,51,37,24
45,50,34,34,36,35,25,25,26,29,23,19,28,23,24,23,21,20,26,24,22,24,22,26,28,33,44,33,48,50,34,24
43,47,31,31,34,34,24,22,28,29,22,16,27,20,22,22,18,18,25,26,22,23,20,21,26,28,40,26,43,49,29,23
38,46,30,32,29,36,25,23,29,28,21,16,28,20,23,23,19,19,27,27,23,23,20,23,25,26,39,25,43,47,26,22
36,43,30,31,28,31,23,23,26,26,20,16,26,18,22,22,19,18,26,25,22,22,20,21,23,26,36,24,42,43,24,22
34,42,28,32,24,30,26,24,26,25,20,18,26,18,22,22,21,20,26,27,22,22,22,22,23,24,38,24,41,42,22,25
35,41,28,32,20,32,24,23,26,24,22,18,24,18,21,21,19,20,25,25,23,21,21,21,24,23,37,21,39,41,25,25
36,40,29,33,22,29,26,25,28,20,22,18,25,19,21,21,19,19,25,25,25,21,22,21,26,24,39,22,40,42,28,24
36,41,31,35,23,31,27,26,27,21,23,19,23,19,21,23,21,21,25,24,27,22,24,26,25,26,40,24,43,44,28,27
34,42,30,36,26,30,25,25,28,20,23,19,24,20,21,21,19,21,24,25,23,22,24,27,23,24,42,23,43,43,28,29
33,41,33,39,24,34,27,28,28,23,27,23,26,21,25,25,23,25,24,27,26,22,24,30,22,20,41,24,44,42,26,30
34,39,35,38,20,34,28,28,27,19,26,22,26,19,25,25,23,24,23,24,26,22,24,30,22,20,44,24,48,42,26,30
32,40,37,35,20,32,28,28,26,22,24,22,29,20,26,26,25,25,20,21,26,22,24,30,22,20,45,24,55,37,27,30
32,39,35,35,21,31,28,28,27,22,26,23,29,21,27,27,25,25,19,23,25,22,24,31,23,22,45,25,55,38,30,30
34,40,36,37,24,30,28,29,30,26,30,26,30,21,28,30,27,26,20,25,26,22,24,33,27,22,47,28,55,40,32,28
37,42,39,35,27,31,27,28,28,26,29,25,30,21,27,28,25,24,20,23,25,22,26,32,28,24,45,27,58,40,32,26
35,42,36,34,28,28,27,29,28,24,28,26,28,22,28,28,26,24,20,24,26,22,25,34,27,23,45,28,57,39,27,26
31,40,32,32,26,24,25,27,26,26,28,26,26,22,30,28,25,23,20,23,23,21,24,31,24,24,39,24,56,40,28,24
32,38,30,34,25,27,24,26,26,26,28,26,25,22,31,28,27,23,19,23,21,20,25,27,24,25,39,24,56,40,27,23
30,32,30,30,22,26,24,26,26,26,28,26,22,21,30,30,29,25,21,23,23,20,24,27,25,26,37,24,54,42,28,20
30,33,27,27,24,22,21,22,28,22,26,24,20,22,28,28,26,22,20,20,20,20,24,26,24,29,38,23,50,43,30,21
28,33,27,27,26,21,20,23,28,22,30,26,20,24,28,26,24,22,18,18,20,18,25,30,24,31,38,24,49,41,29,21
29,31,25,30,25,25,21,27,25,19,31,25,19,25,27,25,24,22,21,20,22,19,27,31,25,33,39,25,44,44,29,25
31,29,23,33,21,27,21,27,25,21,29,24,21,24,26,25,25,23,21,20,25,19,27,30,22,31,40,23,47,45,27,29
33,29,24,31,18,29,22,26,24,18,26,22,22,24,26,26,24,24,22,19,25,19,27,34,20,32,41,21,47,47,25,30
29,32,25,32,19,29,21,27,28,19,26,24,23,24,24,29,27,25,25,21,28,19,24,37,18,30,41,20,44,46,28,28
30,29,28,32,18,28,20,25,32,21,26,24,25,24,22,28,26,28,26,22,28,21,25,34,19,31,41,19,44,47,28,26
32,32,30,31,17,32,20,25,32,19,26,24,25,24,20,28,27,28,27,23,29,22,24,34,18,30,45,20,46,46,24,27
30,31,32,29,16,32,22,27,30,20,26,24,25,24,21,28,25,31,25,21,29,25,24,34,18,31,44,20,45,48,25,25
34,35,32,31,17,32,24,26,29,18,26,26,27,26,20,26,23,29,25,21,31,25,23,34,15,30,45,18,43,50,23,27
35,36,31,31,16,33,23,27,26,20,26,26,26,24,20,26,25,28,27,21,31,29,25,34,17,30,47,20,47,52,26,22
36,39,28,34,15,34,23,25,29,22,24,29,27,27,20,30,27,28,28,22,31,31,23,29,16,29,43,18,48,54,25,21
40,42,30,34,16,32,22,22,32,24,26,32,26,28,20,30,28,28,30,23,30,31,24,31,18,28,44,19,50,57,30,18
39,43,34,31,18,33,23,22,32,22,27,33,26,29,23,32,30,28,30,24,26,30,24,29,19,30,45,22,49,55,31,16
37,46,36,32,22,31,24,22,34,22,28,34,25,32,25,33,31,29,31,26,28,30,24,28,21,30,46,25,49,53,34,16
39,44,36,33,18,30,25,23,29,20,30,33,22,34,28,32,30,28,28,24,26,30,24,25,24,32,50,27,49,53,32,18
43,48,38,34,18,32,24,22,25,20,27,31,22,33,29,35,33,27,29,25,27,30,25,27,25,31,49,29,52,51,32,22
41,48,39,38,17,29,25,22,26,21,28,32,23,34,30,35,35,29,30,26,29,31,27,29,25,31,47,29,49,51,31,21
41,50,37,41,21,26,23,22,29,21,29,33,27,37,30,35,35,27,33,28,28,29,27,29,26,30,49,32,51,48,33,22
40,49,40,41,21,26,20,22,30,22,30,32,26,36,32,36,36,28,32,28,24,26,26,28,30,32,48,36,52,48,35,23
39,46,44,41,22,29,23,22,32,22,30,33,28,36,32,34,35,31,30,31,23,23,24,26,32,32,47,34,53,47,34,25
40,46,45,40,21,32,26,24,27,22,30,33,27,34,32,32,36,32,32,32,24,23,29,28,34,32,51,36,54,47,36,30
38,46,47,40,20,34,30,24,29,22,28,34,31,32,32,32,38,34,31,31,24,25,27,28,32,32,53,35,51,44,34,30
38,49,46,42,20,32,32,25,30,22,30,36,29,34,31,31,37,35,31,31,28,27,29,30,34,32,54,34,50,46,32,29
37,46,41,42,18,33,31,25,28,23,31,37,31,33,33,30,36,37,31,30,29,29,31,30,34,33,51,33,47,47,30,31
37,44,40,36,19,30,31,23,30,26,28,39,32,33,31,28,34,36,30,30,28,30,30,31,37,32,49,33,48,49,31,31
34,42,37,37,20,28,31,27,28,24,31,38,32,32,30,28,34,36,28,28,26,28,30,30,36,34,50,32,46,50,31,28
36,43,35,36,20,29,31,29,27,27,31,39,31,33,31,29,33,35,27,27,24,27,29,29,37,35,51,34,48,52,36,32
40,40,38,33,15,32,32,27,25,26,30,37,27,29,29,27,31,33,26,28,24,27,30,30,35,33,53,31,47,54,36,33
38,40,34,34,15,34,32,30,25,26,30,36,27,30,30,28,32,33,25,28,24,27,31,32,31,31,56,30,50,53,33,33
42,40,33,35,18,33,30,29,26,29,31,36,27,33,32,32,34,33,25,29,26,27,33,33,31,32,56,32,47,54,31,33
43,38,36,34,21,32,27,27,28,30,32,34,27,34,34,34,33,33,23,27,27,25,29,33,31,31,56,33,47,53,34,31
44,37,32,35,24,28,22,28,26,30,32,32,24,32,32,32,28,30,22,26,26,24,28,34,29,29,52,33,49,53,37,36
47,34,31,37,25,26,20,28,25,30,30,29,22,29,31,32,26,28,22,26,23,21,25,31,29,29,49,30,48,51,37,37
47,33,31,37,25,29,21,29,25,31,28,26,21,28,28,30,26,26,22,24,19,21,25,29,28,29,47,28,49,48,37,37
46,32,30,41,26,32,18,33,24,28,28,22,26,26,28,30,28,26,24,24,20,20,28,28,28,30,46,28,49,46,35,39
44,36,31,39,26,33,21,30,26,30,27,24,28,26,28,29,27,26,23,23,23,19,28,30,28,30,47,26,50,46,37,42
41,37,29,40,30,33,19,27,27,27,27,23,27,24,27,28,27,28,23,23,25,17,28,30,30,30,45,27,52,44,36,42
36,41,29,43,34,31,19,28,29,27,27,24,28,26,28,28,28,28,24,22,24,17,26,28,31,30,39,28,48,43,35,41
38,40,30,42,36,33,23,29,29,29,28,26,29,26,27,28,28,29,25,24,26,19,27,28,33,32,34,28,44,44,38,43
35,43,29,44,31,31,22,32,29,29,25,24,28,24,23,25,25,27,25,21,25,19,28,28,31,29,32,25,43,43,40,41
29,42,28,44,31,32,23,32,32,28,22,24,27,24,20,22,25,25,25,21,25,19,27,27,29,27,29,21,41,45,39,41
29,39,31,44,27,34,26,29,31,28,22,24,28,26,23,24,26,26,26,21,26,22,28,27,34,32,30,23,42,43,36,39
26,40,32,42,27,36,26,31,30,30,22,24,28,26,25,23,27,25,23,22,26,23,30,30,34,35,33,27,44,43,37,35
31,44,37,43,27,35,25,31,30,30,24,26,29,27,27,23,27,25,23,23,27,23,29,30,31,31,37,29,45,45,38,35
30,45,36,40,29,33,25,26,31,29,23,27,25,26,26,24,24,24,22,26,28,25,28,32,28,29,38,28,43,45,41,35
30,42,36,41,29,37,23,26,32,29,24,28,24,28,26,23,23,23,23,27,25,27,26,30,26,28,34,30,42,46,38,34
33,39,34,39,28,34,22,30,32,30,23,26,24,27,25,23,22,19,24,28,25,28,27,33,27,28,35,30,42,47,37,31
36,36,30,34,27,30,20,26,33,30,22,26,24,26,26,26,24,22,24,28,26,28,28,34,30,29,38,32,48,48,38,32
36,36,32,34,27,28,17,23,34,29,20,24,22,24,26,26,24,20,24,28,24,28,28,36,30,29,40,32,48,48,37,27
35,33,31,32,29,27,18,20,33,25,24,26,23,26,28,26,24,20,24,28,25,27,28,38,32,29,42,36,50,49,36,28
36,36,30,30,26,24,16,24,32,26,26,28,26,30,29,29,25,23,27,31,25,29,29,39,33,33,45,39,51,48,33,27
35,40,28,28,26,23,15,26,33,27,27,28,25,30,31,31,29,23,27,35,25,27,29,39,33,31,48,39,50,51,32,25
37,39,27,27,26,23,15,25,33,26,27,30,27,33,26,31,29,22,29,32,27,29,31,39,32,30,44,38,50,52,30,27
35,37,23,26,27,20,14,22,33,27,28,31,27,32,27,33,31,21,31,33,29,29,33,41,33,32,44,36,51,55,29,29
38,35,21,30,26,19,18,23,33,30,30,31,27,34,29,32,32,22,30,30,28,27,32,38,32,35,46,35,52,56,28,29
39,34,18,30,25,14,18,23,32,30,29,30,26,34,28,34,30,23,31,33,27,27,33,39,33,35,49,37,49,55,29,29
38,32,22,31,24,18,20,22,30,29,32,32,26,38,27,38,32,26,32,30,26,29,33,36,30,35,51,35,49,55,31,30
38,34,26,34,26,22,22,23,29,27,32,32,28,39,23,38,30,26,32,30,26,28,34,36,28,36,50,32,46,59,32,31
39,34,26,32,24,20,22,24,29,30,32,32,30,39,27,37,29,27,31,27,30,30,35,33,25,36,51,33,47,58,33,32
42,36,28,34,26,19,23,22,29,30,28,28,28,36,24,36,28,26,30,26,32,31,37,34,23,36,49,32,45,57,34,32
47,35,29,33,28,19,25,17,29,27,28,26,25,32,24,34,28,24,28,24,30,34,38,32,24,34,48,30,45,59,36,34
50,33,27,33,31,17,23,17,27,25,25,24,25,30,21,31,23,23,27,21,29,33,37,30,21,36,47,28,45,60,39,36
49,36,29,33,29,16,22,14,27,24,26,20,21,28,20,30,22,26,26,20,28,32,37,31,19,33,51,27,46,58,41,38
47,36,34,36,30,16,23,15,28,22,24,18,17,26,18,29,21,25,23,19,25,31,33,27,20,33,51,29,46,56,42,35
47,39,39,36,30,20,20,15,26,22,22,19,17,25,16,29,21,25,24,20,26,32,36,30,20,32,50,33,47,56,40,32
48,41,45,35,30,23,23,15,25,23,23,22,18,26,19,29,25,24,24,18,28,32,36,30,20,32,49,33,50,58,41,34
46,45,46,37,29,23,25,17,25,26,21,21,17,23,20,25,23,21,21,18,27,31,37,31,21,31,48,34,52,56,40,34
47,48,45,35,29,19,24,18,26,28,21,20,15,22,22,24,24,19,21,17,27,31,35,33,21,29,49,35,51,54,37,33
45,50,44,34,30,19,21,17,24,27,21,19,14,22,18,22,22,18,20,18,24,28,32,32,22,28,47,35,50,52,38,34
45,51,43,33,27,21,23,19,23,29,23,21,15,25,19,25,23,19,21,19,21,28,30,31,23,27,51,35,53,52,38,35
43,51,44,37,32,22,20,22,20,30,22,20,16,24,19,25,23,18,20,18,20,25,28,30,20,29,52,37,52,49,39,35
41,54,49,38,30,26,24,21,23,30,22,20,18,28,18,27,22,18,22,18,22,27,31,33,21,26,50,39,50,47,36,33
39,51,48,39,30,27,24,25,24,32,22,24,22,30,20,28,24,20,24,20,24,27,31,29,23,28,49,41,48,48,34,32
40,50,49,36,30,26,26,24,22,35,24,26,25,32,24,27,23,21,25,21,25,27,33,31,24,30,46,40,48,46,32,35
40,51,47,38,32,24,27,26,23,32,25,26,27,32,23,29,23,21,24,22,24,26,32,29,26,28,44,37,47,49,34,36
38,50,44,37,34,22,24,27,25,30,26,24,26,31,23,29,23,21,23,23,23,25,31,27,26,27,46,34,44,47,34,34
40,48,44,33,34,21,22,24,28,25,28,24,29,32,26,29,23,21,23,22,23,25,31,27,22,27,46,34,41,48,33,33
41,46,44,32,34,26,24,24,26,24,28,26,29,32,26,30,23,21,23,23,23,25,31,25,20,29,45,33,40,48,33,33
42,44,46,37,32,33,27,25,26,22,28,26,30,32,26,30,24,22,23,25,25,25,33,27,19,31,50,32,40,48,30,35
41,44,48,36,34,34,27,28,28,22,29,28,31,32,28,30,26,24,24,28,26,25,35,26,22,30,49,34,39,48,29,35
41,45,47,32,30,33,30,30,28,24,30,28,30,32,27,30,26,24,24,32,29,24,38,30,22,31,49,35,40,49,26,33
41,48,44,35,28,34,30,33,25,22,30,30,28,28,30,29,28,26,22,32,28,23,35,29,23,30,48,34,42,50,28,34
43,50,40,37,30,32,29,34,26,20,27,28,30,26,29,28,25,24,20,31,26,26,34,30,20,29,48,30,44,52,29,31
39,49,39,39,29,37,28,34,27,19,26,27,28,23,27,27,27,23,18,31,25,26,35,29,21,29,51,29,41,54,29,31
39,47,37,37,25,37,27,32,27,23,28,25,26,23,28,28,31,27,19,31,24,29,33,33,21,31,51,31,42,52,29,31
42,48,38,38,23,42,30,33,29,26,28,24,28,24,26,28,30,28,20,32,24,30,35,34,23,33,51,32,43,53,29,33
41,51,37,40,26,42,32,38,26,28,26,24,27,22,24,31,31,29,21,33,27,31,35,37,28,34,51,31,43,53,31,32
38,51,35,43,26,41,33,39,29,29,25,24,27,22,24,30,31,29,21,32,27,31,38,38,31,36,52,32,44,53,32,32
36,48,32,40,28,36,32,42,28,31,26,24,26,22,24,30,30,28,21,30,24,31,38,39,32,36,48,30,45,52,32,30
35,46,31,41,27,33,30,41,26,28,26,22,24,20,24,27,27,25,20,27,25,29,35,39,31,39,49,27,45,52,33,27
32,46,29,41,26,32,28,37,27,29,25,23,25,21,27,29,28,27,21,24,23,30,32,39,32,39,51,27,42,52,32,28
32,44,29,38,32,30,28,35,28,33,26,22,26,22,26,28,26,26,22,24,22,28,32,36,31,39,52,27,44,53,32,27
32,43,34,37,31,35,31,30,27,33,28,21,21,23,28,30,26,25,21,24,23,25,31,39,31,38,48,29,42,50,30,30
35,43,33,37,31,35,29,33,26,31,28,20,22,24,26,31,25,25,24,25,23,26,33,41,29,39,45,31,43,49,31,30
34,43,35,37,32,36,31,37,25,28,25,20,22,24,26,28,21,21,25,23,26,25,34,38,29,38,44,32,43,47,30,28
31,41,33,36,33,35,29,34,23,25,21,19,20,21,27,25,19,22,25,23,27,23,32,37,29,36,42,31,42,46,28,28
29,39,31,36,31,34,27,27,25,25,23,19,19,21,27,23,19,21,24,23,24,24,32,34,25,35,42,31,41,45,25,27
29,43,32,36,32,34,28,29,23,26,26,19,18,23,27,24,20,20,24,25,25,24,29,33,23,31,41,31,44,45,25,27
33,47,34,38,32,37,31,27,22,25,27,19,19,22,26,24,20,20,25,25,24,26,29,31,22,34,44,31,45,43,27,27
35,46,34,39,32,37,31,27,25,29,27,22,21,23,26,25,21,20,28,25,24,28,30,29,21,32,44,33,45,43,27,28
38,46,36,44,36,40,34,30,24,26,28,24,23,24,24,24,21,20,28,25,25,29,31,27,24,33,43,35,46,42,30,28
37,44,38,44,33,41,32,30,23,24,26,25,22,24,24,26,22,22,28,26,28,30,32,28,23,36,44,35,45,43,31,28
39,44,34,42,32,37,30,33,22,23,26,28,22,23,26,26,24,22,28,26,28,28,30,28,29,36,44,37,46,45,34,25
39,45,35,41,31,37,31,33,26,23,28,30,22,24,26,24,22,22,26,24,30,26,26,28,29,32,47,37,46,45,36,23
37,45,35,42,30,36,30,30,27,23,30,30,24,24,28,26,22,22,24,24,29,25,25,27,27,35,48,36,47,46,34,25
38,47,36,43,30,33,30,30,27,26,32,31,25,28,30,26,22,21,23,22,27,25,26,28,27,37,48,36,48,44,36,23
41,50,35,43,32,31,29,31,25,25,29,33,25,29,31,27,23,21,24,24,28,25,25,28,29,37,48,39,49,45,39,25
40,43,33,43,29,29,29,28,26,23,29,34,25,28,34,26,21,21,23,22,28,23,26,28,30,38,50,38,47,44,38,28
38,39,35,41,29,30,28,27,29,22,28,34,24,28,34,25,21,21,23,21,28,23,24,27,30,33,47,37,42,45,36,28
39,42,34,40,30,28,26,24,25,20,26,30,22,28,32,27,21,22,20,21,26,20,22,27,29,32,44,35,43,43,33,26
38,45,35,39,27,26,24,23,24,20,26,28,22,26,34,28,22,22,20,22,24,20,22,28,26,29,43,31,45,44,33,25
37,45,35,39,26,27,23,25,24,19,26,25,23,24,32,24,20,18,20,20,23,21,23,29,25,26,42,29,44,44,30,25
36,43,36,41,25,28,23,24,25,20,25,23,23,24,29,23,19,19,21,19,23,23,23,27,20,27,44,25,39,44,29,26
33,42,34,40,25,26,22,24,22,19,23,21,23,23,29,23,19,19,21,19,23,24,25,27,22,30,44,23,40,43,27,26
34,43,33,40,24,29,22,24,22,20,20,20,20,22,26,20,18,18,20,18,22,24,24,29,25,26,42,26,37,46,26,24
37,45,32,38,24,32,22,24,23,18,21,21,21,20,24,22,19,19,21,19,23,25,24,30,25,28,44,27,38,48,26,25
36,45,31,37,23,35,23,27,23,19,21,21,20,20,26,20,18,18,24,20,24,27,27,32,26,29,44,24,38,48,26,25
37,46,31,35,21,35,21,27,20,19,19,20,23,22,25,20,19,19,27,20,25,27,26,32,26,28,42,26,40,47,24,22
37,48,28,37,21,33,20,29,16,19,18,22,27,24,26,21,19,19,27,21,24,28,30,33,28,31,42,28,43,48,25,23
36,49,27,34,20,34,20,30,19,18,20,22,27,24,26,23,23,21,29,25,25,31,33,35,28,34,43,29,42,46,28,26
36,45,25,33,23,35,20,31,20,18,20,22,26,24,24,22,22,20,28,24,26,32,32,34,30,37,44,29,41,45,29,27
35,43,23,31,23,31,21,29,21,20,22,24,25,26,25,23,23,21,27,25,24,31,30,33,30,37,44,29,39,45,29,28
38,41,21,28,26,29,20,31,20,20,22,24,26,28,26,26,26,22,28,26,24,30,32,32,32,38,44,36,45,44,30,28
36,41,19,27,30,29,21,29,21,20,21,23,26,30,26,28,28,22,30,26,24,29,32,34,31,36,42,36,48,46,32,27
34,38,18,27,33,28,18,29,22,19,22,24,26,32,28,30,28,22,30,26,23,28,31,33,32,37,46,34,50,45,35,27
33,36,18,28,32,26,18,31,21,18,22,26,25,34,28,32,31,23,30,26,21,29,31,32,29,35,43,35,53,45,33,28
31,36,20,28,32,22,18,28,20,18,22,25,28,33,25,34,32,23,26,25,19,32,28,27,25,33,41,33,53,43,34,27
32,37,22,30,35,22,18,28,25,20,22,26,26,30,25,35,33,25,25,25,21,34,29,29,27,35,43,35,51,46,35,30
31,37,24,29,35,21,19,26,29,21,24,26,24,30,25,35,36,28,26,27,22,34,30,30,27,36,48,34,50,46,37,29
31,33,23,28,35,20,20,24,31,22,22,26,25,30,26,30,32,28,25,23,26,36,29,30,28,35,48,34,50,47,38,29
31,32,23,28,32,19,21,23,31,22,23,27,27,31,27,31,33,29,25,23,27,35,29,31,29,35,49,35,49,47,36,29
32,35,22,31,33,18,20,21,33,23,23,27,28,33,28,34,34,30,24,22,26,36,30,30,28,35,48,36,51,45,39,29
33,37,25,32,29,17,22,21,34,24,24,26,28,30,26,30,30,30,25,22,27,37,31,31,29,34,47,33,50,45,38,28
34,38,26,32,26,18,22,22,34,26,25,27,28,28,26,28,28,30,25,22,25,39,29,29,28,34,47,32,44,44,36,29
34,38,26,32,24,16,24,22,33,24,27,27,29,27,25,27,29,31,27,23,26,43,32,30,27,36,45,32,44,44,35,28
36,40,27,32,25,17,23,23,33,26,26,24,29,24,24,24,26,30,27,23,27,41,31,35,27,37,46,34,43,44,37,27
37,37,27,31,25,19,23,23,34,24,26,24,28,24,24,22,24,30,28,22,28,38,32,36,30,38,49,34,42,46,35,26
36,37,25,31,26,20,24,22,34,22,26,24,27,26,22,21,23,27,25,20,24,35,29,34,29,35,49,31,42,43,36,24
39,36,23,30,24,23,23,22,32,21,27,25,22,27,22,21,20,24,24,21,23,32,26,32,30,33,45,32,42,45,34,24
36,36,24,32,24,22,22,25,29,20,26,25,23,26,22,21,21,23,23,20,18,28,24,29,29,30,42,30,39,45,32,21
34,37,25,31,25,24,21,23,29,20,25,23,19,25,19,19,19,21,22,20,18,26,22,28,26,26,41,30,38,46,29,20
34,34,26,30,24,24,20,25,26,18,24,22,18,22,18,16,18,20,24,20,20,26,20,28,26,26,39,28,38,46,26,18
30,34,24,29,26,24,18,23,25,19,23,23,17,23,19,17,19,19,22,19,18,24,18,26,24,26,42,26,40,44,25,20
30,32,24,28,24,22,16,22,23,18,23,22,16,22,19,16,18,18,19,18,17,21,17,23,25,30,40,28,42,42,24,19
30,32,24,26,24,22,16,21,22,22,22,22,16,22,18,16,18,18,18,20,18,18,15,22,23,27,39,26,42,42,24,20
25,30,22,25,23,20,15,20,22,23,22,21,15,22,18,16,18,17,17,20,17,17,16,17,24,27,38,24,40,40,23,21
24,29,22,24,23,18,15,18,25,26,20,21,17,21,19,16,17,18,18,18,18,18,14,16,22,25,36,24,41,38,24,24
21,30,23,20,22,15,15,21,21,24,20,18,17,18,20,17,17,21,21,20,20,19,15,18,22,26,35,22,41,43,22,23
20,28,23,22,22,13,15,22,21,24,20,16,18,17,19,16,16,20,20,16,20,18,14,18,20,28,34,24,46,38,20,24
19,28,21,21,22,13,15,18,20,27,19,15,18,16,17,18,16,20,20,17,21,18,14,19,20,30,33,24,48,40,20,25
22,32,19,20,20,12,14,20,20,26,18,16,20,16,18,18,16,20,21,17,19,19,16,23,20,30,34,26,50,40,20,24
23,33,21,18,20,13,15,20,20,26,18,16,19,16,17,17,15,19,21,17,19,17,19,23,23,30,34,29,51,41,20,24
24,33,20,17,19,14,19,22,19,23,17,16,19,15,17,17,15,19,21,21,19,17,23,23,25,31,29,31,47,41,20,26
25,36,24,20,20,17,18,24,20,22,16,16,20,15,16,17,15,19,24,21,21,20,26,23,24,29,32,29,46,47,22,28
24,38,24,22,19,16,18,27,22,20,15,15,19,15,17,15,13,17,23,17,20,20,26,22,22,32,35,30,48,45,24,30
24,39,23,22,19,15,18,28,22,19,15,16,20,16,17,15,14,18,24,17,19,21,26,22,22,31,37,28,44,46,21,29
24,36,23,23,17,17,18,29,18,16,16,16,18,16,15,16,15,19,25,18,18,21,28,22,22,31,37,28,45,44,21,27
25,34,25,28,16,19,17,27,18,18,16,18,20,18,16,16,16,16,24,18,16,22,27,22,21,30,33,28,44,42,22,25
23,38,24,26,16,18,17,25,19,18,14,18,21,18,17,17,17,17,25,19,17,23,29,23,21,29,35,27,39,45,23,26
25,40,27,27,18,21,17,29,19,17,14,19,19,19,17,17,17,17,25,19,15,23,30,22,22,28,39,30,41,47,24,28
23,35,29,29,19,22,19,28,19,18,19,19,19,19,17,17,16,16,26,20,14,22,29,19,23,29,37,27,40,45,25,29
21,33,26,30,18,22,19,27,18,18,19,19,19,18,17,17,19,19,27,23,13,23,27,21,23,29,39,25,43,45,25,29
21,34,29,31,19,23,19,27,19,21,19,19,19,19,17,17,19,18,26,22,16,22,24,22,22,28,42,26,43,49,26,28
23,34,29,28,18,21,20,24,18,21,19,18,18,19,17,17,19,19,24,23,15,20,22,27,21,28,42,28,44,44,26,26
26,36,28,28,19,22,21,22,16,21,19,19,19,19,17,19,21,21,25,25,17,21,23,27,25,22,43,31,44,43,25,24
29,35,31,31,19,23,21,21,17,21,18,19,19,18,16,18,20,21,25,24,17,20,22,27,26,21,44,33,45,43,25,23
31,37,31,31,19,23,21,22,19,22,19,19,19,19,17,18,21,18,23,25,18,19,22,27,25,23,44,33,42,47,23,25
35,37,30,28,21,26,25,22,21,20,19,19,20,19,17,18,22,22,23,25,19,19,22,26,28,24,50,35,43,46,23,27
37,34,35,28,20,29,29,23,19,21,20,18,21,18,16,18,22,22,23,25,19,19,21,25,27,23,47,36,46,47,23,28
37,36,33,31,20,29,29,21,23,20,22,18,21,18,18,18,24,24,26,26,22,19,20,27,27,22,46,34,49,46,24,26
40,39,32,33,23,29,30,23,25,18,21,19,21,19,19,19,26,24,24,24,24,20,22,28,30,24,50,34,50,47,24,26
41,41,35,33,25,32,30,24,27,18,20,21,23,23,19,19,25,21,21,23,23,19,21,27,29,25,49,33,47,50,25,25
39,41,33,35,27,34,31,23,27,16,20,23,23,25,21,18,24,23,23,21,21,21,21,30,27,25,47,29,48,47,27,25
39,38,32,36,28,32,31,22,28,17,21,23,23,25,21,19,25,23,23,21,21,21,21,26,28,24,46,29,46,50,26,27
39,35,32,34,29,32,32,23,29,19,23,25,25,27,21,19,25,25,25,23,23,23,21,25,25,25,43,25,44,52,25,27
37,37,35,35,29,32,34,21,28,19,24,25,24,28,22,20,26,25,28,24,23,22,20,27,25,25,38,23,47,53,25,27
37,35,35,33,32,31,33,21,28,18,23,25,26,27,21,19,24,25,29,23,22,24,22,27,27,25,38,23,48,52,29,26
33,33,35,35,30,31,32,23,28,20,23,24,25,26,22,19,23,24,28,24,24,22,25,30,27,27,35,21,49,54,30,24
33,34,33,35,32,28,29,23,31,19,23,25,28,27,23,19,23,22,29,23,23,22,25,32,27,29,37,21,48,55,31,22
32,30,35,35,31,30,29,23,31,20,24,26,29,27,22,18,20,22,24,22,22,21,25,30,26,28,38,22,45,53,32,21
31,29,37,33,28,32,29,21,30,20,23,24,29,26,22,19,19,23,25,23,21,21,23,29,23,26,37,21,43,52,33,21
31,29,37,33,28,31,31,22,30,20,26,24,28,24,25,20,18,24,26,22,22,22,24,28,22,28,36,24,44,50,33,22
34,28,36,30,28,30,29,24,30,18,28,22,28,22,25,21,19,23,25,21,19,21,23,23,22,25,37,26,46,50,31,21
35,30,37,29,28,33,31,23,29,21,31,23,28,22,28,20,18,22,25,21,19,20,23,23,21,26,37,27,48,49,31,17
35,30,37,30,28,33,29,26,28,19,30,20,26,20,28,20,18,20,24,20,16,18,24,24,24,25,39,28,49,49,32,15
35,30,33,26,28,33,27,28,29,19,31,22,27,20,27,20,18,20,21,20,17,19,25,25,22,25,44,30,48,50,34,17
35,29,33,25,25,33,27,29,26,21,34,22,24,20,28,20,18,20,19,23,16,16,22,27,21,26,41,33,49,50,29,18
36,32,34,24,25,31,24,26,25,21,33,21,23,20,29,19,19,19,19,24,15,17,20,24,21,26,40,36,49,48,29,18
36,31,34,23,24,31,26,28,23,22,35,21,19,21,31,19,19,20,20,24,16,18,23,22,21,25,39,36,50,47,29,18
37,29,32,22,24,27,26,29,20,21,34,20,18,21,29,20,20,18,19,27,18,18,23,23,21,26,37,34,49,51,26,19
34,28,28,21,24,24,24,29,18,24,32,20,17,20,28,17,19,17,19,27,17,17,25,25,20,29,36,37,52,51,24,17
35,26,28,23,25,24,22,28,17,23,30,18,17,19,25,17,19,17,19,27,17,17,25,27,19,30,39,37,50,51,23,17
36,27,29,25,25,26,22,28,18,25,27,20,17,18,24,16,19,15,21,27,17,17,27,32,21,31,41,36,49,52,24,17
34,28,26,26,26,24,22,30,22,20,23,19,22,18,20,16,20,16,21,27,20,21,29,32,22,33,42,34,49,52,24,19
33,27,25,27,25,25,21,25,21,20,21,19,21,17,19,15,19,15,19,25,23,21,29,31,19,35,40,36,49,52,25,20
34,25,22,25,25,23,19,22,19,19,20,18,19,17,20,15,19,15,17,25,23,19,27,29,21,35,40,36,46,50,22,17
33,26,21,28,26,22,18,20,22,19,20,19,20,18,20,16,20,18,16,23,23,18,27,26,20,33,44,33,46,49,24,16
33,23,17,26,25,21,17,21,23,22,22,19,19,19,18,15,17,17,15,20,23,17,27,28,18,31,44,32,47,48,26,18
32,23,15,29,25,21,15,19,24,21,18,18,20,16,14,14,18,20,16,22,24,16,25,28,16,31,43,30,44,48,25,19
30,25,15,28,26,23,17,19,24,21,19,18,20,17,15,14,21,18,16,20,23,19,26,30,16,32,44,31,44,45,26,20
31,26,15,29,23,23,17,17,26,19,18,20,23,17,17,15,23,21,17,21,23,21,25,29,19,28,40,30,42,44,26,23
30,27,13,26,21,19,15,21,29,18,19,22,25,20,18,15,23,21,17,21,23,21,25,29,23,26,40,31,43,44,29,23
29,25,12,27,22,16,13,19,28,18,18,20,27,22,20,16,23,25,19,23,25,23,24,28,24,27,39,32,44,43,30,22
28,21,12,28,22,16,10,18,26,18,21,22,22,24,22,16,22,24,18,24,23,19,24,30,26,26,41,32,44,42,32,24
30,19,11,25,22,13,9,20,28,20,20,24,24,26,23,18,25,25,21,29,21,21,23,29,24,25,38,32,43,41,32,25
32,22,14,28,24,16,13,22,31,19,22,27,27,27,23,21,27,27,23,29,21,23,25,29,23,25,37,31,45,43,35,27
32,23,16,29,24,19,15,25,29,20,22,27,27,27,25,21,27,25,27,32,22,25,26,30,26,22,34,31,43,44,36,25
34,28,18,34,25,21,15,28,28,16,20,26,31,26,26,23,31,29,31,31,23,25,25,27,27,24,35,31,42,47,37,25
36,27,19,31,25,19,13,27,29,15,23,29,32,29,29,26,33,28,33,33,25,28,26,30,32,26,35,33,46,48,38,24
38,28,20,30,24,18,10,27,27,15,21,29,31,29,29,28,33,31,36,32,24,26,26,32,34,24,35,32,46,48,38,24
37,29,24,30,27,18,12,27,26,16,22,30,31,29,27,27,31,29,34,30,24,28,26,30,33,26,38,30,42,49,40,24
38,28,25,29,29,19,15,23,25,16,21,28,29,26,26,26,30,28,34,30,25,29,27,28,32,26,38,27,42,47,40,25
39,26,29,30,25,21,18,24,26,17,24,29,29,25,26,28,32,27,31,28,25,29,26,26,28,26,36,24,40,47,38,27
41,30,29,31,23,20,19,24,25,19,22,28,29,24,27,29,33,27,31,25,23,29,23,22,26,23,31,22,40,48,37,27
41,32,32,34,23,22,22,26,25,18,24,30,28,24,29,30,33,29,31,23,25,27,23,25,26,27,34,20,41,49,39,29
40,30,30,34,22,20,19,26,25,21,21,26,27,22,28,27,29,27,29,23,25,25,23,25,27,27,31,19,41,47,37,29
37,29,27,31,24,17,19,27,25,19,19,27,27,23,27,27,29,25,29,25,24,27,22,26,24,28,32,19,41,45,35,32
34,26,28,29,26,17,19,24,27,17,19,27,25,23,27,29,26,23,28,26,24,29,26,28,22,29,35,18,41,42,34,32
31,27,25,27,27,17,21,23,26,18,15,26,24,22,26,25,24,21,24,22,21,28,24,25,19,26,35,16,39,39,33,34
31,27,25,29,29,19,22,27,26,19,15,26,26,21,27,26,24,22,24,24,22,28,24,22,16,28,37,18,37,39,30,34
31,29,23,30,27,21,21,28,25,19,15,23,23,21,27,26,24,23,23,25,21,23,21,21,13,27,37,17,39,38,29,33
33,33,21,35,25,21,21,29,24,21,17,25,24,23,29,29,27,23,23,24,20,22,19,20,11,25,36,16,36,38,26,33
32,34,18,32,27,19,19,29,24,20,15,25,24,23,25,26,24,21,21,25,21,20,19,21,13,25,39,17,35,39,28,32
33,35,19,31,28,21,20,29,24,20,16,25,24,24,24,26,24,22,22,25,22,22,18,22,14,26,40,16,32,39,26,30
29,34,21,30,30,21,19,27,24,19,15,24,23,23,22,24,22,18,20,24,20,22,18,20,14,24,38,15,32,37,24,28
30,35,24,31,29,23,21,27,23,18,16,24,23,24,22,23,23,17,21,25,21,23,19,19,15,25,41,13,31,39,25,31
30,36,26,33,26,26,22,24,25,19,17,23,23,23,21,23,23,19,19,19,22,20,19,16,16,25,41,12,30,38,25,29
33,38,27,35,26,26,26,24,22,20,18,22,21,22,20,21,22,17,17,19,21,19,18,14,16,21,41,10,30,38,23,26
33,39,29,37,25,27,26,28,25,21,20,23,21,21,21,21,19,17,17,21,21,23,19,17,16,21,41,10,28,38,23,24
32,38,31,35,22,25,27,25,25,21,21,23,20,21,21,19,17,15,14,18,19,21,17,15,17,23,41,11,29,41,25,21
33,36,29,31,21,23,27,25,25,21,21,23,19,21,21,17,17,14,14,20,22,23,21,20,18,23,43,13,29,42,25,21
29,31,31,29,21,25,25,25,24,21,21,22,18,21,21,13,15,17,15,20,21,25,22,20,18,24,41,13,29,39,25,21
26,30,30,28,20,24,25,25,23,21,21,20,17,20,23,14,16,18,16,20,20,25,23,20,18,23,38,14,30,37,22,19
24,28,30,28,20,23,25,25,22,21,20,20,17,20,22,12,14,16,14,21,20,23,28,20,18,24,37,15,32,38,24,21
24,27,29,29,17,22,24,28,21,21,21,19,17,19,23,13,16,19,15,21,21,23,29,19,19,23,37,17,31,36,21,21
24,26,30,29,17,22,24,28,23,23,20,19,18,18,23,15,18,22,16,22,22,24,30,18,16,24,36,16,32,36,23,20
26,29,34,28,19,25,24,29,21,25,22,20,21,20,22,14,20,25,14,24,23,26,32,21,17,26,38,19,33,38,24,23
26,27,32,26,17,25,22,29,23,26,21,21,20,21,25,17,23,26,18,25,22,26,31,22,18,27,37,22,34,38,23,25
27,28,35,28,18,25,22,27,22,28,22,20,20,20,22,18,26,28,18,24,22,22,29,22,20,26,39,24,36,40,24,26
30,33,32,28,19,24,20,26,21,26,22,20,19,20,20,20,27,27,19,25,24,21,31,24,22,27,38,24,38,41,22,26
31,36,34,32,22,26,20,26,22,26,22,20,20,20,20,22,28,28,20,22,22,21,29,20,23,28,38,27,38,46,24,26
34,37,37,29,22,27,23,26,21,27,21,22,19,19,18,23,27,24,19,22,23,20,28,20,23,29,40,26,40,52,24,28
35,40,37,32,26,27,22,28,23,27,20,22,20,19,18,22,27,25,21,22,25,22,26,20,25,32,42,29,40,54,28,28
37,41,38,31,28,27,21,27,25,27,19,23,23,19,17,25,29,27,23,21,27,22,25,19,28,33,43,30,42,51,31,27
41,46,38,32,29,29,22,23,24,28,19,22,22,18,16,24,27,25,21,19,25,21,23,21,25,33,44,31,42,55,33,27
42,49,39,33,30,29,21,23,24,27,22,23,21,20,17,23,25,23,21,19,22,21,21,24,27,32,44,35,43,55,32,25
42,50,38,31,31,25,20,23,22,26,19,21,19,17,17,25,23,20,23,20,23,21,19,25,27,31,41,37,45,57,31,22
45,48,40,30,31,26,20,21,21,26,19,21,22,17,15,25,23,20,20,20,24,22,21,24,27,31,39,34,45,57,31,21
46,47,40,29,29,28,20,21,19,24,18,19,21,17,16,23,21,17,19,18,24,23,23,22,26,31,37,34,45,58,29,20
45,44,43,31,28,31,23,23,20,24,18,20,22,18,16,22,20,18,20,17,22,25,21,19,25,27,36,33,44,53,30,22
42,40,41,28,24,29,23,25,19,25,17,19,21,17,17,21,19,17,19,19,23,25,24,20,26,25,37,33,45,51,27,25
40,39,36,29,23,26,20,23,20,22,18,16,22,18,19,24,21,17,19,21,24,25,26,22,27,25,38,36,46,46,28,24
41,38,39,28,18,27,21,21,22,22,18,16,21,19,19,25,23,18,18,23,22,24,26,21,24,24,38,33,47,44,26,24
41,34,37,29,17,25,20,20,22,22,23,16,18,20,22,26,24,18,18,24,20,24,26,22,24,24,39,36,47,46,25,24
38,31,35,28,16,26,21,21,23,22,26,18,19,22,26,28,26,20,20,28,22,26,28,22,26,24,39,40,47,42,24,24
39,29,33,25,14,25,23,19,23,20,25,19,19,23,27,29,26,20,20,28,25,26,28,21,28,22,38,38,49,40,24,23
37,29,33,29,11,25,24,19,25,17,28,23,21,26,27,28,28,21,19,27,22,25,28,19,27,22,41,35,48,39,23,24
34,30,34,29,10,21,22,23,25,17,27,25,19,25,27,25,25,21,19,27,23,23,26,19,26,22,42,35,50,40,23,25
32,33,32,30,13,20,20,22,28,16,26,26,20,27,29,27,27,23,20,28,23,22,25,19,27,23,43,35,50,40,23,28
33,32,30,29,16,18,18,20,32,18,28,26,20,28,32,29,27,23,20,31,25,21,25,21,28,24,42,35,52,41,24,27
35,32,30,31,17,18,18,18,33,16,28,26,22,28,30,30,30,26,22,31,26,22,23,21,27,25,38,32,51,42,25,25
36,31,30,31,21,19,19,19,33,17,27,27,23,27,29,29,29,26,23,29,25,23,23,19,28,23,35,34,50,44,23,24
34,29,27,29,23,19,20,19,29,20,28,28,23,25,30,28,28,24,22,26,24,22,24,22,28,22,36,34,48,43,22,24
32,31,28,28,21,21,19,21,29,19,26,27,24,24,27,26,26,24,23,25,23,22,23,21,27,21,37,30,47,45,18,23
33,31,31,30,22,22,19,21,29,19,25,26,24,25,27,25,25,23,23,23,22,22,24,20,28,21,37,27,48,48,20,25
30,33,30,32,25,24,16,24,29,21,22,26,26,24,24,22,25,23,25,22,20,24,24,20,26,25,39,28,49,50,20,28
35,30,26,32,28,24,16,24,29,23,20,25,24,25,26,24,23,22,26,22,20,26,26,19,27,26,38,27,48,49,21,30
37,32,26,36,28,27,17,23,32,24,24,23,24,25,28,23,23,22,25,21,19,26,25,20,28,28,39,27,46,49,22,30
38,31,26,35,28,29,19,25,31,25,25,24,25,26,27,22,22,22,25,21,19,25,25,19,28,29,42,29,43,48,26,29
37,33,30,36,30,31,19,25,29,25,25,24,27,24,27,22,24,22,27,20,20,25,27,19,29,32,43,31,41,48,27,29
38,35,30,37,32,33,18,26,28,25,27,25,27,25,29,23,23,21,27,21,20,25,26,21,31,33,44,34,42,46,27,28
39,39,33,36,32,37,20,28,31,28,28,26,27,26,30,24,24,23,27,20,21,29,29,21,33,39,45,33,42,45,30,30
40,41,35,39,32,37,21,27,31,26,27,26,27,27,30,23,23,23,27,21,21,29,30,20,36,40,47,34,44,48,30,30
43,41,35,39,33,37,23,27,29,25,25,25,29,26,29,22,22,23,26,21,22,29,30,22,36,40,48,37,47,49,33,31
41,40,32,39,31,33,22,25,29,25,24,25,28,24,26,22,22,22,24,20,21,28,28,21,33,42,48,34,45,48,34,29
42,38,34,38,30,32,22,22,29,22,26,23,26,23,29,23,23,22,22,18,21,26,29,23,35,41,47,38,43,46,34,26
39,35,34,34,29,32,21,21,27,21,26,20,25,20,27,21,21,21,21,18,22,23,28,26,34,41,48,40,42,46,33,27
36,32,31,32,29,30,22,21,26,21,23,20,24,20,27,22,21,22,23,21,23,23,29,26,34,43,52,43,45,45,30,25
35,30,28,29,29,27,21,19,26,21,23,19,23,18,26,21,21,20,23,21,24,25,29,28,32,41,51,39,46,49,30,23
33,26,25,27,24,24,20,18,26,20,21,18,21,18,23,19,19,19,23,19,21,27,29,30,30,37,51,38,45,51,27,22
30,25,26,27,23,21,20,19,27,22,19,18,23,18,21,17,17,18,23,18,20,27,31,29,29,35,55,34,46,51,27,23
27,25,24,27,21,18,18,18,26,18,19,17,23,17,21,17,17,17,21,19,19,23,28,31,25,31,56,34,50,52,25,21
26,23,23,25,20,16,17,19,26,18,23,16,24,19,22,20,20,19,21,20,18,25,26,31,23,28,53,33,47,51,25,23
24,24,22,24,20,16,16,20,27,21,26,19,22,20,25,22,23,21,25,23,16,26,27,32,22,27,48,30,47,48,22,24
26,26,24,24,22,19,18,24,27,22,28,19,23,21,25,25,23,23,25,23,17,27,27,31,21,26,49,31,46,49,22,27
26,27,22,25,23,21,18,25,27,21,30,21,25,24,24,28,25,25,25,24,17,27,25,29,19,25,52,28,48,50,23,29
28,30,23,27,25,22,21,28,27,25,32,22,26,27,25,29,25,27,26,26,16,28,25,28,19,24,51,29,52,53,25,29
33,32,25,28,26,23,21,26,28,24,34,24,28,28,25,30,27,28,25,25,15,30,26,31,19,24,47,30,53,56,28,30
33,33,28,32,29,26,20,26,26,24,34,24,30,28,27,33,27,29,25,25,16,30,29,32,19,25,45,31,52,54,28,30
35,36,27,34,30,27,21,29,26,26,36,26,30,30,27,33,27,29,23,25,17,29,27,29,21,27,47,31,53,52,32,30
35,33,25,31,31,27,21,28,25,26,39,25,26,29,28,34,28,29,22,24,16,28,26,28,23,29,45,31,49,52,31,30
37,31,25,31,31,29,25,28,22,28,38,25,25,29,28,32,26,28,22,24,16,26,24,26,24,30,41,33,45,52,31,29
40,31,25,31,32,30,26,29,22,29,35,25,24,27,27,29,23,26,22,23,17,24,24,26,23,30,41,33,47,51,32,27
39,31,25,33,34,31,25,28,23,29,32,25,25,26,25,30,24,26,21,23,18,26,21,23,23,29,42,33,45,53,33,28
38,29,25,31,31,28,25,25,23,27,31,25,25,25,26,28,24,28,22,22,18,26,22,24,24,28,40,34,45,51,31,26
36,29,24,30,28,25,26,25,24,31,28,22,25,24,27,27,21,25,21,22,17,25,21,23,23,25,35,31,39,51,28,23
31,26,24,30,26,26,23,25,22,28,26,22,24,21,29,29,22,24,21,22,18,25,21,22,23,25,34,29,36,49,26,23
28,24,23,33,27,25,23,25,21,31,25,21,23,23,26,28,21,22,21,21,19,22,21,19,23,25,34,26,34,47,29,21
27,24,20,31,24,25,23,25,24,32,27,23,21,24,26,26,20,22,20,20,16,21,16,18,22,24,34,25,36,45,28,23
25,25,23,29,23,25,23,23,25,32,25,21,24,24,26,28,20,22,20,20,16,20,18,18,22,22,34,23,34,44,23,24
26,28,24,32,24,28,24,22,28,32,23,24,24,26,28,30,22,22,22,25,16,22,18,21,22,23,34,28,36,45,24,24
27,28,26,34,26,28,22,21,28,33,24,24,24,27,28,30,22,23,23,24,18,23,20,24,24,24,36,25,37,44,26,27
25,29,25,33,25,27,23,21,29,33,27,27,24,31,31,30,22,22,22,24,18,22,22,28,25,24,39,24,36,45,27,26
29,30,27,34,24,28,26,23,28,33,29,26,22,35,32,30,20,20,20,22,21,19,23,31,27,27,41,25,37,43,27,25
30,34,26,36,24,28,22,23,30,35,29,28,24,36,34,31,21,19,20,25,21,19,24,33,28,28,42,26,38,46,28,26
30,33,28,36,26,28,22,22,31,34,32,28,23,33,32,33,24,20,21,28,24,22,24,36,30,30,45,29,41,45,30,26
33,35,27,35,27,25,21,20,34,34,30,29,25,35,29,30,25,22,21,27,25,22,25,37,32,30,45,29,39,45,31,24
33,37,29,31,25,24,21,19,34,33,30,28,25,32,31,31,27,23,22,28,27,23,28,39,33,30,45,29,39,44,27,23
33,37,31,31,26,26,22,20,31,33,29,26,23,31,29,31,27,21,21,27,25,21,29,39,35,28,45,31,40,44,25,21
33,35,27,31,26,25,21,19,28,31,28,26,20,30,28,28,26,20,20,26,24,20,28,40,36,28,42,31,42,47,27,21
33,33,27,30,22,23,21,19,26,29,28,24,20,28,26,26,24,20,17,22,26,17,27,35,31,26,41,29,41,46,28,21
32,32,24,30,21,20,18,18,25,26,26,24,19,26,24,28,25,20,17,23,23,17,25,33,27,23,43,29,43,46,25,18
29,29,23,29,24,19,15,15,27,23,21,19,21,21,19,29,27,23,19,23,23,19,23,29,26,23,42,29,43,47,26,17
24,28,20,28,24,16,11,12,26,20,18,16,22,18,18,30,29,23,18,25,20,18,23,27,25,22,41,29,43,49,28,13
22,26,22,26,24,18,12,13,26,17,17,13,21,15,19,29,27,21,17,23,19,17,23,25,24,20,38,26,43,51,26,12
22,28,20,27,24,18,12,14,26,16,14,16,20,16,18,26,25,21,17,21,17,15,23,23,23,21,38,24,43,49,24,14
19,29,21,29,23,21,13,15,24,18,15,15,19,15,18,27,25,19,16,19,15,15,21,21,20,22,39,25,45,51,23,16
21,32,18,32,24,21,13,17,23,14,13,13,21,13,17,25,24,18,15,17,14,15,18,19,17,23,39,28,47,52,24,18
19,33,17,33,25,19,11,16,24,15,15,15,23,15,19,27,23,21,17,21,17,17,17,19,15,22,41,29,45,55,25,19
19,33,21,33,26,21,13,16,24,16,18,16,24,16,20,28,24,22,18,22,18,18,16,18,13,23,44,30,43,52,25,19
20,33,22,32,27,21,13,16,25,17,20,16,24,18,20,30,26,22,19,22,16,19,18,20,16,25,44,28,43,52,26,22
20,35,25,32,25,24,14,18,27,20,23,17,26,20,22,30,26,25,22,21,19,19,17,21,17,27,43,29,42,54,27,23
24,41,32,33,22,29,16,20,24,23,27,21,25,22,28,29,27,25,22,23,20,20,18,21,17,28,42,29,39,54,24,24
26,43,34,34,23,33,18,22,24,24,28,22,24,22,28,26,25,25,24,21,22,21,18,19,18,28,42,29,38,54,22,26
29,43,31,37,22,31,19,23,23,25,27,23,22,23,25,25,25,27,26,21,25,22,18,21,22,28,44,31,40,53,24,27
29,41,33,38,24,33,19,25,25,25,29,23,22,25,25,25,25,25,27,21,23,22,21,19,21,30,44,31,41,54,27,27
33,41,38,38,25,36,22,23,26,24,31,24,25,25,28,26,26,27,30,21,25,24,21,19,21,27,42,31,41,51,29,27
32,38,40,34,25,36,24,23,27,25,33,27,23,27,29,27,26,28,29,23,23,23,23,19,23,27,42,29,37,51,28,27
36,38,44,34,22,36,24,24,27,25,31,25,23,25,27,25,27,27,29,21,21,23,25,16,24,28,40,30,38,51,30,26
35,39,43,35,23,37,23,24,29,26,29,26,22,24,26,24,26,26,28,20,20,22,24,16,23,28,39,28,39,50,31,28
34,41,44,36,25,38,23,24,29,25,26,26,24,22,26,22,24,28,29,20,20,23,25,16,23,27,40,30,40,52,30,26
34,42,43,36,25,36,22,22,30,22,23,25,25,20,26,22,23,28,24,20,18,24,26,18,24,28,40,30,40,49,32,25
34,37,38,37,27,33,22,22,32,21,21,23,28,20,22,22,20,26,23,18,17,23,25,18,26,29,41,31,42,51,33,28
36,38,38,35,28,32,22,22,34,22,22,24,26,20,22,22,20,26,24,18,16,26,27,20,25,31,46,34,42,50,35,30
35,39,39,36,31,33,23,24,35,23,21,23,27,19,22,22,20,24,23,17,13,27,29,20,24,33,45,33,40,48,37,31
36,40,38,33,29,32,22,22,30,25,22,24,29,20,23,23,19,27,21,17,16,28,28,21,25,29,40,34,40,52,36,28
33,37,35,33,31,28,21,23,31,24,21,25,29,22,22,21,19,25,18,16,16,26,28,22,24,32,44,33,41,56,34,26
31,36,33,34,30,29,20,23,29,22,21,25,29,23,21,21,19,25,19,15,18,27,29,24,22,30,49,35,44,58,34,28
30,38,30,32,30,26,18,24,29,19,21,25,29,22,21,21,19,24,19,15,19,29,28,26,22,32,48,34,44,56,32,30
32,38,28,32,28,24,20,24,26,17,23,25,29,23,23,23,21,25,19,17,19,29,31,27,23,36,49,35,44,57,30,27
36,38,28,33,27,26,21,26,25,17,23,24,27,22,23,23,20,23,19,17,19,28,32,27,24,35,49,33,42,55,29,26
35,41,29,33,27,24,21,27,23,17,23,25,26,23,21,23,25,24,21,21,21,28,33,27,25,38,49,33,43,59,27,29
36,42,30,34,26,28,23,29,21,17,23,27,25,23,21,23,25,23,21,21,21,27,33,27,23,37,47,34,43,57,27,28
32,40,31,35,25,29,23,29,18,17,23,29,26,23,22,24,26,22,18,20,21,24,30,29,22,34,44,30,45,56,26,26
29,37,29,31,22,26,21,25,18,14,25,31,26,25,23,25,27,23,19,21,23,21,28,28,20,35,44,31,43,57,20,27
30,39,30,32,23,26,24,25,19,14,23,29,23,23,22,22,26,22,18,20,23,20,28,32,20,38,49,33,44,54,22,27
34,42,27,32,21,27,27,27,19,15,23,29,20,21,21,22,26,24,19,24,22,22,29,34,23,35,49,35,42,52,21,27
37,40,30,30,19,27,27,27,17,16,23,29,19,21,21,21,25,24,19,23,21,23,27,33,27,39,47,35,43,52,22,24
35,37,28,28,19,30,29,25,16,17,25,31,19,23,22,23,27,26,19,25,21,21,26,33,29,41,50,33,45,51,22,23
35,38,28,28,20,30,28,27,20,18,26,30,22,24,22,24,28,26,20,26,22,22,24,34,28,40,49,32,47,52,24,25
33,35,25,25,20,27,28,27,21,19,27,30,21,24,22,23,30,25,19,25,21,21,21,33,31,40,51,34,49,52,24,25
36,35,24,22,21,29,30,28,23,20,28,30,23,24,24,24,26,23,19,22,24,21,20,32,30,38,50,36,48,50,26,25
34,35,23,18,21,25,28,26,26,22,28,28,22,24,24,24,26,23,18,22,23,20,20,32,30,36,51,36,50,51,27,24
34,35,23,19,20,26,28,27,28,23,29,26,20,23,22,22,24,22,18,22,24,20,20,30,30,36,53,36,46,50,25,24
34,34,24,20,22,28,29,27,28,24,29,25,21,24,25,20,24,22,18,22,22,21,20,28,30,34,54,34,49,49,26,23
32,33,24,18,20,28,26,27,30,22,29,24,22,22,28,21,25,23,21,23,23,22,21,27,29,32,53,32,48,50,24,24
33,33,25,15,20,29,23,25,30,20,31,24,24,24,30,20,24,22,22,24,24,20,22,26,31,33,54,33,50,51,24,22
31,35,23,17,23,30,24,26,35,21,31,25,27,25,33,23,25,23,21,25,25,19,21,25,27,32,51,31,51,50,23,22
32,36,22,20,26,31,23,27,36,21,29,26,27,26,34,23,22,20,22,23,25,18,22,25,25,30,47,34,51,54,25,22
34,36,24,19,26,32,22,25,31,21,27,25,24,24,32,20,20,20,22,20,26,18,22,24,27,26,48,34,53,52,22,20
33,39,27,20,26,35,23,23,29,23,28,25,25,25,35,23,19,21,23,21,26,19,22,24,24,26,44,31,48,53,22,22
30,36,28,23,27,36,22,24,27,23,30,26,24,26,34,20,18,20,23,20,22,19,23,22,24,24,43,28,48,54,20,23
32,36,30,27,28,38,24,27,25,21,32,28,23,28,36,21,20,24,25,22,27,21,25,22,24,28,45,28,48,52,22,23
35,35,29,27,28,36,24,26,24,18,31,29,24,30,36,22,22,26,26,22,28,22,29,25,25,31,43,29,51,53,23,25
36,36,30,29,29,34,23,27,25,22,31,32,26,31,35,26,22,28,26,22,28,22,31,26,26,33,41,32,51,53,23,25
38,34,31,32,32,35,27,27,24,23,31,32,26,32,31,29,25,27,26,24,28,25,32,26,28,36,44,33,52,52,24,26
36,36,34,37,33,33,27,28,24,24,29,30,26,32,30,32,24,28,28,20,30,26,32,26,27,36,44,31,50,50,25,29
36,36,35,36,35,34,26,30,18,22,30,27,24,29,28,31,24,27,28,20,30,26,34,26,31,36,46,32,49,50,26,32
38,37,38,37,36,34,28,30,18,20,31,24,25,27,26,31,27,28,29,19,29,28,32,25,31,34,44,28,49,48,24,32
36,38,36,41,37,34,28,32,23,18,30,28,26,30,29,33,30,30,28,22,28,32,34,28,31,39,43,31,47,49,29,35
35,37,37,43,37,31,26,33,26,15,28,30,26,32,28,34,32,30,28,25,32,34,39,32,31,42,43,33,49,47,30,34
39,39,36,42,36,28,24,31,26,15,26,29,26,31,28,35,33,31,28,25,33,35,40,35,33,44,44,35,48,45,32,32
38,39,37,43,35,28,22,30,26,18,25,29,28,31,30,36,33,27,27,25,31,33,37,36,36,40,45,35,47,45,30,31
36,40,36,40,34,26,23,30,26,20,24,28,28,30,29,36,32,26,26,26,32,34,34,34,36,40,46,36,46,46,30,30
35,41,35,40,34,27,22,27,26,16,22,25,26,27,27,33,31,23,26,25,31,34,30,33,33,36,46,33,46,45,30,28
34,43,34,37,32,25,18,28,24,14,20,24,25,26,27,30,28,22,23,23,33,30,31,30,31,35,44,31,45,45,29,29
35,38,33,33,29,23,17,26,24,13,19,23,24,23,25,27,27,20,22,23,29,28,30,29,29,34,43,29,43,44,27,28
33,36,31,32,25,22,18,24,26,16,18,25,24,23,25,25,27,19,20,25,28,26,27,28,29,34,41,27,42,43,26,27
31,36,30,30,24,22,14,22,26,18,16,28,23,25,26,23,27,21,21,25,31,27,27,31,29,37,43,29,40,43,26,27
33,35,34,30,23,20,12,21,24,19,15,24,23,22,23,21,23,18,21,23,31,23,25,26,26,33,43,25,39,43,22,25
34,39,33,32,23,23,13,21,22,19,17,22,22,20,22,18,20,18,20,20,27,20,23,23,24,31,44,24,40,45,19,25
29,39,32,34,23,24,15,21,22,19,17,22,21,20,21,18,20,18,20,20,26,19,21,20,24,30,45,21,40,45,16,28
30,39,30,34,24,25,14,19,22,15,15,20,20,18,17,15,17,18,20,17,23,19,21,18,22,32,44,21,43,45,18,30
30,40,32,36,24,28,13,19,22,15,16,19,20,19,20,16,18,18,20,16,24,20,21,20,22,29,44,20,42,42,18,28
31,39,31,33,21,28,14,20,19,16,18,20,19,20,19,17,19,17,19,17,23,19,22,19,24,34,44,21,41,45,18,30
31,40,28,32,22,26,16,18,20,18,20,21,18,22,20,17,19,17,19,17,19,19,17,20,25,36,44,23,42,45,18,30
32,43,27,36,23,28,18,18,19,18,20,22,18,22,20,18,20,17,17,18,20,19,17,20,28,34,43,28,47,47,21,30
35,45,29,35,23,27,17,17,19,16,19,20,16,22,19,18,20,18,18,16,22,22,19,20,29,31,44,29,49,51,21,29
36,43,29,36,21,25,19,18,19,16,21,19,15,21,19,17,17,15,15,17,19,19,21,19,29,30,43,28,51,50,21,27
36,43,26,36,19,28,20,17,20,17,21,21,15,22,19,18,18,18,15,20,19,19,23,22,30,31,45,32,52,50,24,27
36,39,27,35,21,27,23,16,20,17,22,23,16,24,22,20,20,20,17,22,21,21,23,23,32,31,46,34,51,49,28,28
39,40,29,36,24,30,24,16,18,19,23,23,18,26,24,22,22,22,20,24,24,24,26,24,30,31,44,37,54,49,30,26
39,41,31,36,26,28,25,18,18,21,25,24,19,28,26,25,23,23,19,25,25,24,27,25,31,30,45,38,52,50,29,24
41,42,30,36,28,28,26,19,18,23,27,27,19,29,26,26,24,24,23,25,21,22,27,24,32,33,44,38,52,53,32,26
43,44,32,36,32,30,28,20,20,24,26,26,22,29,29,27,25,27,27,27,25,26,30,27,34,32,45,41,51,49,34,28
43,43,33,37,33,31,27,21,21,23,26,26,22,27,30,28,26,28,28,28,24,26,30,28,32,29,43,41,51,49,34,26
42,41,36,38,34,30,25,22,24,25,25,25,22,27,32,30,26,28,28,28,24,26,30,28,30,29,41,37,51,47,34,26
38,40,36,38,34,30,28,23,24,26,26,27,27,29,32,30,26,28,29,28,22,25,29,28,27,29,42,34,45,42,34,27
36,39,34,37,37,31,27,24,24,28,25,25,30,30,33,32,27,30,30,27,23,26,27,27,25,27,43,34,41,43,34,27
35,36,34,32,36,29,27,27,21,29,28,24,29,30,34,33,27,27,29,28,23,25,27,27,25,27,41,31,40,41,31,25
33,38,32,30,36,27,25,27,21,30,25,22,29,28,31,31,25,26,28,25,22,24,26,26,21,26,36,29,42,41,30,23
34,39,32,31,33,26,26,30,23,28,24,24,27,25,29,29,23,23,25,23,20,21,26,26,22,26,37,28,41,45,31,26
32,38,30,28,32,25,24,30,23,26,22,23,25,24,28,27,24,24,26,23,22,20,27,29,23,27,37,28,42,46,32,28
29,38,28,26,30,23,23,30,25,24,20,20,25,20,26,24,22,21,22,24,24,21,30,30,22,29,34,26,41,45,30,25
27,37,28,29,29,24,24,28,22,24,22,20,23,19,25,25,21,21,19,22,23,21,27,29,19,26,37,24,42,46,28,22
28,37,26,31,28,23,23,27,22,23,21,21,24,19,25,27,19,19,17,23,23,21,29,29,19,27,39,23,43,45,30,21
30,38,22,29,27,22,25,28,20,22,22,24,25,19,23,27,18,18,16,22,24,20,30,32,20,30,40,24,42,46,27,22
30,36,18,30,26,24,24,28,20,21,21,22,22,19,23,27,19,19,16,23,25,20,32,33,23,30,40,27,44,50,28,22
30,36,19,30,24,22,23,29,20,18,21,23,20,16,21,26,19,18,16,24,26,20,34,32,22,32,38,26,46,49,28,20
29,35,18,31,24,21,23,27,20,15,18,22,20,16,20,24,18,18,16,21,26,20,33,31,24,31,37,27,45,49,27,21
29,32,17,28,22,21,21,28,20,14,18,22,20,16,20,24,18,18,16,21,25,22,33,31,25,31,38,27,41,49,26,21
26,30,14,28,22,19,19,25,20,13,17,19,20,15,19,23,17,17,15,21,25,22,31,30,24,30,38,26,38,45,24,21
25,27,15,26,20,19,19,22,19,13,17,19,20,15,18,23,17,18,15,20,23,23,27,26,21,27,36,23,36,43,21,21
29,26,19,26,20,19,19,22,17,15,19,20,20,16,19,24,18,20,16,20,20,23,24,26,20,26,39,24,39,44,21,21
30,27,22,25,19,16,16,22,18,16,18,19,21,18,19,23,16,21,19,22,21,21,27,27,23,29,36,24,42,45,23,20
28,27,24,24,17,17,17,23,18,17,19,17,21,17,17,19,17,22,20,19,20,22,27,26,22,27,36,22,42,45,21,21
24,26,28,24,17,19,16,22,16,17,19,15,18,18,18,18,18,22,21,20,19,23,25,22,19,28,35,21,41,46,22,22
24,28,28,24,19,18,14,21,16,17,19,17,18,18,17,18,18,22,20,20,18,22,22,22,16,28,31,18,40,44,20,22
25,30,26,26,19,18,15,19,17,19,19,17,19,17,19,17,17,23,21,18,17,22,21,21,15,27,33,17,41,44,21,23
27,33,28,29,18,18,16,18,18,20,20,20,20,20,18,16,16,24,22,18,20,23,20,21,11,26,36,18,42,46,22,24
28,36,28,35,19,18,16,16,19,19,19,19,19,19,17,15,15,23,22,18,20,21,20,20,12,27,38,18,47,46,23,25
30,35,30,37,21,18,14,14,19,20,21,21,20,21,19,17,17,24,23,19,20,21,20,21,13,28,39,19,50,45,24,24
31,37,31,39,23,19,16,14,21,22,22,23,21,23,20,18,19,24,24,20,20,21,21,21,13,29,39,19,49,47,25,21
27,35,28,38,22,20,17,14,20,20,19,22,22,22,18,18,20,22,23,21,21,22,21,19,13,27,38,19,45,46,24,24
25,33,25,39,21,21,17,16,21,18,18,23,20,21,16,16,19,18,20,18,18,20,18,16,10,24,38,16,38,43,21,24
27,34,27,43,24,23,17,17,20,17,17,25,20,21,17,17,19,19,20,19,20,20,18,16,12,24,39,20,36,43,22,24
26,35,25,41,24,23,16,17,23,17,17,25,21,21,17,17,19,19,21,19,19,20,17,16,13,21,40,21,36,41,21,25
27,35,25,39,23,21,17,19,25,17,19,26,23,22,18,19,18,20,22,18,20,22,20,16,16,20,42,20,36,39,21,25
28,33,27,37,22,21,17,19,26,17,18,28,21,22,16,20,21,19,23,21,20,22,22,20,18,22,40,23,35,40,20,25
23,33,27,37,24,21,17,18,28,18,18,26,21,20,18,21,23,19,23,20,19,22,22,21,21,22,36,20,34,38,20,24
24,32,28,31,22,22,20,20,26,20,18,26,22,20,18,22,24,20,24,20,20,22,22,20,20,22,37,20,30,40,20,24
21,32,25,27,20,21,22,22,26,20,18,25,21,19,17,21,23,20,23,19,19,23,23,18,18,23,37,18,29,40,19,23
20,34,22,27,19,20,19,21,27,18,15,23,21,17,17,21,21,19,23,19,20,26,21,19,19,25,39,19,29,40,19,21
21,36,22,27,19,17,16,19,27,16,16,23,19,17,17,20,20,19,24,20,20,23,22,20,18,26,36,18,30,41,21,18
23,38,21,27,19,17,17,18,27,16,15,25,20,17,18,20,20,20,24,20,20,24,22,20,18,26,35,18,30,41,22,18
23,39,18,28,17,14,16,17,28,18,16,24,20,18,18,20,20,20,24,20,20,24,22,22,18,28,33,19,33,41,24,18
26,41,19,30,17,14,17,18,27,18,16,24,21,18,18,20,21,21,24,22,22,24,24,22,20,29,37,20,32,41,25,17
28,42,20,34,19,18,16,18,25,18,14,21,19,17,17,19,22,20,25,22,22,25,23,22,19,33,37,22,32,42,25,20
27,42,20,34,20,18,16,18,25,18,15,19,22,17,17,20,20,22,24,21,24,26,22,20,20,32,38,23,34,42,26,22
27,39,17,31,20,19,15,19,21,17,15,19,21,17,16,19,19,21,23,20,21,25,21,18,18,31,39,23,31,41,25,21
26,40,16,32,21,18,14,18,21,16,16,18,21,17,17,19,19,21,23,21,21,25,21,18,21,32,39,24,33,42,25,20
29,42,18,35,22,19,14,18,22,16,16,18,20,18,18,20,18,20,23,20,22,24,22,18,22,32,39,25,33,44,26,19
29,41,21,34,24,19,15,19,22,17,17,19,23,17,17,19,18,20,25,20,25,23,25,18,24,32,38,26,34,46,28,23
31,41,23,35,25,21,17,21,23,19,17,21,22,18,18,19,17,21,21,17,23,24,25,21,25,33,41,27,35,43,27,25
29,42,23,33,25,23,15,23,22,17,16,18,20,16,16,18,18,24,22,20,24,26,26,22,26,35,44,28,38,46,27,26
29,41,26,32,26,26,16,23,22,18,18,20,20,18,18,20,20,24,24,22,24,28,26,20,26,35,43,25,36,46,25,27
28,37,25,30,29,26,16,22,23,18,18,20,21,18,18,20,19,23,23,20,22,28,24,20,24,34,41,23,38,47,24,28
26,37,26,29,28,24,16,20,24,18,18,20,22,20,18,18,18,22,21,20,22,25,23,20,25,33,41,24,40,48,27,28
26,38,26,30,30,26,16,20,23,18,18,20,23,20,18,19,17,21,22,20,20,23,22,20,24,32,42,22,40,47,26,31
27,39,27,31,29,26,17,20,25,20,18,22,24,25,21,23,21,25,23,21,22,24,22,21,24,32,41,22,43,49,27,32
27,38,30,30,32,26,16,19,25,20,18,26,26,25,21,23,21,27,24,20,23,24,20,23,22,32,39,21,43,46,29,31
25,34,28,28,32,25,14,20,24,19,17,28,26,24,19,21,23,27,23,19,22,23,16,22,24,28,37,23,43,49,30,32
28,33,29,27,30,27,15,19,23,19,17,27,24,25,19,21,22,26,21,19,19,21,15,23,22,24,34,24,44,46,26,29
26,30,26,28,28,26,14,21,24,19,17,25,25,27,23,23,25,30,23,19,19,24,13,17,21,23,33,23,43,45,26,32
26,28,28,30,29,24,16,21,25,20,19,27,25,29,26,27,25,25,23,17,19,19,11,17,20,23,32,22,45,46,27,34
25,30,27,28,31,23,17,21,25,19,17,25,25,27,25,25,23,25,21,15,18,17,11,16,20,22,37,23,44,44,28,35
26,31,25,29,29,23,15,21,22,19,18,24,22,26,24,24,22,24,21,17,19,16,13,17,21,23,36,25,43,45,31,31
28,29,26,29,26,20,16,22,23,20,18,27,21,27,25,27,24,24,20,16,18,16,12,16,18,20,36,24,42,46,28,27
28,32,28,30,24,18,17,23,22,23,19,27,18,27,25,26,26,24,19,15,17,16,10,17,16,18,36,22,40,46,28,24
29,32,27,30,25,17,17,23,22,21,19,25,20,23,23,23,23,21,21,16,16,16,13,19,19,19,38,25,40,47,28,24
29,36,24,33,22,17,17,24,23,21,18,23,22,22,22,22,24,19,23,16,15,16,14,18,18,16,37,26,40,48,25,24
32,38,27,35,21,17,18,23,24,22,19,20,26,22,23,23,21,21,25,17,16,17,16,22,16,18,39,26,41,46,23,23
32,39,28,33,22,17,17,27,23,25,19,19,29,23,23,25,21,23,24,16,16,18,16,22,16,20,38,24,40,44,26,24
32,42,30,32,27,20,18,25,24,25,20,20,33,22,20,23,19,19,23,17,17,15,17,23,19,19,41,25,43,45,26,22
32,39,28,31,26,20,18,24,23,26,19,19,35,21,18,21,19,21,23,17,17,17,19,23,20,20,41,28,39,44,26,19
33,38,29,31,23,19,17,24,25,28,21,21,35,21,17,23,21,23,25,20,18,17,19,24,20,20,37,27,37,47,26,20
35,40,34,29,19,18,20,24,25,25,20,21,35,22,18,23,21,23,25,17,17,17,19,25,19,21,38,26,35,46,26,23
33,40,33,28,22,20,22,25,24,25,22,19,36,19,20,23,21,24,27,19,18,19,21,26,20,22,42,29,37,45,28,25
33,37,33,25,21,21,22,26,23,21,21,19,35,19,19,23,19,23,25,19,19,19,22,28,23,25,43,31,41,47,27,25
34,39,34,25,23,24,22,26,23,23,22,19,33,19,20,24,19,23,23,20,19,19,22,29,21,27,43,29,43,50,29,29
34,36,38,23,22,27,24,27,22,22,23,18,29,19,19,23,20,23,20,20,19,18,26,32,26,32,45,29,44,51,33,29
31,36,38,24,22,31,29,31,21,25,23,19,25,19,19,23,19,21,19,23,20,18,29,31,27,33,46,27,42,53,32,32
33,36,38,26,21,31,32,30,21,24,26,22,22,18,22,24,22,21,21,27,21,19,31,31,27,35,51,27,43,57,33,35
34,35,39,26,17,32,34,30,18,23,25,21,19,17,21,25,23,21,22,28,20,20,30,30,24,35,47,28,42,59,34,33
37,37,40,29,19,34,36,27,19,23,25,21,21,17,21,25,23,23,23,27,20,22,32,30,24,36,49,28,44,61,32,33
35,37,40,29,22,35,35,26,17,21,25,19,21,17,20,23,23,21,23,25,21,23,33,29,23,37,53,29,47,59,34,31
35,33,37,30,24,37,35,26,20,27,25,20,24,17,19,26,26,24,26,30,21,26,34,29,25,38,53,31,50,57,32,32
38,38,38,30,25,38,34,23,20,26,24,19,24,19,19,23,26,24,25,29,22,25,34,30,24,40,52,31,49,55,34,31
40,42,40,35,26,40,34,24,23,27,23,21,23,19,19,23,25,23,25,29,21,25,33,26,25,43,53,32,49,55,36,32
41,44,43,36,26,41,37,27,24,26,23,24,25,20,19,23,25,23,29,30,23,27,33,28,26,44,54,35,51,53,38,29
41,46,43,38,28,40,37,26,23,25,26,28,28,22,22,26,28,25,30,30,24,30,32,27,23,43,55,37,52,53,37,29
40,51,44,40,30,41,35,23,22,23,27,29,27,23,21,27,29,25,29,28,21,32,29,28,22,45,56,38,53,50,40,29
40,51,42,42,30,42,33,21,23,22,27,27,25,23,21,27,29,26,30,26,20,34,28,28,24,46,54,40,54,50,40,28
43,55,43,44,29,42,35,22,25,26,30,30,24,28,24,30,31,29,33,28,23,35,31,31,27,49,57,41,53,48,41,29
46,59,44,42,28,40,34,24,26,25,34,30,22,28,24,32,30,30,34,30,27,33,32,32,30,47,56,42,53,47,44,29
44,60,41,39,25,38,35,25,26,27,35,29,22,27,26,31,27,29,33,29,25,33,30,34,30,45,56,40,51,46,41,29
44,63,45,43,27,37,33,24,23,23,35,29,19,27,27,29,26,27,31,25,26,31,32,34,30,46,55,38,52,51,42,29
45,60,46,43,25,38,34,26,23,23,36,31,18,27,27,30,27,29,31,25,27,31,31,33,33,43,55,37,53,53,41,31
44,55,41,39,23,35,33,25,23,25,39,29,20,29,28,30,28,30,32,26,28,32,32,34,32,42,54,35,52,51,41,33
44,53,40,38,23,34,32,26,24,26,40,28,19,30,29,31,29,31,30,25,29,33,33,34,33,40,55,34,49,51,41,33
42,50,36,35,24,31,32,27,26,29,40,25,17,31,28,31,29,31,32,25,30,32,32,30,34,40,54,32,48,50,40,34
45,44,35,34,21,27,32,31,27,31,38,24,18,30,28,30,28,32,32,25,31,29,30,27,33,38,50,31,49,51,40,33
43,44,38,31,21,27,32,33,26,29,36,24,20,30,26,28,26,30,30,23,32,25,29,27,31,35,53,31,52,49,37,31
41,42,34,29,25,26,30,31,25,26,34,22,21,29,24,25,23,27,28,23,31,25,29,25,31,35,55,34,51,50,37,31
37,38,35,27,26,27,30,32,24,28,31,23,21,29,25,23,23,23,25,23,28,25,27,25,30,34,53,35,55,49,35,34
40,36,38,28,26,28,31,32,24,27,29,23,25,31,26,25,23,23,24,23,28,24,27,24,31,36,49,37,57,51,36,35
40,33,35,26,24,31,31,33,24,28,29,22,25,30,25,24,22,22,24,22,28,24,24,24,30,36,50,38,56,47,37,33
38,34,32,27,27,32,30,33,25,28,27,21,25,29,24,25,21,21,23,21,25,25,25,25,29,37,51,39,55,48,35,29
39,37,31,29,30,33,29,33,24,25,27,21,25,28,23,27,23,23,23,20,25,25,25,23,27,37,46,38,52,49,36,31
36,34,30,29,27,31,26,30,23,23,25,21,23,27,24,28,24,23,23,17,23,23,21,20,22,35,42,35,50,47,33,33
35,35,29,27,25,29,23,27,22,21,23,22,22,23,22,25,19,21,21,15,23,23,23,19,23,35,44,38,49,48,31,29
38,39,25,24,25,27,20,22,25,19,25,25,23,24,24,24,19,21,21,16,20,23,22,18,23,35,45,36,47,48,29,26
38,38,22,26,26,26,21,20,26,21,25,24,24,24,25,27,21,22,22,16,17,25,22,16,24,36,40,32,44,48,30,29
38,36,21,26,24,24,18,21,28,20,24,24,25,24,24,26,20,22,21,13,17,24,20,14,22,34,36,27,44,47,28,30
41,36,20,27,25,23,17,21,30,19,23,23,26,23,23,25,22,22,22,12,16,24,20,13,21,33,37,25,44,49,27,29
41,39,19,27,29,21,15,20,28,17,21,24,24,22,22,26,23,23,22,13,16,26,22,15,21,33,39,26,43,48,31,29
40,40,20,27,31,20,16,22,29,19,22,25,23,23,22,27,23,23,21,13,15,25,22,16,20,33,39,26,42,49,30,31
40,39,25,27,31,19,15,24,29,20,24,25,26,23,22,26,22,22,22,14,16,26,21,14,19,31,37,24,42,50,30,32
43,39,28,26,32,19,16,22,29,20,22,27,26,23,23,25,21,20,22,15,17,26,23,19,23,33,45,30,46,49,29,30
47,43,28,27,36,22,16,20,29,22,22,26,29,21,21,23,19,19,23,15,19,29,27,23,29,36,49,34,48,50,33,27
49,43,31,29,36,27,19,22,30,25,22,24,30,24,22,23,21,19,23,17,21,32,27,23,27,36,47,32,48,48,32,28
47,41,32,31,39,28,22,23,29,26,21,20,28,23,21,23,21,19,22,16,22,31,30,28,31,37,49,37,48,47,33,30
48,41,34,33,39,27,18,23,29,24,22,23,27,23,20,20,18,17,23,16,24,29,30,30,31,39,50,40,47,48,33,27
49,42,37,35,41,30,21,24,27,25,23,23,25,21,21,21,19,17,21,16,23,28,31,31,29,41,53,41,47,48,35,25
46,41,38,37,38,31,20,25,26,24,22,22,25,20,22,21,18,18,21,15,25,28,32,31,31,43,48,42,46,46,34,24
46,41,43,38,36,33,21,27,28,25,23,22,26,20,22,20,18,18,20,16,24,26,30,29,30,42,47,42,46,46,32,25
48,38,42,39,35,30,20,24,27,23,21,21,27,19,21,19,19,19,21,19,25,27,30,28,32,41,47,42,48,47,33,24
46,37,39,37,34,28,21,24,26,21,21,21,23,19,21,19,19,19,21,19,25,26,29,29,32,41,45,43,49,46,32,24
42,39,40,36,31,27,20,24,23,21,19,19,22,17,19,17,17,18,20,21,25,24,28,27,30,38,40,42,48,48,32,21
39,38,43,36,28,27,21,25,24,20,20,18,20,20,20,18,18,18,18,22,22,20,26,24,28,36,39,38,45,50,28,25
40,36,40,35,29,23,20,25,23,19,18,17,19,18,18,17,17,17,17,21,19,17,23,23,27,34,42,37,45,51,31,24
36,33,40,33,27,24,18,26,21,17,19,18,20,18,18,18,18,18,18,24,22,18,24,20,26,35,40,37,46,51,31,25
34,32,38,30,26,24,19,26,20,19,22,16,20,18,18,20,20,18,18,22,24,18,26,20,26,34,40,38,46,52,30,25
34,29,37,29,23,21,16,28,19,19,21,15,19,17,17,19,19,17,17,22,27,17,25,21,27,33,39,37,49,53,29,25
33,29,34,28,25,21,16,25,22,18,22,16,18,18,16,20,19,17,17,22,26,17,25,22,26,34,43,36,47,54,32,27
34,29,29,28,25,21,15,23,22,17,21,15,17,19,15,18,18,18,18,20,26,18,27,23,28,35,43,34,51,54,31,27
31,33,29,29,26,21,17,25,22,20,22,18,16,22,16,18,18,20,20,18,28,18,30,20,30,38,42,33,50,52,32,29
34,32,31,29,25,24,21,25,21,19,21,17,15,21,15,17,17,19,19,17,27,17,30,19,29,37,42,34,47,50,31,31
38,26,27,30,25,25,21,27,22,20,21,20,18,24,16,20,18,20,20,16,26,20,29,18,29,40,45,33,48,49,31,32
40,27,26,30,26,25,23,29,20,19,23,20,17,22,15,19,17,20,19,15,25,19,29,17,27,42,45,36,51,49,34,31
39,28,27,32,24,27,26,32,20,20,23,22,20,24,18,21,19,19,21,15,25,21,31,17,25,43,43,36,50,48,34,33
40,30,28,30,24,26,26,30,20,19,21,22,20,24,17,19,17,17,20,13,23,20,29,17,23,41,46,33,51,45,34,32
40,33,26,29,23,30,28,32,21,18,17,23,21,25,19,19,15,19,21,15,21,21,29,17,22,41,47,30,51,40,35,31
39,38,28,30,23,35,29,31,21,18,17,23,21,25,19,19,15,19,21,17,19,23,28,16,22,40,49,34,52,42,34,35
43,40,31,30,23,36,31,31,18,22,18,26,23,26,18,19,15,19,21,19,19,21,29,14,23,40,49,36,50,42,33,32
41,38,32,30,23,36,34,33,19,25,21,27,23,25,19,21,17,19,21,21,21,22,28,15,21,37,49,35,48,42,36,31
40,38,32,26,22,38,33,33,20,23,20,24,24,22,18,20,16,16,18,20,18,20,24,14,16,35,50,35,44,42,34,29
39,40,33,27,24,38,30,32,22,22,22,26,24,24,19,21,17,18,20,21,20,22,28,18,20,37,52,34,46,43,37,27
34,43,34,27,29,38,31,29,21,24,22,23,21,21,20,19,17,17,19,21,21,19,29,19,21,35,51,31,44,41,39,30
33,43,35,25,27,38,31,29,21,24,20,23,22,21,20,22,18,17,20,21,21,20,28,19,21,31,52,29,41,42,35,27
31,41,34,24,28,36,28,28,21,21,20,21,19,19,17,20,16,18,18,22,22,18,28,20,22,28,51,28,42,39,34,26
33,39,33,25,27,37,29,27,21,22,20,23,19,20,18,22,18,22,21,21,21,19,27,21,21,26,48,29,41,42,35,25
35,38,36,26,29,35,29,25,20,21,22,22,18,18,16,20,18,20,20,22,22,19,25,21,23,26,45,31,44,47,34,27
34,38,38,26,33,33,29,26,21,22,22,22,20,19,16,20,18,20,20,20,24,18,28,21,25,28,44,27,42,45,36,24
33,37,33,25,33,30,27,25,23,20,21,20,19,17,17,20,18,19,19,19,23,21,27,23,25,29,44,27,42,45,37,24
36,40,31,25,34,30,25,25,22,15,19,21,19,19,17,18,16,18,18,18,22,21,27,24,27,31,44,30,46,43,35,22
37,39,29,30,35,29,26,24,21,15,21,21,19,19,19,19,17,19,19,19,23,21,27,27,30,32,44,31,47,43,33,21
36,40,26,29,36,29,25,24,19,16,19,19,19,17,18,18,16,18,17,18,21,19,23,25,29,30,42,29,47,42,31,21
38,38,24,28,29,28,23,25,20,14,20,20,20,18,18,20,16,18,18,20,20,20,23,25,27,29,43,28,49,43,27,17
35,35,22,27,29,25,23,26,20,13,21,20,20,18,18,18,16,18,18,21,21,22,24,25,27,29,39,27,49,40,27,19
38,37,24,30,29,26,24,26,20,14,21,22,20,20,18,19,17,18,18,21,21,22,23,25,29,31,39,27,47,44,27,21
37,41,25,33,29,29,23,29,20,15,23,21,21,21,20,18,16,16,16,21,21,22,23,23,29,34,41,29,48,44,31,21
36,40,22,34,29,28,20,28,20,16,21,22,22,21,19,18,16,16,16,23,20,21,25,25,31,36,44,29,46,44,34,22
37,38,20,34,26,28,22,26,22,18,22,22,22,24,22,20,18,18,18,24,20,21,24,26,29,36,43,31,45,47,34,22
35,38,23,33,25,31,23,27,22,18,23,23,22,25,23,21,19,20,20,24,20,20,22,24,27,33,43,29,47,49,34,23
33,39,25,33,24,30,23,26,22,18,24,21,22,23,25,22,20,22,20,24,22,20,22,24,27,30,43,27,44,52,34,25
35,36,27,31,24,32,25,27,21,21,25,21,21,23,25,21,19,21,19,23,21,19,21,21,26,30,44,26,46,52,35,24
34,34,28,34,24,30,26,28,22,22,26,22,22,24,26,22,20,22,20,24,22,20,22,20,24,32,43,26,43,52,34,24
35,37,31,37,25,30,28,26,21,24,27,25,21,25,25,20,20,22,20,22,22,20,21,23,27,31,43,29,43,52,35,27
39,40,33,39,25,33,29,25,22,24,26,24,22,24,26,20,20,22,20,22,22,20,20,22,28,32,44,30,44,53,38,29
40,41,34,40,26,32,26,21,23,23,26,23,23,23,27,20,20,23,21,22,22,21,20,22,26,30,46,32,48,50,36,29
41,38,34,39,26,29,29,18,25,24,24,22,23,22,26,21,21,24,22,22,23,20,22,23,31,30,44,30,47,50,34,32
39,42,36,38,28,29,32,21,25,24,24,24,24,22,26,22,23,28,22,20,24,20,24,21,29,28,44,32,47,50,32,31
38,40,34,38,27,28,32,22,23,22,26,24,24,20,26,20,24,26,22,20,24,19,26,20,28,29,46,30,45,46,31,33
37,38,32,40,29,28,34,24,21,22,27,23,24,19,25,19,23,25,21,19,23,19,27,20,29,31,45,32,43,45,31,32
36,36,30,39,29,31,37,25,21,25,27,23,23,19,25,20,22,23,21,19,21,19,27,19,29,33,48,30,45,46,31,31
36,38,29,41,26,28,34,24,23,22,26,24,23,20,24,22,24,26,23,18,21,19,29,23,31,30,45,30,43,46,32,31
37,37,28,37,28,27,32,25,25,20,26,25,25,20,24,21,23,25,23,17,19,21,31,23,31,31,46,31,43,46,34,31
37,36,27,36,28,28,32,26,24,22,24,24,28,18,24,21,23,27,21,17,17,19,31,21,29,31,43,31,42,47,34,31
38,35,26,38,32,28,30,24,24,22,26,26,28,20,24,22,24,28,22,18,18,18,32,20,30,32,45,30,42,46,32,27
36,35,26,37,31,31,32,28,24,24,28,28,28,20,26,22,23,28,22,18,18,18,34,22,30,34,46,28,41,47,35,28
35,39,27,36,35,30,30,30,22,22,29,29,26,19,25,21,24,26,20,18,18,19,32,21,26,32,46,26,41,48,35,25
35,39,25,39,33,30,29,27,20,24,34,30,28,21,26,20,22,26,23,19,17,19,29,24,26,29,44,25,42,49,35,25
37,41,25,43,34,33,27,29,22,23,31,30,28,20,24,20,20,26,22,20,16,20,26,26,25,25,44,24,43,49,36,24
38,47,28,45,34,32,27,27,25,25,31,32,28,22,26,20,22,24,20,20,14,22,28,24,22,26,46,20,44,48,38,26
41,47,31,47,33,27,23,25,25,24,29,32,28,22,24,19,23,25,23,22,17,21,29,23,18,24,42,23,42,46,36,25
40,45,32,46,35,32,24,26,25,26,28,34,27,22,24,18,22,23,21,22,17,21,27,19,15,26,45,22,41,48,32,26
38,50,34,46,33,34,24,24,22,27,26,33,24,22,24,18,23,23,21,23,19,21,25,19,15,25,44,21,43,50,34,29
36,48,35,49,33,33,23,23,24,25,27,31,24,24,23,20,24,22,22,22,20,22,24,18,14,26,44,18,44,50,34,29
35,50,40,48,34,32,24,23,25,27,27,33,23,23,23,19,23,19,19,19,17,21,21,17,11,25,46,17,45,53,37,29
34,48,38,48,35,29,23,20,24,25,25,31,24,25,20,20,27,20,20,19,17,22,18,13,10,22,42,17,44,54,33,28
35,46,42,48,31,30,24,22,30,29,26,30,26,28,21,21,26,20,22,22,16,26,18,14,10,21,43,18,43,52,30,29
37,44,42,46,30,30,22,23,30,29,22,26,22,26,20,24,24,16,18,20,14,25,16,11,9,23,47,15,41,51,30,31
34,43,44,41,31,28,24,22,28,32,25,29,19,29,21,25,25,18,21,19,13,25,15,9,9,24,44,15,41,50,29,29
36,42,46,39,29,31,24,23,25,32,25,30,19,29,21,27,25,21,25,21,15,25,15,13,11,23,43,19,43,50,27,29
34,43,48,38,31,35,28,23,27,33,29,32,22,31,24,30,28,19,23,19,11,29,13,13,14,24,45,18,41,49,28,33
34,43,48,39,31,34,30,25,28,31,29,31,24,31,26,34,30,22,26,22,10,30,16,16,16,25,44,18,44,49,33,33
35,44,47,39,29,32,29,26,29,31,33,32,28,33,30,38,33,24,29,23,9,29,17,18,16,26,44,19,46,47,33,31
37,46,46,38,31,33,31,27,30,31,35,33,28,34,31,39,35,23,33,25,11,31,19,19,17,27,43,23,45,47,32,31
36,48,40,39,30,33,30,28,30,31,36,32,28,33,34,40,36,24,34,26,12,30,22,20,20,30,42,26,44,44,32,33
36,49,40,36,30,33,31,29,33,33,39,35,30,34,38,42,36,26,36,29,11,30,26,23,21,33,43,29,45,43,34,32
37,51,38,38,34,36,30,27,33,29,37,37,31,33,38,44,37,29,37,28,13,29,29,26,21,41,41,32,47,46,38,36
38,49,39,39,35,37,33,27,35,29,38,38,31,35,39,41,37,29,38,27,14,29,34,25,22,42,37,32,47,46,37,35
41,50,38,39,34,34,30,26,37,24,37,36,31,31,37,39,35,26,37,28,15,29,35,28,22,42,36,35,49,49,36,35
38,46,36,39,33,32,28,26,35,21,37,33,32,29,35,37,33,25,35,25,20,28,32,26,22,44,36,34,49,49,36,33
38,48,33,39,31,30,27,30,32,20,35,31,29,28,33,33,29,26,34,26,20,25,36,26,22,45,36,32,49,49,37,30
38,51,33,37,30,29,24,27,34,19,35,29,32,29,32,30,28,24,31,23,21,25,35,23,23,45,34,33,49,47,35,29
39,47,35,38,30,29,25,26,35,19,33,30,31,29,29,27,27,22,28,21,22,24,34,23,22,43,39,32,49,45,33,28
36,45,34,36,29,26,21,24,31,19,31,31,29,27,29,25,25,22,27,20,22,24,34,22,22,42,40,30,50,45,34,26
36,42,34,34,26,28,22,25,29,20,29,29,29,30,27,23,23,24,28,20,22,26,32,22,20,38,41,28,48,44,30,25
35,42,33,35,29,29,22,26,28,18,27,27,27,29,25,21,21,23,25,17,24,25,32,23,20,36,43,25,50,42,33,24
34,42,32,32,26,24,22,28,22,16,26,24,26,26,24,18,22,22,24,18,24,22,30,20,25,36,47,21,48,43,31,18
34,43,30,34,28,25,21,29,25,14,28,28,25,30,23,19,23,23,24,19,24,22,26,21,24,36,49,22,50,41,36,20
33,44,30,35,28,24,21,31,22,13,25,27,25,31,24,20,23,23,21,16,23,21,25,18,24,34,52,19,48,40,36,20
30,43,26,32,28,21,20,29,23,14,21,27,23,31,25,21,23,22,22,17,18,19,27,20,26,31,53,23,49,44,38,21
32,39,24,31,29,20,17,26,26,14,20,27,22,30,28,22,24,21,22,17,19,18,23,21,26,29,52,24,49,45,39,21
31,33,19,31,29,16,19,24,23,13,19,27,19,29,27,21,23,21,22,17,20,17,21,21,24,27,58,24,50,49,39,21
31,36,16,32,31,16,19,25,21,13,19,25,20,27,29,21,21,21,24,17,18,19,24,20,25,30,56,25,49,52,42,24
34,38,17,35,32,18,21,26,24,15,19,24,22,28,30,22,22,20,22,16,18,18,22,18,26,31,54,24,48,54,41,24
34,39,19,37,31,17,19,25,24,15,20,24,22,28,28,24,24,19,21,17,19,17,25,19,29,33,53,27,49,56,45,27
37,39,21,37,28,18,19,26,21,18,19,23,19,27,27,23,23,17,21,17,19,15,23,17,31,33,54,29,47,61,44,30
38,39,21,41,27,23,18,25,22,19,22,26,21,30,31,27,25,19,22,19,21,18,22,21,31,33,53,33,48,60,43,33
36,38,23,39,22,23,15,25,19,22,20,23,25,28,34,25,23,19,23,17,21,17,25,21,33,31,52,35,47,62,39,31
39,37,24,38,26,25,16,22,20,24,20,24,26,26,33,25,24,20,25,18,23,18,27,23,35,35,55,39,51,62,41,33
44,42,28,42,29,30,18,22,25,25,22,26,27,28,32,24,24,21,24,18,22,19,29,22,36,38,54,35,49,59,40,37
43,44,28,43,31,32,20,28,24,25,22,28,30,31,28,24,24,24,24,18,24,20,32,24,37,41,57,37,50,58,39,37
44,50,32,48,34,34,18,32,24,26,22,30,30,32,30,24,24,24,24,19,24,21,35,25,39,43,54,37,50,55,40,39
44,47,34,46,36,35,20,31,25,26,22,30,30,32,28,26,24,24,22,20,26,19,32,26,38,42,54,38,50,57,38,36
44,47,35,46,34,35,19,31,22,23,21,29,29,31,27,27,25,27,23,23,25,19,33,27,38,40,56,37,49,56,38,37
46,48,34,46,36,34,20,30,23,22,21,30,29,31,27,27,25,27,23,23,25,19,31,27,35,40,58,37,51,56,36,35
46,47,33,44,37,31,21,30,25,20,21,29,33,31,27,27,25,27,23,23,25,21,31,29,35,41,57,37,51,53,35,33
45,47,34,41,38,31,22,32,24,22,20,28,32,28,25,25,21,23,21,23,21,19,31,29,34,36,57,37,50,53,34,29
46,47,33,38,39,30,25,31,24,22,23,30,30,27,23,26,24,24,20,26,23,21,29,32,32,35,59,38,48,51,33,28
43,48,32,39,33,30,27,30,23,20,23,29,31,29,23,25,23,23,21,27,22,21,30,33,32,36,58,37,47,48,34,28
42,49,32,39,33,28,28,32,20,21,24,28,31,26,23,26,27,25,21,29,23,23,27,33,28,37,61,36,48,48,37,23
42,47,35,38,31,29,29,29,23,21,26,28,29,27,23,28,28,23,22,30,22,24,26,32,28,36,59,36,49,50,34,23
40,46,35,35,27,32,31,28,23,23,25,27,29,25,21,29,29,23,23,31,21,23,24,33,28,34,58,37,48,49,32,23
39,47,33,36,22,31,29,28,21,25,24,26,26,24,20,26,30,24,23,31,21,24,23,33,27,31,53,35,47,44,29,23
39,49,32,35,21,32,31,29,23,25,25,26,24,24,22,22,26,22,24,28,22,24,24,33,28,32,52,35,49,45,29,25
39,49,32,30,20,34,30,29,22,26,25,24,24,23,23,19,23,22,23,28,21,23,27,33,26,34,48,35,51,48,28,25
40,53,32,31,19,38,32,28,23,25,25,25,22,23,23,19,23,21,23,27,21,23,27,33,23,35,45,33,51,49,29,27
41,53,31,35,21,33,29,25,25,23,25,25,20,25,23,19,25,23,24,24,22,23,27,30,21,35,44,30,51,50,29,27
41,53,33,33,21,34,29,25,24,23,24,24,18,26,24,22,26,24,24,23,20,21,27,27,21,35,43,26,53,50,28,28
40,51,34,29,23,31,26,27,26,26,26,24,18,26,26,24,28,26,24,22,20,22,24,25,20,31,40,24,52,52,25,26
42,48,32,26,20,32,26,25,25,26,25,21,18,29,28,23,23,23,23,20,20,20,23,23,20,29,33,24,53,54,21,26
42,48,30,22,20,30,25,23,23,26,23,21,17,25,27,20,22,23,22,18,18,18,22,22,18,28,35,24,52,52,20,25
43,48,29,18,21,30,24,22,23,26,23,19,17,23,25,19,21,23,21,17,19,19,21,20,15,27,35,22,50,53,19,23
40,46,30,15,24,30,25,23,26,25,26,19,17,23,27,19,19,21,20,16,18,17,22,20,16,30,40,22,50,57,20,23
40,42,30,11,25,27,26,25,25,24,27,21,17,25,27,23,23,21,19,19,17,17,21,22,15,30,42,26,49,56,21,23
37,40,29,16,27,27,27,27,28,22,28,24,18,26,28,24,24,21,19,18,19,19,19,21,18,27,44,23,47,52,23,25
35,36,29,14,28,23,25,29,25,23,28,23,19,25,27,23,23,23,19,21,20,21,19,18,20,27,42,22,46,53,26,23
33,38,30,11,25,27,27,27,25,24,27,23,17,25,27,21,21,22,18,20,18,22,18,18,20,29,44,22,46,50,25,25
35,37,30,16,25,30,24,28,25,22,26,21,19,23,25,19,20,19,17,20,18,23,17,18,20,30,44,23,46,53,27,26
40,42,29,20,28,35,27,29,23,22,28,25,23,25,28,19,20,19,19,20,18,21,19,18,22,33,48,25,47,53,30,29
35,41,29,24,30,33,25,31,23,22,30,29,25,23,29,23,24,22,20,22,20,21,20,20,21,33,53,25,45,51,33,29
35,40,30,28,28,34,24,32,24,23,30,28,27,28,31,27,27,23,21,23,23,25,20,23,22,32,51,25,47,52,32,31
35,39,32,33,31,33,25,33,21,25,32,29,28,29,34,28,26,24,23,22,24,26,22,26,24,36,51,25,47,55,31,31
42,43,36,37,30,36,26,35,17,23,34,32,31,30,35,31,29,29,25,27,27,29,23,26,26,36,51,29,50,56,34,30
44,46,39,39,30,40,25,35,18,27,34,32,29,30,34,30,28,30,24,24,26,30,22,24,26,36,53,24,51,56,35,31
44,50,42,37,28,38,26,35,16,27,32,30,28,28,32,30,28,30,25,25,25,29,21,25,25,37,54,24,52,56,32,29
45,53,39,41,29,38,24,32,19,28,31,30,29,28,33,30,29,30,25,24,24,27,24,26,26,40,56,28,51,54,29,30
45,52,37,43,30,38,24,33,17,27,33,29,31,27,31,33,31,31,27,25,25,27,25,25,25,38,54,31,53,57,30,30
43,55,37,44,31,37,25,34,18,29,33,29,31,27,31,33,31,32,28,24,26,28,26,24,27,38,54,30,53,58,29,30
41,52,34,43,30,32,23,33,20,27,29,26,28,24,29,36,29,32,26,25,27,28,26,25,25,39,50,32,55,58,28,29
41,52,36,44,31,36,22,31,22,27,27,26,28,27,28,34,28,30,28,27,28,30,28,26,27,38,48,33,53,57,27,28
42,55,41,43,33,37,24,31,23,26,26,25,29,24,28,32,26,30,28,26,26,29,29,24,29,41,47,34,50,62,31,30
40,56,39,42,29,36,22,32,27,23,24,26,32,26,26,30,26,28,28,26,28,30,30,21,29,40,47,36,50,58,34,30
38,56,37,40,27,32,21,29,27,25,20,24,30,24,24,27,23,25,27,21,26,29,29,21,27,39,45,33,51,55,31,33
38,55,32,43,26,30,20,27,26,22,20,24,33,26,24,28,26,28,32,24,31,30,30,23,28,41,42,36,52,56,29,29
38,51,28,44,26,30,18,24,27,23,23,27,37,29,23,31,29,29,35,23,31,33,31,23,27,41,40,36,51,54,32,30
40,50,32,42,24,33,19,26,24,20,25,27,35,29,25,33,30,30,36,25,30,34,30,23,25,38,43,34,52,57,32,31
39,49,34,41,24,32,20,29,25,19,25,27,33,31,27,33,29,29,35,25,31,33,29,23,27,39,44,30,52,54,34,30
39,47,35,41,27,30,21,28,24,19,25,27,33,33,27,37,31,32,36,30,32,36,30,26,26,38,46,34,54,54,37,30
41,49,36,43,29,35,22,27,25,20,28,30,33,35,28,35,33,31,37,31,31,37,29,27,25,34,46,35,52,53,36,32
41,50,36,43,28,31,26,28,24,20,30,30,30,36,28,38,36,32,36,30,30,36,28,26,26,34,47,37,53,57,36,34
40,51,34,44,26,31,27,27,22,21,31,30,30,35,27,39,35,32,36,29,29,34,29,25,25,31,47,36,52,52,35,31
45,50,36,43,28,32,30,26,20,23,32,32,26,34,28,40,36,32,34,30,26,32,29,29,25,31,48,37,55,53,35,33
45,51,35,45,33,33,30,26,22,20,33,31,28,35,29,41,39,31,32,31,26,29,28,30,24,29,47,37,52,55,36,32
41,50,38,41,34,32,28,26,23,21,32,29,27,31,27,39,35,27,27,29,23,27,27,28,23,29,48,37,49,55,38,34
43,51,39,40,40,33,29,27,23,21,29,29,27,31,31,39,33,29,25,33,21,25,27,27,25,29,51,37,51,58,40,34
41,50,38,41,42,31,29,29,24,22,31,28,28,32,30,38,32,30,24,31,22,24,26,27,25,27,47,37,51,54,39,32
40,50,39,43,40,31,30,27,22,28,30,26,28,33,28,37,33,31,24,31,23,24,27,29,25,27,45,40,51,53,40,32
39,50,35,42,36,30,30,28,22,28,30,26,28,30,26,34,32,28,20,27,20,20,27,27,26,28,44,35,47,53,38,31
38,50,36,42,31,28,33,30,23,25,29,23,26,28,24,33,31,28,18,25,20,21,29,27,29,30,44,31,46,53,41,29
40,53,32,45,31,29,30,32,22,24,28,21,26,25,23,29,27,27,17,23,21,18,26,25,27,28,44,27,48,50,42,26
39,48,27,43,34,28,26,31,20,25,27,22,24,27,25,29,29,29,17,24,20,19,24,24,24,29,44,23,50,51,43,29
36,46,24,44,34,28,24,30,20,27,29,21,24,27,28,31,31,29,18,28,24,22,26,21,23,31,44,20,47,50,44,27
