Fp1,AF3,F7,F3,FC1,FC5,T7,C3,CP1,CP5,P7,P3,Pz,PO3,O1,Oz,O2,PO4,P4,P8,CP6,CP2,C4,T8,FC6,FC2,F4,F8,AF4,Fp2,Fz,Cz
1.1821122420179095,1.2553641040945978,1.1982536644828699,1.2038280779069856,1.1979831874510907,1.1628890506711216,1.1696473906879155,1.125356967566074,1.1400040256747732,1.1116223314818416,1.1050911209799295,1.1101632968319533,1.1190784651545251,1.11721269138852,1.1337946214084573,1.143435294464833,1.137851540032141,1.1437714945594164,1.141899608563648,1.1281930984537047,1.1402945459029754,1.1364041684035355,1.147897917716149,1.158187639289769,1.1462232908046879,1.1375654657237941,1.231550033331691,1.1465769731725113,1.240692724221949,1.1721010248518429,1.190206544346396,1.1163591003691766
1.175268001834054,1.2521120645859842,1.1892200574276304,1.1835983624784059,1.1678782052412813,1.1621533044289578,1.2089284457165805,1.1603610959407613,1.1627059374741195,1.107414301131921,1.0975663018668225,1.110867872108045,1.1220222969623517,1.1007166133355228,1.097390663515659,1.1087756726249005,1.124155891818855,1.1237126949040948,1.1295152632490812,1.1151210502954336,1.1221040559170932,1.133261532273546,1.1377567646081228,1.1354682352584233,1.1358928398244117,1.151636045781227,1.2540992725415743,1.1406894469148006,1.2256234772526227,1.1772520445535506,1.1883845673632083,1.1390514066594861
1.1809312812142911,1.2519118468956862,1.2079637644497894,1.186195833335996,1.1713741355147353,1.153161518791318,1.1754061264136495,1.1989163505526004,1.1495228907519937,1.135847913900077,1.120127388134325,1.134718403451501,1.0987738369829065,1.1218451337292914,1.1182375637637514,1.1253198023305413,1.149671592312881,1.1222603733168415,1.1194137804562245,1.1273366865387155,1.1229835846876095,1.1016610783230394,1.1516062282410262,1.1299008510967428,1.1371603120829619,1.174965131581025,1.2870057009492557,1.142149026675973,1.2174587814215074,1.177634490190898,1.1940890004546025,1.1634250194776816
1.157053107823895,1.2289711412480993,1.192851991640364,1.1471696895381376,1.145186938594557,1.1311650987690913,1.1632175146432129,1.1727920809172439,1.1348228397948246,1.1092556008702505,1.106056145306994,1.1204950041798676,1.0825206694741827,1.1077219159584204,1.0994687759516426,1.1123369248450385,1.136342246239111,1.0934079769310108,1.0900563170436894,1.1013958286988899,1.0902166000243634,1.0971429109634878,1.1397715691109551,1.1243547167994419,1.1243741742042117,1.147518002701701,1.2518350126152993,1.1394040107039822,1.2319080918592502,1.1577162313012983,1.1353613269110328,1.1889006703343332
1.1416851651711364,1.21681446905997,1.1922488011815786,1.1503454695526765,1.1337356090631576,1.132004763639807,1.158730714825213,1.1650410612041664,1.1465930205488526,1.1166832678823235,1.1113480564502771,1.1120355122339685,1.1187426988476368,1.1035790639578649,1.1011892437624038,1.0960936759456366,1.1047995706891984,1.090788947381128,1.0986465845269544,1.0919077870747176,1.1008743060742483,1.1289197915372726,1.137024442986267,1.141163363488252,1.1319586454277637,1.1482126903841336,1.2578073852671716,1.1157669587711356,1.2568290513066083,1.1215346391918366,1.120573605206976,1.1693560683954858
1.1221278469129095,1.2189855314519429,1.1497606872795951,1.151776043229296,1.1362538591602187,1.1282736571751448,1.1212423708567445,1.140806297608609,1.1489772699285266,1.1091894030780205,1.1012778471781905,1.1143454684875804,1.1139168706710185,1.1031718817095801,1.1088625825629044,1.0966008085154937,1.0969748425573285,1.0886410182915747,1.0913598991580324,1.0782989856446454,1.0972367501856257,1.119213858955433,1.124076565803458,1.1198726731919313,1.1227697080012107,1.1494869812832174,1.2478002472145306,1.1282219059318486,1.233719103559965,1.1200166805826357,1.125618679774968,1.1442146840018124
1.1409900499604573,1.2491154330027334,1.136541426926587,1.1547471382123815,1.155773825850354,1.1255364921610302,1.1335454873170279,1.140185242467488,1.154227443392854,1.108366749120718,1.1073234145691104,1.1039462509184752,1.1265295492032188,1.1029917500923745,1.1173423084047667,1.1145136987202187,1.118665857841315,1.1080050087081992,1.1137322228747963,1.095057728657319,1.1150049092279173,1.1243991258750052,1.1394940324902962,1.1340374437786667,1.1343574905256133,1.1463959275353217,1.2160479967167346,1.186787374689456,1.2455898102399623,1.1315072258658236,1.133189635659159,1.144657470896921
1.1600995818002577,1.2420926398209664,1.1620292481418604,1.1553240102168698,1.1410984509101845,1.1222893565281686,1.1380678930696333,1.1525856889517163,1.1574228455040703,1.1077649563797303,1.1081737643540441,1.0970530377672514,1.1231187836640197,1.0903249965787345,1.1203474084132536,1.110922012312363,1.1470996172286743,1.1139118380866733,1.1179660255386905,1.1360310484343115,1.1344172027345614,1.1310940418294018,1.1528886883051088,1.177486152368784,1.1589189498494497,1.1481179179835848,1.2580888712030183,1.181711316656369,1.2661554381363949,1.141249998034534,1.155707826371721,1.1657378191820336
1.150002645086416,1.244108645887988,1.1816475940173392,1.1545834645282191,1.1402487592819222,1.1555021394340057,1.1376482430191222,1.1354511832619911,1.130626707205074,1.1025325507240307,1.1034410944375415,1.091748367535585,1.121115641629998,1.0935096173215069,1.110402885069011,1.1124509678162746,1.1421111507152881,1.120521530858497,1.1206801569873495,1.1270926975423283,1.1246254968368419,1.1401432219431027,1.146701445982176,1.1623159309740985,1.1671019335381447,1.1561673565864217,1.277161556247019,1.1563023183119112,1.242109048435938,1.1335771767710312,1.144535469208627,1.1414323984514607
1.1891237179955925,1.3056943136858963,1.2336768571965995,1.2146024036120904,1.1524246000867813,1.1866904968639298,1.2122806339011558,1.1518834413233188,1.1207198790703166,1.1212899184991163,1.132424665546354,1.1115154212098377,1.125829763433008,1.1260880648802132,1.1567583156683454,1.144345177754694,1.1706331559448198,1.1441448994908074,1.1297792758010154,1.1479929087314877,1.1417316769040973,1.1577574624534115,1.1719195541961838,1.180342862397517,1.1796142492677155,1.1691947531018414,1.2536185853616026,1.209093796911839,1.272860408838454,1.1948658921728614,1.1565574781774997,1.1570999358811214
1.1972463062533591,1.3219444273954426,1.2135034464048708,1.2317502240741618,1.1838999550808087,1.1713392550439037,1.2118638667145463,1.1865709881589424,1.187711375830575,1.1691343287031584,1.177652505416789,1.1948731191274042,1.1799016983736117,1.2052564681859252,1.2041826447230628,1.197769073669541,1.2153410517276217,1.1684918315788035,1.1630237384209496,1.1833600726407896,1.1742512644279095,1.1913426734400476,1.1941676219384334,1.2145179415883165,1.1893401399574277,1.174515835810984,1.261801711932374,1.1920723956918666,1.3016747867582905,1.1915922626285465,1.1851763662192605,1.1816881988444594
1.145200374506793,1.246177526206594,1.1377757877151216,1.1882087989306003,1.208750593089963,1.1598957932551845,1.2007326339199258,1.1929793654992087,1.2299124199656197,1.1554275955052737,1.1479376611809589,1.1825391844003985,1.1933890215484173,1.1778654298054445,1.178451722054902,1.1876886470196015,1.2090437524102227,1.1869346469725122,1.20668054993254,1.2122880789802721,1.1907734294578411,1.2099996984188064,1.2005709619624407,1.1867236869280953,1.1728060609757256,1.193543182159367,1.2701052726115216,1.1778445234366564,1.2490531090292087,1.1661179117072589,1.1906505982515725,1.1754816647980577
1.149144283269495,1.2038032071728817,1.132580756618387,1.1906173119416203,1.1693293633772228,1.143299635413692,1.1781727586364266,1.1661747572395376,1.1962291868786652,1.1029917654064318,1.0959391401326861,1.1437021021731897,1.203792908373996,1.1344379861901586,1.151403151747729,1.1508021158133181,1.1842244811822875,1.187441342093316,1.2222156613199147,1.1950707129559397,1.183050176042807,1.2196130211714435,1.1828261314607096,1.1500271786152112,1.166168538050025,1.179846587452326,1.2723657002587931,1.1902598585207296,1.231498524752704,1.1601065803346748,1.180027667686174,1.1924208267535004
1.1632932679116355,1.2023277415099665,1.1378915484894891,1.175844260915138,1.1543009161071385,1.1417057764454608,1.1895120015625211,1.1599574310753162,1.168080975831021,1.1351173234910568,1.127424050048652,1.1716185873082723,1.1701006018360407,1.17276968463509,1.1860882661070997,1.1506862776398872,1.1364781057898903,1.1608282401079253,1.1842145219018079,1.149945539124338,1.1653577213283715,1.2064717252811712,1.1926208911130993,1.1580414467590872,1.246533994357136,1.227999433876662,1.2946743780743757,1.2247687759457349,1.2120201520536351,1.19986296097555,1.1736035903913338,1.2423048595005497
1.1525614394390258,1.2202650104164303,1.1436391923853353,1.1555109063390232,1.12689575962133,1.1395679986827025,1.200023452036198,1.141112174076,1.1827526028036246,1.135374121555856,1.1568865311877978,1.151314466408633,1.1701069164782028,1.1639457904238548,1.1759980574260864,1.170598610268478,1.1666021106156501,1.1808530468835252,1.1811191208990266,1.1881534144068655,1.1723554793718287,1.1859122843096759,1.1906672173029516,1.1855537426110285,1.2156981184665745,1.2184472990434412,1.3008706944632353,1.2134067009098906,1.2309121184268175,1.155416733473953,1.1548225250634458,1.1595281277092406
1.1189319831864322,1.1941074267748713,1.1190046621271261,1.1389296365830677,1.1754229381236698,1.1204692512606602,1.1928729223302457,1.1560813156782113,1.1824966310614717,1.1336621358566543,1.141617567099838,1.1361351394962265,1.1592758997894694,1.1404722382720855,1.1492095949915295,1.139462942567451,1.1673841907374314,1.1372474141091504,1.1368878127456497,1.1305818629385722,1.1269254158725535,1.1470563869589387,1.1615795957711283,1.149988740437161,1.1455661955683734,1.1974683206482937,1.2480639622551262,1.1955679186135288,1.2566080738088894,1.143996940888315,1.1509128283121823,1.1742319726405996
1.1629951391243947,1.2518870621666163,1.1453352976896443,1.1642610153076969,1.157366651410079,1.1295517377250042,1.2073600587211906,1.1508327380379912,1.162802740781936,1.1309300432541267,1.1273521790157015,1.132012457476083,1.1536208167344422,1.1382953196441543,1.1403091203475426,1.1470632500529603,1.1610484057309796,1.1346663573256874,1.1172732614608525,1.1161371104027664,1.1214371779731809,1.1346555070918802,1.1383560833320228,1.152253629360384,1.1556121716365102,1.1537456055010655,1.274457541930202,1.1898804065279034,1.2350501837195347,1.1811160647390382,1.1588985282361197,1.1463285745057312
1.196332125121138,1.2624413951275932,1.1669729779395108,1.150740766160969,1.1714242900796406,1.1343536610254363,1.1862731411377643,1.1354264171404465,1.1621378512720995,1.1195285955919152,1.1200267161675217,1.1377737905108611,1.1375084235531545,1.1209125824993715,1.1315050416980594,1.1340856792916736,1.1355821925890268,1.1256806535094477,1.1143158043879968,1.112640370425253,1.125359180069995,1.1361956605577337,1.1598865851292361,1.1675031661828408,1.1797554252912916,1.1870234560406923,1.2962781623349362,1.1904628088653548,1.229260001651334,1.2039782868065279,1.1860024524436146,1.134034769148106
1.1606159102297642,1.2282053527997991,1.1417846808783954,1.1261258030913077,1.1709571895308926,1.1391965369767434,1.1808455257819488,1.1542492663785882,1.1709309568290032,1.157422991823263,1.1526377020666425,1.1650866747390625,1.1573213379952945,1.146306464417133,1.1362413174689563,1.148775306562206,1.1488913294901217,1.141961266736052,1.1426777052090893,1.1231312282122945,1.1452386359346103,1.1595039803413802,1.1636813026362411,1.172121437747601,1.1577914472706874,1.1732418941272615,1.2342753702966036,1.1804588367092415,1.2643825903113142,1.1638026768353793,1.1544921071349215,1.1539425053804369
1.1457094878055392,1.1995819191518333,1.1321548056785762,1.1395986603671553,1.1624614877429202,1.1362200641893703,1.1615803329814678,1.1283988975769192,1.1320903334709365,1.1158100838274774,1.1185362611602125,1.1086374383833966,1.1220307469312716,1.1071535493196878,1.1102936952386429,1.1349785123700402,1.133960049662808,1.1207053768177377,1.1158722651723323,1.1128642622109748,1.10928501589018,1.1208447239253168,1.1231425857427275,1.1218289167299718,1.1249682376275563,1.1324218513875417,1.2112671957890906,1.1523606011801366,1.2442409554274774,1.1272451492794577,1.124808035238598,1.145784127938607
1.1361104402777142,1.2010134590212402,1.1283000055190728,1.1284803245225656,1.1469587796343248,1.1079776705300735,1.1354708642737261,1.0999929920305436,1.1241103421791514,1.0841514828194567,1.093901331483636,1.0738806964236347,1.0923771583212822,1.0781718529744027,1.0950678787459593,1.093860472865062,1.0969641258804772,1.0800711162429464,1.0818095707970523,1.0760938612548814,1.0746822688733257,1.0899510821547695,1.0848405821216554,1.094660195621321,1.0950916027959616,1.0874831023294758,1.2195448719359754,1.1492931641289985,1.209303844799024,1.1069738113413765,1.1140062000412185,1.0945390827090913
1.1561269412904374,1.2373061733409465,1.179841144363586,1.1378068008647282,1.1154754536505835,1.127436632636123,1.1369760058807048,1.1105827136810662,1.1129901310995078,1.0721526526902214,1.0651246414162079,1.0502110273132974,1.0668584321953385,1.0494891426067219,1.0599812275250249,1.0577236980548754,1.0701542832231574,1.0629958854382395,1.079640186652943,1.073402291267542,1.1044158615185735,1.1250597239075975,1.1362976907541842,1.1270085823120854,1.144190267327069,1.1197035682861005,1.2807604076076142,1.1835143109005979,1.262897064136925,1.150543274202417,1.1179797459764822,1.110042899527773
1.2021733171743343,1.2410296074501195,1.2260213428002646,1.1781144847707798,1.1277226467815713,1.1460557243464766,1.1621350729583646,1.1596894637957744,1.135349559683527,1.0891677930811468,1.0861513368917006,1.0789533123850865,1.0835716409546552,1.0719372373530633,1.076635038370737,1.0853068851817746,1.0972306025833836,1.0941819340693133,1.0991407541873184,1.1066587718625847,1.113348541001392,1.1322404174841005,1.124356995942306,1.1455988302150908,1.1811950389399588,1.1593359277476236,1.2908042055879076,1.1710660000525126,1.2841875240631129,1.1788500779098998,1.16273807393321,1.1411508117361124
1.2264455831906613,1.2653732230706871,1.2414235896301922,1.1984444944087405,1.1881493603677666,1.168485110811109,1.1589352186126929,1.141908493918498,1.1748887179740177,1.1188088918012793,1.157958183150214,1.1732125735677341,1.1394224569246694,1.1696844643238056,1.1755384283251742,1.1773735451244032,1.1682925805739304,1.1342008733773252,1.1188941533732173,1.1534761604706045,1.1454268743465479,1.1051112939058365,1.1372851141621505,1.204139763844657,1.2210365730435249,1.175870268736061,1.2763050572993537,1.1805283126907458,1.24515255572612,1.18623026414769,1.196769135329086,1.1408422538443468
1.1946792770106478,1.3041002415852105,1.2166487135652433,1.2489070790748018,1.1880924658151182,1.1876333985339236,1.1847589909778975,1.1512238036136728,1.1663618572305148,1.111353737286699,1.1192553466127724,1.1393156832568245,1.1515143702417456,1.1287194360871766,1.1375013405122987,1.1484625791159684,1.1493420942573351,1.1068633029227228,1.1016163234502596,1.1153868229786554,1.1258958359183946,1.1067538809160313,1.121709854649966,1.1625117482995786,1.1935579121947464,1.1549832325574925,1.2997932299337362,1.1673158134583883,1.2478143236922332,1.1870901863343117,1.1518226780902903,1.1340930200622943
1.1568572644322732,1.2787237006862857,1.2037792259284439,1.2739540189705512,1.169299900820497,1.1937716478280012,1.173682070180088,1.1524111626484728,1.1135633377009428,1.1179090053121032,1.113113813713075,1.101189129459514,1.1068482224801164,1.101180608489658,1.1348073989830343,1.1473899656286592,1.171845990801519,1.0976468886481336,1.0997920650795492,1.1127453711671778,1.1256977294342254,1.0948391875566734,1.1162477792769099,1.1592390936022992,1.1656035212705882,1.143555422151343,1.3243495793386961,1.1750593194415275,1.2947335794185144,1.1750892866243348,1.1034896854862037,1.1405042383576338
1.1620556414155327,1.2217248512023924,1.1965228731109623,1.2727312765866743,1.1680667088468002,1.2229815183417911,1.1890752210597633,1.202566242344211,1.1354893697196518,1.1670278551081295,1.159193159143353,1.1389707217148228,1.1249813860660993,1.156573941914691,1.2075497273335833,1.189410137577195,1.1814282481152363,1.1372115946838481,1.1322032357069958,1.1420815394941404,1.1481372328930601,1.1260693099735408,1.158289227328597,1.1649830988255332,1.1885263327497755,1.161152826055836,1.3111226673530743,1.1962823169141823,1.2339555611099589,1.1913719122033595,1.1210528139691243,1.1606988819381332
1.166463863846833,1.215715512183092,1.173787542052252,1.2027830842492033,1.157639923222459,1.196688559118206,1.1780832721086199,1.1795169104346133,1.1823893460697887,1.192256656929069,1.1983101310355997,1.1793386966791326,1.1324105959347082,1.177775039015737,1.1977494006143916,1.1779472332477572,1.1601951340690797,1.1408112315663275,1.119223083672167,1.133471975750884,1.1393439438025708,1.1356827555061442,1.1655973927785612,1.182086724068117,1.2026516051858294,1.1973446183478487,1.2509966240077173,1.1720810538863484,1.2014030471317758,1.1909927792772288,1.1687602570196385,1.164418957731608
1.1529659839605106,1.251383104876479,1.1819805082782369,1.156577095034406,1.1508087480790283,1.1611180397658765,1.2063797423315872,1.1650536574324708,1.1745091597442034,1.1659477835184906,1.1938207440628104,1.1563177820167547,1.147350981694035,1.155739446968702,1.1959390000564496,1.193814236753464,1.1807198986579046,1.1533215830343357,1.1331429365549242,1.1619377799504853,1.1505823167298117,1.1436931404356252,1.128062664212724,1.190694153150706,1.208181287884717,1.1995502051600129,1.279980159581741,1.196312471976939,1.2750745232366458,1.2045420016579151,1.143311898835843,1.135980234238349
1.177564177314764,1.2782028280772844,1.2325245917131922,1.2107959264670085,1.1189241163869128,1.1820895900263322,1.1969195254925702,1.190767419647491,1.1508522150312686,1.1384397007860203,1.1478264044861228,1.1312111820034496,1.126059288912744,1.1192671398356724,1.1445678704815838,1.1252278487485603,1.133676329700596,1.1001811585371315,1.1220675285665618,1.1350531353356643,1.1798831389212814,1.1488823461421755,1.1492259214365657,1.1577903419524163,1.1934372555481265,1.2160102866476559,1.3100333657359242,1.2016596742451817,1.2901820719551358,1.2149135199441845,1.1762598414750602,1.1332819609546623
1.1867805319744131,1.280293137610817,1.244590350946757,1.2097221752438245,1.10694389396145,1.208830009090988,1.169807191367357,1.1650463982786745,1.1590517262337683,1.1262700795450897,1.1301162477398394,1.1252564100040243,1.1178777617529767,1.1186722269338416,1.1182368446290967,1.106341836151788,1.133747974936083,1.1142433166470551,1.145420957205244,1.172430046810406,1.2383926018747242,1.1808810792794882,1.1648100747778365,1.270534068637917,1.1773017841719642,1.145613091084297,1.260178601193128,1.1749700168291797,1.2649041939442722,1.1879121617333908,1.1295151763445612,1.1369674839267025
1.2586912761770914,1.2844698385242679,1.2730565624527501,1.2253318402256055,1.1505106352504904,1.2092337299837201,1.2255938730068197,1.162584302670112,1.1248514748606022,1.1476239827331718,1.1688887569570514,1.120708783441948,1.1302737045583393,1.1242191085078836,1.1417376278635167,1.1361537353794229,1.138761389811462,1.156580522013207,1.190611133247067,1.2395563841940669,1.2976176725866855,1.177765095731598,1.2167818973210964,1.3324882383099628,1.2928520503343743,1.1991272902378332,1.3004230072755,1.2556438525673663,1.3043044423143062,1.243394576357041,1.1669131904023946,1.1471710429102917
1.2499681673638365,1.2474583033792597,1.2412131398177308,1.302302675243764,1.2304996261193035,1.2188255571156716,1.174887357793949,1.1613653015930285,1.176231730783679,1.148171714050045,1.1800946000675392,1.1580737907906378,1.179052861069772,1.1678192090603683,1.1839964466032138,1.1828087910236982,1.1801414341097294,1.2014165706195499,1.204001117258123,1.2408968589427734,1.28004746978255,1.1380850138902698,1.196734835193286,1.3084639745883542,1.321903442151818,1.235250531089238,1.2964728961779395,1.3099755589788853,1.3192220412720073,1.2378636260879312,1.2368494587772827,1.1134847923692561
1.2565040508999443,1.266699560371917,1.2542970369245279,1.3489413899105733,1.2500419954177078,1.2481209664844277,1.1779178700090394,1.184141578702724,1.1900677403966944,1.1689314046169537,1.167293442478423,1.1810650757300523,1.1851859565854315,1.1961524887839703,1.2084451031324912,1.2006021346557791,1.1923892296237388,1.1898698536581518,1.1965864814884122,1.2161956306831383,1.3121663436951527,1.1925738810137878,1.2835303776480762,1.236412326105389,1.3213223727183212,1.2953504663569038,1.2855617087761866,1.2776824222352645,1.3230779329198805,1.218368297754637,1.2504641257309885,1.1620002896197144
1.290033620441743,1.3339049243849135,1.2837809371226534,1.3484224412337154,1.196859792858486,1.2435024642102028,1.2813980607627562,1.1945240456658845,1.1566367651459093,1.1973031669489567,1.1817359002874066,1.177260590795231,1.1519361784894522,1.17020490831493,1.1863769542272589,1.1723341827124136,1.142063031581694,1.16089306145472,1.2037043703143169,1.2104710792412265,1.3487216318283268,1.2095568127139134,1.3053130658866507,1.3092034991779644,1.2745852177358101,1.2599346937034355,1.2609125862207775,1.2597214601102553,1.3122102291928173,1.2393084694614864,1.2285991111851555,1.2163964836019794
1.274772630550307,1.2652281709022,1.262102809396544,1.316566057826139,1.190522110156688,1.2235915361945984,1.243094837913817,1.2047092234673176,1.1524739582846135,1.203616439425087,1.185426587993597,1.1652771679013274,1.1368642668561857,1.1604543273670394,1.177280248903677,1.1580143187150356,1.1484485579793198,1.1392537899508106,1.1728974673108594,1.184684442596556,1.2762820410030786,1.154834845761326,1.2703065317310904,1.313175408220009,1.317172702872814,1.2342368056484918,1.2903759043260432,1.3150580932915552,1.3008385096654849,1.3012664749285103,1.2450087908074174,1.2148181836150327
1.2458062670374561,1.2052234947264813,1.2810063806939467,1.309123407875717,1.1870780704278225,1.2134246648200169,1.2084813385531326,1.1831139874877434,1.1579466037078276,1.1537187511142903,1.152688260715402,1.1511281009261654,1.1284726345386853,1.146008914528815,1.1693687365077186,1.1452248935682399,1.1445930423893012,1.1074323164102697,1.1157474420969682,1.1104625471029475,1.1972944345035457,1.1360862234680675,1.2632359704567975,1.2676238611945427,1.3319439147949996,1.233439671813628,1.2870130843911958,1.2926917633672195,1.273411808622811,1.263565577545503,1.226473010909383,1.2143772560140333
1.2449954280181066,1.2048189329698473,1.299671468199895,1.259052014354906,1.1485866453600855,1.266581495973153,1.2586543116292348,1.2329417951872823,1.1218765278097527,1.1116423045888515,1.1141833336792937,1.098503326064159,1.1069694552332259,1.0993239211298709,1.134733174307771,1.121252355240006,1.1118641917021566,1.0910086254267872,1.1223105504680846,1.089997532762704,1.2348223464714772,1.1994151982992505,1.2957222885173794,1.2846964027570855,1.278819718555552,1.257224892848552,1.2418790315957857,1.2275804313987648,1.2014780319604208,1.190221557517262,1.1522365798633567,1.264034782761585
1.2507157040860708,1.2217782634530807,1.2590387842984856,1.194201913319146,1.1479077453358548,1.2474319177598299,1.249986854409942,1.2223440227579834,1.137675814687683,1.1266871599770854,1.1196684213962038,1.1194136134341621,1.131134882635388,1.112155677784374,1.1276402279770554,1.132841057328396,1.1349990497242026,1.1244099027088166,1.155633340271275,1.1012348163676242,1.2415195012389053,1.240425185735482,1.3096390150391668,1.283989497112338,1.2739619616074547,1.2713567455716726,1.2348998622018084,1.1994512352333306,1.224516257292651,1.178174820684598,1.1675839790000895,1.2203534532338078
1.1839865436453954,1.2309862088329524,1.160977828081847,1.1629077405069381,1.1697127937837055,1.1498497898291369,1.1724374234662054,1.1783572142734533,1.1376211886997705,1.1114782144250912,1.1026405867170141,1.1185891026141772,1.1536863185071635,1.1192187145461583,1.1224078599142269,1.1263436975971242,1.1512279272637609,1.1555784588327433,1.1711663550527178,1.1388104188814816,1.1886152258234393,1.2164788024149207,1.24099539218168,1.1998015347425186,1.2504003622188877,1.2020294883276823,1.2779601053749605,1.2086673458495567,1.2722966797564244,1.1721370387625134,1.1889303910694013,1.155514941004114
1.1438959159697943,1.2489942963965697,1.1617592246605126,1.1616854005948478,1.131542809431779,1.1667006980865526,1.169625407694813,1.1409978884844683,1.126223409052855,1.1035547969908523,1.0873020058229734,1.0959426139121038,1.1463480926553988,1.0918741215761758,1.101467493731013,1.1069974880640605,1.1432932145864259,1.1280621668612834,1.1237064335514395,1.1393472497683734,1.1482389869623189,1.1447888327343378,1.1721181638532203,1.203056078497187,1.199615557212774,1.1500873616175211,1.2712366030109885,1.2057338653456653,1.2926182722932307,1.1413887619051952,1.1366624629414137,1.128490617911749
1.160595140636797,1.2705234892110555,1.1845939171358129,1.1857731191824805,1.13531264853108,1.1768669928824644,1.212848949272298,1.1550624121409954,1.1390197099044181,1.1110744535922326,1.101724590114807,1.1039859808075665,1.127950155185098,1.097530315545926,1.1093058120414938,1.113433101683083,1.1515661309067369,1.1020854141008816,1.0959448628242752,1.109320559533941,1.1353399491240739,1.131123650124097,1.191880307800753,1.2023710809543846,1.2475586860166188,1.1789265822326638,1.2165860766722685,1.2265741889887842,1.295929210163283,1.1724267325862443,1.1569646829987927,1.1315899635630506
1.1568723044883387,1.2285730878125525,1.1732155811256881,1.154108928887748,1.1600481848891422,1.171772820368261,1.2088454615033397,1.2159944091960952,1.130002061897172,1.1405209521628947,1.1115806462066355,1.1189026769112602,1.0966816136327655,1.112016976249873,1.117103432508065,1.1255968720324545,1.122284787493915,1.096698467023475,1.1028972302693525,1.1094020023061284,1.1486686480946733,1.1274115237656985,1.1934802485996516,1.2571206139134914,1.2214364302145053,1.194785698756082,1.2592246081760616,1.2462731611985431,1.260526352750439,1.1652133195921908,1.1657349890333222,1.1866216435873698
1.1884953196677004,1.2918040451118031,1.2238231698814719,1.14515341056278,1.1656938550800258,1.2043403531797652,1.1969739251840106,1.1726788616239319,1.1165727491035158,1.1256908498553069,1.0881514998533846,1.0851309859808405,1.083023727499903,1.0759879471792855,1.096409128232785,1.1082789017526093,1.0939143936908584,1.094928777091159,1.0864314928496033,1.105453619925407,1.1458291198392694,1.1045831371683,1.1718876153910227,1.2400338364598051,1.218716527555242,1.1815761510012337,1.2860045707783252,1.2108365077573515,1.2537614080173396,1.1857412401221927,1.1671283536075328,1.1651523371129813
1.2051272673494073,1.29031068114411,1.2169749395875953,1.1977591768971605,1.1611808678606392,1.2232764030741663,1.171081418009179,1.1903256918170129,1.124871389094602,1.1292006799758767,1.0894776394229462,1.0820916032413708,1.0798852696129144,1.068961964063409,1.0984542953475744,1.1040114410000557,1.1228587341696274,1.1035747601853447,1.0989309346217095,1.133692090498518,1.1585846161655662,1.0953087431525432,1.1919508046488607,1.2320531373559906,1.2700367953374814,1.2200852712357118,1.2850845571622593,1.2684790956576733,1.269153504469788,1.2446730140664723,1.19459171358918,1.1628381983209153
1.187829276100845,1.284545114408316,1.1765148145368312,1.2130473354251454,1.1599231668371877,1.222447991514087,1.179127503577295,1.1977484758254862,1.096660544596032,1.0961278338928337,1.072779309497323,1.0699574329079624,1.0560019657497335,1.0624734540200695,1.079269348822575,1.078436416129717,1.1163966972745152,1.0687848772912205,1.0756988646907102,1.1144819177913297,1.1341134703949847,1.088455762065487,1.1739198176082835,1.234268526482,1.3065238775965948,1.1816733830705475,1.2797315131735294,1.300758670710331,1.2716893095581916,1.257697769032327,1.2051334097638144,1.1618744902630582
1.2342743985999376,1.2917027511377184,1.2128518645156443,1.2200583376000276,1.16948459949,1.2207885451870002,1.1814903551945468,1.168929712511674,1.1350620511015719,1.0883119359996034,1.0751073256958559,1.081589194233542,1.1012420041937634,1.073932713167825,1.0815096660765449,1.0982265724079079,1.1086718489141907,1.0891802946217233,1.0966918024129395,1.1188888680114493,1.1557553301213475,1.1491607398293109,1.1947873049977338,1.2560027636341984,1.353412539516796,1.179216034130301,1.2876404180843641,1.2834196571163212,1.290830991615808,1.2221364783253523,1.1961863540997262,1.1746041866808585
1.2513800267079582,1.291168396712492,1.235400210862209,1.2297221199557664,1.165498961276084,1.2212965365482347,1.1884573809065222,1.1679097831146448,1.1483410341903038,1.1064143220817158,1.0941950482980833,1.1053424061847679,1.1458704564796651,1.1029127457810841,1.1057066638816009,1.125494497519286,1.1348592462487876,1.1284119417487841,1.1309903813581048,1.1427858257756949,1.162076568166163,1.1415145138381513,1.164704680324507,1.2257416192005777,1.3085099760305074,1.1573677174993664,1.2839592522225065,1.275349939679022,1.2782614432113406,1.2376936064496007,1.1700204215784218,1.1362211561660474
1.2206343699066577,1.2842565328173037,1.2142003874891911,1.194142905613657,1.1478950199810685,1.2126407285790064,1.2153598050274734,1.145769554022556,1.1245121345476097,1.1055793120838355,1.101676511399467,1.0799058750759958,1.1083461733353306,1.083135279581893,1.0873800778539144,1.092881566322978,1.1063146645919366,1.0915604386763524,1.1098297323048345,1.121622489848265,1.1303711359009991,1.122590789577775,1.1414581909777024,1.1690953951069698,1.2495571014659328,1.122088347482561,1.298150128812465,1.2554728340134855,1.2537217319107123,1.2076100559660983,1.1301241821453532,1.1176574495890692
1.1792379695097566,1.2733667098826098,1.217536629914806,1.155200579992599,1.1600089612293656,1.1972138593267028,1.2018150275080204,1.13045806031544,1.1114016402195808,1.1272122106020017,1.1146790080839128,1.0698783541399017,1.0643994662189695,1.0689941364210311,1.0933793332734139,1.0794293085056041,1.0962523927237298,1.064203179868755,1.0707996960308546,1.1038951034241684,1.1028067115165459,1.0822037302263239,1.1549146213017478,1.1781660311814177,1.215311085080069,1.1877869546041808,1.286495002429948,1.2555888098920658,1.2984379126234658,1.195981347119293,1.1352319954194825,1.1536131034736516
1.1984971097099333,1.2574142261128638,1.2410184480255875,1.1790095903585647,1.1799146665066638,1.2116843950686276,1.2076514168980605,1.1641910534238504,1.083987674288643,1.1350939920408574,1.1242616712220188,1.0828563454373563,1.0512175324078348,1.0807277929474202,1.1228544254562702,1.0775481946795231,1.0868825153905384,1.0582139414469325,1.0562035003420218,1.0802110360906885,1.0916318676596002,1.0648868693962286,1.1385125950957162,1.136166532024694,1.1969067302235445,1.1926863542354835,1.2680741430361755,1.2165407397020311,1.3216961050177458,1.1649552693784782,1.1601557225952772,1.1592509306967915
1.217057210623837,1.2445323404189923,1.245463294581191,1.2070494472776965,1.167095610083731,1.250972749438656,1.2017474376321482,1.1534673459372706,1.1210522023718499,1.1296440503979646,1.1101959298985749,1.1118495143710359,1.0683232257297346,1.0999154727322458,1.1379635609267684,1.104082301850998,1.114864584695016,1.0855403300540987,1.0780140250820989,1.0932508761620885,1.110807752144697,1.1019475325874977,1.1162257945649763,1.1175795966623063,1.2141230711098792,1.1639692020653531,1.2858672550563761,1.1906658976349047,1.2737536193774721,1.1472060141019909,1.146007300753728,1.141102986483991
1.2084689673047244,1.2486229489741525,1.2249143579507087,1.19016121576873,1.168942264442876,1.2153524337131774,1.170833930613944,1.138417147064205,1.149483247570376,1.1303808518434955,1.1235910460451215,1.1335456115748357,1.1143176165268864,1.1268568796674505,1.1378361914145272,1.1213165239669909,1.1250230476391716,1.1136497578721536,1.1070475291949584,1.0943004110337147,1.1117537443011363,1.1528729647074838,1.128405251371036,1.1145584104879547,1.2197922482967096,1.1806951248350899,1.2917158660446764,1.2143901767171228,1.2619546487234625,1.1851906767177203,1.1669191284013738,1.147516094484624
1.2477847032376588,1.2466842569989798,1.2006383710898871,1.1633415861982574,1.1294059035705712,1.165020437824842,1.1483534779371993,1.1472277637070956,1.148702380456955,1.1321039380088773,1.12003888823322,1.138006881050111,1.1406882055506586,1.125132913107757,1.124950115366796,1.1272328033587737,1.1518242106212957,1.1238579163158644,1.1198329119925594,1.1184169986206418,1.1270383516997176,1.1553612053790976,1.157575890573383,1.1519455590799648,1.2137102014909715,1.1762335861830528,1.315552065626987,1.2754390452878037,1.306335099781661,1.2053705288171013,1.1784736072013402,1.1367767046797608
1.2685345569198676,1.2503329477951555,1.1902573210056173,1.1814981251423342,1.1487141674125827,1.1717862208494483,1.1391720189157204,1.1443698681156813,1.1417071031948727,1.105871623924346,1.0966470671582087,1.1150976373920507,1.1258000662418497,1.1158625990820241,1.1208928797676423,1.109239125925693,1.1081940754650432,1.0836932081635016,1.0812887388521844,1.0977483730217152,1.088067509505697,1.1034898681451002,1.1348449953175404,1.128741485478647,1.2482303285512963,1.1553910657372894,1.3224023294323666,1.2944849919202406,1.2865057433651386,1.2039020460079912,1.1950363789587586,1.1173519821078999
1.2180127371081724,1.2935052833435314,1.2141334704204774,1.1951096727191652,1.1470365671518266,1.2041244585036075,1.170361914481071,1.1346578922498185,1.1054845976174517,1.1341623024056,1.1208448026459066,1.1208947297944205,1.1102467300306151,1.1140489673096956,1.1381956744034847,1.127912270308337,1.1325930406248053,1.1032501606055904,1.102363238222668,1.1123867672128174,1.1138921552186134,1.1192345890008855,1.1653335113634216,1.1460818471439262,1.278629332787038,1.1556149534695817,1.277869750403878,1.2540951495565469,1.2781445201397956,1.1606036509530562,1.1708600347478042,1.1434708544263386
1.1889828116768058,1.268416470092322,1.203162981550163,1.1829052844004158,1.1156937791906392,1.17936141624674,1.1668025594821338,1.1331503588575067,1.1103737622751833,1.1050615401117627,1.0994233028752998,1.1135222134196967,1.1244965206831765,1.1119773339841275,1.1193132824937826,1.1260644035362688,1.1435886462679605,1.1196155004610295,1.1075815345665927,1.1234009985308389,1.1247828764150245,1.123245545318756,1.1593403046230346,1.1543988009873984,1.2364759822785287,1.168759186425627,1.2858347724830104,1.2405786549955837,1.289515506798098,1.1612563887000187,1.1675965974994733,1.132637275558269
1.1892264497653353,1.2191451221939664,1.1802939054630834,1.2213084827688354,1.1511162434432767,1.1737893451731078,1.157597929520895,1.1631344520188482,1.1337118210624586,1.10726262057794,1.0924176733723794,1.1114176295463236,1.0896718021241252,1.0837424126598343,1.0951843752118864,1.0976418784219306,1.1075988363169271,1.086542356832828,1.084267533374676,1.1088923426409036,1.1013783206308803,1.1025363475069927,1.1304267020117016,1.1496203246747407,1.2003705511423846,1.1710942458807903,1.303582837477085,1.202276224860009,1.209818087361523,1.1613575220144818,1.181926938550485,1.1388140623466887
1.2278697733402666,1.2693581821084874,1.2349414251562938,1.2405858910946614,1.1771051441216656,1.201463644538891,1.187408711893002,1.1900859076419652,1.1428008158186589,1.1549307437783014,1.1162008350885995,1.1089640399111453,1.072306644564594,1.0788938374344361,1.0965944485069712,1.0894758677709147,1.0844783790474917,1.071908598039343,1.081917453809868,1.1024210423046863,1.101201833131041,1.092369705197944,1.133191684268151,1.1408646830620046,1.2093643492307071,1.1421720518164433,1.3139801849125954,1.1686817777460432,1.2691320141897071,1.1670361238361129,1.2046411301373932,1.1491793263938892
1.255104280664946,1.2860892398659687,1.2532460721894882,1.2357351476186338,1.186037842006749,1.2353254759779067,1.2170020369502141,1.1710703278636818,1.1306312786061568,1.173297868524628,1.1426957310507746,1.107728623692219,1.0971057162343731,1.1012448495390397,1.1012257229455042,1.1143456312965836,1.1160391501857574,1.0993562866137438,1.1053613560166637,1.1259801289276083,1.144814122504463,1.1294832977383376,1.1833297969548067,1.1590259605072197,1.268996936192828,1.1824402838879362,1.3215145259662524,1.2303308954458367,1.330038355785882,1.2448013135080929,1.2302695133754464,1.1812057253068455
1.1935369254674784,1.255973339997851,1.2107258220976707,1.1799555291070027,1.1507982868877351,1.245430576049299,1.2250793032940732,1.1871448373889621,1.127580121523122,1.138167044888988,1.126323715000662,1.1058317158041195,1.0977715674501676,1.1229507791657427,1.133737552741177,1.1323548430121622,1.1455222477514466,1.1274214763709616,1.1291809200818015,1.1412703358841925,1.1701199658613832,1.1468119833943315,1.1852786493433696,1.1547448903435942,1.2116644373909624,1.1766338873868207,1.2767372462626818,1.2137212869055238,1.315930086587248,1.1915827367743226,1.1564014068519255,1.1482503124067733
1.228601760753299,1.2817186339017852,1.2379457850645075,1.2296854309748764,1.1695427502265743,1.2399357352419358,1.192571187347704,1.1715332753020105,1.1453689741216604,1.1250913641829179,1.118054997950517,1.1259685256256684,1.1102852533136816,1.1128576843649265,1.123138993949698,1.1164144795582305,1.1426810627363806,1.137694655462342,1.1529578434876817,1.1477052669813568,1.1610957702303044,1.1681634896214605,1.182590042829181,1.1914980261390637,1.224010569458063,1.1792340099673855,1.2865539979252205,1.2292932777018812,1.2923590012678268,1.1583915348154998,1.1556380780604008,1.1797093527293747
1.2283205506627215,1.289924342703525,1.2096421202584582,1.2574488303253197,1.163059606498365,1.2374205266543052,1.2029611518678869,1.1791829484294398,1.1384939353282826,1.12486389799194,1.1237982229994443,1.1237555121081222,1.1159035646517521,1.1037605568369933,1.1166858768817796,1.1107709012203857,1.1353858880396592,1.1174907120726634,1.1281501868232173,1.1324605566348365,1.1194102772252492,1.1527985212265672,1.131499922034829,1.1759140182120358,1.2330720875451062,1.1442160894211904,1.311051475119938,1.2686884962832756,1.2978702264581474,1.183845323009844,1.178597604122936,1.1551389606009637
1.1771673418808675,1.2844301556042907,1.205054266477765,1.2018527406207244,1.1395638125183136,1.2360244214162774,1.2825193497280662,1.1439729910928083,1.1220046778169752,1.1263148679037203,1.1498183480278004,1.0963147946547283,1.0838459367368263,1.0939722839337929,1.1451809126095611,1.1169419312498927,1.1273509442809997,1.0846613358595856,1.0952602528616464,1.1217904376192558,1.1075761929824708,1.116302018393271,1.118868102417512,1.1447381957998692,1.2314682567538433,1.1593174506334256,1.277497924021946,1.2407720480305797,1.2493896900877661,1.1861079170336335,1.1627829570701151,1.131032231095085
1.2116376174696804,1.2846364470338283,1.2433541162693236,1.1946972786876908,1.1543604539829118,1.2411744166056426,1.2372773654002849,1.114604717877749,1.1158304356944966,1.1061906042179426,1.1134858561648457,1.086573473330359,1.091009679651744,1.098253021178559,1.1260864930235228,1.1324342219280745,1.163308415205889,1.1197193874225162,1.1287151689785,1.138532851101013,1.132153630536481,1.131775578244236,1.1429265047262174,1.1526651656964215,1.2284947509437143,1.1507086022103856,1.2647827606265083,1.2352092607652911,1.2220471225003904,1.1990173686123238,1.1517144956932,1.1306077204354374
1.2193201353949592,1.2446320267491364,1.2710738250214566,1.202194325511876,1.1429755710591287,1.2195202378006518,1.1861867148526015,1.0994693591907279,1.1096502930640413,1.079767149855855,1.106106746308025,1.091131510379965,1.1062164963151195,1.1210043242996135,1.1364930550988241,1.1327933057046682,1.1609199786343196,1.1251896345474857,1.1279579560738702,1.1086460103034357,1.1280408760546181,1.1184221162013783,1.1354006017538243,1.141052306323869,1.2011867162826209,1.113331623380851,1.3020533793873643,1.2044246959142006,1.2447870070614453,1.1717793059061992,1.1441038741814953,1.1167605635863136
1.2125592588685177,1.2599218295195087,1.2670002904774487,1.1651870802257578,1.1225469303465334,1.2211957946036478,1.169364832463986,1.106070337655274,1.0787213312150403,1.0738378051988087,1.0796340024252895,1.063002398221928,1.0507725728476232,1.0716276294759042,1.0865755519442835,1.0709866670487027,1.079203213187288,1.057891110002262,1.065093607184562,1.0864684248412806,1.1079074781719167,1.0808876108656875,1.1553770999943922,1.176753765196487,1.1940793601986999,1.1429262010812498,1.2970658635112393,1.2156169382988589,1.2666554130472094,1.1590107131675285,1.1292450317463858,1.119789410982498
1.1920925252503898,1.2603315192332167,1.2191773993448227,1.1700951504672144,1.1147832720799107,1.2225327736298435,1.1638961783864934,1.1151925344447826,1.0799636525317173,1.1020073814554558,1.0724007175155843,1.0746428452693921,1.0585646919887677,1.063621444445507,1.0679512088951053,1.0773490737034017,1.079818641447561,1.0702895659681853,1.065071647258149,1.0898242809977354,1.0756926043848054,1.0855795747905166,1.133294559684323,1.1428471507583047,1.170896965099753,1.1253940796009774,1.280614677590194,1.221995643071173,1.2700111262378495,1.1249898658143092,1.1124136241094542,1.118923221132669
1.182543022564754,1.2408170209690668,1.1972358374941383,1.19367465302566,1.146994098794772,1.191514115544947,1.1595261977459523,1.1571021133076937,1.0955267450141621,1.120096540533984,1.0922427930663847,1.0919718335467925,1.057864023262255,1.0753906830445457,1.0716495785442501,1.0686362838663945,1.063269881680084,1.0628345002262514,1.0626546578214628,1.0686026535443758,1.0732544418128664,1.0771967480290194,1.1155182909217918,1.109991567079372,1.173395517951962,1.1229803393882039,1.2669790268664411,1.2161607906051244,1.276593940807038,1.1519019421809462,1.1309655232938811,1.12687859874346
1.1474930572489428,1.2331241809523161,1.194747663738073,1.152673766752186,1.1041631484557304,1.16148527837532,1.1754384846542614,1.1479016531111663,1.0635893631655369,1.0632693831257143,1.0559573121347339,1.045922064426305,1.0585023170253018,1.046428987560282,1.0534484942483946,1.0721018776243973,1.0845665349870928,1.0814042958818033,1.0900360079612788,1.0955152577106362,1.0896619778590528,1.1059423175476504,1.10600609761667,1.1376753033606053,1.1754398512689619,1.1037413240983422,1.2340322187914867,1.2049889884333664,1.2394815849544947,1.1438429180886056,1.0969720900465771,1.107472135278354
1.1392886663056652,1.2413273439337549,1.2046057754702881,1.2177081266004972,1.0953062276307957,1.2249467687659938,1.212293384600113,1.1630152759881247,1.076183771716694,1.0903384764498603,1.0472570266389742,1.0631619429459354,1.06329496164824,1.0538548353817214,1.0447622198664295,1.057710690461592,1.0603757159678466,1.0592597858504131,1.064812779464634,1.0555100846246792,1.0690542850002203,1.097819661048022,1.104863883305675,1.1294046923278247,1.1597802355633118,1.1271582359419514,1.2938220994342529,1.1974931199321606,1.2561899135729364,1.1308332393416816,1.1081891731108313,1.1286302507170776
1.1851653845028296,1.2348606073649713,1.2435362579615012,1.2412141469357505,1.1749940025008423,1.2534981902432378,1.2161196979992088,1.1697558420760146,1.1199302387200034,1.1412450906386697,1.085297450482509,1.084492936045363,1.0655693994236974,1.0614588247032735,1.0578054276918762,1.053784362186849,1.0757515563740485,1.054235746189396,1.0701683139301568,1.066324354871835,1.0716051851734003,1.1287689485856645,1.0993697775593734,1.1181191007546898,1.1777440133375008,1.1631782543100389,1.3201772229601425,1.2310093018836543,1.2852772579726586,1.1786255011841051,1.1543798387365511,1.1523286055570998
1.1585525600053277,1.2464515921170853,1.2330076812699406,1.1748220758151369,1.140747559133261,1.1962391242803956,1.1969130389171534,1.147811112527963,1.0968449940156675,1.1026187547822401,1.0847281397199393,1.0646311210080857,1.0817163788634665,1.0580748896163166,1.0724643418450606,1.0785623218695628,1.085446956336174,1.0850501121248612,1.0883209347042662,1.0815270144776645,1.0794968230097086,1.1276120137613492,1.0881782307722965,1.116509697514997,1.146039228551475,1.1342393005541582,1.2653154782319012,1.1532229693454055,1.2455925819796252,1.1435402090942697,1.1141151931111823,1.1393975870924027
1.19429056709463,1.2862793531039765,1.2526951719401165,1.2262236516249403,1.175643219311287,1.2471007696672887,1.199515305601572,1.1727095756194388,1.1051310763990148,1.0912725987809009,1.0928219749855663,1.0853982555675317,1.098197559425025,1.0799000678188813,1.096107918027686,1.0917528735837059,1.0885891846603168,1.0886289095662598,1.0955679715729745,1.0920912393058808,1.1058811434697482,1.147870975330747,1.120131091600069,1.1539087439340456,1.1657177661459706,1.1387293935868854,1.2431123836564237,1.2059889185972543,1.2898002192761437,1.2045557543772978,1.1383305215322332,1.1411685102244944
1.2509067214746272,1.320228126454419,1.2684274591237537,1.2465762608861564,1.194939995438532,1.3169480222090466,1.2165947359664357,1.233789992428552,1.157762101163788,1.1367578660114481,1.140788509694942,1.1426374646086173,1.1715799896865535,1.1350774181930772,1.1688018320990172,1.1569316171704966,1.1615213080756086,1.1659448555667848,1.185386050898187,1.1921241271814587,1.180330740851569,1.2099641079807806,1.1778307433381483,1.1705108542738567,1.1933182257945527,1.1772325994283623,1.294320825930987,1.259432407383277,1.3213329115766315,1.2281425864535551,1.1800562184023606,1.1596032194408465
1.2369777340378658,1.290728708681688,1.2307873909431342,1.257047847272578,1.1782203248982852,1.2683784897655774,1.2101681147056824,1.1981369861591717,1.1966222905958714,1.1427745207257303,1.1360791791165452,1.1514246604603402,1.185105025777995,1.1243899490068419,1.1400588648793488,1.1409958484939864,1.1466871084196284,1.1660630300061379,1.182942103252205,1.150428435909086,1.1622938395422582,1.1931487601184725,1.1756449096072594,1.1400782060551626,1.1791567036689992,1.1822779414576703,1.3010999850392924,1.206470202150496,1.2794219094094557,1.1931203013606075,1.1689443580919208,1.1611011285365465
1.2788826271661582,1.2829425073349232,1.2529785552517159,1.2547545000769995,1.1766725057529446,1.2985641689119491,1.1937438835448737,1.1897056470662215,1.1862961057175945,1.165045096678512,1.1598324674170228,1.177702580954121,1.1664451891647247,1.1548188157055463,1.1492868730052201,1.1408178321674554,1.135871362422843,1.1387235856444125,1.140651716802337,1.1169630990937025,1.131610957343445,1.1477765070875787,1.1441085731144123,1.1248258362387553,1.1806994310585397,1.182580826899017,1.2816878519212647,1.195100503168584,1.2812145687979164,1.2355211433346185,1.193218753684237,1.1736794293598287
1.2681005683092763,1.3153526024548294,1.288294213359719,1.2540208267724018,1.1468453429594976,1.2624007849958647,1.195952088922458,1.1534270384380165,1.1067034887398288,1.114923972209705,1.1060562562883884,1.1073263418219732,1.0943555106505425,1.0907049902547088,1.0882325788077192,1.0895351185148983,1.0873420962187894,1.077643594145321,1.0774470967016736,1.0725157789889597,1.0829603089880686,1.0892537535985996,1.1290814641741729,1.1085606141525413,1.1835239736605385,1.1449372416235322,1.2571444864428916,1.189423283257449,1.275442608766112,1.2340789133992962,1.15174530750859,1.1428578364608357
1.2197195057019539,1.309237401519177,1.2390131953462455,1.2428303702097272,1.140628057612391,1.2130399479277025,1.1993584884026836,1.1013248517889747,1.0830635296978546,1.0703461634229126,1.0656318528339974,1.062048059097131,1.0680177212477222,1.0561607248642861,1.0563897995699396,1.061671529772358,1.0777708760575704,1.053430294683072,1.0648113238750496,1.0578268963790751,1.0657540817262994,1.0893321965714315,1.1360321653322256,1.1059381555164487,1.1835061609269104,1.1409537436099706,1.267899846771233,1.1917926363677027,1.2853030293018322,1.210649130551212,1.140204980523724,1.113713023627615
1.202177706219108,1.2740244616466017,1.2053902757710102,1.2109171296724892,1.1782640849766495,1.253287973515947,1.173935639291244,1.106966332176675,1.125930504531878,1.102134472158253,1.1007594056610523,1.1027155536752538,1.119057038780836,1.1097069920609068,1.1141158712112746,1.114982630241617,1.1186923427973812,1.0894646881734167,1.0888822248249472,1.0972836783777131,1.0868188421254183,1.1059620841121747,1.1215402144863942,1.1314461537410652,1.1818288847587324,1.151114113565147,1.2726456824407748,1.1796262763341443,1.2897110463262655,1.1576653684406033,1.1769138996485073,1.114368872041107
1.1837048138696187,1.2609055820384427,1.197417664647717,1.173298408382417,1.1543963063508271,1.2173328727562482,1.1606745712980937,1.136304302285194,1.0939965852737912,1.11641662429333,1.1007487602156365,1.0975309649990508,1.0840067051587445,1.1048235344731923,1.1101030952458335,1.112295899020624,1.1170024444658846,1.0886220667921487,1.0822281035060797,1.0884955175070703,1.0819742121025269,1.087430457235969,1.0993285870264495,1.1301192362916848,1.182397210268994,1.1549494353116923,1.3002517064489032,1.1632546045342855,1.2757775004072085,1.143932873416877,1.145675099916592,1.1344873255127983
1.162105534606655,1.246214088424112,1.16932301906961,1.1263004372499874,1.0981154534237174,1.2070105802867492,1.1751454317618297,1.150274455523918,1.0645663093558344,1.1167148437796457,1.0839370181410137,1.0690115343177848,1.0550306164050816,1.0628723265416076,1.0638121937260003,1.0633152134466697,1.0622622891080928,1.0531373948824754,1.05137682220248,1.0520232487699275,1.0532294933810171,1.0587120966353292,1.0723268460495357,1.1135256097388198,1.153596261997939,1.1339767101504314,1.2794708008558453,1.1517060257679341,1.2862943068213941,1.1229431538683297,1.0880999725905105,1.128268519853714
1.1537315004220923,1.2177182063878909,1.1641130554908876,1.1487606835901274,1.0793856420402792,1.247541427721544,1.1451471099889083,1.183588158834604,1.0712813867638318,1.1091470389785132,1.0760019556804283,1.058487414828693,1.0531427125573363,1.0553600528025284,1.060164568367136,1.059902828496244,1.0564700513802094,1.0559076842146502,1.063426284854912,1.0748830455463916,1.0767689243512515,1.0649388912534485,1.0962178125896154,1.105120270900374,1.147357915773265,1.1068563516019259,1.2918237693299475,1.1465977071044144,1.2767662463148066,1.1105664822873553,1.1016542523915358,1.1070682347572518
1.1820880786388934,1.2493638300699947,1.2035464963581546,1.2285539496115772,1.1678772412345115,1.246387682542579,1.1161520847631157,1.1605566809071841,1.1278317335497987,1.0741296044966455,1.0818617628472325,1.0859379584454854,1.0946398603059593,1.073844503559834,1.0851161703774568,1.0829224735086465,1.0757832283463888,1.0718086782587852,1.0854802449344825,1.0803080116911254,1.0866811653279809,1.1028049851604231,1.1238062427320716,1.0974074522499502,1.1522808182791915,1.153827605444593,1.3016954273629795,1.1360695567381147,1.2571814785200432,1.1691026706724283,1.1572690696419399,1.1521252186363287
1.221915635881238,1.2861064898135854,1.2329112977710601,1.288732547364992,1.2014549497171243,1.2490467382206298,1.1488810394902709,1.152183148790253,1.202792982489721,1.0807593083812408,1.1073897151682224,1.1448219256209717,1.1560235392692684,1.130580823024,1.1341817889242793,1.1264193861669771,1.1349448925769974,1.1185859310167479,1.112581887199486,1.0946012714451534,1.0961476217962454,1.1389478462496507,1.1459921581253754,1.1116232524831837,1.1731799824381188,1.1857438257304524,1.2861205846504706,1.1884526672060818,1.2702506751574174,1.2382261103400038,1.1822241312357114,1.1953603496684422
1.2147050803042005,1.260476045847684,1.2209111141591653,1.3065236963055424,1.1872845260974978,1.2376832239256734,1.1475531772786562,1.1573675544262412,1.1987384362154354,1.1141359056991342,1.0967710606338674,1.112832080179215,1.1498144644996329,1.1122755636659696,1.1274115515470744,1.1387697296908568,1.1434668967125095,1.1356034276033857,1.1168359058373076,1.1044864665737912,1.1101239730925712,1.1416383985734253,1.1632277960113557,1.1192705021865854,1.2007708046796766,1.1931033672541589,1.2777110878560785,1.236032854696248,1.28168133185664,1.217668766847926,1.2151759756276999,1.1918462752194159
1.2654837180495269,1.2676634355392848,1.2883666306733454,1.2383424190001566,1.1697820278891808,1.248764737979369,1.139307714735766,1.1415864855495863,1.1649669449349922,1.112952127126054,1.0955130533446105,1.1102217368714302,1.097426880045465,1.0982398380597884,1.0981051456941664,1.0879036323030917,1.074493940524038,1.0658741721608356,1.0651508692474483,1.0619792411590372,1.0710016294222071,1.109308587535403,1.088765038281924,1.11534781447325,1.1595288668160957,1.1637151527270382,1.282171412129109,1.2119076258032584,1.2671260056700728,1.219218028642962,1.1953209017109727,1.1816596990163173
1.2337609283253619,1.2783270481788302,1.2878327315696134,1.2111768191205636,1.1545921524783294,1.25968779118779,1.1583161914675968,1.1589514100484477,1.2120617829757843,1.1190419264875322,1.106355871761272,1.1213336126390445,1.1396942214494465,1.1030176658410424,1.0917269960602314,1.0728593293467943,1.0734122940394053,1.057887359060511,1.0755064229157436,1.063501123336807,1.0859530901842078,1.1238804812557235,1.1312339253711332,1.1164758800386954,1.1614209725681923,1.1885159692865208,1.2407657452148988,1.1555406983411518,1.2367698654544301,1.204076386186381,1.1592999041899539,1.1837684329092972
1.1998924063026513,1.277023388501981,1.244075859322532,1.190198155343127,1.1574122930811326,1.2110327536975494,1.1510156630580517,1.1790421881178363,1.1992265233789805,1.1335455942376345,1.1269353009792624,1.126325166483734,1.1482247908990708,1.1178647357800486,1.1235734125135728,1.105027098292006,1.1307385694566645,1.089599943900923,1.115129438066383,1.1126135955678522,1.130716843296107,1.1438104777996032,1.166400010849213,1.1218343320681232,1.1846082590472398,1.1938749238432111,1.257814553324777,1.1738361579285297,1.2561796816777084,1.193065557905274,1.1692292067602994,1.1873204734555964
1.2016950827054849,1.2747684498886966,1.228668841629056,1.1616316808091252,1.1568923345052564,1.227366200151355,1.1965124493949912,1.1777289505127675,1.1321797521437527,1.1374527437649682,1.1163111145263145,1.107485407893129,1.1008950064776226,1.1098338147640072,1.111053365591114,1.0993119722953346,1.110204896962432,1.0823902145666442,1.097387858591745,1.1194723393195507,1.1439431782496812,1.1227717679472344,1.1657522193906258,1.1495428537642454,1.169066433066409,1.1707583102012595,1.3290260750662433,1.197552309377815,1.2335756947757683,1.179786640061984,1.1565743332581102,1.1575974070385888
1.1881219630280737,1.279594893933043,1.233826894189386,1.1898470936684957,1.1759095451959325,1.2516175299217693,1.1832848708399561,1.1734528900908603,1.11449694912097,1.154350629665711,1.1315388038005922,1.1120385739630254,1.1176334944368962,1.1237975502524262,1.1352136033535172,1.1443321139575067,1.1674840750795399,1.1397035410109853,1.1399268939714409,1.1867293717410536,1.190293911803869,1.1424080037472102,1.202836796711603,1.2234781612941592,1.2130111038885851,1.1658171596981806,1.3232060739831033,1.2001450891061065,1.2083292916404336,1.1876604042252308,1.1403837481197916,1.1666288930417779
1.1603503953918675,1.2378417414706537,1.2033063191751385,1.193300403657468,1.135365710099436,1.2365013636861548,1.1475126499645982,1.148351958321436,1.1298976664327354,1.0998299044101447,1.085535522889411,1.0853302092305592,1.1317190534977706,1.0832788374440745,1.0914814671874367,1.099484582325337,1.1227499987864074,1.1095507413114238,1.104016675251249,1.1094128125721905,1.1253247868348288,1.140640630244629,1.1428257886971465,1.1394700583867667,1.1579190690148942,1.1474987639668726,1.3236748652542227,1.1377596962889769,1.2620061231829978,1.1334431881755564,1.1217324900634387,1.1690681536046685
1.2024701985708306,1.2587167177409067,1.2307602692296595,1.195539289690562,1.1539352312239954,1.2419074111348045,1.1792207047022971,1.185662346684772,1.1444661115135077,1.1263509978250814,1.1023890290204872,1.1006100653523652,1.1286695113659662,1.0929148876168264,1.1053336401689022,1.099370706770482,1.106847210929338,1.103093827370208,1.1009548621549858,1.093986929912195,1.1127815237462917,1.133306424359275,1.117878663410012,1.119904671263034,1.1391668582273355,1.1340644091779715,1.325722698247255,1.1765467576237916,1.297320271214599,1.132333421816204,1.1389525781281191,1.177905410871819
1.2198676419042371,1.2608545175197623,1.2483710036828386,1.2078506772364892,1.1687454033474378,1.2226661711610947,1.1541921721128323,1.1751283634154037,1.1351380307337349,1.114569196605906,1.118032924898152,1.117041277033951,1.1233582876495785,1.1227825479857305,1.1327579688615717,1.1399196487509797,1.169699306755375,1.1400852988495735,1.131340662752983,1.1294026107684005,1.141283707768007,1.1356550967182157,1.150305288375787,1.1629078138260494,1.1470765867301274,1.1475329127462421,1.3049300746889811,1.1965563905917496,1.2660893747926938,1.1632607989142751,1.141619484868896,1.1864860772070476
1.212422238740784,1.249512309274052,1.2480175863817569,1.2263008279330543,1.1452328671165868,1.223213925970586,1.152411797492571,1.1499831735334023,1.1133918151581885,1.0636530558780126,1.0581944626186293,1.0565246531835206,1.07455016684617,1.0469329388807125,1.0586223964722796,1.0625274552929882,1.0978422056391206,1.0698955142232054,1.070309855837788,1.079307582116835,1.0964965841852223,1.1054055668258689,1.1433469894526302,1.1574251983528132,1.1612386683261824,1.1507295285739143,1.3018433825469744,1.2225146258575341,1.2557008004160852,1.2159972705872737,1.149885472097775,1.157290708872992
1.2234931268624558,1.240120682180287,1.221700495207775,1.2282728668241065,1.1527906794804517,1.2389312392210252,1.2140236938586424,1.1540313423718032,1.1169575675416499,1.0897784635760785,1.0736662229785148,1.0767591064043904,1.0944357037056005,1.0643707984191109,1.0772343921517866,1.0679858372596025,1.0722290413079287,1.0641851994148561,1.0712599442933817,1.0694881519151724,1.087626263919828,1.097565684097877,1.150478679038951,1.1309329717556529,1.2070104644500994,1.163528463023568,1.2788617665286397,1.2450889959834428,1.2990785124311925,1.2033909930105833,1.1791012136165089,1.1654059212836405
1.2171596621637075,1.2416566484513394,1.2034316402948573,1.2431432846372272,1.1421922316403887,1.1547046450933152,1.2332646520933952,1.1534792928363888,1.1350622724888122,1.1132653552400604,1.110197950655923,1.1075595585644449,1.1125853560399284,1.097065556579237,1.1155743515508358,1.1071593041716938,1.1215286599651884,1.0995495451532964,1.1029221471313861,1.1041228486070893,1.1192719888384741,1.1308611506032655,1.181601875459941,1.1245606563397494,1.2132010182877375,1.2170518585112657,1.2878209585957212,1.2354986250953082,1.3074734434543034,1.1983607854860823,1.1872459021527277,1.1800676249561537
1.2377963607665343,1.2790490976894928,1.2449636730318485,1.2915973061591703,1.1936439097657678,1.1614702206395435,1.1895505028369844,1.1572037059458877,1.1139295425682991,1.1065243358035015,1.1123449163833241,1.0997246228618731,1.1055387331325717,1.1026949664900425,1.1303298034817213,1.127016962427856,1.1405856070848412,1.1265931470736168,1.1167525415559028,1.1419723391190262,1.1347419104678536,1.1404456747722678,1.1629061404756063,1.1565689142475233,1.2150172481263157,1.1814957980422414,1.3025723334016912,1.2474000222544221,1.2990035273063218,1.2494724417073497,1.1840141361407268,1.1616904743767567
1.2510408246221951,1.2623867651201888,1.2715473854547932,1.24850842691943,1.170653028297045,1.1885623364449842,1.142235304536288,1.1353200176199765,1.0903023616831384,1.1066124507506963,1.1413385406679828,1.0988072367164468,1.108291760658554,1.1176286022418567,1.1443612010490547,1.1377056399482757,1.132147933564927,1.1156216994983341,1.103265015696654,1.122814121332944,1.117470421633902,1.1252197338928822,1.133686734212904,1.1510710355656262,1.1739514324976859,1.1368381240582877,1.3038488642940682,1.2574048926202466,1.3246612372954012,1.1980804146412596,1.1414950270958182,1.1500159019582101
1.221764344148825,1.2241763700881991,1.2478423957082452,1.2269620871451288,1.155560723318853,1.1873610184560937,1.1692814662382627,1.1506910497590666,1.0928371126740128,1.1305929059588333,1.1552173403064214,1.0822415912122878,1.060911146189965,1.081282541423736,1.0910517430568796,1.084901245531099,1.0908361458097373,1.0547142678735293,1.050769030109949,1.0735940695572828,1.0784874212563684,1.0773456226838503,1.1213675662899893,1.1583069996200623,1.1848639313734042,1.1433232880293962,1.3070989738156027,1.2320883470624746,1.2747631418097969,1.1705381755314335,1.1179297436863052,1.1418768952295588
1.1809384669080691,1.2312120717925872,1.1992026862393708,1.2020853490499956,1.1799944509506783,1.18007075829433,1.1739743676991556,1.1511432800023291,1.0859522178862606,1.1440441510902097,1.1720322145983983,1.0979842949915344,1.068004551903701,1.088123556413437,1.1039428998719354,1.0999175308518383,1.1209628713968225,1.0810976836658723,1.080793167428262,1.114244230646544,1.1209832940735427,1.082128546040557,1.1324450407320399,1.182611196312203,1.1941336209288846,1.1577807244623368,1.2830341898347124,1.238795185242545,1.2596765505556051,1.1901981215778685,1.1342444571232417,1.1620871465718376
1.197314236413918,1.278882670014189,1.2132419518544075,1.1911214038349889,1.192004580709846,1.204036193424742,1.2273456250305956,1.1556461732088186,1.114964035069145,1.1840747826082614,1.204418604884152,1.1387911146545233,1.1040390349448865,1.1375958141094673,1.1680539620889614,1.1552368502021353,1.1517107875893942,1.1297585408074948,1.1255516613812577,1.1600833656849319,1.1691815731626902,1.11902970114222,1.1652625205708513,1.2100604595942788,1.217087056324005,1.2194090146819876,1.280060744666658,1.2529500469358998,1.3010534437029866,1.2458713456310875,1.2141743544596542,1.1685589446844464
1.1830632829270866,1.2762595151653733,1.2069115808326414,1.1923159288820255,1.1753822419198556,1.212044470743219,1.2087561505404496,1.1595128443618472,1.1369018328906808,1.172917082906699,1.1984232441178255,1.1318756467892837,1.1120229669941901,1.1359140366375609,1.1769434748316079,1.1677428409329116,1.1932908068812695,1.1577559304881138,1.1653626827517467,1.1916262196200147,1.1961591933856655,1.169750563055426,1.1873674909409948,1.1898917021649746,1.1824113633195599,1.2367846477424913,1.2800694527921272,1.2083498939517205,1.274609520977073,1.2160157290842841,1.1839169899782223,1.1802093045027098
1.1595205111394706,1.2726789518340336,1.2066581413294195,1.2432549264772088,1.169292949224416,1.1852476113702943,1.1942416047288003,1.1648460629845523,1.160204858735152,1.152279147851435,1.178150576267931,1.1439704035262142,1.1235868909506586,1.1316868517204548,1.135969490510852,1.1382835676327117,1.1396121714846177,1.1351874316160748,1.1504586198512887,1.1159620624626423,1.1367101928332894,1.1793849472484372,1.147737322120032,1.1305479543925503,1.1244800131578354,1.1825503137955815,1.2545184313397442,1.156329784539649,1.2806465934937732,1.1592890903471513,1.1517559036285852,1.1609894885555978
1.1996065053074068,1.2800696820722066,1.2402598833898248,1.2653939753597514,1.1065601095208222,1.223531257535159,1.226477265035211,1.1611624721706997,1.1996634283780245,1.1514871737899868,1.1453169960735694,1.1536436635933458,1.118107626365837,1.1329271264242435,1.1191739921956252,1.1266374355168232,1.1209890674238097,1.1225195592848065,1.1348005422787284,1.1563316751843422,1.2105042447781962,1.129732310754884,1.1292326879760002,1.3098274761759563,1.1915695871436642,1.177180318175239,1.2384705452605222,1.1984026371170442,1.3374471026329908,1.1911795593536072,1.2019816044638378,1.144152175831259
1.247906888486616,1.2824672700034605,1.2333573142706078,1.2318784603720037,1.1024356703752003,1.229634180008942,1.2341781930930464,1.1376292557885759,1.1792890392475952,1.1554202246175787,1.174085198415021,1.1647919390996568,1.1270319455426718,1.152794855904187,1.1635668667449974,1.149675312974096,1.139879733689717,1.1336523621111252,1.144570852518552,1.1888897578139885,1.2533227225301322,1.1318398026948155,1.1627436472535317,1.3202503177965543,1.2591117991390322,1.1657665763980514,1.2738956935136536,1.2891802512161785,1.3152207058836978,1.2565599182412177,1.2227299386208397,1.123294156260563
1.2143456456949304,1.2891398044197648,1.2010607889169291,1.1902265961714569,1.1539164565220974,1.19461839282321,1.2275920224287733,1.1354433696613424,1.1371542072019625,1.1357160547448042,1.1745701806647515,1.1389752093948933,1.0979943678198185,1.1349477656463727,1.170689404612343,1.138837031829516,1.1238407773700758,1.1110970740616442,1.122862027822132,1.177666559211476,1.2146490258946303,1.1215761686175816,1.2200116194184285,1.247378634142591,1.2733302307465129,1.2178166060930922,1.2450718185385499,1.2842975954088078,1.2851420439155445,1.258614610659066,1.1802447288542126,1.174423398634727
1.205078010176909,1.295574805200363,1.1720679248206147,1.248660117342616,1.1631604360406727,1.1931142393070877,1.210328125375813,1.1680034567562125,1.1697002002276948,1.1611469445709977,1.1763513002847523,1.170732639377009,1.1236257595066985,1.159143185102665,1.1873692865449983,1.1607110113227885,1.1339796022024393,1.1224409066299097,1.1366511135975392,1.1761163074840408,1.2015759381604227,1.1635150158796437,1.2142348013513873,1.2424596827682686,1.2939861206408523,1.2460014704612958,1.2809201009015145,1.226957487191274,1.283255971310289,1.2489400041161824,1.200759936257046,1.208683549326269
1.2436924441391322,1.3311589246732398,1.2491478628094295,1.3098316460911714,1.2217888523369476,1.2712980669747282,1.196989491842022,1.2007267046940087,1.203979991670584,1.186962737745519,1.1729731177240426,1.1579755670650067,1.1689451972850908,1.1551436363582088,1.188630497016652,1.1710767658376566,1.156896095624672,1.1497078934245748,1.162058357132051,1.1466043936744477,1.2381704961522575,1.2048081599891463,1.2715986285047465,1.25320497453972,1.3002931640812523,1.2263080156292365,1.3115264791745955,1.2168966483589438,1.3044041288843675,1.2465915591870613,1.2725558228930405,1.1894730766445365
1.2539984343338606,1.297179854150992,1.2953900610124864,1.3114289040530156,1.2628758192020042,1.2843608321399098,1.2157215255369598,1.189448579860916,1.2199233180425284,1.2182827373124312,1.2233941718856223,1.1892790332299643,1.193701617122306,1.1977222873621576,1.204083332344662,1.1969451913036377,1.1969139308774213,1.1781892960939921,1.1819733623361197,1.159461832796737,1.230291594211353,1.1943780503914747,1.2767223542514672,1.211802600282725,1.27089825170558,1.227198519145235,1.3039327103672642,1.2722836248002491,1.2942825123987347,1.2619289731812342,1.256696944992698,1.1719844708321006
1.2423812218735373,1.2654819711563143,1.2509644263693935,1.2981036754534496,1.2406778820854487,1.2462139575328064,1.2526960892139232,1.199297424501576,1.2134859009029617,1.2240523319923888,1.230765905362332,1.2150468293155616,1.2027714078570249,1.2262021615698722,1.2142878504225354,1.2238253750884234,1.2132151834681006,1.183489500023138,1.179553244939058,1.186107360361391,1.2091305534886192,1.1742855032981656,1.2585397532698606,1.2063957826287683,1.25542165175431,1.2325759377046155,1.2953168783440316,1.2351826027416117,1.287603121471988,1.2530733619612642,1.227171877208791,1.1735089517303667
1.2378908445080317,1.2873959136581858,1.223954600672514,1.2835420547400709,1.226473455556189,1.2283322995094588,1.233916918730604,1.189782368138183,1.1981594863530345,1.1539836185292491,1.149199186756698,1.1488394658446406,1.1686333779148352,1.146686988815149,1.1534390426556873,1.1626642925608408,1.1890610065239307,1.158563402210918,1.150567364193648,1.1800951051662896,1.219045085075587,1.1675802623815088,1.2584648013799262,1.2724904633938876,1.2488832593912587,1.2075845183058622,1.279365865142263,1.2346925050849566,1.2885372709424434,1.2038236742065391,1.2121750574516112,1.1755083569298204
1.2662534456437617,1.287514103260533,1.250167231520719,1.2902366222561255,1.203861392960437,1.220283591784607,1.2009621809201836,1.1578845864678355,1.204511644852452,1.129489975474242,1.1582482050314744,1.1347497703226697,1.1614875776181834,1.145047169337214,1.159502191555499,1.1705712247022824,1.1892071887294866,1.1706451666980273,1.1736058687984745,1.1902430633764391,1.2074645246612954,1.1776742530481235,1.2299024513254098,1.3005224648036786,1.2580286547857178,1.2072752956218915,1.2646148535562356,1.2641852829986457,1.2842957609296335,1.2099571642068379,1.218070446223972,1.1589312092745125
1.262262458016429,1.2785053214218705,1.263409744865954,1.2727163831795227,1.1810036881179011,1.2435842121248153,1.197779446555384,1.145983112922655,1.2090216681390333,1.1432315987500534,1.1791119462405109,1.1625495102067511,1.178598165238775,1.1908794079135556,1.1815434186423743,1.1936728096784759,1.2016995870192257,1.1909506363605902,1.1933509178083266,1.212305931986273,1.2212387209050983,1.185830651785877,1.2354098442793628,1.2908502994796047,1.2812428947844632,1.2331655488562145,1.2701090914186213,1.2907976915447887,1.2680117081235065,1.2604735807326937,1.215389145662123,1.1688308796742468
1.292897305629213,1.3050844237650907,1.315995734326078,1.2755516786645178,1.2048296872832727,1.2669245402870402,1.1691446627916728,1.1886221842937958,1.154139099886545,1.1624415308977225,1.1860344644733436,1.1547595864847784,1.1538162157691694,1.1694761475032074,1.174284727966664,1.2009593955705498,1.1997207005926684,1.2068336503358683,1.2006879156586212,1.2404041639406076,1.2495725967849747,1.1924724327607368,1.296233463068715,1.2522751040678777,1.2929074412580512,1.2506729552664626,1.2814559390161848,1.2713714129611813,1.2791076978961702,1.2648839275806925,1.2047945270297682,1.1928511860119122
1.3204269690111696,1.2716592510186824,1.3304046917806902,1.2839997915579766,1.2336584628345857,1.250180660483874,1.1806848955900198,1.1716676273663538,1.1882110346928219,1.1588755644341928,1.2018304367074462,1.16931433275077,1.1686355531803843,1.1746003877442315,1.2210639891991302,1.2110305214667665,1.2052447223788216,1.1763472507141692,1.164458126986486,1.1821808122726623,1.1961717551829032,1.1865630198550725,1.2673273762297503,1.2268432205460256,1.2878530966171629,1.2552150173821466,1.316159965766274,1.2892395837865067,1.2962258638530488,1.258186965760284,1.2350921462278126,1.1917854568571622
1.2589129171333207,1.248445694064491,1.2709922264525435,1.2490117865478945,1.2151460664494338,1.2319815161283982,1.2488531666049123,1.203139833650908,1.1759322223161468,1.2029691719584035,1.226899445989665,1.1887261690322148,1.156736921075899,1.1961452523572498,1.2247703780347965,1.1958588719084235,1.183160193026286,1.1428603937389146,1.1059615678974417,1.1113095449088488,1.1103854783211131,1.1437249364402766,1.1550655800226624,1.145791184746803,1.1942448843247313,1.188276931276424,1.2942759332472165,1.2601362731956827,1.2790703710470641,1.2156696889558816,1.1876139843289852,1.1717430461208929
1.1908718343869542,1.239705342984305,1.2009540500277531,1.204480367485972,1.1751743446924476,1.1712817224937593,1.2308191715819146,1.1862366856283988,1.1380314910084455,1.183110032388588,1.1661918733191954,1.1283831040988936,1.1101794892483707,1.1189534984737926,1.151111973390182,1.1282673377081056,1.1353106146512546,1.1068419371735805,1.0893729263315386,1.0885653755379474,1.092776739016444,1.1169605366102837,1.1278390747941556,1.1030517092392307,1.1562043430141327,1.1490258648920995,1.2390575774253842,1.226778334923623,1.2392349143691141,1.2134849645973746,1.1471219846543408,1.1631898001108374
1.1447488238691674,1.2873044265249003,1.1727824055625242,1.1966728000042608,1.1599823494361425,1.1349655838755808,1.2009813226372794,1.1489725254532481,1.1582893441173883,1.1424656005552836,1.116994753001111,1.1070323033031417,1.1008780165895828,1.1001764236828795,1.1180989254909965,1.111334590892117,1.1227412265039889,1.0997158522586357,1.0883847131149427,1.0971471694809152,1.09057507097306,1.104118770273833,1.1092442697993234,1.1212806469835992,1.1488430124691977,1.1328726198200203,1.2173862180362316,1.2159583255982715,1.2164485833606937,1.1841531412313697,1.1334285689884127,1.1476118454122752
1.155947809271009,1.3071532801982975,1.1840221200368954,1.2214611465181566,1.186684731062205,1.1833570978532557,1.2114754389212725,1.1088603964888826,1.160815413861641,1.091877879374853,1.0872171311298977,1.091235715475885,1.1295711014303773,1.0883567025698195,1.0800312584183318,1.1022716253139513,1.1059382847092587,1.1102580310632788,1.097976224845765,1.0883461648958477,1.0874470927147848,1.0844747063891456,1.0750287986638085,1.1351192875451162,1.1291029771099519,1.123710979738586,1.205507200713324,1.1469108494839457,1.2069313207400068,1.164514917841272,1.1601723970041429,1.123069078444268
1.2214569986065933,1.2391447331965637,1.1833931658423291,1.2118799586742526,1.1710577115722918,1.201039797981144,1.2230407724591355,1.1220964504694606,1.1281657923785169,1.0889168017625441,1.0794648506754354,1.0668888098430223,1.1135671929884703,1.069044423150834,1.0684148460675829,1.0778169967826208,1.1028479507566071,1.0966273028007332,1.1074977481979948,1.0798211180978379,1.102329871817225,1.1120186764438627,1.1270481170151174,1.1423734880464242,1.1701648971123164,1.1643552913426536,1.2754171410995563,1.1779691055422343,1.2882137228739154,1.2061710708507092,1.1766704353877924,1.1333602676561876
1.234201140915305,1.249692489779169,1.186565729048105,1.233357320633058,1.1685140094026523,1.1732029035111013,1.2280247066839456,1.1818352439732571,1.1501063774296474,1.1422718243528196,1.1351591309222426,1.1285209507002008,1.1363348907663402,1.1289485428127584,1.1427866751573812,1.1382057765964235,1.1745714024419562,1.138374276154931,1.1400684012357392,1.1286871839637096,1.1319611486019467,1.176995497520261,1.1662056969940102,1.1348518677342891,1.174574634995849,1.1917469029346077,1.3139731008879318,1.2456278259321283,1.2903587303040112,1.2311581397962112,1.195605915992063,1.151573455409419
1.1929426528202236,1.259191981437732,1.1812335665156808,1.2043870091412483,1.1602373814303726,1.1583097833508906,1.1976175746319775,1.1583352506173914,1.1504314710182828,1.145120762084765,1.1379904139801778,1.124290987215215,1.1259995637503615,1.1164132646488831,1.1456840122373806,1.1281487490623385,1.1620560144581844,1.1261822280955103,1.135854348515093,1.1328471770072501,1.1507044601610135,1.166765680578107,1.1517892400152583,1.1537175893218152,1.1759700790831695,1.1719097786752473,1.3346032153561298,1.2353779636696347,1.238225272885243,1.1922010088407988,1.1635978003874738,1.1661102231421803
1.1683994077201567,1.2741585956310004,1.1862793792588013,1.1774445944700327,1.1670730020503008,1.171854597805047,1.1874867452457574,1.143971911827166,1.159804011917786,1.1619990895212455,1.1644655845788197,1.1437817153624996,1.1338351383965946,1.1426700179132632,1.1556960327159527,1.126677409576713,1.1294271477654099,1.1105381231033973,1.1194781339907256,1.1090682919360684,1.11900732091169,1.1141349503128073,1.1401778805070826,1.1400595246483514,1.1670142253792346,1.1620756775243515,1.3051734963503092,1.1874783552027997,1.2273607033651823,1.1644373272193225,1.156135416180867,1.1710396865804282
1.166331496861636,1.2853429893648893,1.1961287336369928,1.1851431228212927,1.2028403345576346,1.1836681797586979,1.18901909386998,1.1416224569065099,1.2005210717332178,1.1131287215060508,1.1408710796084667,1.1343792751389226,1.191097630570495,1.1390845035169628,1.1387970177567395,1.1288946862542475,1.1597329450335505,1.1183272797293864,1.1243572871412166,1.0957597014149885,1.1068616254118147,1.1640294478988824,1.1201707586759677,1.1268770345637031,1.1357921260864807,1.1372740913246022,1.2222528544474982,1.1486814792516937,1.2240349591609108,1.1561213514436692,1.136930633327796,1.1748688941219065
1.189775269769141,1.235664279983262,1.210281848060777,1.2024246949764934,1.2007561405198188,1.1792936579592346,1.2074248883595344,1.1522437450815863,1.1531155320618327,1.1096451149663773,1.105048065667764,1.0992334095943854,1.1230240626937515,1.0965990302313087,1.1011951344463127,1.1128466019231347,1.146988916566922,1.1122804390487326,1.125686690116872,1.0983859376871068,1.1366541292984145,1.1603062494358123,1.1523216527490574,1.1458396398881412,1.1665174642570713,1.1574386559140324,1.1897082452778314,1.193859361415914,1.2082433166127615,1.178700308992819,1.1446947172123545,1.1468050194991894
1.1453480517350492,1.2130765787399738,1.1728415393255789,1.1668465453230936,1.1567981190869236,1.1374817811380182,1.1734744230682614,1.131550302933007,1.130796697863373,1.1116236892370754,1.0883076007518786,1.0893460058424096,1.087082208323912,1.0733605982420689,1.0719260342779318,1.075607805922163,1.1053814544414864,1.0911585208458123,1.112059749469541,1.0919747170212286,1.1177494083403652,1.1270307653213572,1.1335292128283538,1.1164142996153401,1.1264159734081174,1.1289698478680643,1.1298308637120862,1.1411667897013367,1.1548638321420324,1.1250259990116807,1.1163360881516124,1.1298261136897336
1.113856644793713,1.224241606689978,1.1703542904406483,1.1388408861275696,1.135656100081942,1.127213639275966,1.2008286559128425,1.1475237009984396,1.1207445300757766,1.1095319004306505,1.082082975473883,1.0952436665951217,1.0899452723880332,1.0864594464925954,1.0826693955467221,1.0726069390312964,1.0863728306919394,1.0909015999254283,1.1105562096310246,1.10204785864286,1.124187958385781,1.1197139964337302,1.1303148340615885,1.1206979942518551,1.127344751710952,1.1065565527371586,1.1289235377828106,1.1149045925132293,1.1480750769417867,1.1239897577540894,1.1023799769867944,1.1358908063917434
1.1222912456833223,1.2318881621060687,1.174388418370665,1.1524186263665976,1.162185145760893,1.1347597601829627,1.2213974508221346,1.132894333412171,1.1316756243978074,1.0913001120186436,1.0573319911938908,1.0920833914929389,1.1007010254479401,1.07886094382719,1.061079779015291,1.0623737007608731,1.0780141599669333,1.0919802662717333,1.101730874763283,1.0883517576297146,1.1034483306233434,1.1136051365172814,1.1310334550506673,1.1039551490127777,1.13696265600933,1.1232398103747145,1.2090265421414035,1.122479755711333,1.2180342164461044,1.1516756276426803,1.139938779865813,1.1562953998723173
1.1183447861774949,1.229055955016773,1.1640920165406623,1.177239797767388,1.1392470769881353,1.137551550972592,1.2202932754672111,1.1467197094324693,1.1012178137443354,1.1171714731429463,1.071129193450143,1.0692387386530435,1.0726950962433754,1.050742583852239,1.0477652089155507,1.0504677689732766,1.0582728439165157,1.0541981404816048,1.0564827037239635,1.0554058548594147,1.0591630735113555,1.0645917269338157,1.0923063455431288,1.0858816311990225,1.126384963754893,1.1127363474113396,1.172512905589738,1.1019270815798634,1.1618989979888228,1.1209815872406856,1.1052150697071157,1.141373760484515
1.1151455662102157,1.218695597529349,1.1703620547611921,1.1757650700680686,1.1277533040366787,1.1289546444163414,1.2480663553806663,1.1469157826309708,1.076740517684318,1.1200668878385218,1.086935947018117,1.0665990274010653,1.057932559352884,1.045817637305749,1.0642496679087974,1.0701238007464402,1.0832201166747533,1.0608647803633064,1.0631455523292994,1.0742430562281127,1.0813378412420769,1.073190840908237,1.113045522035428,1.1416070871088582,1.1351223261528631,1.1137181977514883,1.1545702648820757,1.111716671747128,1.1688639218770198,1.1084529074396134,1.1027285126001325,1.1343182891215788
1.1341059610630029,1.2641092629891244,1.1830254602630974,1.1774269807955988,1.1393014788923184,1.1399742086380147,1.2341267700721754,1.137310796408596,1.1102878243272547,1.105835066520717,1.0818727096575815,1.0840575101365755,1.0846751402207302,1.0845802863514675,1.089117902466764,1.0945774528435912,1.088987264149649,1.0815403714460516,1.0662112493079896,1.0672243391514562,1.0862540767217452,1.1064406938874467,1.1281169088435476,1.1459411771066397,1.1301321763533276,1.1375136449156378,1.191871653301818,1.1364572269426159,1.216938912405166,1.1385830042085856,1.1260845834303128,1.1232492018827953
1.1864408353669982,1.2822413106436,1.1964709466524484,1.2147554847791349,1.158618131447622,1.166515105427723,1.2138574229164083,1.1537757345072626,1.149658342512475,1.1254285590921014,1.1004921029113288,1.1058917107281734,1.1252063342564291,1.1188452338334,1.1195112830888145,1.1300492763142087,1.1254590240165256,1.1267941862210702,1.0973388011242105,1.0932938758757829,1.1152882929648154,1.1240377280958012,1.1434928586819528,1.1563132943266412,1.152517464435892,1.1527033823607207,1.2309989680504787,1.1424560494115046,1.2074041209151354,1.148036859058248,1.1194451365613538,1.1337664743356632
1.2081869827292697,1.309310553166214,1.2039103979192547,1.2173015166992227,1.1689249571825084,1.1864163850992788,1.2409842892996596,1.170952642581119,1.140187581751115,1.1527727134471184,1.1183024162957782,1.1117289817628015,1.135359530577211,1.1264264343674582,1.122361409723697,1.1279631362109601,1.1416517542764624,1.1191371511118375,1.1256094234177292,1.109606811073874,1.1329985492930736,1.1206633486312292,1.1433892688467202,1.1730264586159715,1.2097063551281146,1.1536960983341555,1.2787869347937055,1.1762417795829339,1.2360594333277604,1.170537518332494,1.1268757826994493,1.1510969870958834
1.176454667479873,1.3126780802191498,1.169477266999475,1.1766076580323195,1.1592263522300377,1.1561719644644903,1.2244041220513178,1.1290336931482217,1.1268374905900675,1.1356074750203369,1.117322939352018,1.1250108022020129,1.1227792796029017,1.134382978028549,1.132092391539769,1.1380076838423134,1.1240311995002321,1.106618293214096,1.1081276825056177,1.1187194857499811,1.1148354030916523,1.1280068541865853,1.127156375735031,1.148078005843203,1.1939580702523724,1.1645763387644432,1.2141843105022079,1.1741644331913779,1.2641244751311065,1.171324895485932,1.1263319237714025,1.1524916219260337
1.1673946236171346,1.2824715992835285,1.1670957091572378,1.1685604241893661,1.1398591791584913,1.142942923772345,1.222890635003483,1.1208364673585431,1.1442859516866983,1.1472404514531611,1.1227168470408266,1.1404827391821366,1.142781076735561,1.136644831789671,1.1463764105936096,1.160845236554324,1.1520207125880653,1.1606703643847953,1.1537942251869717,1.1623939742632752,1.1555911623302861,1.171384370458013,1.141980137745833,1.137492031534982,1.1328891458296204,1.1593015278260272,1.1688709828025048,1.1563204741958,1.2341033130549086,1.1507699047253537,1.1278653868832564,1.1398517034184137
1.1552983415669296,1.3040607557230015,1.1738665383591163,1.1920435724189187,1.1373509560455033,1.1603675930221438,1.2202554706005992,1.1508012089757027,1.1462691081053074,1.1435562107706176,1.1295151560809265,1.137545907364659,1.1437534261888755,1.1478843253278566,1.1482981586024996,1.153161728333505,1.1544866480021927,1.1528316129397003,1.1609800583914864,1.1352259938079345,1.1588489096869563,1.1764677140994375,1.1323422776181498,1.144555695100921,1.1431922715077203,1.1161627425486622,1.1726350929264366,1.1485815128881125,1.217215029082325,1.1547155858906073,1.1238099379800046,1.1178422101497008
1.1654704516070842,1.3500022341641968,1.2015723162994851,1.200621348451217,1.176896271093844,1.151108670577382,1.2061726869680773,1.185417319363345,1.1481919217788863,1.146913790468137,1.1398698419480666,1.1288080970507888,1.1243313742483807,1.1320961397966587,1.145821723680779,1.145036823546293,1.1503274892210236,1.1321061211607486,1.112754061025779,1.1118317304677439,1.1170999457105446,1.1327137973070505,1.1112317276436765,1.1108279655034106,1.1490526203249762,1.13109483505746,1.208450806467304,1.1675971132474474,1.2487054145504302,1.184811349579648,1.1515971198246633,1.1462575328047107
1.1645267007408466,1.2686120106718901,1.1885413522315602,1.1705119282811514,1.1634705703075634,1.1680912127473075,1.2519982527688358,1.171429282919481,1.154214392170656,1.1666773447926742,1.1523259432258306,1.1316933278602868,1.1207283346273613,1.1215743836354,1.1420593643982588,1.1300640513848357,1.1449645064958482,1.1170013507037146,1.1134333453277911,1.1172210377243301,1.100779101488457,1.1261442707207225,1.1076544053807929,1.1146549014135594,1.1433613833888159,1.115863699370308,1.189351381088362,1.1623764403351649,1.2321972563895722,1.1549630057014342,1.1342437955545002,1.1432912188726032
1.1384671247934603,1.2385799409713387,1.1553801666260748,1.1506261393574253,1.1157816678693795,1.129540448516363,1.2191671143884952,1.1256760316181043,1.13595990813085,1.1343356683128458,1.1395072718907149,1.109868943691236,1.107508108348664,1.116287074538471,1.1453523092399032,1.120239751139581,1.1295380820239935,1.1095970068726253,1.0993190011144212,1.0948600588512538,1.0881539417310253,1.1113160571852254,1.0861154993063544,1.1013182160362103,1.1277702567233214,1.118502180486198,1.1796803900299075,1.1117480315569752,1.2548914303815186,1.1252557065196318,1.1150191420051392,1.1342605596560125
1.117042921640622,1.2545706853311454,1.1500035669792656,1.159113517165896,1.1257624497670269,1.1189883631554813,1.1882594172090728,1.0926651049560354,1.1273158727563117,1.0931709750431127,1.081210336405141,1.102703038581955,1.107159898311811,1.0944226956647463,1.0956129604754588,1.1024474056605735,1.1364790752762632,1.1088784115337553,1.084275197962558,1.0903389458700843,1.0767064029151456,1.0983543946509584,1.08966518494698,1.065823298235379,1.0994889524779399,1.1135623576077045,1.1583198505399133,1.0830951412781276,1.2480653486296198,1.1033722006316526,1.1050351380031622,1.1339213607234777
1.1025382642156085,1.2209094255254709,1.1337116612388634,1.1649711153831437,1.1394185186450405,1.1312397980033413,1.1484235222795527,1.097962471690702,1.120758267933845,1.0889823986296305,1.0725967590043994,1.084319318568791,1.0898201218028818,1.0761054346674677,1.0928389038321817,1.096215423487799,1.105683285787307,1.0801296295438625,1.0860070993675313,1.082677400513904,1.0826500989284558,1.0986802795943962,1.0926167253415764,1.0871151868916324,1.0924373331477677,1.1116624225457603,1.1884534210898217,1.0862370124534375,1.224928551917536,1.1056937215112101,1.108447864866977,1.0987077277778146
1.1050701490609305,1.2059508474923606,1.1219398438112036,1.127734874807255,1.120745231075636,1.1322702544512089,1.1544649685915762,1.1203407514960892,1.0890652022078098,1.1030523609087328,1.0848425687358871,1.089437860190883,1.0681617945703648,1.071993341709534,1.0751731114014604,1.061214000798769,1.0655379209937947,1.056723163547901,1.0514951257850769,1.0597685270040946,1.0621970697768675,1.0634254810049804,1.0634631668112202,1.0893412314610202,1.088277574647022,1.1065674594721533,1.2360724618914813,1.0929926109496713,1.2275475125725985,1.1244761410495447,1.10871109943129,1.11341902755707
1.1175488921423435,1.221178488335081,1.1493367084132453,1.1169907140994804,1.125154458145604,1.1355140678259412,1.188608103727772,1.1214169901232378,1.0914270261602617,1.1091473407556554,1.087293389975838,1.0841107699695265,1.0676566235304639,1.0599938213127247,1.070355708357265,1.0727558342319246,1.0937547536084957,1.0633991406477385,1.0605776937255444,1.091259961598232,1.0785920961663795,1.0770222232933322,1.084824105385869,1.1039461804605986,1.0992820130970744,1.090139186652384,1.2213353107714975,1.1109907459986759,1.2144189300643355,1.1164753656951447,1.09728555210954,1.1194341874426375
1.0923059438374347,1.238036159142321,1.1714897135002826,1.125265739730608,1.1107891957681053,1.1371351011813209,1.183223222475615,1.1337565173946058,1.0994173058430836,1.1006431739028257,1.0875148254781637,1.0937423588772914,1.0887300171116767,1.111246173604997,1.1126246404092548,1.12688434673247,1.1365201398045914,1.1092549763058592,1.0918169606488188,1.1062777750516724,1.1047697175318436,1.0953794806660258,1.081741145679472,1.09354894216305,1.0953255009198632,1.0577487065161846,1.1361862169057608,1.1054453438999934,1.2131441512209165,1.0883023262829894,1.080304783179138,1.1133798222228442
1.1298288143337198,1.2423935408737021,1.1727909518529103,1.1637471999096216,1.1183267381310018,1.1420879636077936,1.1550783303011964,1.139714826065264,1.1244704753588524,1.107457686187248,1.1010756513936735,1.1126645170307587,1.0987501253289862,1.1200542887841947,1.1169174632889025,1.1072942725367607,1.1121085023140644,1.0852358787109573,1.0849860577966166,1.083651775716521,1.0952469311045332,1.0924816141267297,1.106053732905581,1.0982840976716617,1.1142252209888617,1.084968383112975,1.124798413747387,1.1156390177882283,1.2398006120911318,1.1195686054755833,1.0960836719309826,1.1279645121049482
1.118706282364021,1.258683874127875,1.1547935105202194,1.1472888369435361,1.1131298784532762,1.139463631720301,1.1733604838154865,1.1465611447088921,1.0830413632220208,1.1316176311071289,1.106899163489031,1.0980275000116941,1.0813957618497234,1.0942313544715527,1.1236952761556886,1.099732272816293,1.1183116966144206,1.0726986451191027,1.070758056354032,1.0833224283882987,1.0752818578963657,1.0919461977215308,1.1031268416950823,1.0935831572057761,1.1065977224499175,1.1100827899289065,1.1451975851120753,1.1130258167793323,1.2256196447742314,1.1219709768272395,1.1053484695292484,1.1693762438183197
1.1138351307534269,1.2626153662557318,1.1778670035163206,1.156283417004207,1.1137935621158594,1.143415628072591,1.1993366740050677,1.1121878549333448,1.1003605903840379,1.1203674803022838,1.0854546217861631,1.0887876488165742,1.0873220739925693,1.0739496222956326,1.0875373118794809,1.07814835677934,1.1184564520555473,1.0817826161188238,1.092541778652501,1.0849838492328219,1.0823707598930858,1.1014817692725742,1.0881738533928276,1.0974890287304806,1.108241386652429,1.0869098079171837,1.1518874704736934,1.1050331916885263,1.194112112310972,1.1368966734196173,1.1114947336887648,1.1298960739825104
1.1623866951995958,1.2510837546699556,1.160502933287548,1.1722227613359624,1.1463219750034637,1.1199702700064609,1.1381595029527891,1.0870304202536303,1.1206880896415712,1.070134697811054,1.0482908416759575,1.0720315498791206,1.085051176407145,1.0732259997404057,1.0812717050489857,1.0686487356599146,1.11275545848654,1.0761574596220402,1.0788565466255167,1.0743731770414995,1.0738541437806757,1.0796873305801218,1.1066659742714677,1.1062784094656994,1.148856561416684,1.0814134024506008,1.1908308205203273,1.1356197048245642,1.213936946619658,1.1638901940232549,1.104069663969519,1.0983840462366947
1.1818732704102997,1.250563982586193,1.1571874790487906,1.179877973302112,1.171939108846346,1.1086766073688585,1.142755122325446,1.0892426376137316,1.1121287843485141,1.0579570083112826,1.0428816289764742,1.0608626314998029,1.0867117122794259,1.0654173322137412,1.078139528354888,1.0815720942309073,1.1028973047331567,1.079358722892194,1.0730220377530963,1.084439045412255,1.0749027544558336,1.0643260169033104,1.0953792672460863,1.0976089385385033,1.135943629676148,1.0991839351687116,1.2000151424903756,1.1671569504022803,1.2369914440307728,1.1622516846166482,1.1294458202555104,1.0832174325878035
1.1522047405360543,1.2412546907830349,1.1836804967048236,1.17729743276833,1.1454781828832006,1.1539666129531871,1.170662268114461,1.133356156400315,1.1027233816799509,1.0846509608692911,1.0583476210921121,1.0925967125409255,1.086316266092659,1.076201037666886,1.0695916933615632,1.0633140474098215,1.0870482677896756,1.0639094852899544,1.0732818863028137,1.071545074513117,1.0838678044083627,1.0665942435338533,1.0873260298641458,1.0936020216743925,1.099059153836923,1.1230091948875205,1.1887453918587996,1.1408050025807321,1.1989318111405978,1.1215109914053116,1.1246921026806707,1.1352816460758623
1.1336732292801464,1.2329562859622418,1.1760984492981417,1.181636378012183,1.1422085587244375,1.176345407536987,1.2116303427764943,1.1586660064532555,1.119213476987081,1.1056563859914184,1.0723796689598954,1.1117722722722718,1.1162019031463253,1.0997652547531283,1.0881200013978365,1.105619092936242,1.1316738489630367,1.1116709519098564,1.117705383724072,1.1013089748519005,1.1252553951376325,1.1106908215218214,1.1241482289313027,1.1163916202985478,1.135033604184571,1.1318111682832555,1.1397844813768487,1.1309787319928326,1.1719532657891882,1.1279900480749587,1.1225497616008193,1.1310668558674908
1.1323768814182886,1.2178169912556531,1.1752955613697096,1.185292561357102,1.1453708184776235,1.1618213250839775,1.2005801056154013,1.1555071001056523,1.1356637544347603,1.10008011592479,1.0870421701294346,1.1145992396307474,1.112176050676936,1.1085593259831137,1.0989719077500981,1.1016465017640151,1.1119776828020762,1.0877691410833288,1.0782499133947299,1.0761994825802597,1.0867381298284626,1.1025713968005146,1.122455289974285,1.0926955115915413,1.1680112303690162,1.1224959937773407,1.1700684908337002,1.123685708779573,1.1946669469926827,1.1217881052019678,1.1194925296284775,1.1695282297619172
1.1741597335454046,1.2422064288050045,1.202333120884053,1.1783243885610217,1.1541589750756778,1.1774891462338652,1.2288826545052471,1.143756111866378,1.13666609546206,1.10293931898475,1.085898616421467,1.1142073718414538,1.1272629301970971,1.0950757295435618,1.085143983138266,1.1122274750737613,1.1111681654076504,1.101393984051591,1.0990059786102617,1.0842862374202076,1.0977070440445709,1.1093940018720456,1.1317655708318004,1.1014883868208019,1.1723669806200825,1.1154121279375828,1.214082639765045,1.138128501737875,1.2182135877585971,1.1351724510091508,1.1502758251167717,1.1454502388678034
1.214372229988691,1.2902674613654965,1.2189762145355356,1.2139273956915115,1.1805083068136355,1.1961409340376816,1.2486455736894888,1.1482069233255174,1.154364362729567,1.0876092732092275,1.0826289013538033,1.0699588122791874,1.1147204464928937,1.060056586629389,1.0614689677103417,1.0762654714757804,1.0784830707563158,1.0716303840355415,1.082895777856917,1.0665538711405722,1.07952583951481,1.1039515040866223,1.1059263014275758,1.1299503827036732,1.2075489329581146,1.1510149010268156,1.2459654811741885,1.1592605144170425,1.2289071952754276,1.188074855559041,1.1815771399699624,1.1326634443373809
1.1422900515309784,1.2826390449984586,1.1802228139172755,1.2396705923441442,1.165973284451423,1.1860563639931088,1.2362809269310935,1.157835356984803,1.1386053255607456,1.101572698129956,1.0814234962033535,1.0692802584256818,1.1092152008304683,1.0731874615857184,1.0743837615338985,1.0681720464780353,1.0728638221193527,1.061538525682428,1.079915527329684,1.0569020180931792,1.0800997940130652,1.1345580175880539,1.1218546025696983,1.1052998093461495,1.2251651491753652,1.1524282657240954,1.188755791703472,1.1472660565413542,1.2344620469072174,1.1308656810852329,1.1428288219770961,1.1579611201304478
1.1491151900672245,1.2567452181586365,1.1842519665203675,1.18486281077167,1.123249807581849,1.190151369923936,1.2244411347601871,1.1322830903363676,1.106947354624775,1.0947878527758936,1.0596753321572776,1.0895271010408794,1.099936143424407,1.090107940680492,1.093968289995783,1.0942347972612518,1.0978753912516026,1.093007171140863,1.1014767711076023,1.0814799849080996,1.1072541562736173,1.1283652069971202,1.135413763080626,1.1044230054274098,1.2015438816533208,1.1498641998865282,1.1738135102322031,1.12958084694033,1.2434320711111504,1.1162615355133674,1.1203463499287045,1.1538905759585287
1.1758038131755022,1.2477258983020674,1.2068667007605431,1.186145756556541,1.135208614641902,1.1645748263036984,1.2044390109986405,1.1381557213335451,1.1256941960496616,1.0876972889281284,1.0530584344777394,1.1054660786429333,1.1179694058463145,1.1048070366598712,1.0891562995513384,1.0872514731555074,1.1017495399780188,1.1133086883318504,1.1274037788646525,1.101743155730646,1.1272905951011123,1.1326003988215845,1.1215722220752116,1.133429597832962,1.1919117750447434,1.1431619218928162,1.194165329265514,1.1417750229900157,1.2323222547573993,1.143959103652631,1.1360636195172786,1.1272736380896067
1.135476086819081,1.280673755359368,1.1755489318806156,1.174071071828724,1.1177598888585454,1.1348620715805586,1.1871350774498488,1.1310074464216653,1.0991630755310386,1.0946629508490282,1.069602430500041,1.0805296811805107,1.0996402887860774,1.0868937692927982,1.0876465129483084,1.0938956468334107,1.0963750903087977,1.1021804168292806,1.1024112466276774,1.0838565442041594,1.1115364996624593,1.1245743168368765,1.1256062028120515,1.1184854820750516,1.2011862787453296,1.145123232686294,1.17371174428464,1.1449354258669733,1.209993572503265,1.1166217239922673,1.116053459379062,1.1033098806750763
1.1507373964204335,1.2523475983266255,1.1690939293303129,1.1590385529646523,1.1236724722671607,1.1376116101310851,1.1958233338612412,1.1207489706534615,1.1261494764888667,1.0871753185579838,1.0594813930583387,1.0913462636414977,1.1058453065569716,1.087488864235948,1.0844433466226817,1.0940750803646322,1.1003733794627215,1.0938409943568084,1.10906715109773,1.0792366724066904,1.1237606772518534,1.1247291497708432,1.1244213132756884,1.1107675308076757,1.199762717079775,1.1241920357893609,1.1794773084238201,1.1486509505645026,1.2180813660271528,1.120590090407379,1.1341369171856182,1.0998026809769457
1.1506096409865305,1.2287037127845517,1.157568084883633,1.146839692551478,1.1241568900308605,1.1310391879910444,1.2043664810759935,1.1244393602923104,1.1189050079300629,1.101882426786398,1.081404135455178,1.0928760801343755,1.1027459624608604,1.098081664584232,1.0958722144576916,1.0970179949016376,1.097057262027018,1.0896352634564974,1.1048503341521292,1.0777038666479282,1.1253190958811417,1.1225659694652192,1.1237104839303604,1.0926036259156215,1.1721394285566233,1.1308954747235027,1.1654419862769667,1.1386783920823138,1.2073466470643082,1.1315347163957867,1.1385795720376382,1.1101227026529379
1.1085010331032383,1.2118304747620416,1.126837815320657,1.1366192828858979,1.112358480338392,1.1250053540516378,1.2028620205562737,1.1309401356183997,1.111050803579767,1.1464133660675377,1.1419095022632189,1.1228381741869335,1.0956128528541988,1.131813157382331,1.14699045730105,1.1323496058072364,1.137435238585797,1.1289383996105382,1.1290054812918968,1.1140201562478858,1.1450213456463667,1.1216240788921323,1.1327029345297701,1.1017641016224526,1.1419654544666855,1.1214504080898122,1.1343893599653119,1.119123448691062,1.1723491732061788,1.0865014370965154,1.1107922341292822,1.120296037608875
1.1091870050881132,1.21937558201142,1.1364006711289796,1.161074144682961,1.125312165746368,1.1464760974058217,1.1987277863490904,1.1206819717906715,1.122525461861755,1.1179045388261104,1.0966454208764285,1.0894065240587674,1.079336480808103,1.0887068106305315,1.09704270516767,1.0756993068691287,1.0778085287043422,1.0681611566194165,1.0661233516191662,1.0648061374405116,1.089786862928006,1.0910741660996786,1.1006280927295735,1.105552738628343,1.161894895543824,1.1293588187566772,1.1360448400806316,1.1257211405922782,1.1975560426596028,1.0915721022529474,1.0958078552116863,1.113433022375557
1.163094563476174,1.2390548564007267,1.1544903922822214,1.1992978578366127,1.1264840524965947,1.1583536821700775,1.1898574727558566,1.1151488014155733,1.1122210564443378,1.0948372738395875,1.0807629296597794,1.0745311207528778,1.0712595889079994,1.0805105162152888,1.0761994524955052,1.057477074287527,1.0683017873125822,1.0561850091308997,1.0588846839912727,1.0583820834956144,1.08756614372331,1.0874811159031923,1.115604234107841,1.0938588612862896,1.2083027425242068,1.1800814001203697,1.1603498455686612,1.1622657709478703,1.2549953040405113,1.1866462798798283,1.1253067745797516,1.1103292111330565
1.1715406440404323,1.2683229496986925,1.1718229465650376,1.2149944641874901,1.1596739636816602,1.178154480695422,1.1912479794052693,1.1157869935595937,1.1400538158651172,1.1185252833134,1.091069446210796,1.0976228769781242,1.125578411160829,1.104680702484892,1.1009609260078688,1.1220422159879213,1.1217135853492592,1.1275811014338377,1.132390543176628,1.0860060653562769,1.1074085551599189,1.121417155017782,1.1196158445896298,1.0888620982642776,1.204095514391641,1.1690272259561691,1.1883103514645945,1.1599520207124279,1.2265015298923039,1.2001748988218697,1.163497913869682,1.126016595314953
1.1489803361825017,1.2670292011788162,1.1891576600617177,1.1767237582953263,1.1441804989099016,1.1539386452332772,1.1918206110315877,1.1243363033764637,1.1075510173041072,1.1468380658212356,1.0966713087577769,1.0770637696876688,1.0674947017353524,1.0615462231358561,1.072931443480336,1.091918486385137,1.1042536039462691,1.0980223161495182,1.1289959461489534,1.100617631311575,1.1228110688734325,1.1251129325628983,1.1537577903898981,1.1237252974446157,1.2321990421183384,1.1543648916223237,1.2100050282408048,1.1954870739033043,1.2316727620478598,1.1768431137169144,1.1486494603723783,1.1469546992276065
1.1083744942487561,1.2257589209899555,1.171455333076393,1.1401788545407776,1.130171837452937,1.1478119088126,1.2108640147965528,1.119277715958642,1.107925993317205,1.1085375992579487,1.0765379414164988,1.0652575825146167,1.077111006037408,1.0503458675460342,1.0664942585093957,1.080904904608413,1.0936669909598014,1.0877351941924864,1.0975950062089606,1.0846733171165401,1.098119745964347,1.1288969292907007,1.124342178565316,1.0846313360073145,1.1798811142317673,1.13874045629725,1.1682470589161895,1.1571649589289086,1.2383486481354846,1.1246670991516976,1.1295358503480526,1.15739346771814
1.1024964168196303,1.223338325032799,1.1411795805901832,1.1915783341947592,1.1489371709726435,1.1338250522142381,1.1973138912678545,1.1281399638467313,1.1350505624260503,1.0750467845634817,1.0651287259230628,1.098688686454619,1.1138963982177854,1.1043945228072032,1.0899818653633737,1.1188829314359265,1.1268859536050475,1.1167150178964922,1.1164198038818371,1.0832130004941865,1.0941996605263757,1.1150404221746923,1.1060504674428246,1.067976097558537,1.1448167188629028,1.1277046107809394,1.12359204831783,1.1235558196092768,1.2288001355690679,1.108562747064432,1.1074661119658162,1.1478881295515306
1.1311792942477166,1.2523879557214979,1.1577407680020209,1.1985045369834442,1.1552657707120264,1.1244705922624278,1.1955009256558808,1.1555769529776714,1.1273134971935919,1.0871435655452704,1.0820853119204803,1.0832243073149224,1.1081763177956945,1.0825497117491862,1.0707395337592487,1.1048625047466902,1.1424051207573245,1.133415808865485,1.1394100523950736,1.1103159384106531,1.1273990421741473,1.1413525162891545,1.1458488289712228,1.1147153855669285,1.1886418875255114,1.1396175191881128,1.1332877950211746,1.1577298267687384,1.23792814150072,1.1487781242055144,1.1288979244562363,1.1420256116218153
1.1446336775960335,1.2690686464890197,1.1967615694793803,1.1690483727811078,1.118566542405442,1.1749976578045438,1.1995916050140936,1.1464162154090323,1.1089154348078514,1.1102639094534632,1.1020010346063527,1.084249283942548,1.0715739391436012,1.0704180896608995,1.07204076291668,1.0978592086231058,1.1339045824221947,1.0995544303585898,1.0923482946575054,1.0862148722989107,1.0828323655886485,1.1105389796700238,1.129405636576301,1.1130209511396019,1.2274061391816709,1.166967964675207,1.1817478930327898,1.171209171769454,1.2194239628450014,1.1809603502516275,1.1340932838711573,1.1246491087347372
1.1449717293956452,1.266533262339298,1.1669304497065587,1.1681594265750714,1.10610955527659,1.1747589628250523,1.1844233166942246,1.1239892961870261,1.1241962817123055,1.11188669428095,1.099724244844405,1.1025575599542627,1.085892614842192,1.0920671278744531,1.1010555890980092,1.0996696314888807,1.1172890869637901,1.0758883238590793,1.0790702063761046,1.0670399182736798,1.0770007718843928,1.1007526240016943,1.1158696690030918,1.100263945204123,1.214173506997997,1.1426978962171976,1.1896595640349235,1.167676979387464,1.2200056357751063,1.1552280225265297,1.1248052027921125,1.1114064148738185
1.1179353487761152,1.2247539715105047,1.141854419573941,1.1334083860465447,1.1354696370719661,1.1463453034969637,1.2074084581730034,1.1246378463989675,1.0683127329741335,1.0961434581547673,1.0694145990422383,1.0657713131806343,1.060320651646835,1.0546269413193832,1.0575396811998161,1.053359293497454,1.0755178879747551,1.0466712090123345,1.0533743652861978,1.046222119876031,1.07395938071401,1.0910527971608786,1.12304318093753,1.0863747798524914,1.2167465875500008,1.1270763413254454,1.2148281604486706,1.1688087202629271,1.1946757084638122,1.1317745590061237,1.0917947143240454,1.124220026517635
1.1241831606252837,1.2348339964760962,1.1512152112067635,1.1573578697492644,1.1217007839215911,1.1675546596747628,1.2288921215598512,1.0939265157738616,1.0816950215466394,1.0972819962338587,1.0683337452771722,1.0585108408045125,1.0648956113689785,1.0515450877668844,1.051565652032026,1.0566689732302867,1.082340752369204,1.0631594576254568,1.0645584607582657,1.066501012221617,1.0835309768345862,1.103399536379198,1.1442886309404536,1.0893563302488687,1.2092549578447862,1.1212747642447,1.205769954208748,1.1762825617412143,1.2249283968037892,1.1369711149249344,1.0908302527357867,1.116052793441327
1.1343637981541816,1.2550854064113617,1.173748883371421,1.1516723103383602,1.093694586447194,1.1658629395133078,1.1884363021094346,1.1245350845352877,1.1014952966384908,1.1038519126358501,1.0782445507760003,1.0663959932558735,1.0861479593318148,1.0764616599149166,1.0920763004774288,1.0947535097390129,1.0825207519810944,1.0677479942945631,1.0649017183827998,1.04896800210765,1.071933052391265,1.0991851150253475,1.1405742827870076,1.0815470833690526,1.2077872907069125,1.1449347339858549,1.1949120439565162,1.1558540802380595,1.289817938745792,1.1467278328277477,1.1095334908210581,1.1246568268299448
1.1559624851557897,1.276338384546471,1.1911900176444392,1.1688219473617645,1.1488572438819187,1.151924475966967,1.1906799672855988,1.165213399386237,1.1235560768961679,1.11796688911041,1.0845653480919812,1.0934697920692784,1.1259473774533337,1.1061184359445695,1.1156789210108273,1.1223351016969823,1.1131992329112075,1.1092760066541103,1.1176237117691554,1.091754085174957,1.1133318133233308,1.137588652480574,1.137980540344106,1.1014688807625885,1.222828777068081,1.141387943812909,1.1840120532866938,1.1501420963001265,1.2853132511284815,1.1689553160833672,1.1292315429269817,1.129716193835781
1.1685487334895115,1.2904793999994504,1.1849219662539057,1.2005091629302531,1.1886358796325904,1.1654022682075298,1.2364207455229927,1.1342653187985918,1.13641456185143,1.1295866026185217,1.1027686085160435,1.130525410084221,1.1219091960218561,1.1354414776947792,1.1379470838104677,1.1582783651790503,1.181643557024538,1.171707272579785,1.163425948463049,1.1676441335059455,1.157571649256702,1.1439708314992858,1.131959731845857,1.1323757324027952,1.2177014608593268,1.1372868602977808,1.2116739484867702,1.2118101952941238,1.2475644922860183,1.1751957309867576,1.1380857404429034,1.110793594765949
1.1644783203592701,1.2804205791448002,1.1729429772911228,1.1679337773544476,1.1649152281148354,1.1677011692398562,1.2472500581740154,1.1383861763855143,1.1333727692787487,1.1319106916535449,1.1348516875987908,1.123005864257202,1.0938983146506354,1.1311668316203765,1.1480543478441925,1.1514417201591942,1.1309708794305382,1.12102191624598,1.1356013773233233,1.1397442422618869,1.1436637670757444,1.128566395650302,1.1393277888514937,1.158448428620642,1.2314966720950264,1.1769631852193292,1.2355331610785125,1.2324827347385692,1.2468187839655294,1.1759070110539929,1.1688483555496934,1.1200364711439255
1.1531694988312775,1.3156004937313148,1.1818550679476991,1.1737799958024606,1.16607900774926,1.1756150539300565,1.2233103775430048,1.1427543674362608,1.152381050834728,1.1488708257828837,1.150817925996467,1.1351900586635502,1.1201717584721407,1.1554451650495556,1.1601043112712175,1.169595640384094,1.1620278120359484,1.1570631435647576,1.1462944085618847,1.172973662705431,1.179276263739496,1.1701533506762616,1.1767876945152325,1.1890016563649177,1.2615112667473185,1.18379663805557,1.2827359928329272,1.2493191819847618,1.2499468028343381,1.2040603386206523,1.1708291586279373,1.1598049509332151
1.1532292473435513,1.274099298485919,1.1768333878122548,1.1741897157793366,1.1553259104014322,1.169957869112167,1.2055661381058214,1.1402017595998633,1.1500528259862586,1.1613793593208923,1.1434207735208302,1.1366535591650166,1.1124420056690778,1.1506862201898023,1.1565368611773732,1.1571984807040205,1.1700246590505918,1.1425960205164696,1.121426917157719,1.1524268870259666,1.1543173490110579,1.1521292131398064,1.1605093717758308,1.1443834430796915,1.195795088528107,1.145519390707469,1.2573955498093874,1.205554633839675,1.252292400061994,1.17496420022715,1.1421534392022594,1.1452587730780723
1.1421053680608375,1.232998276897853,1.1626447296815878,1.1759518611112894,1.1308263318345837,1.1769182946687566,1.172569000737791,1.1504830813665323,1.1484349618837468,1.1444885417728619,1.1239299122010724,1.1306433948015462,1.0966831952014333,1.1256107399045439,1.1421038227817097,1.1358051955403023,1.13712027614304,1.1128070557828245,1.1029860323014975,1.1142743323527418,1.109846329410102,1.1191139804706776,1.1160528062113926,1.1080431738730685,1.1785597976852604,1.132383366770535,1.233178615011415,1.1649139912255095,1.2340106009477736,1.1265615378716407,1.127484253339742,1.1594276559788939
1.1454741639759343,1.2090036787127925,1.159062470594965,1.184967355849379,1.1492580424984242,1.1712440755542977,1.1892281598983274,1.1475789187512333,1.1606140100237474,1.1442229382041598,1.113025619074008,1.1239319044169798,1.1226815160310992,1.1286598847837248,1.131051728306,1.1384662221430868,1.120613907514963,1.1344460018053466,1.1153985891973963,1.1116613632793677,1.120178038798246,1.1277262779889565,1.11268932359646,1.1086674932598457,1.1929528032270702,1.134244544152622,1.2413908021452675,1.1729874704068264,1.2082855954414728,1.1329359709669955,1.1288396344316523,1.1516574584921626
1.187732290785356,1.250237357764081,1.1966415951765768,1.2015219639975423,1.1703692619002353,1.169713322098074,1.2253782193388194,1.1478515610320694,1.1831604137297387,1.1383910752007929,1.092118432530034,1.1139918673169529,1.1361534760812788,1.119134075640906,1.1214812388115205,1.1235162973804842,1.1092795238939033,1.125139958410391,1.1124876410068838,1.1004166867006875,1.1230027111026564,1.1548298849984744,1.1345192969223505,1.1073486610041905,1.2249150052053421,1.1459773943191944,1.2692373441983908,1.219498276994227,1.2638139277923672,1.171279971762482,1.1988985160685481,1.1551449129274607
1.1677520621437565,1.2104524391050209,1.1741478337488884,1.1841218056286595,1.1492226315506446,1.1677377592298217,1.203613504360505,1.1482732487995304,1.16460449197751,1.1495749413382268,1.1152423783696936,1.138087277239482,1.1479100727251632,1.1473310729913533,1.1469538056194903,1.1400126178762056,1.1347913950594843,1.1198572778286318,1.1332921698732867,1.1248571862373142,1.1435621907615432,1.1654378883096004,1.1629874760316898,1.1253770081625165,1.1822029642860516,1.153647190868034,1.240347267207527,1.2110837545689006,1.2641723148677235,1.154615810374061,1.1744699247863493,1.1887543391994435
1.1269361286045252,1.1940404130467188,1.1269213681471568,1.1217771331566937,1.1473956080493106,1.1405174865803374,1.172952726056605,1.11092818214879,1.1381946240637564,1.1108077012561683,1.0874658581650698,1.1156454848038653,1.1182726108441545,1.1206837473307432,1.1187891336768094,1.1281225797195316,1.1367789369894485,1.111790322024229,1.131023410995659,1.1410970205512703,1.1542387954002913,1.1334882634161196,1.1502675458461256,1.1101044329517957,1.1577518376578835,1.1395730042556855,1.218908768243794,1.148931930284538,1.2470473645810785,1.1242505075240004,1.1287477338587173,1.169276601696485
1.1382138586481485,1.2656421345162454,1.136980456856567,1.1491003949710887,1.129881706806932,1.1431483921533705,1.1892948876415417,1.1064147107954347,1.0786276531023284,1.1130283496025144,1.0882529880058638,1.063905731694853,1.0578901381557035,1.0640900608837192,1.0688121976908982,1.066717488924579,1.0813885009279811,1.0609766491936756,1.0778743563307696,1.0868682463672346,1.1008995396013175,1.103301458384338,1.1345414207114712,1.0952902205294412,1.1803761322142263,1.1314710587921097,1.244946741813119,1.1321499084281645,1.2450263749128339,1.127368830099868,1.1109977086721992,1.160822576646648
1.1072118605617502,1.3087223279645575,1.1426585039144137,1.1603623884718193,1.1305232247536383,1.1173995624301498,1.213949804609806,1.1377167004982895,1.0615564509730893,1.132326082192411,1.0911748895986126,1.0638373612296772,1.0443702594925663,1.055222533204487,1.055806506565301,1.0553469624727367,1.0637771801280675,1.0534678520681333,1.0726202169799905,1.098080674777389,1.1111262527709884,1.1006475296528566,1.1397168896153267,1.1289197218113864,1.1919424091237747,1.1355088976935939,1.239818338391602,1.1764629910294824,1.2408800426903723,1.1597386828287222,1.1177144235792242,1.1434297588582696
1.1281521054064478,1.3297854278002113,1.1656400633212995,1.1804326868831272,1.1345147495431878,1.1444443824288344,1.1982218821625483,1.1575535536140715,1.0823533669443157,1.1005416897716347,1.0674288397694582,1.0676245722978035,1.05402991858159,1.0609758903422895,1.0612020960304311,1.0685700758570618,1.077602546973175,1.0698511678341973,1.0845200343367838,1.0975502316056234,1.1317356874159137,1.11245571279973,1.1578471190411557,1.1625618220478164,1.1919574319414423,1.168176174832764,1.2323799250769896,1.1762753768215828,1.3150443366831264,1.159545799324389,1.1543643981220046,1.140442814642203
1.1328285108327278,1.2794806769617901,1.150781283878191,1.1754552528064668,1.1285284161821056,1.150838759619901,1.1976200315729442,1.1329392487819665,1.099200855784666,1.0776296011317401,1.0553600300806762,1.0735798145189541,1.075161541757188,1.0683181362845398,1.063937586083328,1.0690378092475883,1.0775264121439263,1.070404282562022,1.0760067273830873,1.075390692959047,1.0846871419912048,1.1063408898741451,1.1500045759018906,1.1290130353714434,1.2017418561726618,1.1654021318375236,1.202466952965222,1.155526322253593,1.2739939436064855,1.1379500182796503,1.147990452897045,1.1317679605715811
1.1240880253400989,1.2127151701600174,1.1794133858004945,1.1752103696388934,1.1280388250136166,1.177160460138937,1.230334336673697,1.1344784004037718,1.1449254107076134,1.1182648575034253,1.0780485080083553,1.106603293557854,1.1299771339982583,1.0953450797273234,1.0746665065970824,1.0960976054261367,1.1300417211943201,1.1092642247540332,1.1059113033393224,1.094405787796355,1.1144137542170032,1.135186181028286,1.1436436162136674,1.1235713031114898,1.1953824790408074,1.153105441815101,1.2313405309592163,1.1361197929327034,1.2550083540625072,1.130979248404236,1.1447208489189307,1.1361401413988803
1.1754169254787257,1.2403453745542514,1.2399280699568425,1.211227345086154,1.1447173955798264,1.2315708497118092,1.251830471465912,1.1607973241406415,1.1387128689305912,1.1436629608604834,1.1089696201889356,1.113734824426511,1.13013569913017,1.1073301974305607,1.0988969270808089,1.1186246119228396,1.1329822410662707,1.1027074705663875,1.1016262076764258,1.0857527627829715,1.103639728657733,1.1301182446514757,1.1288036150221903,1.1122580506883006,1.1461220867570736,1.1432802981145729,1.2274496808931181,1.1438643094169227,1.2452325536588749,1.1606858379925882,1.139401190545245,1.1460884958886044
1.2475172325662736,1.2390597673744457,1.2732155820609095,1.2492490594323977,1.178366660795086,1.2389989897558984,1.2332752965406155,1.1722128915148369,1.1365832679708632,1.1665158549135863,1.1087094835980922,1.1123633517197178,1.1472195179529323,1.1094001477566888,1.105619138976794,1.1200089749822049,1.1191415181200843,1.096606026617346,1.100054925965569,1.0804787255098152,1.0872811969243834,1.1317274428160773,1.1245124803838038,1.1142064191813592,1.1382324282854075,1.171789453114718,1.2483311252555631,1.1412238006445599,1.2762007775736477,1.1815369789263606,1.1876566120842844,1.1797628849021942
1.2391427531273704,1.2781762800866474,1.2673138943906137,1.2229484342137615,1.1982489191871182,1.2184982476102832,1.2314982127593193,1.1675810408419072,1.1664711148337525,1.1608639083228016,1.1080158048396151,1.1323094035763162,1.1580755001729828,1.122847715683878,1.1285427063549283,1.114835356517943,1.1333168720634683,1.104882388697516,1.1309381469509467,1.0814576901818274,1.092327301561689,1.161347817977071,1.1198173413539068,1.125847854247705,1.1913829979535993,1.1749780594966965,1.2677838592378472,1.1607009176975667,1.2534546357136773,1.186463443578132,1.2142745303517357,1.1742600406465984
1.2232440258822497,1.307927594297193,1.2465168401646853,1.2491175014154612,1.2075216593512204,1.2252985779417394,1.2395827824785104,1.1795328234871258,1.1875642520139118,1.1570873355728037,1.1473754997088017,1.1602878927468487,1.1691547393243598,1.164463802398682,1.176531071647737,1.1820942442321931,1.1731816077612862,1.1570488693701597,1.1778011405577367,1.1487054664521277,1.1578180211772586,1.179421119739978,1.1709829117710695,1.1479481774251863,1.203830422681204,1.1649073438590942,1.2771317427535855,1.1754714650566973,1.260723299899518,1.1699200403664751,1.2000142082544327,1.1736380423500454
1.2247962008205717,1.282649741179102,1.2376726788754695,1.2507999457493018,1.1815733299922613,1.2285858200902025,1.2328186285213971,1.175632725105373,1.1910425344134652,1.1842421356885153,1.1828511697772,1.1737563932964135,1.1702563555525294,1.172694545599284,1.1868215374303763,1.187791847107492,1.178800145048382,1.173528722922496,1.1909868102126353,1.160792528131093,1.184241247778663,1.1936649380797886,1.2037841157256652,1.1619128853282927,1.2348685278768277,1.1875915294572486,1.27843977416051,1.1807025966062619,1.2984017748951484,1.1611302955042997,1.1652541239421657,1.213565307261257
1.1781184724568359,1.2573859961073328,1.178075108983887,1.1929446299896138,1.1648579326237654,1.1995688272336,1.268124156974091,1.17805057767965,1.1715265072468921,1.1368571198143056,1.1052467315906926,1.0989813209076513,1.1563219564720608,1.1137165674096228,1.112687117186222,1.1306712939064667,1.131564411054289,1.1217289656117737,1.1506773494900047,1.1155605866246363,1.1231052082448971,1.1707319196986745,1.1444216844915678,1.1142540942501986,1.1836588514577147,1.1756363360728204,1.2880180974836715,1.1559275416259145,1.260293096493995,1.1696182065828287,1.155043658971627,1.1708737435596168
1.1728242664925494,1.276225968900924,1.1822610659807031,1.2159927907444672,1.170051085608099,1.2163738588285198,1.2168355019839545,1.1847348502636916,1.200836702031581,1.1115707389269167,1.0962597467381288,1.0845306792596259,1.1619970589980189,1.0978798661329503,1.1011893561746504,1.1193535416569065,1.135193031524764,1.1162988844675146,1.1383518517705002,1.1160646164096077,1.1175660869324306,1.1874391480058313,1.1451919373287254,1.1265923639907902,1.1514018632003495,1.162080715650152,1.2727791241879949,1.1793032983923752,1.2822194503730502,1.1872784504022087,1.1605799265775691,1.1808178050377445
1.16533796494122,1.272018166969775,1.1911633345061765,1.1944042270222004,1.181452647141136,1.1691006658376504,1.2397593619025227,1.190288338600941,1.185214284928468,1.161409912602303,1.1702508569447119,1.1313907495456723,1.1490998291654593,1.1129011520576582,1.1253947990601953,1.1195776434670945,1.1444953207042807,1.1180303582530928,1.1313629836949368,1.1258948799126798,1.149521452524022,1.1611992247587373,1.147940282005274,1.14647447584393,1.1832401966295223,1.1493546770454963,1.246470082126778,1.1801044679046682,1.2578552815178827,1.192759695854631,1.1468265583827761,1.1739880260468258
1.162245380050315,1.2458325419892406,1.1883486376275434,1.1532974678498653,1.160896744262327,1.1495913006679124,1.2386800620859015,1.151681069076698,1.152646756300811,1.148925984647208,1.1284260227442677,1.1119351389125285,1.126831190707356,1.0986530851161773,1.1052263798983724,1.1085792279620423,1.1196294259489037,1.1019728446813808,1.138434047130751,1.1159441492405566,1.1541009800078754,1.1620119542474747,1.1630487183189833,1.17088550466545,1.1875006864862654,1.130314275418453,1.25260702131819,1.1768791045992715,1.2468333280065105,1.1709626037097378,1.135155443155885,1.1328654439765222
1.1355721571611894,1.2291767677718557,1.175538295699597,1.1615920909269495,1.1564380718491256,1.1478918854889038,1.1790406786905612,1.1247558783348826,1.1472368460653286,1.1044392337483253,1.075051139111091,1.0938705648049671,1.1280138745166812,1.0926350143755812,1.092268505067619,1.113933058277515,1.1201902703069264,1.1216323370682892,1.152142308722125,1.1341279158430646,1.1440991607345226,1.1719719098373562,1.1528796376983612,1.1796787697343907,1.1713336833337458,1.0879404895412654,1.2318306344838832,1.1787712225992926,1.232980091085694,1.1440454229462937,1.1222180262035668,1.1249363901295029
