Fp1,AF3,F7,F3,FC1,FC5,T7,C3,CP1,CP5,P7,P3,Pz,PO3,O1,Oz,O2,PO4,P4,P8,CP6,CP2,C4,T8,FC6,FC2,F4,F8,AF4,Fp2,Fz,Cz
"(0.19750664457695577, 1.752548678045187)","(0.25927503394326284, 1.498508038297526)","(0.20895145167891252, 1.7457185075746935)","(0.1884358379948592, 1.9211588281919536)","(0.14703121280812473, 2.353572830628365)","(0.15096514858717414, 2.1401865926201444)","(0.18525675928590501, 1.8317900908517235)","(0.17480854871246887, 1.6295595892975838)","(0.1806145791675645, 1.7111019583038256)","(0.15677243732066726, 1.671330584589863)","(0.14948465812493744, 1.6974619345358823)","(0.16664862824814558, 1.5511819610664235)","(0.17872288079782098, 1.481217893095113)","(0.17038582380872816, 1.5367533076547675)","(0.17819841112575455, 1.5374946022092724)","(0.193898798426241, 1.4635235044176698)","(0.18189163954024284, 1.4926682714905244)","(0.19380138179666626, 1.4089710791197747)","(0.16955036743720242, 1.569981934507566)","(0.16908615080828854, 1.5460018461771041)","(0.17251682383965464, 1.5689741969967121)","(0.18213549085349026, 1.5162289983113642)","(0.18119766206162544, 1.5698729426550437)","(0.1817352352248749, 1.8046003566015894)","(0.17612474050121993, 1.6681285421848095)","(0.18952989514107832, 1.5515424039679722)","(0.28749316889480353, 1.3159303923464283)","(0.162860142927987, 1.8243461472134384)","(0.238354606000596, 1.5843808052406305)","(0.1954297903127236, 1.7010134653356808)","(0.16609441286936216, 2.0263134841354646)","(0.17177899702221472, 1.6816448367706116)"
"(0.19789762709959044, 1.6492825438305276)","(0.29842438125618553, 1.3154421852159797)","(0.22050877409411657, 1.5698936720441825)","(0.22934276317818267, 1.4303113660597657)","(0.1499663467671423, 2.1780577099971956)","(0.16497573853764214, 1.8316492213382753)","(0.184727189663547, 1.995113181790407)","(0.16865642836389338, 1.7944585555979815)","(0.21356599594704065, 1.4924984790059521)","(0.16868159260561896, 1.5734392953592464)","(0.150513252771632, 1.587277274919506)","(0.18523145109293096, 1.3884112828625093)","(0.18843783072296175, 1.4171820641773114)","(0.1742645452184607, 1.4772568959228582)","(0.17138623969180639, 1.494754388853571)","(0.17728820628014502, 1.5170581061517996)","(0.16983964083087336, 1.6673482348981605)","(0.19077535347639302, 1.4410122537907055)","(0.17943473777893537, 1.515626278848712)","(0.1588018195024893, 1.6991016964721775)","(0.16462005871776775, 1.6243323304760142)","(0.17322048720936725, 1.6394095088121043)","(0.17366030493380616, 1.6796636661327349)","(0.17558190880139607, 1.7495417319990387)","(0.1714841029555198, 1.7268897106267838)","(0.19579804933923545, 1.5793209170170877)","(0.3002865501962074, 1.3363556724311172)","(0.16190865476980493, 1.842093248175588)","(0.25053533896532915, 1.5177449486951475)","(0.1845488561062545, 1.763974567942841)","(0.2243657700106622, 1.480680602864075)","(0.1913161778635707, 1.6200754750223978)"
"(0.1944789717983786, 1.6415330505155383)","(0.29015658303033415, 1.327993285363195)","(0.21025157874982295, 1.6741805193839785)","(0.2261717222533305, 1.412200705736226)","(0.13132009444457846, 2.4057546328496806)","(0.16291870936110525, 1.6994964980057592)","(0.1631576347470552, 2.133510001814703)","(0.17347546776532724, 1.952817077113106)","(0.19610617048958295, 1.5585210694862706)","(0.15146237605865054, 1.813264863497957)","(0.14157737854633323, 1.7908253417681814)","(0.16744157136879884, 1.6480375676049686)","(0.168949405142985, 1.4653098024265325)","(0.15059943863697198, 1.7543703561280062)","(0.13984869045479473, 1.8417460425709893)","(0.1510238995798781, 1.7526104175149113)","(0.14690029268681257, 2.0201293245463354)","(0.16336596613776275, 1.6031477431633747)","(0.16314539066671718, 1.527320840326936)","(0.14619997671029888, 1.727802901611667)","(0.15162936808809901, 1.6228919054889435)","(0.15572664705248035, 1.6868772769655016)","(0.16675938532948217, 1.7387603472990434)","(0.1617004641758747, 1.6650853164445534)","(0.17103457425414836, 1.681363845819376)","(0.20898906834095302, 1.4841783008194465)","(0.31711603030523505, 1.3165244084738703)","(0.17884049651901113, 1.5886361185673528)","(0.24921304353418128, 1.4668731559458419)","(0.19460182999964357, 1.6151458077334064)","(0.21651526053339, 1.461543245966067)","(0.18356328658829066, 1.792440483758206)"
"(0.1938036129762507, 1.616228396325545)","(0.26077889546948924, 1.4620842808519694)","(0.182751183244171, 1.891614318992132)","(0.1884907161069506, 1.5954321251025754)","(0.12286071150509209, 2.421670385098092)","(0.16262496356771153, 1.7511525219622215)","(0.16248283545503026, 1.9376004684577093)","(0.1606109003926132, 2.025563272456385)","(0.17490639427849677, 1.7030188922309195)","(0.13716351936580476, 1.8618583319230917)","(0.13755547099377557, 1.91491844501337)","(0.16237243445638438, 1.6874920177581128)","(0.15985111311505135, 1.5295279609183234)","(0.15597399944331763, 1.7083718434990984)","(0.13370074514140215, 2.01288748090229)","(0.14876895928290962, 1.826129198135382)","(0.1493704431378389, 1.8787606042643061)","(0.14547225923391785, 1.716289047989275)","(0.1439835289311971, 1.6815231788374845)","(0.14682936018564688, 1.7191920024375522)","(0.15855717297420327, 1.5099906554062792)","(0.14887909203420102, 1.7790180352029854)","(0.1745414349477059, 1.626008561252537)","(0.17049747459797246, 1.6524356843337527)","(0.17375737727246243, 1.6893104999051216)","(0.20509895961407149, 1.486408167082908)","(0.3006455683386604, 1.3166089131539822)","(0.19348789125281676, 1.4761649277024294)","(0.2589340506440738, 1.4496407547296903)","(0.2099307918554546, 1.4971226002363687)","(0.20029664267103595, 1.4850187917457767)","(0.1848562029838965, 1.8787714005861778)"
"(0.1755492964268173, 1.741443001930118)","(0.25073055981651277, 1.4507086581537332)","(0.1723851283746725, 1.965432626006105)","(0.16748995698906335, 1.848478350743812)","(0.1381535042482449, 2.098405029870523)","(0.15478620277739788, 1.850099353513163)","(0.14032366296241713, 2.267035744222987)","(0.1745581298303177, 1.769424398428791)","(0.1719286690547774, 1.814520633142538)","(0.12571199233476554, 2.047962945364668)","(0.12697094351338317, 1.9962663937577498)","(0.15667278883762056, 1.6870627766223343)","(0.16913906601704995, 1.5616063289954478)","(0.1490804275048267, 1.7258404056846421)","(0.1311567890648667, 1.99630260953683)","(0.14654021275685822, 1.790990456917528)","(0.13526867340656462, 1.8919374347521956)","(0.15697206924124887, 1.5990995892141917)","(0.15559564433679232, 1.6160300638679956)","(0.14971604551003476, 1.677810947453802)","(0.15696048047349576, 1.6080280149537636)","(0.15827173884993742, 1.7120754123768638)","(0.16481378127088395, 1.7052862744321604)","(0.14894949493916682, 1.9201528561258419)","(0.15023236188907244, 1.8927575646448977)","(0.18393972538723655, 1.6338613699180133)","(0.2947681289677944, 1.3237562465762711)","(0.14475156004133372, 2.002210583451668)","(0.25619160433414384, 1.5228526323119989)","(0.17998670432228883, 1.6227506155565468)","(0.1725095365498177, 1.637188619783529)","(0.19288926492844505, 1.7033993864638086)"
"(0.14226194216291582, 2.0644412415496833)","(0.23997796719882733, 1.528507376171761)","(0.13278383586576734, 2.249749175437522)","(0.15652719056346495, 2.0146834478495315)","(0.1835040287459203, 1.6191357322354711)","(0.1343454141140119, 2.0886657730484197)","(0.10345906067625132, 2.760827515617171)","(0.154020016244023, 1.9304047854245978)","(0.17340740509536093, 1.8043810923699035)","(0.11126311780150802, 2.3351803655014685)","(0.11444610925189624, 2.209975610631385)","(0.1462918642842609, 1.800606879254775)","(0.1757686584259333, 1.4783133144991336)","(0.1332490158323623, 1.9330091859846108)","(0.12651821097379892, 2.106175692584614)","(0.13916512191052544, 1.852416532581162)","(0.122011934549803, 2.10358656136061)","(0.15386309653844762, 1.5770069330359369)","(0.15854945829895334, 1.572026817133191)","(0.12709079012126046, 1.8174562477790401)","(0.13532541426528788, 1.8736090298927424)","(0.17080678634039959, 1.6126118981424404)","(0.17302341632004697, 1.6949928976793656)","(0.12440534882984741, 2.3176469900003345)","(0.13955547402203952, 2.0485936578207493)","(0.1911551765059188, 1.6722170890841157)","(0.29032308487499847, 1.352635432086299)","(0.12821672044639199, 2.440028606325854)","(0.2518287312984001, 1.4621507681805097)","(0.14201972166735077, 2.0095857853850045)","(0.1592916629175905, 1.7830738095875427)","(0.18151043599392286, 1.677625818223693)"
"(0.1338771627697413, 2.184153719888708)","(0.23367690072614947, 1.6158610433216058)","(0.1278387125344072, 2.317505962808371)","(0.1612090928937087, 1.8685433842836123)","(0.1671830772149833, 1.796155473056011)","(0.14353696125249255, 2.008225714863355)","(0.10342897284935598, 2.9152062226693563)","(0.16105093147732727, 1.8638498529404408)","(0.16507403172852747, 1.924285402680381)","(0.13126652725511828, 1.956703673787745)","(0.1290807579323091, 1.9816166412694174)","(0.1576248368069699, 1.6323032170454965)","(0.17140711503746828, 1.545303027597129)","(0.14695255773854177, 1.7471966304185906)","(0.14724892511560023, 1.892355234199413)","(0.14889715993791516, 1.752289281246858)","(0.13320762820863052, 2.105873967941309)","(0.15217867009495975, 1.6202937444463823)","(0.15487324354917772, 1.630695276313615)","(0.12256546996213805, 1.8810923509814603)","(0.12749743322302343, 1.9658617624693668)","(0.1572499525037377, 1.7067536540368868)","(0.1568970490524315, 1.8700621438192733)","(0.122448548452639, 2.382658706237687)","(0.14296285762332783, 2.1674151565391493)","(0.18208322912718078, 1.6431514711406432)","(0.2745014225920648, 1.350178307191493)","(0.1282353256447495, 2.62187701718549)","(0.25599393412480864, 1.4645388151862828)","(0.12394785385815739, 2.3019613300771335)","(0.1531050825900608, 1.7665149217289384)","(0.17889031836191122, 1.636654680068714)"
"(0.14248646742069457, 2.1587981775126432)","(0.23520337597856208, 1.6231099993644493)","(0.15026945165266148, 2.1633858524898204)","(0.1659910880729593, 1.8528634744759576)","(0.1464402347951545, 2.136719751343456)","(0.14650039758646585, 2.017336493255332)","(0.13862140747980303, 2.2950463906455227)","(0.17391700630814796, 1.8005741130509507)","(0.18125562303720738, 1.7765452396287096)","(0.16773276790907968, 1.5570915430709051)","(0.15246616348059475, 1.6844553373733675)","(0.15849443763263663, 1.6492769664315865)","(0.15857230255038654, 1.7852171247130522)","(0.15340496636283346, 1.695751211691585)","(0.16244494529722206, 1.7767847619622292)","(0.16858486413888824, 1.6357573345440157)","(0.13842789801149152, 2.24485825174465)","(0.1652161681011957, 1.6523234923051908)","(0.165601829990718, 1.676303226761504)","(0.17156605937572844, 1.6733269297804707)","(0.16058132721443702, 1.7753989624684354)","(0.1659756294145054, 1.752632788151018)","(0.19098080700587372, 1.590291678248036)","(0.16777951775510067, 1.9350859320834055)","(0.17226215674708154, 1.8814691160529096)","(0.16323081567183517, 1.8506980156001493)","(0.29737678040492543, 1.3397098522380622)","(0.1574573355327994, 2.043751231547465)","(0.2611508245043706, 1.5036552015979465)","(0.14265875455498406, 2.0402118513978964)","(0.1569955540493014, 1.8841139843212253)","(0.18082386755839966, 1.7398610615665948)"
"(0.15656469557168162, 2.068520806443428)","(0.24925403495544993, 1.5559819729785722)","(0.1498445447097681, 2.282204900343571)","(0.15095327292671054, 2.0808569066695566)","(0.1502883113992279, 2.0970487184742113)","(0.13647142676169974, 2.3305496962989194)","(0.16430837362614015, 1.862342865065446)","(0.16770558492783538, 1.7447714035297355)","(0.17815602053594612, 1.6135708469908043)","(0.1628385934090055, 1.550300576576002)","(0.15042689650251012, 1.6437646376187147)","(0.15796536193198663, 1.5184771506144883)","(0.16947234816937723, 1.618090953541156)","(0.15040076049254886, 1.6517192594861192)","(0.15591701356902216, 1.8037376355896177)","(0.16751860322752776, 1.6368246237919928)","(0.1349720497202403, 2.2546702045499516)","(0.173748282849117, 1.6037810686930787)","(0.1796714125306841, 1.5877656387343684)","(0.18376380050850255, 1.6007476295245138)","(0.18376986013824428, 1.5784660725426298)","(0.19246601509156766, 1.6401145911900643)","(0.20277957817881243, 1.524258468370103)","(0.20830720991889257, 1.518643456644601)","(0.20476322945425215, 1.5671457897271672)","(0.18864990102788995, 1.6592893637414539)","(0.29995215198928565, 1.3552527478968284)","(0.15876391284690888, 2.029559106621663)","(0.2541021379047721, 1.49074708530986)","(0.1717456034785367, 1.7969362861081226)","(0.1681529586252671, 1.761683800215145)","(0.17916912482654446, 1.668813551805482)"
"(0.1847162488305372, 1.9261159788445785)","(0.2872884097264718, 1.455646979949923)","(0.14980223046000007, 2.517882577213055)","(0.16230318205282607, 2.143856040976954)","(0.15416351707313583, 2.1184872223256006)","(0.14462821003860443, 2.3180733987602733)","(0.1864643464473311, 1.9880242173096287)","(0.18062119101999122, 1.5953572873158655)","(0.18049496078253308, 1.5169211300744114)","(0.16649976740821126, 1.6006438090793955)","(0.16809611984192854, 1.6311561472635616)","(0.18383016898551402, 1.4065836431461778)","(0.20125613956833924, 1.392266867601715)","(0.18275879526654562, 1.5043698404225823)","(0.1909001085182244, 1.6202676244687386)","(0.1945948094793178, 1.5172668557630833)","(0.16573895988090862, 1.9507260619997853)","(0.19899221273643647, 1.4840930250233146)","(0.16099510833085326, 1.7723475803421673)","(0.19968927032504957, 1.5137232445166628)","(0.2059688966987823, 1.4677523089023439)","(0.1989859377037978, 1.6348785471557072)","(0.22292764202222992, 1.4567114970790485)","(0.2154970742590555, 1.5035784121876792)","(0.245933438560609, 1.3385839881056132)","(0.20955670490311604, 1.5173116352646518)","(0.30211504914549125, 1.2587100557846655)","(0.20369935608930664, 1.7757814993742111)","(0.29534109731509334, 1.3565591361468072)","(0.21109963602705195, 1.6534189622327564)","(0.2035859535704726, 1.5469796395956628)","(0.18567008783615863, 1.6513982296108314)"
"(0.1677436938143464, 2.071092317286249)","(0.2660727546308324, 1.5882790223231893)","(0.12967341186205936, 2.5823307409886653)","(0.1759116589545253, 2.0257860487099064)","(0.17955292216613206, 1.8801943861288941)","(0.16372648633719505, 1.7646180480885663)","(0.18693827816203054, 1.887404271295861)","(0.19833194155381081, 1.635017138397547)","(0.19595810448732823, 1.697903522517581)","(0.1790695953089184, 1.6609285578115673)","(0.17591874548091055, 1.692124926925011)","(0.18852637613866244, 1.7208039243066593)","(0.18171893097608555, 1.7867331370146209)","(0.19960458607866025, 1.622139456706873)","(0.21660376634282122, 1.55075574426395)","(0.20438909225215307, 1.5938509744577303)","(0.1686668558194982, 2.010930764119193)","(0.18596458034905125, 1.6901394733277126)","(0.13805472549623468, 2.224363048788837)","(0.2162846993313167, 1.4852968316846078)","(0.20135122818983947, 1.5933857802674218)","(0.21297021909334113, 1.5716516249157304)","(0.23852054779155485, 1.402352558364679)","(0.21189137335641575, 1.6461522655703524)","(0.20641442630574774, 1.6290217653506225)","(0.22525994193127416, 1.4485490126781304)","(0.3166192156651031, 1.2486851203585316)","(0.2315562427838373, 1.5642747337587675)","(0.3216613750345464, 1.2999314897851415)","(0.22419755665951716, 1.5559126121612934)","(0.2391357277325754, 1.4486477521222318)","(0.21215669878974605, 1.5816675987603872)"
"(0.11932278389588061, 2.5773876481927838)","(0.2137422287932249, 1.848639261428107)","(0.0918989584230483, 3.158251667611206)","(0.11996324896662836, 2.8526154278826565)","(0.16930904333472335, 1.9334842943735502)","(0.14189792501760823, 2.1425993572793525)","(0.18564619447784736, 1.8737684011682765)","(0.19642752162037605, 1.6860047680735106)","(0.1724356844105707, 2.1711381348080194)","(0.17981296282331172, 1.6483400231424048)","(0.1747692202215975, 1.6645715155883882)","(0.18006284727940758, 1.8157187636226892)","(0.14945279082941504, 2.272841323140417)","(0.1850701661275142, 1.7376087954032606)","(0.18951331976627175, 1.7180030610599413)","(0.1779868837986554, 1.8457306213782279)","(0.16823270031091034, 2.0337565383229945)","(0.17262630123503872, 1.8765484562322767)","(0.16619594489942446, 2.062216086865067)","(0.19735401853273696, 1.7567046501843373)","(0.18970451497303537, 1.7645868199877581)","(0.20016400129061462, 1.782051050808081)","(0.21114109240260026, 1.623067400294793)","(0.17752168356257184, 1.8939912108590935)","(0.15407575108725685, 2.1388580919386166)","(0.18130917324532006, 1.8757941683818347)","(0.2856485273310335, 1.4123248272572746)","(0.17906497353845652, 1.8586342192585408)","(0.2710602471068401, 1.4534416559399006)","(0.1773017940856465, 1.733022022017343)","(0.15932955035317586, 2.0920505688465036)","(0.18057063648274457, 1.8516199029587213)"
"(0.14677404704557917, 2.082102260691223)","(0.21975061244978475, 1.6660517914338548)","(0.11609707658404277, 2.487425231643061)","(0.16007829957355482, 2.1424053458063703)","(0.14469165089470498, 2.3989143061818257)","(0.15814952126615905, 1.946195205818229)","(0.17875209697514022, 1.8976403700762063)","(0.1570773394787865, 2.0909098969260587)","(0.14129632751176938, 2.518330841492355)","(0.14854058676082588, 1.8435047491135788)","(0.13988296097332859, 1.9415202242705643)","(0.1611968248966012, 1.8431669713849816)","(0.15938900246461574, 2.133845991441286)","(0.15620866526505156, 1.9260161124029083)","(0.15728584434466292, 2.019989100616439)","(0.14449533110330137, 2.1776384722579496)","(0.1463971074790669, 2.218449774599092)","(0.15332821192433277, 2.112298340802784)","(0.14895850581121028, 2.396895361477568)","(0.14228792781745145, 2.4989358022343993)","(0.14856949114180137, 2.2546698168822257)","(0.16794705207819555, 2.1680148343977623)","(0.14005927098965704, 2.4064864020684498)","(0.16373613198418452, 1.8524477685854925)","(0.14754055006032343, 2.233952915847298)","(0.16200352117284458, 2.0732446493491588)","(0.2945068759374655, 1.3100984651908167)","(0.15152289026207375, 2.3146498265223894)","(0.2361885510516621, 1.5310956052141964)","(0.18559456478097472, 1.761282117743858)","(0.135526602356935, 2.4477004957783173)","(0.16549771964833995, 2.0321094538052393)"
"(0.09964080925914451, 3.2626385480163296)","(0.1461320764417619, 2.446283526030599)","(0.06605024912570247, 4.562804849419453)","(0.10807418865769171, 3.058659018266046)","(0.12531430883656672, 2.6809598615081565)","(0.09236847602247311, 3.272601934098307)","(0.13405586992557617, 2.5126947972396843)","(0.1271132273257076, 2.531586382074487)","(0.14046261005129843, 2.2528542780568466)","(0.12522570694551377, 2.3378455053507223)","(0.13746142403739886, 2.1083882768623985)","(0.17564200208661004, 1.6763007024387424)","(0.16651324169738058, 1.908124281238723)","(0.17581831335222078, 1.7400617047081155)","(0.17873106133984995, 1.7767926101713625)","(0.1631711470220213, 1.8548648086790207)","(0.14025765167210108, 2.1018077457512825)","(0.18215725899106772, 1.7171500485977753)","(0.1814792791386522, 1.81779705444583)","(0.15924337442686712, 1.9239617307160761)","(0.13780545760305796, 2.3221227735888657)","(0.13429672791007377, 2.617637849130718)","(0.08946083520618274, 3.867460465084845)","(0.16009744639061005, 1.9591739779132225)","(0.1254344800016846, 3.11525162497955)","(0.10144629970647112, 3.7020442177767228)","(0.28718061317448895, 1.3889627861176383)","(0.1205930175726433, 3.072521638699722)","(0.22565643911671981, 1.573347876952809)","(0.1804143682717408, 1.931748189207409)","(0.12127359440335746, 2.721876631261152)","(0.0947442036433061, 3.633410173576708)"
"(0.15483358448745854, 1.9515756632077015)","(0.22145071305019773, 1.6738396831635174)","(0.12735315030984898, 2.3287675309418403)","(0.1661306570623511, 1.8554449598443026)","(0.14415144719480938, 2.1175805328585633)","(0.10912233703843169, 2.6860967573485692)","(0.1506223139015616, 2.3449719855826907)","(0.11634090569979973, 2.668219778299819)","(0.17495063989062956, 1.9815061759196484)","(0.13408377586186362, 2.1547113250970225)","(0.14155514633129715, 2.1917952307762834)","(0.16868653528055358, 1.7817494328169488)","(0.192870238080118, 1.6405952669816213)","(0.18615577503675343, 1.6727246764111015)","(0.1643249228497183, 1.931953327356116)","(0.15780257386416705, 1.9910628657470109)","(0.1588915705364626, 1.9520172307954495)","(0.19878546640859796, 1.5920943446770124)","(0.1990577697435393, 1.6038931369257252)","(0.19003790341856855, 1.6560148860062989)","(0.19131369546574895, 1.5970139498483837)","(0.18676647071498573, 1.745554293664727)","(0.1415909117248174, 2.2479364294371744)","(0.1948965870129271, 1.616189088040066)","(0.17080962026290034, 2.0591040458833763)","(0.1402746056450412, 2.375964419351982)","(0.3023686583952899, 1.3349683127428997)","(0.17722865839779878, 2.064229779628586)","(0.24295049386652331, 1.527081933283676)","(0.17251145004870388, 1.7501199319181975)","(0.12328002121334272, 2.424344952361243)","(0.17771058502834503, 1.7686598546725816)"
"(0.16371369580125578, 1.7422344352022492)","(0.2292807929155707, 1.5725971507451324)","(0.1574429707263817, 1.7548516987487757)","(0.18161459845409977, 1.7037244247330312)","(0.172150793048144, 1.8599548906107497)","(0.14166639807638035, 1.9639285841769043)","(0.18214764954918033, 1.9278980323685984)","(0.162904991513612, 1.8247084143275865)","(0.16609158113146125, 1.982460102806136)","(0.1741017261612968, 1.595143259935661)","(0.17074485387780894, 1.6680061047842232)","(0.19165448758844977, 1.4828507523045151)","(0.19013988947651356, 1.6101834160266293)","(0.1962399399445165, 1.4929377706580746)","(0.16542721764001175, 1.7549280621284997)","(0.1653120380790759, 1.7359912009466743)","(0.16555436064591714, 1.9372792574128577)","(0.17392209011552298, 1.6286741669326774)","(0.17945250907544855, 1.5566651216138556)","(0.17630074392423536, 1.5614119372481114)","(0.1749348888180788, 1.5313692654753535)","(0.17906457210116536, 1.6311275556120328)","(0.18850294619641422, 1.5496222568790374)","(0.1913353582040018, 1.5884471834601948)","(0.19366403764952259, 1.5343197675249372)","(0.20759032098750135, 1.4880186356225857)","(0.2892919979725221, 1.357417834629027)","(0.21379459991749847, 1.6358851158235967)","(0.26184525193690844, 1.4443444818892626)","(0.18373451372929706, 1.6135769739872035)","(0.16918509685652308, 1.8392721704731967)","(0.22411580025503722, 1.374147585260144)"
"(0.1422524997867154, 2.2195679573955984)","(0.23816373785309425, 1.597913529253736)","(0.1227431331968968, 2.4628807599568447)","(0.15033089933106777, 2.1086880963626022)","(0.1772768475719748, 1.8025988764036946)","(0.14127858260646395, 1.9877592483164366)","(0.16213269007608488, 2.208921288378971)","(0.1881017743848109, 1.5170344244710003)","(0.1999959042469714, 1.5386656932278326)","(0.1576919624966754, 1.7063073189159628)","(0.16900452539540026, 1.5936966818433624)","(0.1902912220238501, 1.4111818216411245)","(0.1679882585704964, 1.7370540031801394)","(0.19152937965121855, 1.4286273261855438)","(0.16648686497252252, 1.6803252269079036)","(0.17732708487546747, 1.5571574206586303)","(0.1692041394898525, 1.766013387507068)","(0.17189767724464108, 1.5439949206657204)","(0.1673116369573532, 1.5316266722637517)","(0.17456955087277845, 1.4583215337120239)","(0.18519717045870404, 1.416065003974416)","(0.17340595879232568, 1.5890140838428308)","(0.1965431316711497, 1.4519131179510993)","(0.1879683742584202, 1.6251400207855056)","(0.1868575229099673, 1.6596131002378645)","(0.20369217378971752, 1.4926097397639153)","(0.29298444255543443, 1.3802602603655811)","(0.18933500931060665, 1.7460739619712695)","(0.256757802350429, 1.418276738414727)","(0.18206500335560255, 1.781220113793774)","(0.20048955049740508, 1.5582181293234223)","(0.20219662146281697, 1.5055773550666345)"
"(0.15942620656771617, 2.0459602674710644)","(0.2575549032572143, 1.5375512621227636)","(0.13237654177765473, 2.428186034680202)","(0.13416711919580998, 2.1481713010755334)","(0.13149651560388184, 2.394000022233884)","(0.15131932739821544, 1.8861989240666632)","(0.15191224219312377, 2.2633914529918018)","(0.18677705803468678, 1.5763137588534353)","(0.19815069048213757, 1.657353670436345)","(0.16700623692924962, 1.6530660077987351)","(0.17413009313895542, 1.6144057713888558)","(0.20689534123088746, 1.4238202168440663)","(0.17564435932279818, 1.7101781013755057)","(0.18679409265362615, 1.5400341809253286)","(0.17516561375527104, 1.6485676166263368)","(0.1888444590836406, 1.5289534924303991)","(0.18931388851356268, 1.5565164128945073)","(0.18648444714151716, 1.4976202080949252)","(0.17642814837631926, 1.4948546212218046)","(0.17944598690359043, 1.468710019981038)","(0.1943143751459446, 1.4082678087358451)","(0.1793178940685259, 1.6035129632682927)","(0.18321480906842666, 1.615228944035473)","(0.1855380031300525, 1.665549903966529)","(0.17440660946408126, 1.8316065766886576)","(0.17583315953207007, 1.8004518091621753)","(0.2881451169566055, 1.399979199701932)","(0.18419538060951895, 1.7685601466491456)","(0.25058726749118887, 1.4415492184927856)","(0.18156044224669887, 1.8870732404524009)","(0.20782469504711806, 1.4702850116918045)","(0.17400155288712316, 1.747752933944673)"
"(0.19773766500005566, 1.6263731957917074)","(0.25457474798906965, 1.4183007170541133)","(0.19354344565455464, 1.5801960303635858)","(0.18020375981645254, 1.5822983554471914)","(0.12337411563604672, 2.6846344388191175)","(0.18737772378559558, 1.6055671890256407)","(0.18122285753471518, 1.7430919924703308)","(0.19097694015876543, 1.6135367904117883)","(0.19625478926376577, 1.6756653559224035)","(0.20294684626891418, 1.3913136539403919)","(0.19025180224447896, 1.5155693837514228)","(0.22044095821823023, 1.3431885367619862)","(0.19082598619179872, 1.5828001913273702)","(0.1829181556818754, 1.581623084239848)","(0.16720186592220987, 1.7066859526754325)","(0.17514806242038672, 1.6809250700155849)","(0.18540783416285458, 1.6040202600431077)","(0.1855539427395126, 1.5643597854787554)","(0.18277362147629347, 1.5575227086854324)","(0.1641705114314869, 1.6687235824968192)","(0.19176765186183983, 1.5029209229796023)","(0.1878034314398721, 1.6569841999358184)","(0.18790752689723925, 1.6497487926278789)","(0.18673706852306515, 1.6796861103174152)","(0.1998686899255019, 1.5472701806697051)","(0.17702011707966667, 1.8371904381039323)","(0.2528943729668381, 1.4767327154221037)","(0.2051732622137729, 1.5849474308106182)","(0.26050534034965095, 1.4967887904966455)","(0.2015312955210673, 1.579469118640727)","(0.2032168421804363, 1.4631670655933695)","(0.16936334554836605, 1.9010023275021706)"
"(0.16764766417699328, 1.770710363598449)","(0.22716431218733307, 1.5226548293075615)","(0.16873486375152139, 1.732293554346755)","(0.18158915287417893, 1.6380648976585364)","(0.16268023701856854, 1.945084542803162)","(0.14727920760102453, 2.079092674853774)","(0.17080794974790767, 1.9066726650532606)","(0.1715835062710224, 1.6870727796463738)","(0.1778752258359616, 1.6360516163179013)","(0.171320122338512, 1.5699431289885049)","(0.1518890349307115, 1.789026177923544)","(0.15838583439428178, 1.6149212301027167)","(0.17421032339689324, 1.5103335005128846)","(0.15257378086730686, 1.6857694839090318)","(0.1375360225555295, 1.8855406604514462)","(0.15115454164402548, 1.871435122881386)","(0.17520240151334468, 1.654692855592757)","(0.16879976875625158, 1.6408551772066233)","(0.155603138477753, 1.7480597207395039)","(0.13232755275068675, 2.012068103706741)","(0.15478034970468596, 1.6713845829515794)","(0.16092563612486643, 1.6612189454135804)","(0.15356881299138983, 1.6438565115922477)","(0.14351602357783935, 1.8839404855567956)","(0.16417297772014974, 1.585397649760503)","(0.17249484448988237, 1.4671420082241586)","(0.2456043577765973, 1.4644236864818758)","(0.1674289595190851, 1.9033983914322377)","(0.23436590137368066, 1.62592310391252)","(0.17652539539189263, 1.5413565344270808)","(0.16022363710433996, 1.6903226717776076)","(0.1499032935856107, 1.813317972061104)"
"(0.16669216702571768, 1.7495127231152066)","(0.2281345464464427, 1.5511052403392187)","(0.1553240624326276, 1.8462157526017164)","(0.17619928756362566, 1.6621697146921497)","(0.14423977187554632, 2.0654865516956202)","(0.12692451889683337, 2.224816055857546)","(0.13090628431717793, 2.4091171441202444)","(0.1559499826441881, 1.7360382233833795)","(0.17204335588933825, 1.6163230759563445)","(0.13024822854687923, 1.8686334735567909)","(0.10774266606564963, 2.2603595257589095)","(0.12947217331284774, 1.7266238549375346)","(0.14949716895476456, 1.5265809629032496)","(0.11958769041762743, 1.8610806600885528)","(0.11015556014607923, 2.1556690305167967)","(0.11843969972303588, 1.915119917514132)","(0.14352848956787734, 1.6388838153577112)","(0.12991523857536083, 1.6366279524490275)","(0.1265030556344514, 1.7814204048577207)","(0.10842714420471644, 2.0539176984622487)","(0.12687700113019248, 1.8110957341032154)","(0.1532987059892797, 1.6045131411363722)","(0.1376919234172881, 1.7210483349687808)","(0.11523222735675578, 2.302012401174958)","(0.1302627038740308, 1.8991618820845362)","(0.1346624301713067, 1.7743736823759109)","(0.2485801008319083, 1.5040530677244797)","(0.1406362652919541, 2.326901754842229)","(0.19839942774795846, 1.7929327371011827)","(0.16158558457229658, 1.7047382360934784)","(0.12977576968660673, 2.0293357050918686)","(0.13627472184221684, 1.8374543772162968)"
"(0.15559104080943068, 2.141109316713318)","(0.22084567744658604, 1.7502442149214912)","(0.126581817090266, 2.727828800111672)","(0.16370166527620097, 1.8814617600256098)","(0.12759470480686852, 2.204014121432741)","(0.1094307777446798, 2.6315493738071276)","(0.14718458087187175, 2.1459356546314217)","(0.13778843287608578, 1.9862938861815789)","(0.15288708419133837, 1.8015401281550505)","(0.12546522999460155, 1.7564064652239466)","(0.11179404807309341, 1.7738156217476737)","(0.12318497792049043, 1.5397830339386698)","(0.12570926074721558, 1.662691406026427)","(0.11445748985050547, 1.5511896401317975)","(0.11152241389411288, 1.6922846698078138)","(0.11626881826677911, 1.5794255193320472)","(0.1294047983363863, 1.5929425424069736)","(0.12288863032417248, 1.5244070489868278)","(0.12743221423133022, 1.734808217371479)","(0.1143235589266054, 1.7950936021825632)","(0.12288590794729852, 1.9909387941437549)","(0.15324441182213205, 1.861260168982642)","(0.15194090692293613, 1.8550989265628026)","(0.11506704423732153, 2.3762786976754615)","(0.12602648230285265, 2.24647635613974)","(0.12664400812639268, 2.1361475236538876)","(0.27862100044789395, 1.4707131056535896)","(0.14376407089542173, 2.365311757506611)","(0.2560914486913452, 1.6338776830067316)","(0.17732631462890688, 1.810354261134964)","(0.14080294793780476, 1.9482664874238833)","(0.156197363859663, 1.7296212008561114)"
"(0.16902080825856913, 2.1359563064930427)","(0.23765416425898958, 1.63141495115021)","(0.13538173089599093, 2.692023091988817)","(0.18084215568398637, 1.8617923365188715)","(0.13240119154775848, 2.1918096656477135)","(0.11418103329041399, 2.7635646558012454)","(0.1673944538729405, 1.9947704057295534)","(0.1435832817119566, 1.9727907780634144)","(0.15420647350089275, 1.8770601554847637)","(0.14282368553345862, 1.6554997702551209)","(0.1372550572081913, 1.6023596561172457)","(0.1339463801397149, 1.5997557652657988)","(0.128175525326655, 1.902136315977993)","(0.12717256821090628, 1.6066148006272172)","(0.12772438351639984, 1.6112602035308903)","(0.13288721995595346, 1.7559923620696003)","(0.1289521023586734, 1.9857956546645932)","(0.12969172196651324, 1.8568820093780916)","(0.129816402823785, 1.9956347023991012)","(0.12142848223500988, 2.05718112205442)","(0.13143628962404216, 2.03324075917116)","(0.16012343525260025, 1.7420100718781015)","(0.14161495136933286, 1.9615740559979622)","(0.1299095245632302, 2.2369237506371356)","(0.1313374416966637, 2.455281640782831)","(0.15024078510469666, 2.0250350862325375)","(0.3156629115589436, 1.3046523197297504)","(0.15134052084366284, 2.2230690451828914)","(0.29146035378982244, 1.4462557553868203)","(0.20020875004072036, 1.6914792996152883)","(0.16143788902848183, 1.9524763296919507)","(0.17739685553662826, 1.6153764877728456)"
"(0.22441248611124312, 1.5941129478616463)","(0.28319196356258797, 1.384898755088772)","(0.2178946734175373, 1.671519482131109)","(0.21827820568746922, 1.5997037080241705)","(0.16137770440177102, 2.0818174599883243)","(0.1509978723004498, 2.1365247540340593)","(0.1123608616743599, 2.9711085896371134)","(0.16120798231096042, 1.8727585407943816)","(0.183353100726159, 1.740296303381668)","(0.1555068945426041, 1.8465331095993915)","(0.15505372602805875, 2.080839805859595)","(0.1712774573979684, 1.8771632529728408)","(0.18561712382355547, 1.671722139990045)","(0.18077297236826745, 1.8100820226794467)","(0.16177855280189868, 2.054518665471569)","(0.18128200165261785, 1.8829652910128278)","(0.15648409756806547, 2.1111159449600847)","(0.15879051286461807, 1.8801275136001494)","(0.14490984996023154, 1.9168713566496967)","(0.13418504286550204, 2.3031024195138636)","(0.1339792578060876, 2.1918488403004908)","(0.16003569235056475, 1.6579679473814861)","(0.07092809392791145, 4.005732731351918)","(0.13842763698781785, 2.491730600373887)","(0.16146744463737372, 2.2434684311980364)","(0.1554332089691005, 2.0979305549383263)","(0.3178811277437936, 1.2691989925443783)","(0.17784598457934264, 1.875672127070169)","(0.2645244632315177, 1.4316884967207784)","(0.20084580062230137, 1.6847107611692291)","(0.1506515183009757, 2.256368430034064)","(0.17587381234530725, 1.6524082358253307)"
"(0.1952842433108051, 1.8395345714902145)","(0.31310964648959494, 1.3039717424574166)","(0.2381469708488457, 1.604291419137246)","(0.2694194088679351, 1.476917521678809)","(0.16274439051757322, 2.088860188447052)","(0.19358873090194367, 1.7626388918322806)","(0.06788565531110807, 5.261584172095666)","(0.14156518167467988, 2.162251626390511)","(0.1599292108519885, 1.895963484249163)","(0.12319951777924848, 2.3190665449600223)","(0.11775713234603102, 2.463779625898961)","(0.12497740035806008, 2.45599066610798)","(0.16730974013636404, 1.7576110983303639)","(0.12526010572418866, 2.438573986686801)","(0.13133289231473216, 2.418044499661861)","(0.1458140563718066, 2.2713230331722443)","(0.11291567706430086, 2.8710040555628407)","(0.126508705995957, 2.2170949134816844)","(0.13742859470171997, 1.9021200281409796)","(0.12554544649520571, 2.227770955321367)","(0.11879717819873811, 2.3853145295495)","(0.14666895823116824, 1.7515314022266382)","(0.038855503131112336, 7.14998104052493)","(0.14414296786745479, 2.195595395478621)","(0.17867934560302137, 1.9942073806045377)","(0.1517140519601103, 2.167301283669429)","(0.2950642561441658, 1.4217645432047554)","(0.14498884551864746, 2.313412864144774)","(0.23288694175680572, 1.68379205642745)","(0.19522019532799223, 1.8279834376641064)","(0.034018435658510995, 9.511855571062773)","(0.14283606155561712, 1.9741936509711078)"
"(0.16253538821388208, 2.0831585280891507)","(0.2945392794892672, 1.347518303556059)","(0.20657646372576546, 1.774839552860539)","(0.2648193832657647, 1.528758626897786)","(0.16803942734798283, 1.9463153711045105)","(0.1782896643130324, 1.9898141256757023)","(0.05288521301234297, 6.482803722956583)","(0.13743067445956694, 2.4346444631344064)","(0.1541847502515842, 1.7404778257922906)","(0.1321634747336097, 2.1390038292077906)","(0.12668437583047643, 2.191068194132888)","(0.1391266774496468, 1.987228429850279)","(0.15449959971965266, 1.713090149723981)","(0.13729648317584212, 2.0412673459687802)","(0.14403161811081627, 2.16786365978718)","(0.14898199646141896, 2.147573403257772)","(0.14754401943033088, 2.205950910562343)","(0.1423547331416985, 1.9896388456063028)","(0.1458860031371942, 1.8723060573828816)","(0.14048891206897865, 1.9765095198887377)","(0.1468433970133894, 1.936634341451182)","(0.15616967860129422, 1.6918962747858046)","(0.04181358025682852, 6.692617353662635)","(0.1727408014256368, 1.7869260105183844)","(0.15828800377132496, 2.0997985266321066)","(0.18545553617401128, 1.711827238070399)","(0.3226947263852729, 1.2884809861401918)","(0.16605736796471204, 2.0303953168152997)","(0.25248342880612384, 1.601374998716433)","(0.17887965871829084, 1.921250299093776)","(0.03403600246269315, 7.800252220129111)","(0.13822134108029632, 2.0936956071312114)"
"(0.16269114603101442, 2.062564734930167)","(0.2813478288227558, 1.292371740869002)","(0.20397293386247684, 1.7411289495280953)","(0.26425347261770654, 1.537197025870301)","(0.0749100041129082, 4.274975826865572)","(0.1867276615365184, 1.934139026459968)","(0.05074530210753325, 6.643460801966359)","(0.16597447386585437, 2.154339008386955)","(0.17545381357345513, 1.6697388611617616)","(0.17252292696580104, 1.7812224960311225)","(0.1571685779163629, 1.9214262726467384)","(0.15507481562690964, 1.8637057195111844)","(0.14981658310620535, 1.85711109790907)","(0.16405178279619495, 1.8205744908134434)","(0.17643569159732264, 1.8966968442366807)","(0.17185504312850441, 1.8941703079755259)","(0.17892479848916829, 1.7648132751142798)","(0.16374221464062017, 1.7884078391714906)","(0.1697160078929482, 1.6880708283971726)","(0.1612796345351908, 1.8151812333087287)","(0.1804928034345293, 1.6297152566304174)","(0.1715744450874162, 1.7189581079084169)","(0.08782248011944101, 3.4575488624427666)","(0.17673277562235268, 1.7322464847768448)","(0.17794200066808413, 1.8592052416274785)","(0.18605337924880014, 1.7257505450523793)","(0.33218168486375643, 1.221570324347284)","(0.1946735641611105, 1.687743981456099)","(0.27654237044157687, 1.3745007768043638)","(0.1843913883934048, 1.824757937195172)","(0.04813257464499934, 5.59858958183367)","(0.1415897071105537, 2.2484399095573577)"
"(0.15317919195871654, 2.174977067628605)","(0.2420342338444268, 1.4994956223420024)","(0.1763764917921248, 1.973124625388167)","(0.15582929687409122, 2.3151697960423445)","(0.060524008754334016, 5.086551594202358)","(0.15105873324730204, 2.3135814820888507)","(0.09083189069902432, 3.6037292756480688)","(0.10222306587366593, 3.224481573924655)","(0.13268421803618835, 2.589384865444643)","(0.11963519137993467, 2.8486439687654563)","(0.13900455235349662, 2.489093420176815)","(0.11073483364058255, 3.102060618446119)","(0.11945664540314453, 2.6314247540033797)","(0.13377966684648218, 2.5241900370377897)","(0.1487849446641479, 2.3610629878604437)","(0.13998789306760218, 2.3840420391422787)","(0.13548950722222958, 2.4160511856769857)","(0.13383179628657008, 2.296282443271442)","(0.12716264706436264, 2.3209329859838808)","(0.14182192732091792, 2.0879425595342287)","(0.13591328900415395, 2.24960398979636)","(0.11373367165119354, 2.684455534212811)","(0.13979274441899717, 2.2168957857639455)","(0.15333480528810653, 2.2458274080473295)","(0.14595897573786074, 2.332493803865283)","(0.11883992914028006, 2.7026358540424367)","(0.2638904219613848, 1.4604286067544274)","(0.14123899114484761, 2.379343489364629)","(0.21233668077650425, 1.687551249771423)","(0.14113734166371966, 2.3965908592357987)","(0.06482248695054876, 4.77204820968254)","(0.08961699289367428, 3.6795861819030224)"
"(0.13787379987487058, 2.3249061107914737)","(0.23923525658479675, 1.6347512958383044)","(0.16247468103875648, 2.1294914575813335)","(0.12576948256114107, 2.592313701787043)","(0.04957472121732774, 6.339918088134151)","(0.13102964353703112, 2.5174723999873345)","(0.1843520019557801, 1.9401514327547715)","(0.09595528626773783, 3.3815639992222897)","(0.11554680600274443, 2.9581912144701423)","(0.10858758649275613, 3.0642140647728273)","(0.13843942310774773, 2.411279608536537)","(0.11066420959852806, 2.9286497190248535)","(0.11698621325307051, 2.7460206054196528)","(0.1235247697573137, 2.516040810637832)","(0.1523329150157302, 2.2354902283726585)","(0.1466274388084162, 2.2448290617803943)","(0.12680885316776888, 2.733508279001621)","(0.13354897191657014, 2.3439491204698566)","(0.12077158717733871, 2.5087229557100295)","(0.14942195655244406, 2.1127030530083157)","(0.1310656325628734, 2.395197498576202)","(0.10983816282199835, 2.8220202206348435)","(0.08669023731647141, 3.3552139404213888)","(0.16071014391948982, 2.2170996716047067)","(0.14576050362739834, 2.310891617454381)","(0.10708499609822109, 3.028462613761101)","(0.2567503396487902, 1.5762139844371486)","(0.1521347151931398, 2.317359087486987)","(0.2314320797750102, 1.7267107374444877)","(0.13478677975873207, 2.5742669526355924)","(0.06722838600198491, 4.424840851555938)","(0.07475167129811511, 4.275178967810044)"
"(0.15750359043368478, 2.06379376566567)","(0.28047365924317674, 1.4253256774519418)","(0.2115933448324246, 1.717561160217302)","(0.19555456040194086, 1.8333360777058985)","(0.04303531325550498, 6.225607081262079)","(0.17528060571381368, 1.9133395476435782)","(0.1555812793286165, 2.2504197469343987)","(0.18271668683890877, 1.7989452022344667)","(0.13789289368501884, 2.2827744407727124)","(0.15697486252770687, 1.796804212970547)","(0.1623527402202215, 1.7586538114402375)","(0.156268695365866, 1.7783975182081309)","(0.15171361034919792, 1.9284326663099403)","(0.14440555144198944, 1.8293924646146889)","(0.15599764681286662, 1.8382678026782908)","(0.15451986928815187, 1.8339646263373344)","(0.1398847470104075, 2.1732661222857868)","(0.14740722022198796, 1.8141137064036919)","(0.14740624099782407, 1.9046067816529375)","(0.1647414230864886, 1.8135936809418305)","(0.19531363875409083, 1.7907793533580851)","(0.1542348855185883, 2.012050500302962)","(0.08092668927951273, 3.669488409383936)","(0.18271465879302576, 1.8479808289702078)","(0.1943383255800567, 1.83334476365417)","(0.1615131820952694, 2.185004761076431)","(0.30557242344509894, 1.3880273917038914)","(0.1918289580315593, 1.8045259967172833)","(0.2877245852067957, 1.3991808176511091)","(0.1753012582998164, 1.9878612922200727)","(0.08690794439980107, 3.7235601094846986)","(0.0568881798042219, 4.972932019934555)"
"(0.17905321557521672, 1.9360171679537954)","(0.2850355706501031, 1.414065604389784)","(0.22019941661654927, 1.7298579936291427)","(0.22169589787210411, 1.6387932719836262)","(0.06284591904521998, 4.188941420812798)","(0.1985610716678051, 1.7681281575297407)","(0.14066859664062276, 2.38314845005225)","(0.1905823719507464, 1.7158746195572359)","(0.16424403236478308, 1.9219788919271312)","(0.16448416835256863, 1.68464741258047)","(0.16481978521703755, 1.7734782501374653)","(0.16217853365856572, 1.6990355827587988)","(0.15115844003353968, 1.8611517153687094)","(0.14609580251977067, 1.841329918607628)","(0.14102763333972254, 1.915233972068711)","(0.139782239233852, 1.8900836624630697)","(0.15557378166759336, 1.8482363059754876)","(0.14848736021507178, 1.862902872897921)","(0.16313539415690062, 1.9297252690030176)","(0.18067270099120655, 1.9185838167857483)","(0.23982207931277186, 1.6288313249464856)","(0.16816616366666423, 1.9714387200346486)","(0.14520612750115425, 2.241964655904842)","(0.2942484329226057, 1.4172717836722342)","(0.1848546564378162, 1.950620471393485)","(0.1595819490688745, 2.027073373034639)","(0.27445241529970715, 1.4638108011356619)","(0.18980839573904124, 1.7943245521746973)","(0.28146487033566825, 1.3666720453852927)","(0.18218892061340256, 1.8905693061191016)","(0.10474630511559341, 2.9317762354890453)","(0.08934429897121222, 3.322718691243695)"
"(0.2009559651536838, 1.9768910908389339)","(0.2970021070127718, 1.3354640006911158)","(0.2254508010887675, 1.7596580763506036)","(0.24163419510847214, 1.566170963406531)","(0.119998569726128, 2.620116239347551)","(0.20037596677473055, 1.7261260959782376)","(0.1273099430456356, 2.966995363203258)","(0.18302097282020008, 1.7933635250999627)","(0.1652427846496302, 1.8355907771464004)","(0.1729273602277981, 1.7499540311112811)","(0.18396640996281974, 1.7765180748880836)","(0.16035302117838587, 1.8264312345636358)","(0.16308619746225728, 1.8349398743843504)","(0.15983992490261748, 1.8561859364262092)","(0.16734688943593165, 1.8745167263851126)","(0.1638457531324959, 1.9025372830090186)","(0.15732878869274267, 2.039631389625583)","(0.177712363340354, 1.8375035471810188)","(0.1923027338750735, 1.8158890509511987)","(0.21531136855768257, 1.8206486669211717)","(0.26434620562772754, 1.5666272832912662)","(0.18431338332486627, 1.7756429539128422)","(0.1594915906499766, 2.193466182889603)","(0.3333777054251383, 1.2898189483373785)","(0.26607460636286384, 1.5513866298926322)","(0.16772449601356906, 2.072185540488265)","(0.2961910597682833, 1.3511553745775902)","(0.2585261919667428, 1.5479557196371923)","(0.31549821077886164, 1.3053609693689336)","(0.19863495558293548, 1.8688242530855061)","(0.09956059874016317, 3.3683398963711157)","(0.15818585595008067, 1.8704011713454518)"
"(0.17429956212748998, 2.304209260939212)","(0.2450609182289368, 1.553326669853761)","(0.193013512754187, 1.946238025598603)","(0.29634305397232896, 1.488144805916011)","(0.12492427377815016, 3.1531116039091343)","(0.2160176653241747, 1.7533229307509215)","(0.0630796041957719, 4.9004104900202865)","(0.15886898552606749, 2.116374264470198)","(0.18346959205236263, 1.929962225179297)","(0.17636490918405076, 1.8126707659667896)","(0.1907860542879281, 1.7964762080958196)","(0.17600956562247422, 1.8726658115381123)","(0.19827108155618847, 1.7606573171582858)","(0.18640272821388307, 1.8050567328021223)","(0.20560993294068997, 1.6985456519520483)","(0.19077106457414914, 1.847671570399896)","(0.158414122780766, 2.2619756741775565)","(0.19554561111796365, 1.8442223285374673)","(0.19669654613517115, 1.815667447443503)","(0.2088826335508911, 1.897256418123265)","(0.23172363512367244, 1.7789490305315583)","(0.1519375331923152, 2.0735416922792673)","(0.09528541973020414, 3.7734747136355065)","(0.2965644904620357, 1.4320046041187762)","(0.2920513323968201, 1.5062642610922596)","(0.13693845720753522, 2.918000560144312)","(0.3160903568801421, 1.3071681425965824)","(0.2703333973509073, 1.5812714652768682)","(0.3101363628571576, 1.3873649561310588)","(0.17470884796950184, 2.2266584113316714)","(0.07022496057803766, 5.756019471571298)","(0.14488076577502199, 1.986435256092357)"
"(0.16422503771024127, 2.373645416725617)","(0.270314935132504, 1.5116068899279644)","(0.22155404823008734, 1.7871550746567815)","(0.29257382442917995, 1.5315477915294406)","(0.21809526199851992, 1.826682942008028)","(0.2366229353945588, 1.6574141018156248)","(0.05658742523020871, 5.875298650692764)","(0.15897207235360214, 2.162722288018496)","(0.16410702306491498, 2.201890334647598)","(0.18155700051460272, 1.8935172935139517)","(0.16913302225380275, 2.0609882766880765)","(0.17133216519925537, 2.035621165069672)","(0.2074752133991378, 1.6938234530717082)","(0.17389696493088225, 2.026373018450946)","(0.20300991838772564, 1.8040566167196195)","(0.179253276769851, 2.0489290656077035)","(0.1846523443606079, 1.9363228085708888)","(0.17347494677573386, 2.0911267931413637)","(0.21087522089564067, 1.736456047036983)","(0.19012024374262199, 2.0017300650025143)","(0.25178486611279405, 1.7301392553769626)","(0.15536196594214882, 2.316642140322682)","(0.12826406051410927, 3.2793076960771126)","(0.2566264776788346, 1.562765414739261)","(0.28550235364392357, 1.5197426284380147)","(0.19195759620903727, 2.203555721198512)","(0.3168775665594299, 1.2967239990319868)","(0.25521216205975383, 1.6181042258523697)","(0.31896888348443536, 1.3486086214005666)","(0.16556097031414152, 2.27390995583575)","(0.07585421654608712, 5.30437262903965)","(0.17150827842721203, 1.9174895438878896)"
"(0.24327633445541277, 1.6250898699540313)","(0.3038388837783553, 1.4188357421455589)","(0.2684109426395409, 1.4924613443859864)","(0.2779905908414745, 1.579976369278175)","(0.16263611627734514, 2.1434451883471377)","(0.2331186021802057, 1.648861645936829)","(0.16373586114392355, 2.5248110188005346)","(0.18878954731779168, 1.906643138006361)","(0.17383177252508905, 1.7791180684059058)","(0.21641979211330656, 1.6539288947501969)","(0.1730610850930004, 1.9700515163021177)","(0.17012614348118105, 1.9498502099831592)","(0.18558178156275856, 1.653688957833906)","(0.1600668122848827, 1.9920545044058897)","(0.15598792269112016, 2.1749504641200064)","(0.14781649082031995, 2.231055129112915)","(0.13518748105290668, 2.285807039559217)","(0.14360201932631328, 2.2702225109542282)","(0.20829646880981328, 1.7188598994828244)","(0.16055025742626836, 2.268266160348923)","(0.29379134751730995, 1.497886856047519)","(0.20970737565666472, 1.7160441633360566)","(0.18230666220586114, 2.3185243535590025)","(0.28288138485401926, 1.474374374346491)","(0.28496797818652425, 1.4545852314635062)","(0.26701281524665554, 1.4927059007287728)","(0.3095388139044199, 1.2752281986421323)","(0.27072090705677454, 1.4653366246919195)","(0.322063878564496, 1.308711026778898)","(0.2267494860476363, 1.6895856083988332)","(0.1095931902285361, 3.441468895566717)","(0.24086202724855002, 1.503168643487021)"
"(0.18999911497897476, 2.125210789962716)","(0.25189201314610804, 1.6100031991208001)","(0.24409486852608875, 1.5833522053863613)","(0.26610842234958604, 1.5935227320459742)","(0.11079919790348057, 3.1857866216960864)","(0.21128457173104068, 1.756052851817595)","(0.08155662644961448, 4.6867735182993115)","(0.1997029350418828, 1.7888205464182798)","(0.20103223443669826, 1.4966390946348114)","(0.2087038923185552, 1.6447686780199269)","(0.18395608789624673, 1.7663842716800926)","(0.18317490868706196, 1.752627624558569)","(0.18146849673633994, 1.5879900067820063)","(0.17876369516935675, 1.7388175282247962)","(0.15938701946188658, 2.094909006057559)","(0.16938532358575484, 1.8424276502658772)","(0.15396811416076905, 1.9706350140814175)","(0.16009645644417556, 1.8128533949240389)","(0.1927951613270785, 1.6438475839575328)","(0.1697670633371928, 1.9389077062356144)","(0.2644620210187471, 1.5508500501064013)","(0.20002971245309087, 1.5785397279858204)","(0.16568938333856464, 2.4617847296165136)","(0.28103479672102694, 1.4925459329758872)","(0.25789725755163834, 1.6587201260079658)","(0.23675745610104, 1.6522553301720817)","(0.32095293942596953, 1.300289959303886)","(0.27592295254035953, 1.4903946009607079)","(0.28985751828923245, 1.4626270183526664)","(0.18858628114944248, 2.1767063791418964)","(0.20241430258802343, 1.9481249324021392)","(0.21763888297725473, 1.6550905945793746)"
"(0.2375084648166795, 1.7050591803667123)","(0.24865230040936062, 1.5106858119525997)","(0.2846646362005844, 1.4496574847761592)","(0.291418170365654, 1.429315231827988)","(0.12169965803572108, 2.8388127572030317)","(0.19346396892946702, 1.8925931952312753)","(0.10093047515916324, 3.5983170366834054)","(0.20153992760916073, 1.7348990875642591)","(0.18727573517180074, 1.536941597033337)","(0.18578293762502962, 1.7497085524604465)","(0.1824643760140975, 1.7374620447910623)","(0.18072257324644317, 1.6249359767919833)","(0.17347395261358906, 1.5521505137540623)","(0.17447543853400518, 1.694687005667572)","(0.1794414239128854, 1.8404340588067034)","(0.1775826175043179, 1.7132970285153803)","(0.16645500818117345, 1.7782939785842111)","(0.16645983923304203, 1.5729368300479445)","(0.16382830118093508, 1.6285719364932225)","(0.16418355875326313, 1.682966562629604)","(0.22965838685265866, 1.6334597183950204)","(0.17965790705792195, 1.6294699183788293)","(0.23753790719799983, 1.6847794011952835)","(0.26539139378243265, 1.5193532314751033)","(0.27838153728949955, 1.5618578938403438)","(0.2491852845614504, 1.556499634040267)","(0.33049133767067795, 1.2621051082497903)","(0.291640864958602, 1.4059919924129736)","(0.2950213227757942, 1.3645307377781684)","(0.23489090341508825, 1.707746827489099)","(0.21931186418812185, 1.7408877461270982)","(0.2223490519938788, 1.6375184416813076)"
"(0.22646956747680835, 1.7386648814218801)","(0.2136386005108251, 1.7337903284883562)","(0.26282325501427023, 1.56052220208852)","(0.20810563863111947, 1.9010301800932916)","(0.13877215204950982, 2.422144984107559)","(0.1531102657397047, 2.555526286857981)","(0.20158267773760752, 2.0251089070240065)","(0.21931265915006196, 1.7199250220505293)","(0.152577473550613, 1.8934070011515178)","(0.15494586625375875, 1.8531547681024079)","(0.14631890514674364, 1.9607054356411462)","(0.14585298260111343, 1.81225788241202)","(0.15120976383533424, 1.7685028981259108)","(0.1477563325341397, 1.8461753638353833)","(0.1556970729607725, 1.9699462494104507)","(0.15605814458091227, 1.9119049954897673)","(0.13571367301618067, 2.0618572405252773)","(0.14212100839649242, 1.8228038649194929)","(0.15342061998495804, 1.8768262476350328)","(0.12732436742852415, 1.9682841107403024)","(0.2125603036465597, 1.877038624316556)","(0.19549768859620248, 1.7666384812820026)","(0.25235374410898825, 1.6719163426555224)","(0.2421166066561311, 1.711476348798314)","(0.24846812281513483, 1.7000684710542016)","(0.2538810308165705, 1.5442279758328232)","(0.2685292024509853, 1.4236558320404449)","(0.21285278407447328, 1.8192488545490142)","(0.2284340240347313, 1.5878831339224013)","(0.19504717763869528, 1.8817822681485177)","(0.18192916140112952, 1.9370959617738457)","(0.24966240268781564, 1.5345567611157427)"
"(0.1931684211704396, 1.9666167202751401)","(0.22727924971469482, 1.6859822065438046)","(0.2274022460645527, 1.6901692753044188)","(0.1699701938819895, 2.125018670058189)","(0.14610364368094161, 2.2023629106230906)","(0.10052968469134572, 3.840410685945466)","(0.20952959448497455, 1.8871134082627437)","(0.21795096029601146, 1.693374115981044)","(0.144484780216484, 2.0363843418477323)","(0.15648163986760882, 1.7708793304711041)","(0.14330175690513336, 1.8771714327365479)","(0.147089592005634, 1.7949813383094295)","(0.1484209277213494, 1.8637445328620676)","(0.14476485236915235, 1.8311958036250828)","(0.1458988756465566, 1.942600830765647)","(0.15289966239470906, 1.9103050764548193)","(0.13004871928213532, 2.1820600530353786)","(0.13917709939853215, 1.9539014485866824)","(0.15497249125854728, 2.0484161834683654)","(0.1219308313212864, 2.1015265953881306)","(0.20346791016466184, 1.9800411620849447)","(0.23757891406225862, 1.6312293710133396)","(0.2675591301145658, 1.6238187035669627)","(0.2269409603235351, 1.8586882736630121)","(0.22687004661957347, 1.8125333669439485)","(0.232001259662743, 1.7297548003795782)","(0.2633646243164402, 1.458460003497764)","(0.1783781560728095, 2.022711868410453)","(0.21141599944805067, 1.7275243274793215)","(0.16767042175531743, 2.051898426655549)","(0.16521734986613182, 2.058272677757427)","(0.21825277174122656, 1.6745318904217212)"
"(0.160171933612562, 2.062617725582578)","(0.23733451868801028, 1.6240670519227456)","(0.16681709987124732, 1.9895876210158907)","(0.17479830364383506, 1.7188507617439084)","(0.15557826193108282, 1.84038981711948)","(0.0970840227788563, 3.387459429130063)","(0.16354219672970535, 2.093621466271644)","(0.17276392980758357, 1.9409307904648871)","(0.16512590034644467, 1.6443130092388794)","(0.15567511714256657, 1.7606113305949171)","(0.13667346507309938, 1.8766562855018158)","(0.16795030835767508, 1.565938775297493)","(0.16568634223094583, 1.66506476796751)","(0.14925124199677584, 1.7445143024324468)","(0.14721499825673473, 1.8620866936453655)","(0.1570558381321785, 1.8116542279686427)","(0.15803180049689267, 1.9228354867469077)","(0.1723694095212303, 1.6973689503848512)","(0.1526958902423299, 1.9609277655788167)","(0.15083511179944387, 1.9075219430753658)","(0.16797115238534763, 2.021460881534145)","(0.1958488564816471, 1.7690965773634229)","(0.20287977491873313, 1.8110893724798314)","(0.1854279887235062, 1.971637459109697)","(0.2209362443867948, 1.7123562468134388)","(0.19573486931487116, 1.7477358839069626)","(0.29289092264233074, 1.3781852683669993)","(0.20392679391055427, 1.8123366363598592)","(0.2657694768968766, 1.526969593833881)","(0.16458583991747544, 2.0090391364179867)","(0.18079699120221468, 1.8148610849515225)","(0.174133469115973, 1.8148886199060776)"
"(0.14995756916032382, 2.035790255908681)","(0.22076937795808504, 1.7950243271510833)","(0.15570059890900154, 2.0502630166703746)","(0.1809310457152856, 1.8005211552489806)","(0.1332284703133961, 2.1683287869100636)","(0.16708438617382118, 2.00001551666689)","(0.16554608474192167, 2.0525114935761617)","(0.15731865656050428, 1.9949695465262978)","(0.16166014500346937, 1.748186830462515)","(0.1495608746539735, 1.665723107909763)","(0.1314630403286625, 1.813405535603934)","(0.145801916821295, 1.67250189585567)","(0.1599144001344685, 1.7897201999315928)","(0.1361627195529061, 1.8383319850390936)","(0.13587305178873774, 1.912368100031946)","(0.14957406944547547, 1.8788968160438653)","(0.14850181389493358, 2.059309661627545)","(0.1588064577324551, 1.8093511317877644)","(0.14532289903043275, 1.9504355866250005)","(0.15137758313078886, 1.9400060942664672)","(0.15116400822473663, 2.1509948401918964)","(0.15685826108414982, 1.9747886915106363)","(0.18807548537075652, 1.8258178695180638)","(0.19996115431341419, 1.813771308146514)","(0.1999844455397074, 1.8004340935597083)","(0.18802665753448475, 1.7249175479438439)","(0.28378472748702377, 1.410154532594635)","(0.20126546787307317, 1.8428648170617625)","(0.26017673302355443, 1.609494637923756)","(0.1533877615817551, 2.0806062935256464)","(0.1606812813974694, 1.8649664383789908)","(0.15491458195149227, 1.907011814392743)"
"(0.17465233419445053, 1.8153135799321878)","(0.259854292189383, 1.4759936742035211)","(0.1851918812871366, 1.815992894432456)","(0.22648391761654318, 1.540434472854893)","(0.15815776027330591, 1.8746214630572156)","(0.15681066590822215, 2.2657102190757574)","(0.1970279912983752, 1.8412421331915223)","(0.16799987074204722, 1.8995545134957779)","(0.16103638013343408, 1.7781055678615396)","(0.15567091498462823, 1.6694605122874162)","(0.14538733793909364, 1.7433350299172532)","(0.1491574100451396, 1.7564432667504273)","(0.161379919127003, 1.7208963455829052)","(0.149116587227351, 1.7483406411385627)","(0.1441933116105487, 1.8134476289152692)","(0.15684616172378749, 1.7661270399309161)","(0.15642623654155688, 1.8647051637998955)","(0.14869970067119626, 1.7969499392636252)","(0.14215516636046832, 1.8145374939515764)","(0.1411607620574011, 1.8955969352154716)","(0.16099286807560476, 1.9339634036186082)","(0.1563167631169, 1.859581161454984)","(0.20882727641920454, 1.728118369832518)","(0.19564004686706726, 1.8543410484211087)","(0.23552873001018723, 1.720627539750454)","(0.22027874125303465, 1.5977241188629598)","(0.2660922648394956, 1.3850848851964803)","(0.22121223061119238, 1.7145506843745604)","(0.2876403257831224, 1.4356350985906479)","(0.1923819545830606, 1.7614164014922735)","(0.19228210377288266, 1.5884922750279198)","(0.1545102443541344, 1.9683986340239543)"
"(0.1723845899162427, 1.8518530384161647)","(0.2513422520738479, 1.504217434602937)","(0.17978885118021126, 1.8840814031215418)","(0.19752061743523083, 1.6035279276152823)","(0.15429644146316157, 1.9831049663411695)","(0.11826965186587941, 2.907934626808526)","(0.16729365260978743, 2.1253293981619534)","(0.17574898240948528, 1.8972237154341718)","(0.14073779848832818, 1.8991879763784492)","(0.14380998615949328, 1.8939279193857035)","(0.1489806136837023, 1.7706613307932026)","(0.15544879844114295, 1.8034155807241268)","(0.1308454587295089, 1.7279708529751943)","(0.15292471507204242, 1.786944378046562)","(0.15098293590810316, 1.8345273511454643)","(0.1545983595196634, 1.8240091701409937)","(0.13578977099599907, 2.135748671010467)","(0.1388186231023655, 1.870313328619749)","(0.13617536616265702, 1.8840271133595956)","(0.13624319659985965, 2.0240175655954387)","(0.16639365828691444, 1.9275800857609195)","(0.15184958300645182, 1.9209222210856725)","(0.21988800822046814, 1.610259388264844)","(0.20316566437702865, 1.9210574948066073)","(0.23300196587055577, 1.7139723514130891)","(0.22130940454185916, 1.6213632255142272)","(0.29452130204991167, 1.3469695091053067)","(0.21790675280887728, 1.7674026466420565)","(0.2712526764126563, 1.4693946193635912)","(0.19820436944902434, 1.6463276430116645)","(0.20419917244717892, 1.5740853723715544)","(0.16507006160683274, 2.0035207729812803)"
"(0.1706416594544527, 2.048332909248117)","(0.2612879314906433, 1.5518868417838585)","(0.16358693251793782, 2.257928478338)","(0.17630648032011614, 1.7792671294907831)","(0.18810029059363945, 1.6550835211071095)","(0.1378575542314532, 2.625069215815473)","(0.14996637877086272, 2.382251905141169)","(0.16356016057566833, 2.0125618005311985)","(0.1412415095924396, 1.9949281488815152)","(0.1242482532904077, 2.35687995253369)","(0.1295565843592906, 1.9529496471546162)","(0.1301228764973509, 1.8721431911963848)","(0.13210000662604257, 1.7725811051711584)","(0.12681149595801983, 1.8119942707939454)","(0.12514113420329118, 1.8957414973948712)","(0.1287438637277786, 1.9647103520890945)","(0.12174004036434759, 2.112181160643397)","(0.12876213273373677, 1.8823337731186827)","(0.1295645857191578, 1.9163286098104089)","(0.1270717853733275, 2.0207378135838137)","(0.1594114738922026, 1.9729756046689304)","(0.1360813572154512, 2.0376152807811)","(0.18418275114832464, 1.787890583403311)","(0.2189550554426416, 1.79884198735771)","(0.21162091098184774, 1.7766450874192157)","(0.17911767575792226, 1.9058551476501069)","(0.30958945419667017, 1.3331325302598656)","(0.2070094019392987, 1.8229524165088917)","(0.2513291848874625, 1.5951451427213805)","(0.19114673526420034, 1.8100490471087958)","(0.1861846747452001, 1.7521811033732895)","(0.16341609743435695, 1.9618172124428306)"
"(0.18466071940714596, 1.9081925102761788)","(0.2748389111271257, 1.5191708153089534)","(0.16310435395329995, 2.2508669096971947)","(0.15735397626324385, 2.1751019532370717)","(0.18356540812652522, 1.6903015800059573)","(0.17243043573740344, 2.0987451683861256)","(0.13593015587740287, 2.3814411619827216)","(0.15290365998697786, 2.356817472961512)","(0.15601122456144872, 1.8354227699934886)","(0.12331010258673364, 2.349158718591582)","(0.11273715502957404, 2.1888024495184197)","(0.12793520963361313, 1.9192972807762771)","(0.1359310827484622, 1.7767458094211448)","(0.12216034322675934, 1.8653013939210703)","(0.1224274301170726, 1.9653499724398766)","(0.12391408318887621, 1.9863709384933568)","(0.1240037470247776, 2.2271891564396853)","(0.1282350694632592, 1.8137990268299415)","(0.13132303270731277, 1.8310788918286023)","(0.13504347153749144, 1.8614873532275005)","(0.15714164379683018, 2.024311125833258)","(0.12463350340269796, 1.9575765006256562)","(0.1754311713297874, 1.9444762507673266)","(0.20044710025398702, 1.793933559638156)","(0.2332921212647212, 1.7320993963037046)","(0.1850794776657102, 1.903824177008009)","(0.3065989229783002, 1.2930331590551354)","(0.23424895432213516, 1.713314898350705)","(0.2649982748561791, 1.5385279555305287)","(0.20971246032145838, 1.833102711925803)","(0.20165590333818134, 1.6869867435663017)","(0.1669071764107384, 1.9287872129229018)"
"(0.1875300687586915, 1.8258189771866706)","(0.2731070247168609, 1.523912994789654)","(0.16500627892831018, 2.084263498244951)","(0.1527414586907558, 2.341046638949198)","(0.16114490472415133, 1.9267577497855581)","(0.16817437127565704, 2.1977181509518013)","(0.15639807633992558, 2.1511163780170235)","(0.17776806805667197, 2.001471378440473)","(0.14149915144281322, 1.8852199723172391)","(0.1298064148939282, 1.9581028269484613)","(0.11759516593799767, 1.9987145926198024)","(0.13111087726456616, 1.7970153005114848)","(0.13269071133868102, 1.703047944630544)","(0.12582773598574082, 1.7344091059277524)","(0.12965156809457853, 1.792319981894126)","(0.1332975314062416, 1.7969386956431141)","(0.13213390590542826, 2.1755474388816567)","(0.13275025965452528, 1.6877216336981011)","(0.13806014449978518, 1.751743629014554)","(0.1496551366961522, 1.854895523668875)","(0.16486338243740814, 1.8724871428288261)","(0.13774433900101504, 1.9033199763483433)","(0.18033524896537603, 1.8640525656510663)","(0.2042371684402711, 1.796362382261875)","(0.2648639616629652, 1.5772672565270751)","(0.18822039945966607, 1.8834783866094689)","(0.3041626615091797, 1.2806321016668574)","(0.2569396098568605, 1.6104144487735303)","(0.28953793594303306, 1.3698963847577204)","(0.20808461620641944, 1.8938869657646866)","(0.19171965344286965, 1.850508651866712)","(0.1781434401617245, 1.8212982979409902)"
"(0.18983415162830225, 1.973973136818649)","(0.2869511440982489, 1.4236970568798544)","(0.172478906326069, 2.1484373250345685)","(0.20178896024416054, 1.8351779476102517)","(0.09350093702326473, 3.453205996752648)","(0.1757900601857863, 2.110114658959851)","(0.18335951740909667, 1.84717777667367)","(0.21355172788270296, 1.4947628755747289)","(0.16525268378202418, 1.8263195209687169)","(0.13987387701002735, 1.7482678773856242)","(0.13559812033991525, 1.6908296068214341)","(0.13837944137291122, 1.7073420144599083)","(0.1504051695164805, 1.7989893130986216)","(0.134700710343661, 1.6594460665537425)","(0.13256635426909943, 1.7175187362786137)","(0.14620633470520175, 1.75087565685303)","(0.12805236787873361, 2.1688714885054536)","(0.14394153026674303, 1.734028962388337)","(0.14110142963168887, 1.8920060766044047)","(0.15281359151760557, 1.8400741350209326)","(0.15360992756711192, 1.9424060932518934)","(0.15765906805182234, 1.9301387521332949)","(0.188189067858705, 1.7894549199324865)","(0.20933195736444807, 1.8187454963220626)","(0.2716090591783974, 1.5915191615665998)","(0.16529486763120046, 2.0086628250231287)","(0.29971389223000416, 1.3225113009299503)","(0.25945049316523044, 1.5638576849626278)","(0.300024356719225, 1.3436813751433765)","(0.19133219011229047, 1.9867158428575566)","(0.17745846079041822, 1.941095583175457)","(0.19370766528055702, 1.6580669047738474)"
"(0.19749406555315355, 1.9080408913766784)","(0.29947754370379487, 1.3520582862307362)","(0.18356930092841683, 2.0538274429355403)","(0.22329955273595753, 1.6618275102465747)","(0.12908657731569587, 2.5227916929197924)","(0.19339528520596164, 1.94741307308661)","(0.1850849163073283, 1.8183208144579048)","(0.20085475488921253, 1.607472921436921)","(0.20080778823653067, 1.5961469122508567)","(0.14853206189057372, 1.7554595242218731)","(0.14326250959671272, 1.7062420240801557)","(0.15325071755742878, 1.7009481884264361)","(0.17996854558434897, 1.6964650031096697)","(0.15218249012124904, 1.7149985979285822)","(0.13970897718235803, 1.8356186134896253)","(0.15786587367017588, 1.823564159647039)","(0.14750087047727764, 1.982182598167976)","(0.16598284834608557, 1.6967193059308612)","(0.1599148173271333, 1.8311770509229632)","(0.1611995246864592, 1.8130301634579005)","(0.16897297565343614, 1.8770556654601551)","(0.16320332885263986, 1.8671815423440326)","(0.18677647370606273, 1.7202446996355913)","(0.19881499642411984, 1.8231478208849101)","(0.23144908981092358, 1.8021769288047313)","(0.1694651065426834, 1.8758520321636925)","(0.31381348201389, 1.284134812937828)","(0.24299651023504215, 1.6993687238422017)","(0.2879912134668114, 1.4025380950958182)","(0.19602964614655272, 1.9236199663894251)","(0.1769456479343062, 1.8511825424840975)","(0.16859257890181423, 1.7791602832724915)"
"(0.1874281451334185, 1.9065842995312368)","(0.27262087146188585, 1.5034168424666619)","(0.19535967270379112, 1.8972069678751864)","(0.20167654221728404, 1.6450276687918095)","(0.15763894366253783, 1.9198728150915327)","(0.20500872100575776, 1.8133917928869174)","(0.1803746496596403, 1.9844922282846622)","(0.17985301129009, 1.8174077833764184)","(0.15251434545969048, 1.9082221947360472)","(0.14774176977281567, 1.7821933291794494)","(0.14301151780457877, 1.7935233113866653)","(0.137862385915253, 1.7524073938460902)","(0.14325733249400813, 1.771141500683935)","(0.13820996279311293, 1.6951114288669484)","(0.1386225436124626, 1.7233430171574873)","(0.1436014578072156, 1.7278289846147865)","(0.14226552338017673, 1.9047824579838648)","(0.13553159770041115, 1.7262995694562417)","(0.14253092773141476, 1.7726577269232897)","(0.150396300765914, 1.7833199276408518)","(0.15966676114731346, 1.7658682327153163)","(0.15282475492571274, 1.7012443844723668)","(0.16819354092667427, 1.7146683861217973)","(0.1875815574931142, 1.7518777046692953)","(0.2148328967482459, 1.7801163376564189)","(0.1712507094394515, 1.7160283482165557)","(0.3169919603391644, 1.31085420583419)","(0.2208470493726999, 1.8704633350983626)","(0.26382185295057564, 1.5024438330225112)","(0.17748564524684454, 2.04229506091526)","(0.1560022628800793, 1.894628475504245)","(0.17021541146681365, 1.6415777440232813)"
"(0.18935777166847978, 1.8132729669801495)","(0.2695274369787552, 1.5143402134228894)","(0.20660388380014666, 1.783195192886025)","(0.16876626514416462, 1.9121174549459496)","(0.15237599140409908, 2.0699105515481033)","(0.17993976388059635, 1.944682300952974)","(0.1871922555712156, 1.8427170064270262)","(0.18790597682138366, 1.6156487011974738)","(0.13467823535050705, 1.972252233925321)","(0.17329590543192597, 1.577952522885547)","(0.1564970704677766, 1.7331238451005795)","(0.13228521746147925, 1.7242423909648572)","(0.12682661057684977, 1.645876898338637)","(0.13294346497448398, 1.6829980691823205)","(0.1399250689024702, 1.7705895277165309)","(0.13699769862279534, 1.66384822426502)","(0.12234001687701156, 2.1260671773643502)","(0.12578283723977984, 1.6496025885003018)","(0.12708275658835322, 1.7000525252345768)","(0.14112296065011692, 1.8491249543395565)","(0.1357814685133841, 1.9471953816276522)","(0.1332268240386026, 1.6939694326518053)","(0.16515166019265068, 1.932247742730375)","(0.19317443920651597, 1.7325896320690193)","(0.20802438765944314, 1.7569847322891858)","(0.19848042611304093, 1.669014142661866)","(0.32632938993415594, 1.2609002469837)","(0.23274941432390897, 1.7341993099112278)","(0.2896614436053985, 1.4470032665996646)","(0.18084518974573457, 1.9211805160829567)","(0.1452996392296231, 2.0232298998186438)","(0.18900132806787245, 1.5998753569098787)"
"(0.192539476854732, 1.9115654300592444)","(0.25196458448544695, 1.5809714228106073)","(0.19713027518322235, 1.9593839505963626)","(0.1613217217783339, 2.129594938292584)","(0.1566490947567567, 2.1195450914847016)","(0.1800259843276874, 2.0985827851444725)","(0.18144071851698565, 1.9272649909438584)","(0.1770166234334646, 1.6816991463435014)","(0.13389900345038092, 1.8007482175268803)","(0.1743213734220739, 1.7055525093396136)","(0.14707763524572995, 1.9433173391256253)","(0.1328990473466124, 1.7673678291929422)","(0.12057482882895801, 1.5454636292572093)","(0.12895938208369442, 1.7882573722408335)","(0.13951961288205839, 2.0075300854436384)","(0.13353101766987807, 1.800261543749595)","(0.12459456360171649, 2.090170219001402)","(0.12405430515894482, 1.6570580966580752)","(0.12342349588881807, 1.6016226032706256)","(0.13339726197407695, 1.8820919079204015)","(0.13389783533686517, 1.9272665985853474)","(0.1258104297053316, 1.6696615449715304)","(0.15719906570935638, 1.9735174507869404)","(0.1556974542913203, 1.9474778046241616)","(0.18739409498137555, 1.948919827784494)","(0.20879762328801954, 1.6763375264902987)","(0.3053605618761217, 1.2467059386186101)","(0.21355970183435738, 1.6283852843810303)","(0.306745884801754, 1.367446695968251)","(0.17018874047877824, 1.7893329396493394)","(0.1666511298056131, 1.9760366253099526)","(0.16692120641398864, 1.758481271488807)"
"(0.18901009666107466, 2.0127077888604736)","(0.2583013158963272, 1.5513476935322978)","(0.18800300880316395, 2.0904818336952857)","(0.17662057589145128, 2.015846532503185)","(0.16524673354813185, 1.9863808483253704)","(0.17715473448474334, 2.2861302811933792)","(0.17224489308569213, 2.026148856721684)","(0.16577653104769421, 1.8245932394492022)","(0.14637609077672825, 1.8715460677905953)","(0.16694538332113243, 1.7308365427873278)","(0.14670157883014195, 1.846553566707445)","(0.1584830825481392, 1.689770344191306)","(0.13377509518277722, 1.7086288725521053)","(0.1439379778765422, 1.8261271470446927)","(0.1571347469283903, 1.8485432811319684)","(0.14681045735934936, 1.82078894035184)","(0.13351447183301818, 2.046517520072829)","(0.12974533247048317, 1.8109889704818376)","(0.12928817059744957, 1.738956774018187)","(0.13299809067530627, 1.863961226734329)","(0.13592196625128894, 1.785403808864614)","(0.13418012137982047, 1.876583058421988)","(0.14468953695069903, 1.8418710958911346)","(0.13939705160104618, 1.9365407671285673)","(0.18538523049882816, 2.0091792656486596)","(0.18739174653425764, 1.7746390950776931)","(0.30527945216891444, 1.2721524665849024)","(0.2002003224905498, 1.7014461639909089)","(0.2862854688644587, 1.382066275399707)","(0.16481461109647752, 1.9381805676136028)","(0.15768744429194223, 2.099451723873918)","(0.17145465120029535, 1.6515669712646386)"
"(0.14919286401496984, 2.467862305601064)","(0.2632673482855343, 1.4824564366133055)","(0.16109855556891642, 2.3578483729252016)","(0.19334006785743227, 1.8146803980348982)","(0.14671077330028529, 2.1630893488538496)","(0.1568282435887691, 2.3664846628812963)","(0.14196889873227733, 2.3390411679701697)","(0.18239212539749944, 1.6066521491685992)","(0.18225417555759416, 1.602566933344734)","(0.1855003618175784, 1.526959513768887)","(0.16506738265814488, 1.6989499035352698)","(0.17823658479620588, 1.5931033768188112)","(0.18807578351345572, 1.5240555280849553)","(0.17791042142081545, 1.616155890419293)","(0.1713902805205927, 1.7433928796432292)","(0.17611973276837817, 1.5946822051752059)","(0.1460185185990958, 1.9887082466156032)","(0.16258312303967887, 1.6919383118243763)","(0.15677685981874748, 1.7556629873279437)","(0.13764112089462663, 1.8776588590417167)","(0.1460413205896123, 1.7955146570592393)","(0.17290926791861, 1.8269708086877605)","(0.15962082746029332, 1.8582981778085217)","(0.14402897113974716, 1.9783460898889995)","(0.1917491742993432, 1.9434404415497886)","(0.18943835730799755, 1.7883116080167638)","(0.30390073715340243, 1.337528293254432)","(0.21360138360766256, 1.7581755524775653)","(0.2855283119768699, 1.3891247115715486)","(0.17073716929098287, 2.060405464392035)","(0.05300681417825802, 6.469234979821224)","(0.1857945670282198, 1.67152911972942)"
"(0.17013951276706263, 2.2383201773656918)","(0.2607002656540789, 1.4660662470484556)","(0.15781208214887957, 2.2671308708556146)","(0.1902567524630529, 1.7932563884945016)","(0.12948311827783535, 2.3481160777090255)","(0.1601415494297294, 2.0038061876979487)","(0.15155133353562794, 2.0823233931229765)","(0.18904836754264454, 1.6051287044459244)","(0.17262044721233621, 1.7541185936782941)","(0.1834277001762188, 1.5445319818729633)","(0.1497167627999233, 1.7450443700005425)","(0.15708822086261248, 1.7850184835626874)","(0.1677532480566184, 1.7460221556985498)","(0.1580041864930699, 1.764607981724681)","(0.14852830375334086, 1.9265265137250611)","(0.1677839578571442, 1.648611497296016)","(0.13948282739725465, 2.0862344557897443)","(0.16184378435513572, 1.6801523385740802)","(0.15655314473290882, 1.7390148405683512)","(0.14325174786280342, 1.7758155629578734)","(0.1510626612513991, 1.7522758088770656)","(0.17076489569026082, 1.7651607205286253)","(0.17032606954713914, 1.8015867979292428)","(0.15457132229475715, 1.8631634091308815)","(0.19837335351348276, 1.7785843334933342)","(0.19504408592244646, 1.7228577072432734)","(0.3478295955932029, 1.2122309840383891)","(0.2542410514148825, 1.5561788405121286)","(0.344739538120893, 1.2049227241054565)","(0.18733357069883022, 1.8457265310778543)","(0.03859654083048193, 8.810670564620413)","(0.17825018047653254, 1.6714352079466652)"
"(0.23859384498669747, 1.6631551916902878)","(0.2910048922364364, 1.3704610818173417)","(0.1876920167181527, 1.8576766941335108)","(0.21111702980105546, 1.669736736837206)","(0.13673230190867136, 2.434722883608125)","(0.17437539904838967, 1.9500515234731242)","(0.16065239469721643, 1.950976257743007)","(0.15902503432714962, 1.9027432123362684)","(0.15772015310193332, 1.9616835607252567)","(0.14284917292268282, 1.8277926229084716)","(0.11896325783069674, 2.064433393627607)","(0.14187811331482367, 1.8636342780014237)","(0.16146600055726767, 1.73200099399917)","(0.13362184706922556, 1.9820741983569994)","(0.1425947357128934, 2.004648729062801)","(0.1395245660057097, 1.9327406257187003)","(0.1468249951773656, 1.8514590631492824)","(0.13703008227555655, 1.846835867967732)","(0.14715148999316993, 1.6791254976438643)","(0.13766052536080256, 1.8795939639223718)","(0.14069976242066431, 1.7995442328742932)","(0.15194239031659418, 1.8082219301641032)","(0.15985202407855326, 1.9118019358092304)","(0.1432107955600546, 2.0411979498588004)","(0.21501317031930223, 1.8429987223651543)","(0.17967591126894017, 1.7925110408805938)","(0.3537777276338816, 1.1796190702797051)","(0.2526054921062856, 1.613132119956261)","(0.34556002736763675, 1.1775046754533056)","(0.2036062761123602, 1.7307720918720964)","(0.05076917762486729, 6.842048861975196)","(0.15759098920110717, 1.7740272969794988)"
"(0.2205326458020588, 1.69861814930236)","(0.283356404974751, 1.4155969194926266)","(0.2140018199426685, 1.7087672821003699)","(0.19828425852359494, 1.7405692911378394)","(0.12960569736066696, 2.417620666391185)","(0.196562206468058, 1.903066854318373)","(0.14460969458890002, 2.272068981030321)","(0.14157870519371932, 2.10228236344873)","(0.15811076606075464, 1.6981258692939731)","(0.13456746333586356, 1.9565338201113212)","(0.1083443324390507, 2.3576882345259222)","(0.14147642024583632, 1.851087108257887)","(0.1634141511718376, 1.6301651129132606)","(0.12653616322733272, 2.005052176637449)","(0.1339013619637272, 2.103706753282592)","(0.13926426154132213, 1.9008504229133087)","(0.1754347886734396, 1.6148075278479572)","(0.13978104891764256, 1.782879157279225)","(0.156444505440704, 1.6005583564543213)","(0.12461078572979144, 2.0484458463190305)","(0.12189259405000932, 2.1094462710763757)","(0.14455105888438044, 1.8827215679875768)","(0.15927526703226305, 2.060639921555917)","(0.1383532541446265, 2.249264266265782)","(0.21824929528948456, 1.8560754525282048)","(0.17307076512274203, 1.7751704359503278)","(0.3172014004735398, 1.2498750086580703)","(0.20991117043470417, 1.8500305982996728)","(0.3230170921206889, 1.271989546783235)","(0.17315009515221544, 1.8779439817216024)","(0.11277361227704243, 3.029251874658509)","(0.15097393351652516, 1.8886917215794004)"
"(0.18846042868219928, 1.816638471491036)","(0.26676850313924766, 1.4434650837398804)","(0.1925185141059673, 1.863362800336594)","(0.22230066810294521, 1.5488071146284321)","(0.13873041770525069, 2.0507679422656793)","(0.15064028108119593, 2.2557581776132754)","(0.15495809424487753, 2.052090325073151)","(0.13756335383990798, 2.240503384436335)","(0.15625193178935415, 1.715762450532788)","(0.1402373365383351, 1.837246880341724)","(0.126852046119122, 1.952428685852503)","(0.14347157416538564, 1.8485781953119198)","(0.14689681164156004, 1.8668267279007948)","(0.13075547289409475, 1.925368978902495)","(0.12644061615146693, 2.0426343114143792)","(0.1498984809956201, 1.7894921052674786)","(0.17444353390105422, 1.7270998936686979)","(0.1485896277946916, 1.7377542705089892)","(0.15221487224481756, 1.7716297568591972)","(0.1530719989277239, 1.782400093167315)","(0.1410677804959007, 1.931441977095578)","(0.15227487011314006, 1.7901174563920548)","(0.17779177973784954, 1.7976058657725968)","(0.17438344137609676, 1.8113668949784574)","(0.22017322259710706, 1.716231440783705)","(0.17313692304206127, 1.804288918602987)","(0.3134616769181458, 1.2890176459500056)","(0.21488500142404182, 1.7465586397451573)","(0.31443422220178, 1.3067363390423077)","(0.17007696428687746, 1.877287774126764)","(0.17476735982240674, 1.8517848340256204)","(0.15443396336936677, 1.9448676826204756)"
"(0.17988730009994994, 1.9956248025384757)","(0.25150479697510986, 1.4583213770640007)","(0.17085096614176995, 2.0521142013491347)","(0.2212642454946765, 1.6134292909677848)","(0.16875252458864876, 1.8684037911965998)","(0.1486101582389873, 2.2504391717552155)","(0.15588434773120213, 2.054915878654317)","(0.13561682665888458, 2.385733517727929)","(0.17688172975478056, 1.663175767425789)","(0.1337394333482024, 1.935217034590325)","(0.11771153641905081, 2.0810701542565604)","(0.1246852666964045, 2.1028867611338287)","(0.13615648826581317, 1.818224898582266)","(0.1181808619036224, 2.075545204547794)","(0.12246492676094534, 2.0952602423060536)","(0.13111384167363352, 1.9348878372351535)","(0.1282380999031778, 2.1568213463296484)","(0.1291895892085636, 1.7934758958582804)","(0.13436213947036715, 1.7547512226425417)","(0.14105889615317768, 1.9305181802219058)","(0.1382293190544273, 1.821971455210276)","(0.14727720279652196, 1.6752106720943474)","(0.17432012461949245, 1.6453358266947375)","(0.16561060845691533, 1.9071840670018536)","(0.20027817224886582, 1.7420201174666134)","(0.17467213315520333, 1.7991468262887944)","(0.34083389322668556, 1.2256252309892584)","(0.19704016270403116, 1.846703851149702)","(0.26679441335985593, 1.391636683824516)","(0.17023221159156357, 1.9429030952999526)","(0.1872334767154299, 1.7580403915388072)","(0.16544797234345915, 1.8408877673914525)"
"(0.19112094729832185, 2.0195629217306763)","(0.2818520467160142, 1.4253305600964152)","(0.19002705354200888, 2.0390233710563392)","(0.2039389001407425, 1.8460071035451144)","(0.16309395371609636, 2.0833214005706893)","(0.1769655398139343, 2.049461378183959)","(0.17429312407233102, 1.9855081966443002)","(0.13707873525517547, 2.5132028494527874)","(0.17511478261864663, 1.7578672235138098)","(0.13801314029514228, 2.226334870454951)","(0.11726635044649786, 2.3499594152479704)","(0.11930302558915797, 2.2594955329301203)","(0.13435823863073407, 1.7306926542225194)","(0.11686074656742224, 2.0378451198501737)","(0.12007860234649484, 2.14350363886205)","(0.12425149060356232, 2.0076914378387936)","(0.1165508996397577, 2.2073723264682936)","(0.12364207123319919, 1.815986524233644)","(0.12777366550823702, 1.8095559199663067)","(0.11634543535176094, 2.2491838074141466)","(0.11715807798759825, 2.1428216735765457)","(0.14064516417029013, 1.845831740054036)","(0.16878289916606803, 1.725669004316533)","(0.13894683338795952, 2.266355861950571)","(0.18414593093343937, 2.0208255386777387)","(0.17536178059364063, 1.7774726625898372)","(0.35173141892268284, 1.1971077872678006)","(0.15745524430285834, 2.2120738165982385)","(0.2874824129734558, 1.4307835745017965)","(0.17046361738175692, 2.013295860304906)","(0.197727070268612, 1.793085876798661)","(0.1615962854263066, 1.8644053784096606)"
"(0.20488599334206958, 1.8241685660414386)","(0.32163791682515824, 1.2616290607576717)","(0.23090787201396698, 1.6602846941476113)","(0.22615356970781816, 1.5730263692930662)","(0.1594167419654442, 1.9899569344175163)","(0.17371356527933837, 2.1129361744486697)","(0.2307122302708459, 1.5989078619356283)","(0.17552123299987857, 1.872322378898869)","(0.16329341886646945, 1.7980949739167)","(0.1894882723724417, 1.6982353927168898)","(0.1607847616651596, 1.84625215744832)","(0.13635852738147564, 1.9112668657602994)","(0.14583558913661132, 1.7180265304491313)","(0.13975130851758744, 1.8153579944584406)","(0.12588474769638378, 2.0428356033763833)","(0.13693343825526635, 1.9805682258667499)","(0.13771987125567256, 2.0843758580977254)","(0.13019334820890327, 1.9105826455382149)","(0.13786198039423397, 1.9240235594024597)","(0.1310939737853845, 2.1317865574894403)","(0.12120790655791776, 2.4526457993883954)","(0.15967283952272834, 1.8623056043414923)","(0.1946496923137619, 1.642636623796)","(0.14312836844279547, 1.9771866538150769)","(0.22068432454911216, 1.742602482398986)","(0.1903812952298525, 1.7182195905353153)","(0.3478142145550743, 1.20668260444374)","(0.1889712855438719, 1.9908856795152696)","(0.31994704047274897, 1.3305252170918187)","(0.20113213231350005, 1.7981589467126793)","(0.20191854797026496, 1.6485577840705896)","(0.18398071673558997, 1.6765201825446097)"
"(0.18301382850122586, 1.8963756856136962)","(0.28459010067507345, 1.3606149942449888)","(0.22615236822203968, 1.6392279417316702)","(0.21265533549643725, 1.6105739865745332)","(0.16376229598989933, 1.8964381542267372)","(0.20275289022075382, 1.8809879966690675)","(0.21942597126998634, 1.7070587818265857)","(0.17821022067810727, 1.7817797041337835)","(0.16454434135535817, 1.7834256777345576)","(0.19613426061566056, 1.5100967639926879)","(0.17385877082130982, 1.5760078208155424)","(0.15864106039631506, 1.7440344466814506)","(0.15044657780529466, 1.7235610274850959)","(0.1675263808044781, 1.707114942238665)","(0.15115118556218252, 1.955842519538185)","(0.1608785504108618, 1.846619051837028)","(0.17252418020928503, 1.8211372636992467)","(0.1629638038711217, 1.724868751482409)","(0.16406964849825195, 1.757317358169992)","(0.20358044316044643, 1.4854158719603403)","(0.16968753016335783, 1.8715203796764013)","(0.19036748068774617, 1.5838150276765932)","(0.21502602345394528, 1.5474764204593512)","(0.17590153631261282, 1.7376878046054849)","(0.2163451580079967, 1.660856093396157)","(0.19981867595589162, 1.6880753682227139)","(0.3185221431914453, 1.271685443713592)","(0.2052134143899264, 1.7806446847336992)","(0.2924001683479477, 1.4306881791599149)","(0.18264372392411182, 1.8474443589341)","(0.17737155622418302, 1.7330501159971416)","(0.19487113420954302, 1.6108775932259158)"
"(0.19692316703861568, 1.9520437413381126)","(0.27257879485163494, 1.4740907491230781)","(0.219034921987438, 1.7551070401082964)","(0.24378570919964357, 1.5418033571327665)","(0.16083723549563306, 2.063251276938206)","(0.20249687996234225, 1.8774119326558725)","(0.21008680058684753, 1.7605299442388058)","(0.17894831089810648, 1.7601629247158526)","(0.17065622480670048, 1.7975024339527368)","(0.17704903975530437, 1.6179021564397102)","(0.15413293034177958, 1.8074737088308244)","(0.17490761210579955, 1.6366290188533676)","(0.14862959723570285, 1.7436910269786903)","(0.16371704179198027, 1.6846239135655268)","(0.16664437653674125, 1.7128929962575714)","(0.15228024361781609, 1.8103183348816712)","(0.14291435603626929, 2.044637150573088)","(0.16570272316932438, 1.743589609204576)","(0.18156090551477305, 1.6789202799982152)","(0.1374069277449435, 2.1785023880259047)","(0.1639246697240458, 1.921422241415132)","(0.19135092192189762, 1.621041280894949)","(0.19552959760885688, 1.685746830751331)","(0.18359248872470457, 1.900113731308066)","(0.20098222444543515, 1.8159159606544342)","(0.18585359434963322, 1.7767091250475928)","(0.309582871966224, 1.3123231603185455)","(0.19263771921059397, 1.9357969218649367)","(0.29707212875791555, 1.3747900114496772)","(0.17295268626610982, 1.8647205009880028)","(0.17292772143838234, 1.8360408873876186)","(0.19086490534904801, 1.647293162916865)"
"(0.22594223691534698, 1.6558769989897584)","(0.2977633825239882, 1.365216593770819)","(0.24229174471215362, 1.5156079279976542)","(0.2681528321580482, 1.4467779994979815)","(0.1513032773997065, 2.1740635496993663)","(0.2019897686049405, 1.8931110148202261)","(0.22192554644979962, 1.6622522939080524)","(0.18721023322009633, 1.7171469428397763)","(0.1655904403976973, 1.6821074811583414)","(0.16404611368112879, 1.7894336710649377)","(0.1459706058221013, 1.9987934618427405)","(0.15595093937457127, 1.7603167813686849)","(0.15797172142682447, 1.5874286373175654)","(0.1521416506625306, 1.7110816976460423)","(0.15505080816368205, 1.770149834483827)","(0.14703011704385957, 1.7921768988357187)","(0.12136582436388928, 2.298264017924219)","(0.14177112861013605, 1.8534330349075816)","(0.16129766384901836, 1.7292877123248103)","(0.1208532964493551, 2.283212770556059)","(0.13558327360678937, 2.051949821558316)","(0.16618235113970545, 1.7683152539492304)","(0.16613062460068623, 1.7877907755261628)","(0.17078148061575202, 1.9884881577649804)","(0.2144602689434195, 1.781512206363659)","(0.1764320819840352, 1.7597502087792911)","(0.33820962664909826, 1.2474212894631393)","(0.23181653567170507, 1.6317593859039479)","(0.30390262601375206, 1.3068166020516738)","(0.20238792285042254, 1.6610317297967045)","(0.1922845309510379, 1.7600281845563128)","(0.19555111726499017, 1.6253618661926459)"
"(0.20066226619286137, 1.6682765475962271)","(0.28514962284843887, 1.4176540318944675)","(0.22895781525125633, 1.5651096758914063)","(0.22139359682275425, 1.5539589815784747)","(0.15048731336956814, 2.0731714682517173)","(0.2105584062264619, 1.8233106197336244)","(0.23416413665896257, 1.7266378017122912)","(0.17284882936346646, 1.8404733376919111)","(0.1509500492157511, 1.8295362485005768)","(0.15227432537073238, 1.8616130318107127)","(0.15950157106078847, 1.9985035895061052)","(0.13773453925952153, 1.8303046409897819)","(0.13535180561225998, 1.666357005508111)","(0.13642014467789518, 1.8317385578687977)","(0.14909613029876628, 2.079706782899855)","(0.1542701247999733, 1.8519242260439055)","(0.12786733154421115, 2.2255693830200403)","(0.14127272728971033, 1.7267750096573726)","(0.15348867827207285, 1.6506587154667074)","(0.1482287386924956, 1.895091916348635)","(0.154926067804277, 1.7761862408979852)","(0.14587137537243036, 1.8381236663642708)","(0.16768936601255718, 1.7475683384794016)","(0.1680498437993539, 1.8655513678863718)","(0.21337412574304754, 1.8020939726001168)","(0.18024910140487682, 1.8198433306840605)","(0.3242224559373705, 1.2491052175105877)","(0.22548002044958956, 1.715178993332939)","(0.2979362632289542, 1.3037919303046834)","(0.1944588175922328, 1.8352642327391686)","(0.19246017810243327, 1.702664829143541)","(0.1694373179416855, 1.7531263580075849)"
"(0.21731138607622172, 1.66835579568231)","(0.2972759451566203, 1.3278837300074122)","(0.25567724403757974, 1.5053979886848803)","(0.2335967971773034, 1.5159599159837989)","(0.16548507772291657, 1.8937936387671854)","(0.19457234598391385, 1.9510363944699827)","(0.2129042541272862, 1.796079437932336)","(0.1556110164218153, 1.7104083876248406)","(0.15846141685963977, 1.7954603704604073)","(0.1537404724688122, 1.6814416208878038)","(0.14722343075786537, 1.7911622118684676)","(0.1364235593177722, 1.7538055662545111)","(0.14103089738020222, 1.7531649271531828)","(0.12898551541991626, 1.7985406353743787)","(0.13481742112730097, 1.9606577487024566)","(0.15055114807203246, 1.8575938269242562)","(0.15208650158981737, 2.0574598379151126)","(0.15819247501722225, 1.7319672829210253)","(0.1665707646919477, 1.6496868371169526)","(0.15849557311718374, 1.8078046780532393)","(0.16944730168331054, 1.691351178474256)","(0.15441264004997152, 1.7477677963779314)","(0.16299765687847861, 1.7999444499295059)","(0.15655214355059097, 1.8930855557626298)","(0.21187554162171446, 1.8059347023310852)","(0.1690402193504132, 1.8262393229641445)","(0.2959088325941596, 1.332018507487945)","(0.20726570370873942, 1.8170733404920325)","(0.26839387126550396, 1.4184891879660055)","(0.1914401811571, 1.8682916526612927)","(0.1587938794438591, 1.980968347142415)","(0.15924760184180003, 1.6921378873839217)"
"(0.20566881244738003, 1.864577582103492)","(0.30039020985285103, 1.2517197008284702)","(0.2606779162635858, 1.562856866724)","(0.2615876812124497, 1.3682119124015188)","(0.16063662115596958, 1.8536066496815948)","(0.18203269407634604, 2.0702268855237316)","(0.18975912894943792, 1.9110002705579914)","(0.14061329964052136, 1.8587038300421066)","(0.17457415922757816, 1.4906897314868024)","(0.13714404491919913, 1.7506118556224048)","(0.13696363614823706, 1.7322461706558272)","(0.1447284265262801, 1.522126878795306)","(0.15618705158489726, 1.4697412838290531)","(0.14326774996704497, 1.5579808491647456)","(0.1449308086895664, 1.6809252165963697)","(0.15586033432853802, 1.6122960923764735)","(0.12965955600023155, 2.184241444249831)","(0.13815237643268652, 1.6889774896939218)","(0.12832777737099232, 1.866515413515441)","(0.11653468678919836, 2.1091576170278032)","(0.12259846831552876, 2.178487278720697)","(0.14681009853573304, 1.7259283722536207)","(0.12356879429219778, 2.4572018088103453)","(0.10653437234126241, 2.835866023475928)","(0.1761007446298245, 2.0479876231678236)","(0.15354004756414494, 1.885337415724754)","(0.27363827928145856, 1.5370439589128768)","(0.14835891064578405, 2.393817391310357)","(0.21812640768387687, 1.8090765916070966)","(0.15486830545443378, 2.1940698819648956)","(0.15689173330043713, 1.9235045952174044)","(0.17392639329798684, 1.520263496762127)"
"(0.1868169938584524, 1.9636984684657064)","(0.2916056393006872, 1.2965543933400907)","(0.2156733088120932, 1.8355548578842493)","(0.2306858303779181, 1.4140788980915193)","(0.13063028384716854, 2.135294057900997)","(0.20597720669140282, 1.838345334102745)","(0.16745896526200033, 2.0133569825231326)","(0.14904664611631968, 1.8225469203602875)","(0.1471042871607534, 1.595052726925276)","(0.12692432448976884, 1.7713176743309402)","(0.11713400599757633, 1.8408209129021)","(0.12627150495506595, 1.6223892134814186)","(0.1281195870532134, 1.560345657028284)","(0.11831472277622225, 1.7192787622714203)","(0.12010507996740973, 1.9169868765413782)","(0.12364625421676725, 1.8802133731549948)","(0.1105874177858293, 2.265031103141309)","(0.11714877093977097, 1.8031275051767117)","(0.11481542715882832, 1.9107227202906982)","(0.10508152832800982, 2.3420314678673666)","(0.10860652967029513, 2.3194630628275306)","(0.12980135119117672, 1.845265502825825)","(0.14535676923486587, 2.0978636736273164)","(0.10898146835052896, 2.9448301273751345)","(0.17866114383794818, 1.9403711935265169)","(0.17242694029163627, 1.6903050115572447)","(0.275863218069073, 1.4878276332929354)","(0.14647380917333575, 2.4660206445880606)","(0.22980449060018718, 1.760382150702302)","(0.1500648878675006, 2.1280891572240703)","(0.18177833759054274, 1.5726011091507697)","(0.18825414877454286, 1.4688875014939922)"
"(0.17969750854542987, 1.9773795584414113)","(0.2725209911927525, 1.4073316340760291)","(0.19183776633164312, 1.9295046921058523)","(0.18872707520395404, 1.7011261693007285)","(0.13148545677804707, 2.1574773350207)","(0.20196399993646372, 1.8225556562242309)","(0.16921914413239156, 1.9128869300655773)","(0.14686750583069666, 1.8658838079100117)","(0.13113774639486375, 1.7735031298793067)","(0.1395912263250513, 1.754421645586812)","(0.11864505680142574, 1.7739932118110207)","(0.12009647901237261, 1.8155785314749544)","(0.11898716784770347, 1.6805392667301935)","(0.11250942171488021, 1.8185471351549112)","(0.11595627315634245, 1.8776880409857089)","(0.12092581962905906, 1.9072357791581083)","(0.12300988171565348, 1.9232141358800594)","(0.12193407914611633, 1.8044225583506164)","(0.12655674616590476, 1.782154909404073)","(0.1231246116072367, 2.0458279898911056)","(0.12294511203736141, 1.9755022930004171)","(0.1337917475333706, 1.8363940538644765)","(0.17619778634950498, 1.614501703428076)","(0.14573731798659414, 2.1437604226368676)","(0.2032645886055786, 1.6716953267770311)","(0.177167620391368, 1.5903710572129588)","(0.28377268406797485, 1.4373607516390794)","(0.2003193857549276, 1.8168830763397483)","(0.27717528771238753, 1.464460224412161)","(0.16204270851290753, 1.7623827245360149)","(0.15885420633201794, 1.7273103029978305)","(0.17543942905800022, 1.6091635095649444)"
"(0.172043105239385, 2.0548247425770323)","(0.2853403633413202, 1.3608368154263133)","(0.18599284049335474, 1.9376643955953141)","(0.17773641741572274, 1.9293809388386773)","(0.12874283370025513, 2.4513598306138573)","(0.16570324133908845, 2.092291938235338)","(0.14973933444703882, 2.2250838394583683)","(0.14741539262196776, 2.0326063161269046)","(0.12734230101912872, 1.7639077204215665)","(0.14127311235575254, 1.7557940064973687)","(0.11765882766710632, 1.8557476211981307)","(0.12353134053061252, 1.7503470788458944)","(0.1195854156929633, 1.5342960355885087)","(0.11376360878257105, 1.7406384881459616)","(0.11402056355082747, 1.7680070496280653)","(0.12415082429821273, 1.613646661627193)","(0.13107569628290625, 1.5967550009636282)","(0.13183493767724416, 1.493748503229778)","(0.1401062620622685, 1.5313865113551355)","(0.13813701604518908, 1.5851020993633131)","(0.14069692692641192, 1.6002413569381138)","(0.14345947813201523, 1.7083201459737751)","(0.1576321544982604, 1.6969319803684764)","(0.1439511993742651, 1.994798400319424)","(0.17748659223520466, 1.8784904124547703)","(0.15539967670195817, 1.7763017166001187)","(0.2742623776183114, 1.443220013150715)","(0.18668713121864283, 1.9984605065367813)","(0.2778607068539547, 1.4731126967396146)","(0.17443325673324267, 1.8255513665758802)","(0.14760075274142637, 1.9042476185665558)","(0.14908193835202688, 1.9464388553424092)"
"(0.1499891711624306, 2.183891286919677)","(0.27148555489757303, 1.4178457480884397)","(0.17766991956518174, 2.034672250327599)","(0.15426663382918873, 2.1080462881960504)","(0.1239297872203912, 2.220912363089057)","(0.14692067944218995, 2.40293842706602)","(0.15212705677293947, 2.282012609049884)","(0.13964812103543217, 2.189451590738957)","(0.11358575548883543, 1.824593765961948)","(0.11744077323286689, 1.8349461021184457)","(0.10739578796461823, 1.9012134379754781)","(0.11281021202012131, 1.597370910958353)","(0.11942151874896544, 1.5590268187739897)","(0.10948135905511167, 1.6264262161064509)","(0.1094145972835431, 1.7107415983030119)","(0.12162228831963832, 1.5649130272165406)","(0.1304662744087033, 1.6351692303052758)","(0.13375287149143333, 1.4036554670779047)","(0.13647538004301368, 1.5574093144788925)","(0.1363502557387138, 1.5559747686168957)","(0.13465927135289577, 1.6314463467170501)","(0.14972754235496888, 1.657064854488111)","(0.13395208204878198, 1.9245477312225445)","(0.1463148060547998, 2.03182120108252)","(0.16206578632817792, 2.081771268727634)","(0.1429659696367854, 1.8592407377845632)","(0.26698270427157483, 1.3851434690896827)","(0.18881096776849174, 1.956439338958761)","(0.2361132444440063, 1.6330493805239465)","(0.1626325127163057, 1.9688309089392768)","(0.13220741395077507, 2.018775626717835)","(0.1275072100061145, 2.184909106700572)"
"(0.13659989793219526, 2.405484647620822)","(0.2595687862015244, 1.4634786350788382)","(0.17294230485276813, 2.1383356373339373)","(0.16321529159562756, 2.209612713972889)","(0.12414742273635865, 2.203137269734945)","(0.18053924791417655, 2.1153343060836494)","(0.21366759035365213, 1.6919843545576299)","(0.16272664601290848, 2.0014556077179684)","(0.11557923802512274, 2.0411791693899257)","(0.12323116162173671, 2.030492994158709)","(0.11088029431130755, 1.7770956462775613)","(0.10767780631003981, 1.7880334179798336)","(0.11491206491044924, 1.8350189255136415)","(0.10957914507539428, 1.7759375568153937)","(0.12131011854136879, 1.6562002608818331)","(0.12767786784571394, 1.615047001469464)","(0.13002271615663447, 1.6536721196911157)","(0.12133302725831369, 1.5894640069634238)","(0.12064470985578209, 1.7391773395238859)","(0.11319505613596556, 1.6834343984579048)","(0.11541702007496608, 1.9025677350038017)","(0.13067782784726523, 1.9843428497906217)","(0.13502660154143914, 2.072496913798156)","(0.12937596403069945, 2.2917696065061497)","(0.1497133002872794, 2.2271258121144006)","(0.14611293675038506, 2.0157594117401443)","(0.2878883137060684, 1.3854133869979055)","(0.1699618339149808, 2.056182332185445)","(0.23993396939307762, 1.6550245589181254)","(0.13937341761988128, 2.2502133628961136)","(0.1251969513508811, 2.160111046062633)","(0.13639875221660389, 2.0938973402052734)"
"(0.14195299992925658, 2.3997186372469312)","(0.25485341105386444, 1.471327590333247)","(0.16425753810719898, 2.283304619652805)","(0.1661672228942431, 2.226727903557079)","(0.15496851225144265, 2.0887412953687297)","(0.17396024621309672, 2.248472523894795)","(0.19636111032531697, 1.7571812739698496)","(0.15750937839350101, 2.157265255154962)","(0.14743002394853183, 1.938859160939246)","(0.14043893009310993, 2.0824490400143945)","(0.11919824351440934, 1.9112714265359618)","(0.11689931296266565, 1.9794254980122596)","(0.11999393596860707, 1.8414845757443195)","(0.11139325156602603, 1.8345550784990141)","(0.11724891553758165, 1.7385388639723207)","(0.11986612899340836, 1.6960566847520262)","(0.1250319140000032, 1.8410150721262004)","(0.11260811006503979, 1.7738651201071947)","(0.11575192863469848, 1.7615050042419693)","(0.10855747946674742, 1.7981743113256632)","(0.11202438823915159, 2.014300079920266)","(0.12700925899406737, 2.0870504325885464)","(0.13272244167772138, 2.0959042846524647)","(0.12225471327845405, 2.3879851407846813)","(0.15912034855524976, 2.133357590194718)","(0.17633788972288386, 1.7877560439152202)","(0.3062365860167116, 1.3816950573068856)","(0.17255401602856651, 2.0717132240735516)","(0.25072137501610237, 1.591636061699142)","(0.1457842279832715, 2.219595726560646)","(0.13706270656751257, 2.077547688967877)","(0.1509829156027974, 2.0865551100115827)"
"(0.12360090097868838, 2.6047338283531616)","(0.2243481941668033, 1.6893992340713995)","(0.12938488516060315, 2.881325808168553)","(0.13681259290922954, 2.5495518178168624)","(0.1318653201519456, 2.366111750279471)","(0.11573257701237732, 3.136290059847478)","(0.11763866133069717, 2.87246169291097)","(0.12227043010962334, 2.532156474351753)","(0.1388320830320999, 1.8201992651612642)","(0.12626817836251367, 2.013329268131906)","(0.11980655572239685, 1.8472958319068578)","(0.12579034733814987, 1.6393465478789084)","(0.13147255171581326, 1.7462654355836356)","(0.11763782870989205, 1.599309561869485)","(0.11823499671403137, 1.6663824936095262)","(0.12341900247556055, 1.6272418277473628)","(0.12476819340140946, 1.8000931484391223)","(0.12699566110495675, 1.6144317129446666)","(0.1328222598779495, 1.5997956334357442)","(0.1240644084050665, 1.6603342552254376)","(0.13433290814105922, 1.6019779811656027)","(0.1522192905076579, 1.784731568826783)","(0.13990981203864794, 1.754818670752317)","(0.13206742297821764, 2.0866201317819826)","(0.14993707857390018, 2.1118219235597984)","(0.16154570734930582, 1.78673743335804)","(0.26943764577475593, 1.485198718189021)","(0.13738010627749622, 2.4013203281597053)","(0.2211855419104732, 1.7291727864426538)","(0.1411665459190179, 2.1056163920707984)","(0.1486964863713094, 1.8378769397421573)","(0.13596375298831853, 2.1787417254702435)"
"(0.15060343062121323, 2.2656102311612814)","(0.28178297497367866, 1.4402222602060581)","(0.1725482090988914, 2.2508820238049845)","(0.20138763043911828, 1.9128083086776415)","(0.1161149049693991, 2.868717705601598)","(0.15846696220928916, 2.458231622596316)","(0.12920638141089852, 2.676388147342318)","(0.1411530460414702, 2.2852295669363314)","(0.14730221579360545, 1.7829525878453216)","(0.1316596083010379, 1.899707203907144)","(0.12364870195732387, 1.9747836009612587)","(0.13414670811562548, 1.7370167021726355)","(0.1462423042578051, 1.7724157750822906)","(0.12769690122508348, 1.723402534250513)","(0.12620253100069792, 1.9205637550569925)","(0.1350762730594603, 1.7442595947899195)","(0.1356620001757923, 1.8087142965255665)","(0.13846405483919702, 1.6678437384870863)","(0.144523029406733, 1.6990382959552126)","(0.12978652361890905, 1.8211479700465505)","(0.1412253898966688, 1.7521511228496596)","(0.17033733268834536, 1.7571693387513199)","(0.15998857119940693, 1.725484818698871)","(0.1340649803633195, 2.135626978418872)","(0.15749500218432658, 2.036859907120705)","(0.17151540569811513, 1.7467148287012846)","(0.2785666597125957, 1.3883289975366857)","(0.14241135629646734, 2.524052675250532)","(0.2554723768083453, 1.553042776471351)","(0.1712717993198907, 1.9802250300514477)","(0.16281091631494868, 1.858745097953866)","(0.14346623851689388, 2.0764785688401615)"
"(0.25286850631706537, 1.4978108405522652)","(0.3251001946139602, 1.277543152638928)","(0.2543779873655614, 1.5604947169076873)","(0.25929237191204185, 1.5119130439288777)","(0.11974297972248879, 2.9265419862930697)","(0.25792420147275463, 1.5658425560679483)","(0.21726186679033488, 1.6721827654889305)","(0.23175230357669502, 1.492174850051937)","(0.20314601403190877, 1.5692206637970647)","(0.18550652741347531, 1.6106125767467896)","(0.17649883223602528, 1.7473738126085179)","(0.19204909773157947, 1.6440032301642824)","(0.19874867513523106, 1.639474446484117)","(0.17595640304736335, 1.7141321046521314)","(0.1689656283028383, 1.9875873983205092)","(0.19841519652727024, 1.6363658916564023)","(0.17468867771002994, 1.8584840723335805)","(0.19190761252480332, 1.700740105436038)","(0.1826568835155756, 1.8044139200412956)","(0.19630203991756634, 1.724589348502149)","(0.17603115842691217, 1.8355195284930448)","(0.18520913288424676, 1.8105621498601314)","(0.19862101439466812, 1.6415567325411253)","(0.16744685225914732, 1.8956323244519127)","(0.19981537944452085, 1.7548126491004468)","(0.2073443517538543, 1.5714217257282979)","(0.3304893063045732, 1.2557501489077934)","(0.23998310450367372, 1.6325736205922707)","(0.3209556464214275, 1.267489369309181)","(0.26033974920768893, 1.4567754687839065)","(0.21545290165205144, 1.550220681553759)","(0.15804788935004702, 1.8387494529767807)"
"(0.2781759653191431, 1.3564198340105784)","(0.3280825996780413, 1.2235715497295616)","(0.2583613623976112, 1.455557979197315)","(0.261321183835294, 1.5205299340420761)","(0.17105176644796374, 1.9886491963434216)","(0.26679647452661637, 1.4770012565077697)","(0.21202328115088404, 1.7065453564314321)","(0.23142091527615433, 1.4604561743260107)","(0.2206315082926676, 1.5077665955343975)","(0.20113408463592122, 1.4442195498799992)","(0.18622594769111905, 1.524765663766073)","(0.1956764079566721, 1.526844783809835)","(0.19289572353645307, 1.6352416951029858)","(0.17419205290163314, 1.5817533601164444)","(0.18006976270998723, 1.588873395159139)","(0.1910610310147872, 1.508007240501824)","(0.17680650318546798, 1.666971929388715)","(0.19625651748616155, 1.5321717560150625)","(0.18820020957635925, 1.6718132185541628)","(0.19068002894287506, 1.574769121632828)","(0.19549168721430246, 1.5580925785929525)","(0.17049085521315108, 1.8826475336361403)","(0.1987214225764652, 1.6117934099657647)","(0.16129922416495934, 1.8311281116575682)","(0.1930386038104146, 1.7352918667984223)","(0.2127586234374107, 1.5515877767474004)","(0.32001462381018464, 1.299234742029535)","(0.20618272495501958, 1.7439242633246583)","(0.29173035538432435, 1.3778246069387918)","(0.24328000265383778, 1.4171227497842136)","(0.22032176949957427, 1.468928181732902)","(0.16623789776927206, 1.8307866427431412)"
"(0.2610418301256537, 1.55767392828287)","(0.32855249063908826, 1.2238617694921263)","(0.23997593949229376, 1.6612260525857059)","(0.2523980187790766, 1.584997216757943)","(0.18132261284359144, 1.8510622152888674)","(0.2587177750742972, 1.592376967191198)","(0.21301975011005406, 1.6722016941351685)","(0.2111864981569435, 1.5746343357169097)","(0.22304404910656206, 1.4291324356914612)","(0.22292580741059334, 1.363629057135323)","(0.2031198953313888, 1.529490093217626)","(0.21101162347200556, 1.4776443779982478)","(0.19890225359165875, 1.552081984109138)","(0.19326343177947175, 1.5646057609846802)","(0.1941695299619024, 1.547933307354258)","(0.19294570290137003, 1.513614354897001)","(0.17968039243228984, 1.581880337814156)","(0.1899392128336988, 1.4630540477172234)","(0.17432291914512185, 1.6173961234398435)","(0.1671296906006124, 1.618912465657115)","(0.18552004725606452, 1.5526892611028176)","(0.18221030970012553, 1.6450439842866165)","(0.19168722210316402, 1.608018738998459)","(0.16063526421294552, 1.7715626472414283)","(0.2180254615834588, 1.5456625715027277)","(0.23680917593868794, 1.3922522688242962)","(0.3090185346083229, 1.2917708064555042)","(0.21782708723415342, 1.5648217698605293)","(0.30580145495163785, 1.3162314245458218)","(0.23320434548615626, 1.603759247388656)","(0.21259573296549353, 1.5927459223138285)","(0.1976290609601325, 1.6650465702663404)"
"(0.2204817539806054, 1.8623858274594272)","(0.3287099685681132, 1.3033434063905995)","(0.21822503040770375, 1.889646463262414)","(0.2466386886968586, 1.6167800203466771)","(0.14145001872512683, 2.255105814264258)","(0.2347632943965446, 1.6857924461355096)","(0.18793832844134306, 1.9538296210268786)","(0.16527316405941297, 1.7951519999364807)","(0.1559789375797223, 1.729101263076944)","(0.16018777456030622, 1.6648586379275232)","(0.14662928957629298, 1.8295213041300782)","(0.1413835356092381, 1.7421966006002818)","(0.14233764170340757, 1.7227136438220751)","(0.13805153634854722, 1.7161286119929164)","(0.13844223793892346, 1.6862081365235413)","(0.14073340213040977, 1.6327108117009856)","(0.13902814542148714, 1.7320818653498051)","(0.1342964793188471, 1.5433420591986728)","(0.13456251683286377, 1.6049677443268084)","(0.12835964072416145, 1.6081088056953212)","(0.1433260418637785, 1.6615591382994879)","(0.14754106852131796, 1.7100124818836968)","(0.1669624676223348, 1.7596388948226174)","(0.15108156638161327, 1.833466952239835)","(0.2092184560010457, 1.658413326994549)","(0.1670612989906697, 1.9101949380578478)","(0.2867038846461305, 1.334384033783909)","(0.2173672866673318, 1.5991785177210758)","(0.2711117810424019, 1.4805244413686955)","(0.20629472955706346, 1.8408177220220883)","(0.1646139459448479, 1.9584237066982806)","(0.167942555184894, 1.8608879315533835)"
"(0.19543468128168973, 1.9218606419584874)","(0.32176573238094214, 1.3157996208524616)","(0.2260270784753497, 1.7235203386544808)","(0.2366881690594296, 1.6431385582291762)","(0.15217387041454478, 2.0647669750130473)","(0.21124664663766599, 1.7924479860266507)","(0.17935430623079712, 2.0611461973431315)","(0.1483680337243804, 1.833347896078187)","(0.1390636784916362, 1.854532992900235)","(0.13604288776438636, 1.6620727396737593)","(0.1260131651900439, 1.764255786923819)","(0.125740211707207, 1.6457224994450936)","(0.1273994426036405, 1.6581828762395308)","(0.12441115849430646, 1.655055113632243)","(0.12517760233512928, 1.579942741030419)","(0.12869270430431332, 1.5727029227707323)","(0.13115271018722208, 1.8150554332052367)","(0.12388235698842202, 1.5176113934503168)","(0.12316058918450522, 1.5986655630158866)","(0.11911660459568868, 1.6658360030116242)","(0.12693553298758345, 1.7164619630881914)","(0.13470468496728832, 1.7429103799644974)","(0.14025981077769106, 2.0913307911692662)","(0.12369243419405557, 2.219855825289397)","(0.16139258311091653, 2.124036636584639)","(0.16689225897618942, 1.9263944706480847)","(0.2899020710590623, 1.3476090917714452)","(0.1666141741575933, 2.07734589184455)","(0.24353493660849632, 1.65788770537563)","(0.18101074132646908, 1.9948913561910153)","(0.1545874114017616, 2.049451291372941)","(0.14457945678721124, 1.9197004338899182)"
"(0.17877192725895327, 2.0594877305319854)","(0.2948993113135498, 1.36200101856352)","(0.19561852512113015, 1.865333117331237)","(0.22365766213988794, 1.602641515141835)","(0.17493482387291956, 1.850575129749083)","(0.21661973213277944, 1.8606187120809263)","(0.17984944835138297, 1.9224745821259228)","(0.13469719671573113, 2.089386748800891)","(0.16300735693386792, 1.751253880101761)","(0.13275695777302, 1.8699803606471301)","(0.1356036588022417, 1.9022919361020703)","(0.1380570848552826, 1.8893278939773017)","(0.14584468545454274, 1.7940161410209137)","(0.1418637749046356, 1.9075757090364427)","(0.1368816070968879, 2.0922527573163836)","(0.11929149500058561, 2.2556833860573575)","(0.12539181932642415, 2.2664987093394)","(0.1209320449425528, 1.955856507841622)","(0.11611251996560233, 2.0895055513077154)","(0.10488868953997495, 2.403875002527967)","(0.11151874700614922, 2.0898853440765213)","(0.13196827879275508, 1.966642573782244)","(0.12245984773019046, 2.2218682956564137)","(0.10505751827068607, 2.832719461061488)","(0.13304774521972942, 2.4953159071742994)","(0.16445741716646456, 1.8957082386906945)","(0.28876872678937926, 1.3774184769581101)","(0.1400965215766108, 2.3809867990164766)","(0.23758750793008268, 1.7430076835798696)","(0.14446724121031848, 2.279541817297022)","(0.16290655883347646, 2.1405739248217537)","(0.1471560558951182, 1.940017144882287)"
"(0.15905386598634041, 2.1368466989503)","(0.2548721133038783, 1.509873838671158)","(0.17118825039080227, 2.030185143017458)","(0.17800664645345832, 1.8083665346719002)","(0.15680136104747014, 1.9214390625382196)","(0.16248683325475477, 2.230200030778777)","(0.15827368822278384, 2.0832011208908536)","(0.1371356872874666, 2.147376548231069)","(0.14386928978071767, 1.716386531690907)","(0.13476510045007806, 1.8192226112778924)","(0.12365223539916363, 1.8685186638764673)","(0.12969911980741455, 1.7990705525114992)","(0.12539500993625274, 1.797521858486483)","(0.13032428125295314, 1.764263161343715)","(0.12261935446815077, 2.0876505883255554)","(0.1134648950234021, 2.1446070655279295)","(0.11432002512924908, 2.298282337896493)","(0.11336989674198061, 1.9268495467379383)","(0.1129548564803856, 2.0293328727162114)","(0.10098724789949654, 2.230080708206053)","(0.10845728530406477, 2.150200478646987)","(0.12313702459682316, 1.992384689875651)","(0.12485895664311385, 2.046751913835491)","(0.10529570408229907, 2.849903072526374)","(0.12797440324915843, 2.5091778256997683)","(0.15448523693830052, 1.96808671970449)","(0.27143122158704985, 1.5394411737244982)","(0.12921248040811836, 2.38013770999997)","(0.2475823943150921, 1.6162727774990076)","(0.1399680549856892, 2.0879123406605973)","(0.14727575282560262, 2.0874166026166137)","(0.1498564023018377, 2.1259322675644805)"
"(0.14271179354206734, 2.3138601929835727)","(0.21590577702252584, 1.7176858803444386)","(0.1289652551342706, 2.656699966311673)","(0.14793583424191287, 1.9896050037950836)","(0.13275574333522236, 1.8728586554450213)","(0.14597070939481388, 2.4282013046522795)","(0.14903209832422024, 2.278941218756417)","(0.14740788628036774, 2.0536809624268795)","(0.13385593588958117, 1.7390658078011363)","(0.1253566799825554, 1.9757509576010686)","(0.11240339865927522, 1.8955462555240894)","(0.11940971701124548, 1.7194602312652068)","(0.11658034184889529, 1.5664132216370454)","(0.11823822454542869, 1.6011987494742401)","(0.11441849878771071, 1.747448318617962)","(0.113672056294987, 1.6722021575106296)","(0.11755755755708161, 1.8413948775803721)","(0.11345721936991018, 1.5730539715552432)","(0.11176141567820819, 1.6722842154636959)","(0.10452077224479697, 1.8636253625305208)","(0.10703610840631438, 1.9668483492586015)","(0.11563895434291811, 1.841089388261774)","(0.11640814638732179, 2.081316637271712)","(0.10451533316997036, 2.6663144304889586)","(0.11747311842898568, 2.7001544038606236)","(0.1481033244411425, 2.0187676313797005)","(0.26479502357014356, 1.5682990207758787)","(0.1117899114289013, 2.8268489324492876)","(0.25862484221116316, 1.5785638891658644)","(0.13210151169535037, 2.171868774262617)","(0.1306448353713587, 2.0097127065961486)","(0.12520003288477857, 2.4471411104366223)"
"(0.1198485359297148, 2.876512521249952)","(0.18057987644433435, 2.0447475338509076)","(0.08171438793701025, 4.368886683489047)","(0.1389392262199562, 2.3144724286751606)","(0.13487892298738638, 1.8659626826659335)","(0.13997034361409735, 2.8047582475792763)","(0.10907446046041368, 2.9281657110049677)","(0.09576145738579607, 3.4177463862791657)","(0.1383253397674841, 1.7454121295710372)","(0.10885189252429155, 2.263046475453464)","(0.11044053480874605, 1.9838537761667212)","(0.12520872777332537, 1.6039429480411151)","(0.12658035145933166, 1.508723276198271)","(0.12586260461932963, 1.4870502012011366)","(0.13081810403333752, 1.5498322691394932)","(0.12852610055323818, 1.5116164885158845)","(0.13403141287113673, 1.5206094850430791)","(0.12634678925594006, 1.4755454488955768)","(0.12449747719505277, 1.6000159497284765)","(0.1187996860691598, 1.806973636275091)","(0.11005560700767278, 2.00331490517393)","(0.11576121925692802, 1.8584572473718788)","(0.10633699674651098, 2.425246933524316)","(0.10601992383670494, 2.585882376996821)","(0.09314896301623567, 3.414237399399569)","(0.1211599083220677, 2.367538294451268)","(0.2763475967767802, 1.4916671438660212)","(0.08794150246002712, 3.618863022826507)","(0.24723269652626953, 1.6318041944048975)","(0.13478273979085673, 2.144708681333273)","(0.13818669789693816, 2.043097110307798)","(0.08254269069981433, 3.272244018527586)"
"(0.14817539760465173, 2.431227233303877)","(0.24402407000626505, 1.6066793320513844)","(0.11392168756269884, 3.2741693541058896)","(0.2164793418458371, 1.844572755446711)","(0.15758043455407525, 2.0919811528785477)","(0.15586114721681044, 2.4977015853359905)","(0.1180322385862076, 2.602942393986482)","(0.10210867604373054, 3.1358087919346826)","(0.1493029397713577, 1.7966962204737231)","(0.11015150271421019, 1.978453989652523)","(0.12037311195028083, 1.9987140726727168)","(0.1398755890785305, 1.6353271470269817)","(0.15183399421374855, 1.628652111963663)","(0.14363010620678185, 1.5454093993430793)","(0.15436250079572747, 1.5511715358510088)","(0.1534101367337816, 1.5346870682580278)","(0.1381980370537006, 1.6884934883311713)","(0.1493364611173535, 1.5435258539900336)","(0.14832373442249974, 1.6545009743322814)","(0.1456710594077216, 1.747256015391903)","(0.12503562828336923, 2.084742301186375)","(0.14230992690213237, 1.9428809718530091)","(0.12287101155360047, 2.421012201121781)","(0.11980638937565184, 2.312072465278833)","(0.10038484172551496, 3.199766049015312)","(0.13747244368777947, 2.1910499451121055)","(0.3142712043291271, 1.3506609645379228)","(0.0959213069132644, 3.22610314026122)","(0.2510601281078591, 1.5660377104938443)","(0.1718467626109026, 1.9433493974058382)","(0.16803516739512334, 1.9064334740490092)","(0.09725437463105822, 3.2627068723696646)"
"(0.22239583992158188, 1.7131659626503188)","(0.2957869212435156, 1.3508524705556029)","(0.21721535189476404, 1.760416468979046)","(0.3029000891629371, 1.3871840199486511)","(0.17737837913359186, 2.03993878752792)","(0.2360285643859249, 1.6458832812879587)","(0.16853506481268654, 1.932627894935921)","(0.15508082539961443, 2.0252161800988717)","(0.17770082884750255, 1.9439990003272054)","(0.12359774376749699, 1.9622046008270722)","(0.1317901686701795, 2.103838727773818)","(0.15044967665458842, 2.027794794899054)","(0.1570088187108257, 1.9535672473385133)","(0.15382414905129282, 1.9692768739132818)","(0.15932677830804243, 1.9349572346776531)","(0.15089415191758948, 1.9398546554936766)","(0.1386706487554741, 2.17883401905927)","(0.14710685217847078, 1.9075035529354136)","(0.14051956924609735, 1.9683341086550556)","(0.13105015636885267, 2.03532216482497)","(0.14156733661999343, 1.9222920007965567)","(0.15503750952256193, 1.945468001508594)","(0.1608271743674065, 1.9954891989558619)","(0.13154348702222274, 2.0727307853145156)","(0.13799685935170528, 2.408081728742561)","(0.1778434032194139, 1.846425665416661)","(0.31188338923310144, 1.307606262049226)","(0.15211307781000838, 2.3503282779760566)","(0.2671099267455581, 1.5133060951012223)","(0.21108061467055775, 1.7382257737726257)","(0.19641606053532934, 1.7652551504338687)","(0.18825696477718365, 1.7245044385014068)"
"(0.1861092075746366, 2.0190417939610446)","(0.3017435235352715, 1.2977776138548605)","(0.1952725132572355, 1.9034420324014119)","(0.2700172037419182, 1.5777147547835433)","(0.16347549653200302, 2.1217977036926046)","(0.19527033894540152, 1.9772397885126718)","(0.14492089008365325, 2.1267732842059535)","(0.1678625645903658, 1.8792312263891446)","(0.17623166858963765, 1.943310925858579)","(0.13203115391787623, 2.057217269878373)","(0.1298375488157311, 2.0442152928160424)","(0.14191457676939156, 1.939433882197357)","(0.14698540964240553, 2.0279771590528046)","(0.14431283088814753, 1.9303593555814818)","(0.14912163621514085, 1.8698585445825653)","(0.14815275411777917, 1.8978101289357059)","(0.17623083297054104, 1.7094451664715566)","(0.15130375254224268, 1.8037002130056148)","(0.13693455989954278, 1.9523944861664093)","(0.14268763105348667, 1.9051908746423911)","(0.15937718121874656, 1.7454524425316373)","(0.1464839462701975, 2.1023412150079306)","(0.16334530024360694, 2.005228638601581)","(0.129371461202218, 2.0986053169957812)","(0.16571936252205713, 2.0620876385400697)","(0.1684700957282275, 2.008730662025524)","(0.30410335659097765, 1.3416554473588382)","(0.1871016280284299, 2.0611585863539768)","(0.27599852088779786, 1.4860010483403971)","(0.19194196096304053, 1.8511884924988122)","(0.15801912332464663, 2.302701024721833)","(0.20649676279274512, 1.6028270829996918)"
