Fp1,AF3,F7,F3,FC1,FC5,T7,C3,CP1,CP5,P7,P3,Pz,PO3,O1,Oz,O2,PO4,P4,P8,CP6,CP2,C4,T8,FC6,FC2,F4,F8,AF4,Fp2,Fz,Cz
2.0931116990153735,2.291291434769234,2.088269698951829,2.076642409103355,2.050369532093353,2.215780408889576,2.3301430097602513,2.1254976333530466,2.1182152652942263,2.021148099620686,1.8693298849194941,2.0372625739832615,2.0741388875428584,2.0263276474888725,1.9629962827275682,2.1872936003773207,2.1613654828674047,1.9876769195704798,2.0478132863375613,2.0035739172736653,1.9862066885025005,1.9595357425195228,2.040521025145942,2.253317825625833,2.1163925186655237,2.13124156891895,2.107071954908557,2.0158988982893407,2.0383318590018122,2.0323199851989266,2.0127445370170327,2.1898387806329542
2.0513603364471966,2.0941484263933523,2.0848912175704077,1.9187220765351463,1.8461466149508678,2.040433668016317,2.0917591032125493,1.7827898306696397,1.9491108943274502,1.7332076799710614,1.8073175572899443,1.9458703669690516,1.971073283972264,1.9406776519874116,1.952785699819226,2.045221291804539,2.0876929302292098,2.0164516575017397,2.0112189132528253,1.9260205348480894,1.907119229543626,1.898570248540454,1.9642635707830454,1.9824821114000803,2.0190701182356543,2.107796615177213,2.120763538359109,1.9602248611001476,2.074918057535587,2.0533846960712676,2.07810906638315,2.052835980652047
1.8549434050067597,2.4142124267038376,2.158676092245085,2.119325635449902,1.964379901472183,1.9262911523511859,1.8716312643829622,1.994969901171922,1.8095588028035978,1.727754391272149,1.720380404082483,1.8052667278271648,1.7450311716614215,1.8520005900556726,1.7913099112350146,1.9390713204020575,2.015427052982041,1.8057220835715773,1.7508120695625444,1.8090735375811098,1.8990493674833704,1.7274740867195146,1.8738542646086607,1.937002788148954,2.027282847974624,2.098623631381703,1.9468869751230573,1.7936780010747955,1.8571214476253912,1.9055420881444163,2.227765492282935,2.07043415619859
2.0535247235061127,2.474616872359542,2.281654310384504,1.9464305516366927,2.0842193819831016,2.1687019900454927,2.2458559404944998,2.0301756219987084,1.8358431102926729,1.903566367517569,1.8967534143880458,2.109413590216278,1.828436269517353,2.103094554106673,2.2417138051535943,2.1679660138265704,2.308729653591045,2.2174002382422087,2.0367721142104833,1.9040138886723652,1.9611024056362076,2.193206950114411,2.0034132036696914,2.0849706185317323,1.991284563728005,2.048368954499966,1.945087180985749,1.8434010103585665,1.8334045578879121,1.8939161691281496,2.2173953547697827,2.077454534288015
1.7995120289773037,2.414617656323928,2.1571367197988702,2.0806718211738637,2.210651490283748,2.2119008363938386,2.186847960716563,1.952226816026869,1.8260034319607674,1.7726436445536622,1.8809510739264028,1.886740304633564,2.0854331111250928,1.8677479638950778,1.8456284844758821,2.0968149582308055,2.217460028084724,2.0355539697477187,2.1986712415193854,2.0485560686041038,2.1267851549963765,2.238998779468944,2.059787257598681,2.1845756720343443,1.8050072593698405,1.943570630481401,1.902991857038986,1.729325544739033,1.8109559365165055,1.8711647983877653,2.006057602654341,2.2321327236203867
1.9381071474920633,1.9770697966557433,2.0748186054648574,1.7434371711109837,1.784359044961389,1.873248286669343,2.0051961540607643,1.8606530745513388,1.8806850623941755,1.9195815955255933,2.1209189153591073,2.130493096763032,1.8760840092792106,2.1807016589968096,2.0738060011250194,2.2460733776957813,2.1220274756243183,2.1448979059163835,2.17637375539817,2.0282288064822827,2.0384587638809766,2.182934552285745,2.014130718085113,2.1133795785240554,1.9523984424358398,1.936685720868063,1.9848981279469062,1.8244624879542062,1.9233025957666563,1.8741571433130555,1.8913645261093128,1.7794176311766137
2.0660733839189973,2.211087194571881,2.407122761593552,1.950945456639853,2.306910477022767,2.3335331368881986,2.1292186204001964,2.0849895831972014,1.970490780401542,1.8002034007708867,2.1291262242312388,2.1570796698990415,1.9310558143147607,2.241928117632633,1.8764995510275584,2.05290641892782,1.904059655839442,1.9379467793197016,1.9347223888563667,1.744490809543485,1.9466297714663132,2.0974444244946233,2.0956981313785965,2.014547669314114,1.9599886667175568,1.9600959801093436,1.9920073359557897,1.8220234048710122,2.064139086959861,1.8978723057950262,2.253905647094784,1.8667258978426369
2.1867670336839806,2.426542875486607,1.9833007010356904,1.8362005453746146,2.001395295715033,2.0186574467499736,2.156917981299847,1.81946554512354,2.105697125562987,2.149046785863174,2.2316115824742937,2.1660402077243153,1.816336389130436,2.1174121596906232,1.9519842696932037,2.169720249948207,2.0120272376091703,1.928540947208283,1.9152268877150738,2.0139887631358344,2.048412156613764,2.0212155119433737,2.0369201252391975,2.2397709518636613,2.1459735832611186,2.105267758731154,2.137251433688012,1.9944905047792842,2.157002319178903,2.157266517294479,2.0907151973386973,2.010272101624284
2.008687098564286,2.484691276043026,2.265108086204474,1.8260385660160225,2.1128280909493298,2.1500586068990843,1.9722292611272403,1.8284546320941513,1.7982944360321764,1.9480487630078545,2.1635843781516693,2.2012154291016,2.0536293200004594,2.236698198588702,2.0082179282863524,2.2210271738193597,2.0600292270325613,2.1428550806289994,2.00312285269564,1.9369999166063763,1.7772915744337467,2.050201320540677,2.00014571763984,1.8565860338050986,1.868139256091768,1.985143715314208,2.236699203577707,1.872539832748973,1.9765838956362143,2.102006832010126,2.1294213677891,1.952649646761867
2.2725058444101354,2.2958136724555307,2.064937506884164,1.857030863637674,2.2021435047975664,2.058504752113186,2.1848390807119067,1.9839108111206099,2.15514052983854,1.8865001492781623,1.9814363953938428,2.2743481026488337,2.028240418766495,1.9982054119253452,1.9087981673555232,2.2295629052772328,2.186337210208359,2.144569924018912,2.1100026659612974,2.1263181969961162,2.0529766024036937,2.0027678324770175,2.0268060929593252,2.029677575187885,1.984392145476079,2.047566195541681,2.105863354606979,2.111714870262519,2.2444470134735637,2.1103575387486164,2.092931644406858,1.9886365812011786
2.1621262127688357,2.207474715930047,2.345572647231184,2.0829442951382475,2.2332643973141146,2.067372825876681,2.2041925366009307,2.137607187536675,2.0693823705760517,2.314164382514627,2.231308362315196,2.313935782678934,1.8087876460916716,2.0900515551169856,2.251299297187491,2.2589621378294957,2.0989833917945653,2.07929764058573,1.9550445510016572,2.0383131697293937,2.0652099745657715,2.0225446087296874,1.9724643721459423,2.207777367619997,1.8887202728602572,1.8531321799037819,2.1665762834035664,2.2000273521246347,2.370816244423187,2.0824983790937597,1.978039486201586,1.8986750592453625
1.9936845308506637,2.044545268675138,1.8902928395968226,1.8974588286876526,1.8384487771214681,1.8393815888159208,1.8765514046213023,1.7717493388698,2.029039965701106,1.857801104021426,1.9512458464847653,2.086323947492535,1.7963045407313436,2.1238545639022655,2.2227625954623904,2.1662331770969505,2.1890077282431277,2.0844206193431014,2.0916436842488175,2.01010482607094,1.9149727123838634,1.9729616381869746,2.096784475212864,1.957381911695871,1.8317107082554274,1.9974621465306375,1.7842139907586962,1.763815906325336,1.9875577795944264,2.2836445282855857,2.0149449149111565,1.9786171795835803
2.285830818184017,2.232092819237546,2.2426886479514168,2.0675793955145014,1.9801215239629821,2.2727813063975644,2.226320510622542,2.02517138429264,2.0250201934249277,2.119524437781527,1.9249593264286589,2.1141888212805138,1.6950003498818351,1.9513564419236002,1.9905029764888456,2.196377282089909,1.9772941010211373,2.0960141623198045,1.9561780414086596,2.176466437844341,2.1382499013143303,2.01359237577108,2.055032128520753,2.197034774574832,2.0241160373621105,2.0240072631326376,2.0251404985586894,1.9738131391396352,2.2394881469617727,2.3408570406981344,2.1305748336475903,1.871446440662598
2.327100290083053,2.5611587982258532,2.3830463603694194,1.8063768682902726,1.9464346860834043,2.059460805332293,2.1943881663016787,1.8468156595768286,1.8473755590116272,2.1638311706319704,2.245017815275828,1.9699449955964738,1.7633399442944098,1.9252268284751912,1.9995494946606642,2.1925652302049006,2.1408538679072584,2.1210312074170243,2.145540728641855,2.1565460086285912,2.20006407804173,1.971972803804977,2.123328405239341,2.0748098695408643,1.9810187856993597,2.044396162785191,2.178447023047345,1.919508441878534,2.4604180654677954,2.344605687426885,2.0885160518819252,1.8472276877882
2.1964203728900444,2.4250927602529795,2.5296014157292186,2.106763469306142,1.9909384537676396,2.3431749116418725,2.3785022424845463,2.1650916589840765,1.8703311657979926,2.0892216627006173,2.3520572528852712,2.024101402960876,1.9009736733765763,2.00613353032143,2.0114157958218426,2.118174906126476,2.1614978024124865,2.05523196839898,2.0722748774110538,2.149147077783278,2.137723224324261,2.058465229697147,2.067994475517409,2.0327801299203374,2.120654281566936,2.1319791641023875,2.1083002852826995,2.038330832527107,2.4329927008704413,2.482053718878241,2.1872162978441985,1.905291689265163
2.126581216897379,2.278049371989557,2.1399006872449453,2.296493499256377,2.0881489409690484,1.9987524512818435,1.976802405843978,2.0552248338816326,2.002586517620991,2.105073006270691,1.9561772988989854,1.9232490500657566,1.771570095291812,1.9949501374288137,1.839562153731932,1.9856985567873835,1.9674861005109459,1.9579950022235901,1.9615693096451103,1.9316438523206214,2.101239462428186,2.1345888366630943,2.260077093445419,1.9639083208570265,1.9055788181374866,2.162629707820111,1.9476447425607837,1.9935477675514326,2.392065067541141,2.237544675374276,2.1800384564326585,2.0162023824222453
2.3293335702229974,2.233148130165853,2.2544910016843818,2.4317939157516943,2.077661488801745,2.3754391646191704,2.042602984434815,2.0284850484745163,2.0243455188189814,2.0412598719406687,2.1665379734209975,2.1104998382224154,1.700709107949594,2.051853327069337,2.1315448404691586,2.068730707489446,2.027066592876994,1.8758920133471153,2.1065520617482267,1.8925498173479778,1.9463016687815626,2.006853785460136,2.262885883631225,2.1500904802050087,1.9904878657106373,2.3933318491622053,2.0121596581571644,2.0903484788301654,2.407418007297486,2.3198212212245557,2.265661618090278,2.1425408399747012
2.1468086158634594,2.2344090256592155,2.199795219376729,2.3659823767342676,2.1094511624284733,2.1985398211618135,2.031240711432408,2.1959474633588303,1.9374929535777412,1.9806749108709836,2.1289032802412926,2.1194551630966534,1.8060007006409893,2.0241600294747784,2.243950365312151,2.119068543233801,2.2309103120417935,2.068043841857172,1.9562220935416144,2.135630039640639,1.9939588472520038,2.1226335447893163,1.868529730534704,1.944238741808256,1.8812613022994464,2.0586318217797492,1.8254824098701052,1.795800957130961,2.0635818711691676,2.0835676286206066,2.0327895232617887,2.1409690051899215
2.3501303846137747,2.457051951531775,2.510976160092391,2.007513150402807,2.1752397626592046,2.269184324606837,2.2664901920015246,2.070055820214225,1.880096489210666,2.0506035356282375,2.3058119707067943,2.1915494954945345,1.7856500686946393,2.171070874652482,2.1699233746398567,2.165187677879556,2.111303826919889,2.0484993153444893,2.0676828934864098,2.092806940747664,2.112283103259765,2.173235446719466,2.2728098914139108,2.243368357934651,2.0563780642195164,2.2057358396519025,1.9284400101574009,2.0783749880784774,2.161289139203117,2.3818050229789973,2.197426249957881,2.224594531414534
2.301209185921807,2.3571305965930813,2.3891728002520467,2.025384180243648,1.9181402057479373,2.1200524627885113,2.172757758727873,2.329360285346257,2.0560436264082247,2.0801301548989004,2.3123840375658307,2.110683304400309,1.8490331625709622,2.199062159069493,2.217654492822185,2.210839086965877,2.0120586152291273,1.9877243623196625,1.846973165541751,1.9540399374499018,1.8942558019499423,1.8631940882906475,1.8985632113660886,1.9275535760463691,1.8803517895944213,2.079630544024397,2.0480919048627895,2.0652780252934213,2.3205535546345604,2.100704729881465,2.0495556023506056,2.0341478918614175
2.250053257296805,2.507187989857517,2.344254633480235,2.1828972816153174,2.2343014244415693,2.144946454074394,2.0069233261493156,2.0325826915572245,1.9369924283967928,2.079974243875186,2.1271030786799554,2.171035897364588,2.05168770619748,2.2381292027271518,2.0742736371544477,2.128374694081927,1.9374045459257294,2.218793848944071,1.9351104369309629,2.021335678458496,1.877305748975647,2.121639732233506,2.1749149093524913,2.1414913005673095,1.898594365752866,2.140385213934704,2.09356639009379,2.0102949865982724,2.188789897640166,2.397315389960975,2.1000288139891627,1.9858427666237914
2.160261435802015,2.477484804125431,2.3768522673458947,2.228503973373943,2.0787881508046637,1.99585736970504,2.008708470900462,2.1644197132071112,2.1010569413321294,1.8195664076572964,1.7934230941864984,2.026206160735852,1.9731560065056737,1.8883902926574252,1.904793951920069,1.8204688765847545,1.7306245766124952,1.7669160136592654,1.8984154060618428,1.666185019269639,1.7864718275815672,1.9716067254846668,1.9571968982483563,1.8735909171409868,1.796015998541,2.251334413884164,2.132997021765921,1.8210673859407287,2.1448318452168307,2.306552142883103,2.1272829195565275,2.028430206659878
2.3327038631191583,2.3430938948001385,2.338563540375743,2.306460446540213,2.1901481054450187,2.341850617102049,2.19752263878629,2.1098220595887867,2.012583634716212,1.7790621519798107,2.1203020935735992,2.2195864179416778,1.9838258955565755,1.9993232401893632,2.313718782405678,2.02205340585823,1.9519543393452512,1.8440489501074888,1.8743379020308752,1.8229333468797368,1.9661449442904615,1.8113506557042052,1.8572857892460741,1.9666961971292891,1.9915761624999069,1.965634180149579,2.117665115431549,1.9557531893665283,2.0810785757133785,2.061464280025943,2.1719068756560755,2.1408196741919214
2.3338683714973296,2.2974035942083226,2.2219300369596464,2.2757699016175086,2.106776004677685,2.365552428720095,2.1640282933162376,2.066660717848284,2.1604453577646914,2.165094741123541,2.163756407707871,2.155188322879615,2.056042471450602,2.279233968659046,2.1748578503959863,2.187308932531068,2.1074464217358226,2.128107570236812,1.8425290763343833,1.7813179861169655,1.8332620217363218,1.987809296204209,1.8720484823789563,2.1048653712143213,2.0695174840250714,1.8957283086453325,2.1167623621229827,1.918391830874829,2.067949402855302,2.002140289203853,2.006410415886997,2.0935620673424173
2.457385555766165,2.486699853384568,2.3566504243143678,1.9955098710541983,1.8456911161520813,2.15221260369464,2.3392589760117652,1.9723678986932918,2.123270313532938,2.108660857418774,2.0053146953330443,1.9356586444006842,1.8867304586035112,2.158905466921773,1.945834449332551,2.230974379382971,2.0607564312604776,2.097886867010558,1.9491300362349893,1.9795645184528368,2.0010622966457303,1.9987473816906811,2.031124298225125,2.2630854669718246,2.0678293005970314,1.8376826594924405,2.355408701542001,2.070425221446547,2.1254412499137185,2.253462298287373,1.9705570661774299,2.018784243285222
2.06336220804018,2.5086552330927425,2.1067354704015395,2.024673988884213,1.8890216315211918,2.1790841887514776,2.057604487261447,2.066940360050894,1.9979903817437414,1.9209546634189458,1.9211505245319065,2.0238035189194044,2.1181155612192466,2.2004496538601086,2.2226326249011774,2.014759559085258,1.9339887333706947,2.057079957598659,2.067923390189921,1.917618260299372,2.043122626546688,2.1225459741633106,2.165418242576838,2.2429054947868434,2.167458626108603,2.023960990485122,2.2293585033372003,1.9879303196691218,2.163387429825694,2.280170018575164,2.062126083332541,2.2021492873656174
2.3539824728148377,2.2673410151551114,2.257351981588254,1.8013974018762489,1.7966136746482668,1.9998275029000914,1.9896880525706755,2.055537973719845,1.968418550454722,1.8976473746303728,2.0655728611556516,2.1868657297481584,2.152285819902498,2.0738104446043146,1.949947903496215,2.1224141987689427,2.0134273537274434,1.9412501011543708,1.9522651760685548,1.9779873020057601,2.055917463934387,1.9211786593089413,2.149563047330154,2.12534127042658,2.131355520768831,2.146713573697231,2.2674915269395437,2.174562261849014,2.261594401105099,2.1364318958625947,1.9844044803406313,2.11216602660787
2.353759198793652,2.5133840088662125,2.1940293474191357,2.054780996599851,2.024914349264931,2.178771958250108,2.2286690227606045,2.12749296856053,2.008498012031479,1.8553287639127258,2.1189660325986055,2.145240703454475,1.9523217274971212,2.1308129438712244,2.1832386919576416,2.0967905250481382,2.1152083151625356,2.1144624005831694,2.040543363553374,1.9613699613149462,2.016694594728596,2.021933125909268,1.926466539210826,2.1954947761464623,1.8827944490534148,2.030293844179329,1.9718755805429953,2.0116833322832877,2.0765571121407107,2.23694853148577,1.9792846590817499,2.230493562977193
2.3938136248070485,2.1416650696120283,2.154014898378204,1.8909704346114906,1.936969537783012,2.139791859239033,2.15415980944952,2.1098261522471624,1.7908433489315057,1.9285987167164402,1.9985319359373643,1.986609366904487,2.06911042734038,2.055745668507173,2.142619066220257,2.064977565422624,2.0268039097518193,2.0515229986950563,1.9471770411607003,1.911555963836513,2.1172854063982447,1.8350574222287623,2.0329510775633013,2.123873969127821,2.1896249364775917,1.9665478383757078,2.0891772940584254,2.0514186129035146,2.0656343775122368,2.129140900333491,1.9071062354701613,2.0918493181567723
2.0803107948557233,2.390077695238956,2.196028820260318,1.9552756542592686,2.0927174563866484,2.098434107338056,2.1629465893316757,1.9357091476510644,2.082768167368872,1.9106155101604125,2.008883570127117,2.2472395349314294,2.2571330844450666,2.1654868624277084,2.0179543885124347,2.1674226494994158,2.1106954372743685,2.0742577708965557,2.0291346631148293,2.10919972672757,2.1129129557805517,2.1002825292853617,2.1226137249849946,2.0522196893118814,2.1881019849297214,2.0383335307168373,2.221020207209731,2.1035252029458174,2.406365501762863,2.3951337388400296,2.1156255361030607,1.9438304444317285
2.322413301010087,2.1267786486197178,2.0098025549932763,2.0795893091519493,1.9800925262500195,2.2518591828576824,2.281181723762529,2.0637297981980454,2.101246118024506,1.8898745419116565,1.9886370979514076,1.8627189258526804,1.9276135876072182,1.9764848575435074,1.9241464810832567,1.8378713003448806,1.898208238759273,1.9332997290133707,1.9511419390773985,1.9087478143137175,1.9217410859339248,2.0715874341769105,2.308664236412344,1.931956170279806,2.1250310444444036,1.9248065650337638,2.2778280472991637,1.9673785021030603,2.3092388111060305,2.378088559491348,2.1709030371635247,1.9609912776321166
2.3779641610671427,2.392002817917961,2.0502026520344914,2.2044607789485173,2.0657417771868936,2.25683634176961,2.0360641021736776,2.1763757331026494,1.923327372258401,1.7109218567330948,1.8519263714313563,2.007302512312685,2.090071551885193,1.9051597590403642,1.9261625925624688,2.090354216998831,2.172666694180474,2.143047250602793,2.2500290147257127,1.90922033289854,1.9164748354330374,2.0816653139332963,1.9628667529603347,1.9253940485079064,2.03064962851622,2.004717399422406,2.180937952266191,1.8932022886981938,2.1998054888159455,2.2081266080257644,2.0349660606351456,2.1808422168411923
2.509946261904321,2.1761207620483196,2.2597244887411057,2.1024836256449833,2.0083526722602376,2.205564683007409,2.255392069539984,2.038652468647872,1.89855110276175,1.8729110312127486,1.9752494800387144,1.916693101327615,1.920305755692903,1.9670532115647097,1.9982661051807609,2.0687872802251306,2.010605916070892,1.9169667990279047,1.9717098372337907,2.11835915328517,2.098782023830751,1.9587651312298364,2.1777860666593547,2.0445531110847504,2.019856799293933,2.3155718068349413,2.3511853292676452,2.0688537618955904,2.3760522327856437,2.3696553943564833,2.2654858804236793,2.1519990052717284
2.292094727420892,2.2499103734634316,2.259577183441526,2.1613049795139037,1.9259469275493433,2.202712135169674,2.035668142210856,1.9996672177989354,1.868761490316797,1.7926727620064318,1.8826719627301125,2.000419065455468,2.0114779936414835,1.9276585346522597,1.9391558184878357,1.9659980333141907,1.9529164315416614,1.9047063758848695,1.9300674621670273,1.951884571582853,1.8896662327486533,2.0765990397077156,2.2555807901853555,1.8663199351806634,1.8808215525740701,2.239797931630247,2.218154456106269,1.9622590881052608,2.283921833486545,2.581528607710552,2.203401056448166,2.1064683689278456
2.3848372152384543,2.1064926993970903,2.0524952661820475,2.215314430539588,2.1354297299644474,2.181352669816642,2.1629799588574716,1.8900458542040972,1.9179223089827235,1.9414309614079341,1.9470406141230057,1.9445697200554,2.0818574940799897,1.8954527174263145,1.9338428751943018,1.9892527005923915,1.9901063401843027,1.8418252814809724,1.8636257247654373,1.9976269027745788,1.8937871787323037,1.9917718980201495,2.210406130092581,1.8932812230819545,1.8587374140732629,2.265900834763678,2.2105802001205963,1.8820038155546395,2.4164112554909116,2.1518987291953238,2.1402407654970785,1.9162001746465585
2.3426475138130187,2.2678332398069663,2.107762655553314,2.2970188766158492,2.1283366915509836,2.1891557179355723,2.2549343630172913,1.9788087328604687,1.834401308222317,1.8703354093789928,1.9870521915426678,2.051212823834717,1.773788620362946,2.046278867361749,1.9466256200705065,1.8471147247299824,1.9536717460599244,1.8738996518686746,1.9405827705301169,2.0281654825897513,2.039346182206425,1.8826154083417057,2.1217133883072212,1.980106054633465,1.789979610450188,2.1046249569413913,2.2346998461834233,1.946663049526318,2.325055754259245,2.4342850432040892,2.2979305154565512,1.9290378278594125
2.233000797369082,2.4184606078315243,2.2214841994263232,2.1665242365649697,2.127036146532643,2.3422319960709492,2.284846504388407,1.989685750465844,2.1116720557395356,2.045253745837777,2.0024958146077956,1.8199985152006122,2.0570307080875145,1.740979941703239,1.7512601667041534,1.7153220862497698,1.7644785524620286,1.7512076433540344,1.7880646242972902,1.6400321287906774,1.6827079349511713,1.9414484299560513,2.0438102067251043,1.7409534810102574,1.9048371409245148,2.2566204342401055,2.427143501050715,1.962187501473244,2.3003109530778056,2.433220201839075,2.2069287854705135,1.9602340627425576
2.303613488951901,2.314453277640096,2.0604676128449,2.039289802968062,1.9263268978501753,2.0308486217721864,2.1516839617925205,2.0091745083972126,1.9726397763402028,2.1604375900448693,1.9823526889360519,1.9070353774217306,1.9463995640031495,1.8705746636582485,1.9445810544920794,1.932277690165983,1.9410870186002798,1.888434875110904,1.8000092384757267,1.7979114470125095,1.6703552509753123,1.788381986055845,1.8141489895316922,1.8255695696753325,1.853348588084807,2.005766399177267,2.409506213790692,1.8722635902148448,2.178308037451342,2.365457929022589,2.1267606696558907,2.2756014983538217
2.174966716554318,2.427295670721842,2.046676202106623,2.2724837841610483,2.0592790570216057,2.253051480926303,2.1494289794876815,1.8550114182740491,1.8583740248881488,2.0582565968026794,1.9873651224053277,2.0972135415355706,1.9769171460031332,1.9761484927435662,2.157019245034869,2.214850071759405,2.214553202498283,2.037785202576371,2.0901250667855535,1.967234121206822,1.9647342832850923,2.1031288917067767,2.221488803480596,1.8741202500142655,1.8255462020363222,2.1696896660272746,2.184999140567029,1.9945699617194268,2.119540165707364,2.4962469722895313,1.9721178371216062,2.10252067450038
2.1843919657088393,2.0645927652429927,1.9329136047459328,2.0053669752657157,2.098472850231372,2.177289049908039,2.158719169656872,1.8047823191717318,1.8170626003932246,1.8921076626594813,2.088002442099027,1.891604802143227,1.8458186384920228,1.9224704118116,2.1238932887313764,2.228179320618727,2.236923202073186,2.0674873784110237,2.1322272347677322,1.9651535867712497,1.8196863370527856,2.1505702105020363,1.8924112568999105,1.8172477147974735,1.6951056608103763,2.0658822567540907,1.9506699186964032,1.8216705591672988,2.247743246533254,2.0963716071260454,1.9800273561438935,1.9652278532697443
2.2044972678943546,2.1031914960207057,2.0119163004611464,2.1130814637377395,1.8406287000830668,1.857580282458014,1.992670388061767,1.916401857875825,1.6476508974331747,1.9434671500855436,1.8843787298329684,1.9448784523170157,2.087136284425176,1.913958649670168,2.0484260428221837,2.0320856500062145,2.137959403639961,1.9911683985537705,1.8182215279619156,1.929798639015574,1.8340646376523886,1.928359520073482,1.8642578781378665,1.759715288530281,1.758248889620194,2.0760030788597037,1.991490095833741,1.7378464375831533,2.1257953812430417,2.2067462941921416,2.0766898968335457,1.8090327332418592
1.856741160892577,1.9964528636388825,1.92923235499565,2.066111429819733,2.1203032636198573,1.964061749003117,1.9712053076850513,1.9009264222951754,1.8540053991362613,2.1696582940666818,2.020959559147707,2.1953766655926326,2.1544664505584974,2.084322339083129,2.1723357554534957,2.036501717908806,1.9818524165948204,2.288845280250016,1.9376198210608204,1.661027320402147,1.7104399220345794,2.3066659167869377,1.9042889299054284,1.7195604148452162,1.6062134287637841,1.9685074503071964,2.163489359176171,1.7092106492643155,2.1136495456776045,2.569156109870717,2.0223243559871618,2.100527988079271
1.8857700793240362,1.9226110446949631,1.7364326350106842,2.0225627390223733,1.893693489727135,1.9796739954369578,1.7471803451946188,1.6550364614510358,1.9012656627070559,1.8221072208017197,1.9143392008732476,1.92692946923469,2.0383905363145143,1.8572861946644563,2.063230656835256,1.9235110500330481,1.8955151670370205,2.1270720501765097,1.8646527319942787,1.7629444647518775,1.8405301629708632,2.2043138948370755,2.1964417317129814,2.0060537919195003,1.7706349153758805,2.135250764096612,1.900765203983735,1.7843992265022421,1.9688703969320405,2.1220837758432713,1.9089448943488592,2.1445471908739413
1.9723500895443904,2.3227782794750547,1.9424922280724755,2.157205014396974,1.933579910780563,1.9065557151442192,1.9758075232176107,1.9275911501458072,1.93874108292363,2.1160774368797557,2.030115685268047,2.2173908036181196,2.2792926185281526,2.1477811277263803,2.131185987800883,2.2860758823548513,2.121843917457682,2.302625733161957,1.9491844910286142,1.9069350743646802,1.8204717479465002,2.0180900227738623,1.9334229384219603,2.113305913975347,1.779312435789437,1.9302735346236877,2.0662235286840174,1.6979235906011791,2.0363191394924534,2.125393511702937,2.1114923450495486,1.891186847215337
2.2115473440446043,2.4082619367425018,1.9223819040516004,2.40452817681887,1.8585570047055755,1.8250452031104016,2.0427980477800833,1.8169974671968123,1.8950376520881587,2.1238086124471107,1.8485625301974393,2.0265690048894527,2.092978485700425,1.9904638253637132,1.846270836146519,1.8862249975710466,1.8057599764320686,1.7146089854527216,1.8560432315063162,1.7326199039552783,1.654525030331717,1.9782669829177126,1.9646099477845997,1.8271268010960682,1.7541655193863577,2.0268418529159393,2.1681213009024334,1.7416355979774947,2.1067207983212475,2.348178562940846,2.1056878786347215,1.9536711430752902
2.1341170910072385,2.2863811637845077,2.03554436488582,2.3145073407473813,2.107254311903888,1.9371949064771137,1.9244750359194942,1.8567883698788652,1.976681648812577,1.8584930312466972,2.045563409588431,2.196336966760034,2.157448831388346,1.9961804134462076,1.9879680487228568,2.041855352867791,1.9964059590438987,2.0647359710820634,1.9857862869263068,1.8576435959638886,1.8287986932254385,2.1834000389196757,1.9665479763778573,1.7998324850961882,1.6769744934392683,1.926443629712171,1.9023872285451606,1.7301868663539879,2.027651294114805,2.332000283914086,2.121238405531566,1.8314356912692658
2.2690064740932767,2.551628370120555,1.8786530532872912,1.92055470905891,1.9256370812404466,1.85319020550133,1.9569716242542492,2.000884996233438,1.9499137647206937,2.0672087240096593,1.9349562880411952,2.0957008369428176,2.1031661335160914,1.995325651075284,1.8369935420837782,1.8301565945351714,1.7439331428541296,1.8765340114200237,1.817771927362512,1.684507576381691,1.7789875573539127,1.8980848346881896,1.868612077128179,1.828909893617796,1.6840328529378004,1.8992730708480172,2.0551677616556097,1.7535364338706156,2.00118282570502,2.2611072568460733,2.231063333235268,1.9038327011385001
2.2134476268096073,2.240586184273494,1.8800864586590165,2.2484947116447964,2.0501258050221263,2.00478970753096,2.022767134171641,1.8549975695159568,1.784504681201302,2.0564219671222155,2.0197297227858244,2.2220840153078796,1.9285951829925378,2.11295690204441,1.998180686051746,2.0695948471824805,1.9676203875244396,1.7810875397030324,1.9336027582746356,1.8834954647594564,1.784214812125617,1.9848388093945504,1.9778355721907852,1.884039148888753,1.865187769386915,1.98685500288843,2.066095165320291,1.838843576228287,2.0728132143390803,2.07004017251792,2.1861760664006296,1.9802634764379121
1.879689440817668,2.2887923142120723,1.7902001655930637,2.1302554487634455,1.9735058298688386,1.852159052640911,1.9234695975345484,1.8856549752616492,1.7739946815490564,2.101181135122596,2.0779793806957456,2.0785057918404584,1.9356888034294601,2.12967422221299,1.9364428589150313,1.9887803119766831,1.8841617719698283,1.7977688946105603,1.8057863809922161,1.8579964045852042,1.731267535515274,1.8337959528058474,1.9578272085576647,1.9655526825846257,1.948697243907286,2.1115879156882764,2.0307753904532992,1.8554456596970943,1.944120804191647,1.9399689827082691,2.0840504304360663,1.8742713293556115
2.1422190689676763,2.582643599478511,1.9191590816675836,2.099781185147715,2.004799198286916,1.7994817265592784,1.82986794699475,1.833254190424146,2.0782095236737286,2.077851617670962,2.0300414293973303,2.060426766950345,2.303851653487396,2.1834889760331784,2.012426184587568,2.0361018967836877,1.881762897396495,1.794450470308524,1.8028178523104164,1.8061627431207512,1.886218340429615,1.8403908377551832,1.7602317305219346,1.8945797343430832,1.8203416136206683,1.8170918432634098,1.9558031340783968,1.7385529014591388,1.9794329234180794,2.1850713502753,2.105752600559971,1.9098797249365844
1.9265475789740965,2.3034201086432047,1.9429564203975866,2.027673103776762,1.833370410707417,1.794748704871222,1.794068872036378,1.9467761264001384,1.8389497728017643,1.8560630501843811,2.019230049920441,2.0970991702504254,2.1974580284372,1.9574326094267003,1.8677828200941242,1.8858518176730454,1.829767849553397,1.7940659900633351,1.8636912331022535,1.844068556939371,1.8735998630615336,1.9472291962509087,1.930502442278497,1.9899340172249727,1.8471290836781138,2.0226951607112937,2.121769097511636,1.759342969529438,2.0028670481356787,2.1721888120969117,2.0072588978005963,2.086760410308484
2.050828948379535,2.206907866756411,2.1304939484814,2.098015126654985,1.83204210538798,1.86207022190349,1.9729937637356914,1.9698762601955448,2.0186697189020397,1.8528769984359612,2.005279397833192,1.8297198836074224,2.11071804777709,1.9211481976142393,1.967301782727464,2.0415811990261776,1.951462278296853,1.8274786475692157,1.8280939723878598,1.8513264149740962,1.8666677256538373,1.79249066401103,1.7214208957308317,1.869257063020053,1.7510825310328928,1.7826219201466824,2.01461779040792,1.7427990000404423,1.9107059766259251,2.041144309339429,1.7759925917989257,1.7084903603139532
1.9492147371224844,2.052889951376692,1.9261761676307994,1.9553191820186846,1.8663107308130233,1.7521894721638442,1.8323549342563863,1.8990004649523125,1.9483401756689431,1.8827461229681757,1.9849427103704522,2.1063826110279957,2.0261468210935787,1.9166682823837216,1.9768309898152114,2.0332105874289828,1.878527585540887,1.804936921853354,1.706760256106214,1.783947886331511,1.5856505095956464,1.9020917432618407,1.7445155276757514,1.8366848960445639,1.6505960619281754,1.965902220589755,1.9526336508471833,1.644317479783263,1.8600913378742416,2.0189772238234824,2.0177329287109766,1.927848007197692
1.9879889178866106,2.356345448215941,1.8635637821401965,2.007681206128436,1.830116822537706,1.9069776138208863,1.9798198113182184,1.7795109666205826,2.094787295254157,2.0623611827500308,1.8626210169305544,2.0514422623525954,2.0558344393526973,1.9847747684471373,1.7888711843422234,1.9538241043511402,1.8936895957971545,1.757477160487711,1.77700357885006,1.7758780623114812,1.7539568165048094,1.8318158840261376,1.7434966374634455,1.8236608177088256,1.5798550711828274,1.94998539954292,1.8021289685639064,1.5651181102771357,1.763984865593047,2.0242516546281473,1.9763435674313814,2.1760758613828
2.046103265653624,2.0012994974139575,1.7856759267321494,2.028034800065687,1.9024567921552797,1.8257405589183113,1.8368414618250626,1.9064962285857872,1.9423899463527148,2.1779180315568185,1.89624192858719,2.099697389125417,1.9069849360337843,2.160263601813587,2.161759831502701,2.0448997181671524,2.040124524955394,2.037927248913576,1.8733236736868608,1.960195947692678,1.9935799657234818,1.8120821976912054,1.956517735040879,2.0341258897805305,1.8787983252783889,1.9753299553873245,2.144052238846475,1.676866753878794,2.009475726021226,2.078560709555274,2.062602923524724,1.8960417029719832
2.0077876586253116,1.996165675924218,1.8039190577939304,1.955644434625147,1.7029996352594605,1.9016822018851445,2.039897495921742,1.9800183505869497,2.1946508446436757,1.8934346499053085,2.095008780937416,2.0901806993975933,1.8515234043821793,2.035102936712887,2.1418205300400857,2.0211946708326485,1.9214342807570273,1.8179237090455347,1.7638052930187313,1.7427278199432656,1.8964420630755892,1.8847648500504517,1.977358029817329,1.879509335509846,1.7700207389709204,1.913207477394227,2.202107193613701,1.7185398156993457,1.9826234878149738,2.3076685269503647,2.050712078772861,2.180259239696406
2.0283433678795744,2.2907141543261105,2.1130987898551536,2.181109490304107,1.8683638911553488,2.2985288430802173,1.9161689547904215,2.00473395191258,2.227941814612256,1.918824933772824,2.0972137491442235,2.0508639173187015,1.9116818715216413,1.9886091315753445,2.066617796930871,2.1692483020241333,1.9719796402906076,1.8685830496567124,1.8001336938752106,1.9364250319954084,2.1280096147587706,1.935400871771101,2.043219037171338,2.155367469421281,1.709426361873126,1.9376007999406688,2.0900872282125995,1.940911060453418,1.8358458047441297,2.392422879988042,2.042516768443076,2.0384923098955783
1.8511328629011476,2.0540495637710268,2.025431116697689,1.9785204807849874,1.998768225266019,1.922002734364408,1.8010407171003096,2.056279967293541,2.2406377571362075,1.8995219023380154,1.9764157910349753,2.0236431177673944,1.9722600782560673,2.0681816663048305,1.858821598491148,2.175339695728621,2.01091245709344,1.9980103894946906,1.9701709762219302,2.043655730742447,2.0969726596302096,2.057591387590624,2.027192496474389,2.253357228079835,1.6396487398887443,1.9868712677249007,1.9529498850023124,1.7856348770369737,1.8498342636654437,2.0156295429363476,2.3153209207196124,2.25139746505223
2.1102069506236214,2.112204286829977,1.9942490648181432,1.9649895551816394,1.9307032767323156,2.0350152948099374,1.7662337628230413,1.8498824426979166,2.082012398654182,1.9743489644622005,1.784879503340765,1.8618443264111808,2.1743355227945664,1.9330315647745233,2.027526879502042,1.998963978988618,1.9646844855864933,1.7896728981047916,1.8257574424529064,1.7941563865491732,1.864878163122372,2.1472950079250603,2.1381578036270983,1.8600028599809133,1.9044127178696542,2.0771847749342958,2.1469933693598997,1.8921335915078639,1.9606783430894044,2.5318199262607317,2.2846288281036444,2.3901082255845716
2.093030777331185,2.0794626801842204,2.251109074038566,2.0765014807181146,1.778141354770822,2.174897109004462,2.0221776659914066,1.928847167006043,1.9459373826287727,2.0994868182546274,2.1388466626650406,2.04480692472701,1.9251855503627142,2.1667091677109944,2.0083326267654047,2.0687597384212344,1.8555247116556506,1.903720718635105,1.9142337751997807,1.8615288664425045,1.9703487342912729,1.8667989734127395,1.8298625196790927,1.9498860706936982,1.7605896372792367,1.8692479949734588,1.933473313400982,1.978410760805386,1.9451041722393596,2.4265241054548587,2.139169666218941,2.2984519135825296
1.8985874759177956,1.8155787521195077,1.9162893715586087,1.9543411195470952,1.9118463511850639,2.3168156138501272,2.135132376050136,2.0513581064220032,1.9277312745940594,1.8811318612111556,2.0050344755624865,1.9629592455749731,2.0302066109458616,1.935135782370251,2.027580866041932,2.155455304207133,1.95120773879878,1.9662855719321743,2.061099583366097,1.8391805875310172,2.071147572712856,2.0512915355890966,1.8628363137096304,1.9566759376222844,1.7029495630331315,1.881353491922212,1.9564151210860288,1.8015992714876943,1.9452780112319212,2.092644994279085,1.8828313179436538,2.1474922074524376
2.0590143624169297,2.1570347495238553,2.0657328726660698,2.09586938464247,1.7724665127770127,2.201204915452032,2.1433788713590722,1.8257167762563666,2.0554167214314796,1.931691914815843,2.1762212234026106,2.112891746011421,1.7663308736645853,2.0430063211191163,1.9274893653687564,1.8325654641351241,1.812750523274108,1.6795731495555257,1.7799031875337148,1.792466973952358,1.8232153470118315,1.7233325392502303,1.7333406459987146,1.810815950823026,1.7587186011099565,1.8097419954956104,1.8916041118919629,1.8343794934973086,2.1522701955713126,2.4094263971701277,1.8814892608101963,1.9554269261372301
1.9068823377742945,2.0366002204545306,2.0009528764829634,2.0671271938714866,1.7144188917948773,1.9876020387559177,1.880830033192774,1.8721766397908222,2.0413259956189904,1.929494832595134,1.823908509178065,2.1726148882078227,1.9075215397068084,2.03904559502691,1.9107582062255763,2.114265160392176,2.037891768224641,2.093731081091836,2.006837512104096,1.939521602502535,2.0063366707955868,1.8095517229048579,2.1173113685924747,1.980053121487771,2.002303191100786,2.1081706508778386,2.278316642726898,2.3356450789179504,2.407330431585162,2.415100419182037,2.0911510560293474,1.9853029108019105
2.111644935837916,1.976772893389899,2.0715804828634754,2.1646887428553288,2.04258107489104,1.966521115268734,1.8699999065792798,2.0997905795936562,2.022607896135593,1.905117844708478,1.828018896202938,1.8648603435973639,1.9519281772667054,1.8991225377991683,1.8476370769552206,2.0459446409076767,2.115722778860181,2.138911295097472,2.2087859980456437,2.1707303652309657,2.018074775992188,2.0868451186594608,2.156262471786739,2.1087348797689565,2.0338210932390166,2.1689797367933337,2.182242268170434,2.2639588933999812,2.36763508448171,2.635297160000831,2.1593640286995037,1.963989568527276
2.034262434919772,2.1031098392875744,2.1661798421510703,2.1177646386842697,2.018533480420737,2.0180175645307448,2.043560449388334,2.0928053289734767,1.9515537646496859,1.9366528368628946,2.1073315945765914,2.1780168082779543,1.994857024740279,2.175877487604584,2.0657213225275237,2.126139884038591,2.098822711174737,2.1397914412408388,2.0763036720184815,2.082170458481348,2.0532591293803155,1.9568153303594404,2.2051005019473773,2.1186668451041935,1.8504070067697485,2.276844088189471,2.158290050031793,2.0170595183655724,2.179329093970381,2.2900676500882122,2.233323555607737,2.170764939334397
2.0088769555574153,2.263623692873827,2.143968244115392,2.1403788916921225,2.0641108024457004,2.2294003207232853,2.1490229743722815,2.193619493249293,2.0164466672201513,2.032191889561805,1.9688010093200736,1.8967705739201957,1.7852921695086374,1.8591697359594794,1.8801816650722531,1.8428138814901154,1.8022622721705894,1.8085646251948884,1.88759892585236,1.868355659660049,1.7874781961989943,1.9096340486328114,1.9678272217639907,2.10175937725726,1.762328253109824,1.9471485517885543,2.2118547493722445,1.9845636710252106,2.359294995472371,2.058608709676444,2.204218274577361,2.352014849564602
2.1258170437103074,2.093679565772941,2.211563634481322,2.321448379891392,1.9933789759928335,2.0487712048270375,2.0551224069963276,2.09918954498182,1.8675749868925204,1.952217731788826,2.2489144173081708,2.0079449357279544,1.9354285441322783,2.262617191051152,2.042497316110466,2.2461261153971415,1.9339114458647169,1.9936338620039844,2.0079068663779465,1.7943954944988723,2.0169852854762973,2.0605858154525425,2.0598890420373066,2.0017022658728205,1.9277828835135913,2.2402160913742817,1.895929411237319,1.993759981620183,2.393593981698986,2.0607795193770557,2.158718474649576,2.3295538015483763
2.226348789454699,2.1417274546230396,2.194713280531363,2.072223145989743,2.042689558446155,2.206324874408275,2.0699114577121858,1.9717082230416916,1.9011744135361057,1.8096459479037157,2.1156189814151287,2.063140436237923,1.909114291031643,1.91219461072972,2.1593944346147103,2.0791829001788065,2.027426586810858,1.9558208743183805,1.9847296287107048,1.8621602060749112,2.00611944616972,2.0319907743250076,2.285655868503744,2.1319933572649057,1.9576164188216525,2.0435106869199062,2.267508200796711,2.1747856250935804,2.305931874769522,2.204669544223011,2.2371967179300563,2.287469363821076
2.233355661437349,2.146650616253032,2.0473046232793184,2.2917054825360603,2.0592213900620986,2.087312280659607,2.05554186375479,1.9453429680426877,1.8059623948931987,1.9030770853814762,2.0364522536997716,1.9501016126180848,1.8436116319535214,1.821242792665942,1.8971240354555579,1.8818994700225005,1.7980341772662634,1.7192749834847447,1.821207574755151,1.9269251675872352,1.9061097347862281,1.76898943629684,2.0319892124050103,2.1786394152024156,2.0155722521600152,2.049887497139323,2.2298472554380893,2.103992539707098,2.0568463704357276,2.229952178698065,2.264986176005364,2.0529372505931853
2.137070886378725,2.12472273024254,2.0355060822897864,2.1177011013713547,1.9090869947034388,2.0863586826422185,1.8187752690930448,1.9071594957587183,1.9097108090124162,1.7631580261130382,1.8511371056198256,1.7849267785105436,2.00343031207991,1.7737715697888932,1.8916927466089188,1.8357016285604202,1.7608144939145418,1.7471999163737355,1.8277687751974243,1.7911467010501498,1.7932464227288227,1.8638867584379761,1.9281168975747665,1.918524692881641,1.7177327350757092,2.038341676475301,2.0812010113308617,1.895539115802653,2.0354715625112414,2.2364968619169314,2.2490796560500197,2.257895433728077
2.123228941518695,2.024682833055052,2.028892650849663,1.9968349246459376,1.8153206668911417,1.9302589776104735,2.011556558178104,1.9928706496684716,1.6842307237161862,1.8169747938496839,1.9430141162103893,1.7051570078306975,1.7307743353072513,1.7277495317693086,1.8807024329784938,1.807844570503143,1.7814651911630663,1.6851144446434234,1.7547757885883437,1.8007785258239903,1.7719795518423638,1.7347420501833424,2.034977329130562,2.1909422647919112,1.7694741600851185,2.0239466360463023,2.256937617498163,2.1168795174918733,2.3310519762413344,2.075314574720602,2.0189558516041806,2.153280193999421
2.2123418794187417,1.9487814392524212,2.1290744473936516,1.9752248953817801,1.8048820865879824,1.8602505918982355,1.8788832993525928,2.096624912450822,1.826743760913247,1.8328243161835802,2.1077308039128066,1.8688328357479485,1.9236216421311276,1.803282951636228,2.001218375321094,1.8375021596140333,1.7402477561396403,1.6937414860659257,1.7441803136529221,1.7230458760274197,1.8062618637808707,1.8835562761721385,2.239727970394996,2.120350265534348,1.826614137889897,2.0880048524851205,2.0758255431244077,2.0944727541570645,2.1143073087699986,2.078892649155335,1.988680093475367,2.139480479658749
1.9427877037804246,1.931358222171246,1.8192926654875965,1.915000276088684,1.831694802082699,1.6968290461057383,1.6466667676911342,1.737514400721146,1.7321982170911208,1.6612182127993278,1.8546769139216572,1.8957048456049195,1.9212016300916133,1.9787545679202323,1.8670744658879228,2.0217353329093295,1.8025672160099027,1.7326654011382165,1.7327473436058716,1.9246118792938802,1.9842399121053071,1.653620034515879,1.8180043690011989,2.120803368625259,1.7111086854730109,1.9469642635014865,2.148353330885728,2.0458978661830245,2.346409882877631,2.1039358630172207,2.0629077423001854,1.7837407185922072
1.9978456942856595,2.040216775599395,2.140290773276329,2.0100959946828367,1.8620420771807427,1.9640089434147365,1.9216322255031262,2.098729294409148,1.7711342792553837,2.070022656240381,1.9938466777713342,1.8930838096041553,1.8332125422498626,1.9589816009596883,1.9808920133659544,1.9982610325526178,1.8795770581782307,1.8504098221926888,1.8209858738854223,1.930944609136785,1.9473525769456677,1.8226525948463517,1.9177725653713538,1.951502803842063,1.5720174455667872,1.8681593673192636,1.8939261317331648,1.7409852402235066,1.9481833332193872,1.9410073885014307,2.028871870447892,1.7730468052514656
1.8898805893407544,1.9034149284906963,2.0281839321800743,1.8801683049441622,1.6930510002855386,1.830126934121389,1.8034908580762572,2.381996852255306,1.7717935418355586,1.950770082314612,1.7873280959501556,1.7907275495430661,1.7484817832282569,1.905970414689861,1.8073151387845914,1.7993199427857367,1.7777006632404508,1.7416918044145275,1.8559732599731462,1.638623786510373,1.8282461732090598,1.9323228424520056,1.9063963993635789,1.8023351141800208,1.7018751290892045,1.833666262619749,1.8538267825201262,1.6970965763041175,1.969147524616945,1.8909500103387908,1.8372934709714575,1.8868601228094555
2.0245130251230377,1.968265107460499,1.9921060102362338,2.0277513788435755,1.801472217214771,2.0100894757132903,2.0955254033789386,2.050851001717367,1.7112488525583955,1.9933856696104775,2.018983685654986,1.774134587869872,1.9678787342154576,1.8288038323522524,1.9230058474932372,1.891044456881841,1.7819285203508317,1.699799128095701,1.7613801206249213,1.8478775470415905,1.9711282216165265,1.7921459943171385,2.1447441277555597,2.056470364949691,1.8614035187731919,1.9571622013117407,2.043556817854166,1.9310894231800786,1.999543433998781,2.1373302572037476,1.8957118218018119,1.90179707673659
1.9220910202006736,1.7346474589152154,1.7679602397011502,1.7902849010940913,1.799049245615371,1.7225720042711659,1.6742089596753962,1.8701079071735691,1.791617701215871,1.819153873717161,1.6397902344030475,1.8458106117152555,1.9649891131050188,1.7645526564142668,1.8342764172060753,1.6706757916931216,1.5804312844848187,1.5971761298832288,1.5811736779642285,1.552727320428322,1.6510948149767772,1.7249026951455775,1.8424444760401797,1.8494447508666725,1.6712414910663869,2.002426579552964,2.1111898228108257,1.8704881241358293,2.2648164971532454,2.19474284270971,1.9926209325954132,1.9951918906856847
1.9633157001810582,2.0606693787754082,2.2327011140661215,1.9220755691400258,1.7424223749834953,1.8971439926839397,2.121941288781925,1.982520372290461,1.798350657601696,1.8447242355659006,1.9735015647899912,1.7148550231662298,1.6316130234153183,1.7046344249321868,1.7190841099543965,1.756581303667975,1.748544002584324,1.6683486329920443,1.6641884419120838,1.6405852595488504,1.6991837278600221,1.7249672628693895,2.01847203458278,2.278895833904669,1.6111974283641919,1.7440436687185055,2.340466622298534,1.9606328886888456,2.145129535152253,2.1658450010715007,1.8225081515440167,1.998745507888604
1.9132980541358604,2.0580508237480566,1.8228169067182585,1.8342006029856586,2.015742459489032,1.8272892229279225,1.9459093754153014,1.9260458804906657,1.9177048301688984,1.915655208225735,2.0004947050095825,1.8849835605313765,1.8158146172715857,2.011573283871177,1.9996345518850567,1.8846103734537085,1.7440990647466417,1.827867579615766,1.816408478193094,1.7437414500212227,1.638206385756584,2.249624422969669,1.9440055103353178,1.8355187155695045,1.514177738013908,1.9874125970414478,2.1435377044104045,1.927235581708196,2.170701540536487,2.336040998062782,1.8620721818111627,1.8399127615808057
2.045464436042436,2.341749266459771,2.1032327628998195,2.059888262702711,2.137819414728641,2.0120361671160962,2.259478451691344,2.029522801336706,1.8544432582388637,1.9837281560225355,2.224724005443649,2.0245354099322515,1.8951496096101959,2.0031796186367665,1.9597165966422732,2.0428661737787777,1.9880459310580003,2.135252542528675,1.8443084222304427,1.9354889680733818,1.8650520461169338,1.9857864876870484,2.0356523299450204,2.1665625030799536,1.824737035790024,2.086158029221378,2.0153772679748037,1.8020165212304387,2.073334653148439,2.111599282058606,2.126531350574812,2.06277427784759
2.1477174248212467,2.2937066417745875,2.2795244679819797,2.0962785736899447,1.872540620169489,1.9189771658512673,2.0859420676097,1.952900541199311,1.8852079276045506,2.0758501503532685,2.0175546703976694,1.658653336722711,2.0336533916470754,1.7097175937988491,1.8013086973776107,1.8436098962571716,1.9421153332076373,1.8928770681261893,2.1203235438587926,1.9754281993468978,2.0201740112688427,1.977321465189169,2.0814311536691505,2.130291098853668,1.6855325695202579,2.0161619542289735,2.326403955298587,2.0155585384208154,2.0654779228282236,2.295510884341156,1.9723382113603958,2.0014167510743004
2.079733501105207,2.071161314657923,1.9342772566101452,2.021919774589893,2.16551343337963,1.9504973839074025,2.03311773466336,2.0352461388532106,2.103143869189415,2.0645700009873247,2.0304331996842166,1.8764423663832546,2.1080809722725324,1.8626157759171924,2.031508927123791,1.9218075879607075,1.9241221532773856,2.081122299873244,2.0865131567771553,1.8056629199006913,1.8474203545683403,2.1267665918143823,2.1011469907013436,2.012191588876011,1.9353689145553472,2.0902808516029476,2.1435692768529746,2.0300405756557813,2.29480983900113,2.4785263322520033,2.2418372958382546,1.77540945745142
2.0634650760194093,2.304167041387488,2.153539827535795,2.186999441801376,2.158933870243704,2.0009136570822603,1.9575095893174264,1.9552148903426474,1.7271125574292554,1.7795190572048276,1.954504239759987,1.807829216325123,1.9045850900562065,1.879106736193679,1.9213953163422117,1.830426575867904,1.9124358304450024,1.8688916602269525,1.950826513327789,2.0650668187036882,1.997070096478484,1.882578522719257,2.035017106319845,1.8767902350399688,1.8657686725304723,2.180499243093543,2.0859502047169527,1.8866127040615368,2.0097026861099243,2.2456689741757043,2.2244773010128833,1.9803141695262618
1.9473303700213556,2.364906328964616,2.1827035432868422,2.068345356043377,2.177339850371254,1.8831629878676477,1.9891884194424079,2.117424602433449,1.9226386548381464,2.1829741825427824,2.1313990649616246,2.00836885220848,1.9942524765187009,1.852177365948376,1.916175568480349,2.1356860923403502,2.102219661417689,1.9777120554616399,1.8059989692225,1.8500627902398854,1.869872141083341,1.8345697342776974,1.9256436462676103,1.957769651616602,2.003894791099423,2.147494303013254,2.186699506443138,2.0633716198417216,2.3592346081874713,2.644049508609355,2.24364165032479,1.8722360354261278
2.3946372705623995,1.8549104187757068,2.1134167259860437,1.9324707352074653,1.856659461417705,1.9398815971202361,1.8367552956832232,1.9193274584843818,1.9072080138658822,2.1532077294270278,2.0164849736976493,1.8213230097114514,1.7430360331107226,1.8075457261862962,1.9587842193381602,1.7759640336416598,1.800654973437335,1.7116135192753754,1.7419867213707254,1.8493037523663842,1.8487405979612437,1.7319138130733747,1.9732721177132688,2.005173298743263,1.961151388804226,2.0369117313245546,2.0682594878574,1.8946786957552153,2.0080508664956196,2.286814110210784,1.8635109786701174,2.1215259676945157
1.9914458616049262,2.3189540603691787,2.046950168491041,2.1497295374273935,1.9448745234302798,1.8281285909994969,2.0512979439262238,2.123096903459841,1.894215949414489,1.884179286923636,2.0020114788671615,1.8039828654658316,1.8169219401001153,1.8898780513386948,1.8769465662483882,1.8510117395460808,1.8573850249307116,1.7270977372874294,1.7785057591637616,1.7889364265846348,1.8641711056378745,1.8759371484830807,1.9454338676786789,1.8790868388978283,2.09044244158044,2.126191729294405,2.177273163325945,2.050278716591187,2.2554265635916817,2.319710868707589,2.2451328409040716,2.0990396765140447
2.0214102057966765,2.2547136279731577,2.0000534471014357,1.9086495671395247,2.084790429203637,1.965175644001953,2.039724454256893,1.8209716106639393,1.871647494465502,1.7965787349188058,1.9418490302003828,1.778040109524057,1.9566039182161004,1.8877011981218674,1.8766382166528173,1.75924698364532,1.7264984305395505,1.694324904798106,1.772639183373493,1.730911816964211,1.9212672111391298,1.8583102746743376,1.9409046878180665,1.997699783386482,1.8645029237109807,2.019583680579837,2.249127695312905,2.163709155070393,2.267830033854304,2.3414188632864064,2.093214684493153,2.0553609304321685
2.1879781397928593,2.3000252094636537,2.168509718977981,1.8505795276364594,2.1794117397844373,2.049405804394869,2.0214668553105097,1.9590706798245172,1.901408451053231,2.0782952968096002,1.9213431242974535,1.8635000455448651,1.958686673578524,1.9566047491167748,1.8255207065245909,1.872314531985582,1.8782088749672492,1.7226734397071652,1.740110513049904,1.7633862591934635,1.8274794365127829,1.739612514227501,1.8178275680297225,1.8451198706102498,1.9019756049150982,2.1221407181318264,1.8431424467264002,1.870589975010249,2.0856558757518346,2.0321347797297356,2.110644405231412,2.0343491086904595
2.1668317560290378,2.3712486350520092,2.0846802488168095,2.0186523352387815,1.9490070312813292,2.148194438917428,2.008332865200605,1.9965646104310566,1.9387274714318634,1.9833451855144746,1.8508847766979564,1.865937514294371,1.812008176383752,1.8979527373308782,1.886239761814908,1.7528133044214442,1.800578289039382,1.7012829687208122,1.768556873216574,1.723879424072869,1.9048516770035833,1.8545085362609575,1.955643358102395,2.043917500766044,1.9517732756488413,2.158367299519387,1.8634667832278125,1.8970565424887764,1.9478141116210193,1.9412347529243494,1.9920679738329292,2.0037984435306773
1.815231307344621,2.1706260196390725,1.964040940146371,2.253686688494259,1.8927293230974855,2.025155001862722,1.8603830331958064,1.8945876449291223,1.8162563373802503,1.917017179063045,1.9107071616247837,1.9736961242335025,1.7850364878473781,1.9702592734090032,1.9080169781127039,1.8451737492748737,1.8602001432813953,1.7431887243868975,1.7724998348380647,1.8368422406824456,1.8528145523064448,1.813929656088737,2.089932153096344,2.104461893851866,1.9600121219474425,2.0091211638200113,1.9404666725716986,2.0628517169052305,2.1853426030161245,2.307839418186192,2.0988986368083937,2.0302347948404
2.1296344348324188,1.9856291099005658,2.1116228182340357,2.0661767398917315,2.045633167818077,2.0136709890412883,2.153055962046618,1.739056529698759,1.8239614480453168,2.004596619185412,1.969255940603928,1.8939453593774398,1.836349528862667,1.9454644261326892,1.938145750108286,1.8475589901824276,1.8326501744414159,1.8558048585850737,1.8673813193002327,1.7790132994798444,1.7766557696246643,1.911966684511598,1.9361267691283561,2.0288746892238287,2.0186268943228205,1.907022830834798,1.7946058389556285,1.756935452443462,1.7905875955155892,1.8810235403275106,1.8398186527407658,1.9871849514409041
2.055628334183529,2.2699467181749444,2.1771497618936433,2.251621950525773,1.9082233024029496,1.957946312946567,2.0217763657018333,1.9417226851272948,1.912068601186394,1.9606618672770266,2.0629684896419707,1.9994616726428271,1.8497796232515422,2.0595091896914854,2.0137941566299795,2.0040603396279195,1.949679525746929,1.902417656570255,1.8342255666303626,1.9073956979956852,1.801308428867474,1.9981655793803217,1.8899333011407073,1.8093860648986282,1.7484813520799618,1.8917282512131546,1.9888619541125443,1.8920306443599275,2.0603758688218394,2.1195214250241934,1.8827568914004305,2.0474774285914346
2.003391095121459,2.2170837708025166,2.182260503661191,2.307666178869897,2.033084955119527,1.9799833983533952,2.074007032726655,1.9207149402420898,1.8061529810771688,1.8105198456204246,2.06483306735341,1.957911909661357,1.8031128298718715,1.997453266145793,1.9288785146637646,1.824014010904305,1.7481156235368513,1.8080850334567267,1.8714369755393472,1.8909151004867362,1.956501678662993,1.8098775084985146,1.9638566318544493,2.156004272535442,2.020636020462562,1.891160012691426,1.9024313525685166,2.0363283207524647,2.023617323951894,2.101044929652171,1.9860279269523262,1.860384707735064
1.994121497333717,2.346633004299658,2.2132926627666754,2.271296064454028,2.028474534208179,1.9224255380577668,1.9793396405533243,1.943879269110611,1.7190863187367194,1.9514572945072224,1.9949309914994175,1.925897696195997,1.8095306716841837,1.9332094034509884,1.909236206995161,1.9735399078916913,1.9439028782530532,1.9132886512557332,1.9302236654159337,1.8534488642574327,1.893655224397865,1.8966132792386832,1.957317906128671,2.0876917511281072,1.915556767456232,1.948351543568192,2.018166853880359,2.1056657119031454,2.175249022455636,2.132040160019278,1.8721922920545262,2.023792774240083
2.0074238455340834,2.154439955606312,2.1908953525725323,2.257467126656104,1.875724531849782,1.8471258380647986,1.9290699136953233,1.9265529163269046,1.709169862997141,1.8020660780353828,1.9677508037626656,2.0322835812885205,1.7649699889221069,2.0086546314438665,1.8879174305802264,1.889040569682143,1.7366426809089137,1.8038953554353003,1.7878077297919477,1.7362080547616963,1.8562860844774314,1.9622002456353242,1.9319783563263417,2.161715945529091,1.887648074912072,1.7362348667681646,1.9457967271678547,2.014469022862389,1.8911679230022471,2.148189376061037,1.8251578562885349,1.979227327235658
2.1262809649175103,2.203741993820613,2.1546517922504056,2.076689227891578,2.071565187918703,1.926053250625253,1.9473803329525692,2.0557509171977184,1.9494503013889843,1.7998808693685822,1.8870917063726136,1.8882962893667303,1.8070881088178676,2.000413384393497,1.987076787498445,1.9729550904783069,1.8348185666713928,2.0418131372713657,1.757749402735074,1.7328034243069796,1.96595945805901,1.869196044923724,2.0708574287842283,2.034964304458777,1.9053502362133965,1.9272042768356523,1.8741306721723991,1.9546576076477375,2.09992337595071,2.044470752252136,2.030178849846424,2.2350113648834298
2.0783861556296896,1.9035674233981756,2.1155479457154227,2.3704203709453746,1.9673828325916596,1.8241550477065656,2.1572277604461028,1.8363632290703662,1.8937019541062685,1.8374915978309172,2.070818567327011,2.176980679173065,1.8603917836416775,1.986466844123111,1.9764546603186646,2.030946473256277,2.1339852004507147,2.1109440591896766,2.0054675010765837,1.9736510511443712,2.1314691994523787,1.9316770608542426,1.9119036477327092,2.0274798926097977,2.0715956963782625,1.9993239274608978,2.196003137049448,1.9917524978470427,1.9653992317850997,2.117573493014926,1.8000571289490135,2.271438121412669
1.9008070277444717,1.9532985395429927,2.126501939971813,2.161780075915014,2.124063218984951,1.8843657937884986,1.9044040304738206,1.9423328669724622,1.8354729072239429,2.103100109066992,1.9405583838054141,2.1730107566978782,1.850492619427956,2.096901456841773,1.9927446930701713,1.9363606059895777,1.9604647828593522,1.9168574227709942,1.9069317796517757,1.8046489761576014,1.750099251961353,1.9185989255136604,1.773940311032569,1.8094279418315822,1.8976339945129739,1.8733143841082207,1.7879969958308795,1.7815669358998767,1.9464513333318825,2.0025610267526064,1.7609112868395753,2.21621618382486
2.077837276055503,2.190908381776278,2.049366171925763,2.1597135657754762,1.8346406539554623,1.905164984647788,2.0160180322325782,1.9460078632357611,1.8447877975465086,2.079994433296384,2.153007149504937,2.0220733890940727,1.7709918899807628,2.1149048998095874,1.968699963834345,2.197619668449512,2.263299685667674,2.09487130096085,2.0053269042201456,1.8986510182737577,1.8595178413877802,2.1716269735344906,1.9143769006929947,1.9539492564697722,1.9772768726104815,1.8772383061852678,2.059293117403298,1.9702465316038416,2.0905623555062127,2.116200736811866,1.8851482700264215,2.128159977353964
2.0394620993698416,1.940330146816907,1.9385965031075691,1.9511690601073084,1.8910372129629343,1.7604036150605389,1.9818928396458348,1.9842930207036358,1.8851324917311445,2.0874618407785706,1.965651426622539,2.129946280853202,1.851121698304539,2.167032684227547,1.9921579317936247,2.2267839623744057,2.1120023942448456,2.032949649234319,1.9897328110613604,2.1442621881482906,2.081635604135557,2.007681238495635,2.213896481924741,2.0847285785601675,2.071251156550783,2.1153423919441225,2.0519675696915622,2.0621666913711167,2.238338079803605,2.0371333402421037,1.9661785308969988,2.238049035383468
2.1024689527465084,1.9730393789043168,1.894304692751223,1.8837501076114809,1.9700453767655337,1.7823169310473557,1.9179639333911491,2.109623968258218,1.9014867400815414,2.0157114021074114,1.8391425331384317,2.0563920028359925,1.8762096991487436,2.062786753274187,2.006340563838667,2.1430209139716427,2.03084152772391,1.961115970450838,2.0313730746980934,2.0486022059287414,1.9638432884894692,2.066885633311774,2.0397472988565672,1.977672488209904,1.9027598978222742,2.0260015308813752,2.0144204570386344,2.085398921981876,2.181007131238404,2.191886850543649,2.168775421009284,2.1931270771893487
1.8381291413375118,2.0616923082929315,2.193151122363887,1.9026910214144728,2.0317169433763618,1.8080504858450148,1.8807212131754267,1.9655758181445302,1.8404823348522328,1.8873776415979375,1.911032570309705,1.9713105181353185,2.130320575167181,2.034909240585145,1.8521638214494243,1.9962099490607128,1.9647945342598208,1.8301305169838245,1.9060080661339873,1.9717844258285029,1.8976754918909442,1.9926072546682996,2.0613465397142416,1.7906545375148253,1.9743984791601712,2.001739616602707,1.8180646081318026,1.7852493353568235,1.974670181066019,1.9072629887488013,2.0102605854409683,2.277721437752034
1.98130008149377,2.054448418432531,2.129026958164359,2.1464442899593323,1.860265195824615,1.9394000132284683,1.7978893050460336,2.053136795071887,1.6534589370167554,1.9920468581549573,1.9495004725356586,1.992148957027876,1.9469683257718535,2.022129675390874,1.9628961628604378,2.1069309269356253,2.0398463142784995,1.9957482078614313,1.9166130170234528,2.0831649330423283,1.7917402361390666,1.97140407910091,1.821271832415096,1.9652977772319844,2.0177062134856243,2.1058307544745536,1.947647790328429,1.7882008399051108,2.066521570519879,1.9580835817023365,1.928054362457609,2.221591378956812
1.855623816560971,2.0963527440680254,2.19172954892568,2.0569469693910887,1.8394921829523032,1.9567698303342307,1.8527321759143636,1.8510048881146481,1.8032445777529225,2.13526384155471,1.9092689556320708,1.825912296051035,2.0309400559662443,1.8721098027095018,2.013787351838618,1.9696033350841202,1.962191571298849,1.9570115803701673,2.010702418136026,2.1070452917449343,1.8417074181849828,2.011417428931615,1.8570063828734316,2.139409248348504,2.142741214091543,2.065529139688284,2.1847227702782854,2.0062811026669234,2.237621593839511,2.058391429331418,2.047217306531367,2.06903335713807
1.977803469656749,2.064270969058932,2.099678970407467,2.1489435873637976,1.859963530310629,1.9708694798766215,1.9195727955464934,1.9551274735195998,1.7877855686631023,2.011099083199655,1.9045875325407804,1.8931834922143749,1.9643035953661945,1.9451377866537685,2.127348044325308,2.0589719979420815,2.0517352465232364,2.121220585776444,1.9391545790707025,1.9829432139152474,2.0309667617891756,2.062477599433646,1.869700711026812,2.0674704327693854,2.064283865084115,2.156920659916597,1.9975947534186203,1.921235843463484,2.2174737038568813,2.233298464240904,1.9199315640334695,2.1924834424775432
2.024890742345171,1.9841456871891596,2.141508405673642,2.1050481111251527,1.789561766913277,2.039142251710172,1.9490168289591336,2.025567597610248,1.9329140481162985,1.8044309059686687,2.0060613652664854,1.9258522593435163,1.7950825571736788,2.114580617400069,2.1010753699078233,2.122322538163224,1.9852186574636805,1.9458685909092654,1.7965740777512214,1.7799497809919327,1.8216102954839444,1.8276811671832494,1.8255391812913984,1.8659789817923336,1.9500268887249586,2.0273519385709036,2.1329258263220487,2.016575932433333,2.313499096747793,2.1377932857498916,1.937830178553799,1.9290334734617156
2.0133813115938266,2.0637215652138647,1.8908359023217705,2.058415051866514,2.005172930170104,1.9583628917960163,1.9749055334524095,1.824179897749897,1.7784755802460792,1.8979676775665792,1.8401512871700718,1.7399612945353702,2.0010151923106325,1.8030419511787392,1.8911086480824566,1.788925349456893,1.782654496496595,1.913176652011739,1.9226707687611921,1.9727819988930977,1.837618957363036,2.059113014059583,1.8998780965211235,2.039531864589239,1.965029992432746,1.8485864597784945,2.221071142860954,2.0494529427067225,2.3198230982172405,2.1896736572072,1.9168921331387119,2.021149550513669
1.6722817401359191,2.3325156367769497,1.9097691251711901,1.9925634760648285,2.097474503704566,1.7032953927308427,1.6911173076923158,1.974482027490841,2.1500617834800084,1.894607981904915,1.9475706951012888,1.8892587037788562,1.9525781336951913,2.0020706340063166,1.889347865995258,1.862355779716724,1.8528218254948854,1.932303336295851,1.8858862993112422,1.8921778803814815,1.9937245045867276,1.8538794850484066,1.9207894720346523,2.1293815755227423,1.9228141140427764,1.9354612154267585,2.1357220161956048,1.9420905071338095,2.2771892467168047,2.1539720935001885,2.090950887667684,1.8411187129510658
1.717744842287782,1.9273908011819318,1.9788605213585138,1.959517590846914,1.957349859924446,1.837234024651844,1.8597512131778533,1.7486332575100068,1.758883917299674,2.237789005847883,1.9768183373989408,1.6812921225684265,1.6588241860022939,1.6703074999888998,2.1386039092503015,1.9309545911604813,2.0116748056450158,1.994807863024122,1.902949817665004,1.8196365019473644,1.9082653303138721,1.9552074999603846,1.8627811841462556,1.8413490243266482,1.7724381064439447,2.0538239833558833,2.18703501827796,1.7086146772442707,1.9924314720186926,1.9385613419380965,1.9869833482911574,2.0546635201607697
1.9631745917544563,2.241080265902493,1.8878215825099338,1.9188479969662786,1.9736760531817144,1.9385391151483704,1.8583797612517037,1.9120249268907659,1.8652966839222271,2.0568726484515736,1.852473066340729,1.7808367364205715,1.7282111286909658,1.7489618742834785,2.1920745543258713,1.95703720765844,1.8923891725033468,1.8889439687792307,1.7923330644659938,1.991884093754166,1.9655634355397276,1.7829256236314395,1.71530305741182,2.016963692517896,1.8875837118988212,1.8366254875874688,2.3022259482265355,1.851949186048785,2.1985121277219557,2.3593013265433354,1.935175331042211,1.9605860719288877
1.92592976951367,1.9352055239419852,2.0920992258024858,2.175363582130978,1.994691934170357,1.9549344610260408,2.086351729385736,1.9408550456407268,1.9455307825615897,2.1039735119172946,2.023472811099633,1.758351534044263,1.8199741867602612,1.7692528405604924,2.161623294197243,1.817788953614391,1.7550327536744845,1.789418121739033,1.7041587668684413,1.8992779681864949,1.9365230086861882,1.7509257633431503,1.6931467496835995,2.136499179162901,1.946175557368353,1.903117137477433,2.118160201373777,1.9067965907092888,2.142749032907962,2.0707000463929015,2.0676910141515354,1.8103297658736104
1.8097852906359466,2.0623885309812255,1.7916724138915403,1.8626830638619962,1.7920502561600358,1.8209429652325397,1.9129998616882014,2.0327125151292336,1.8084545087429138,2.1486216194636802,2.1643822737528136,1.8972053754175222,1.9980409758832596,2.0879219908722146,1.9347148225895014,1.908236654328296,1.7790801185308456,1.876593029839415,1.7949123049937343,1.9794772213288951,1.8203016981785012,1.8828392576353425,1.6604283950881316,1.9005665001551204,1.8702127717675314,1.7915008572502285,2.1318513160897843,1.867380973217992,2.1525053047024527,2.1242817495375403,1.7999252799068286,1.8333143124269364
2.0113564866807585,2.129505154739514,2.0936386462756356,2.211672941526018,1.932795562227169,2.0262530279188744,1.9335876483358327,2.002208134334236,1.7969301529753383,2.139970222548594,2.0355740597950427,1.906964022291814,1.892987901392778,1.9825931400060215,2.082094066002177,1.7372533692790548,1.7351338855066227,1.7487865511282534,1.7844610804887164,1.8562182361922337,1.9512686594095279,1.980766376568987,2.021786949724159,2.0985039173080065,2.073462526960221,2.0988407845713426,2.1369732023303745,2.012663706377468,2.3023515040305056,2.109852894391536,2.1266258531624955,1.7245437819469323
2.0773297962571173,2.0105380816425815,2.1012389370030813,2.133653778231909,2.049407067156745,2.0565790022902246,1.8631038804711424,1.9744954581750047,1.9100451418065993,1.811504850303919,1.752170019711069,1.8498893833013692,1.8757075974429624,1.8640953039772976,2.0343649617874546,1.8206838545946988,1.7623971410364108,1.7314191958828455,1.6358983480043008,1.7444899747977687,1.731000212108469,1.779543258991105,1.7977684220951917,1.9534930774316526,1.8944778070795218,1.9214862476176748,2.369672964798537,1.8837613277580054,2.427942359459834,2.330204736086398,2.1161886161992234,1.9060266853123178
2.1557501421462155,2.1395935922278557,2.0759365697225647,2.0206019298500997,1.8994895353672483,2.0549606505421227,1.9112834128324487,1.8701089128907056,1.8199600965888547,1.77738987458904,1.746898900098239,1.8900169363840913,1.8948240555078064,1.958921717096692,1.9841488674893124,2.0064183260337143,1.818385137228262,1.6926757539908204,1.5654958027779673,1.6639223257503146,1.6490121579278865,1.6484047440433471,1.7053264842246478,1.8092549467681012,1.881122603312859,1.833222238340622,2.1136468432364013,2.0190044674474588,2.2967143921092665,2.3072904335535553,2.0931867552520815,1.768232187723246
2.0192936044995373,2.228207680696589,2.0842790814083982,2.0824023402022336,2.1441010339360025,2.032419888451217,1.757184081392657,1.9182917876411416,1.8408140340694628,1.8607686588350523,1.8801177278011618,2.065022062720238,1.9415648789185833,1.98178362388215,2.100360849440664,2.0480186302919394,1.9284004208552696,1.776871246889557,1.6379875509622017,1.7253168271558597,1.804245042233255,1.8042004235950098,1.8160826465011974,1.9376070966693295,1.8685212173690582,1.9835842869795026,2.0275280542864706,1.8823822391967344,2.241889355787184,2.388346857407142,1.9585686939750375,1.84757609762013
2.0250546852010913,2.320491530161846,2.008829061134773,2.0562148250757715,2.090887644824675,2.087413457771432,1.8202332487020296,1.80845791628985,1.918536566815854,1.6998081281598463,1.6935574962498938,1.8231275351627747,2.056461418966632,1.7079538798265688,1.6787632783333757,1.7661203782556476,1.8178406692957019,1.860063284660288,1.7380886013303682,1.828247714323727,1.8068264052713576,1.9242280237855671,1.6982595796440776,1.798572813235184,1.7399599550616969,1.6673875224276653,2.1162535527055737,1.9622632854222648,2.225397972625653,2.1572801598677205,1.9590408360230505,1.8215747837360678
2.0107606039941013,2.1064921550402005,1.9301365979100293,2.007093038952601,2.0144662773113433,2.1365512950035424,1.9347218123420082,1.7186167559257324,1.9610859162158873,1.7507841064574912,1.7590932059120388,1.826348335241081,1.9824760874894907,1.7186120117072,1.8116386272310998,1.7962031945864554,1.8380765896633382,1.8269314258701081,1.8091717902157896,1.8289949716460667,1.8161621773644423,1.7909617579701473,1.6715028171435236,1.831866629366645,1.8815479150616448,1.7366518948154743,2.0671333315661875,1.8587044397933215,2.17101085008176,2.2366285363078924,2.0772756251835998,1.858121341424078
2.0251897844934224,2.243015515098914,2.1978240720520956,2.2258706237239654,1.9343042649183637,1.8764050349919146,1.8768399843464099,1.912604951122236,1.9858634454093624,1.7363792893672685,1.7232255380729127,1.7407658308555183,2.076417153217647,1.6506730803517375,1.678676507855244,1.7437604477554884,1.762536273745219,1.7422870248786548,1.7192780293233183,1.6984534527010362,1.7042267733734346,1.8006640402794234,1.6788804356563136,1.675717662504482,1.7925621015691278,1.7833691656714743,1.9498519115389892,1.817457471617614,2.1332151915295325,2.2858332156141365,2.0995145373703887,1.847020630670887
2.069751489310311,2.150338326747429,2.075614305046052,1.8636099524240175,2.065584732180329,1.9598055721224208,1.9500770595147934,1.8211662807376399,1.6684003371672884,1.7943719222484282,1.8389022584652253,1.7114027686739244,1.8907141781719825,1.670081210371835,1.7649529822914154,1.7792350480015198,1.8085461817244477,1.7902853139419879,1.7987730639573782,1.8301749767065287,1.768822706823416,1.8478709082814435,1.7175809202613452,1.6981254812949376,1.7743545155647837,1.8609253684641371,2.0748435024346383,1.7342640305005284,2.2664062982852573,2.0161256799097247,2.120822834474718,1.782182499346565
2.0764600468915817,2.1243127963105457,2.076169421385769,2.2502818261603035,1.935448570972441,2.04456992265076,1.8385620484812026,1.8005585560756028,1.915425614038104,1.8617692898206781,1.8388949848101621,1.9550618061071026,2.0794066674758236,1.7962374464243196,1.8933436551708938,1.8162307948124372,1.8839522761088683,1.968336522372594,1.930591143415394,1.8739641374833855,1.914961483614144,1.965273886719427,1.8774768993866573,1.7769502973934483,1.9934907491768195,1.9525149152593877,2.110602518009831,1.8859910447946495,1.918452056916026,2.2160985399340234,2.1182291650860168,1.835973606647381
2.0883282881828213,2.2173738826422404,1.860182785352145,1.9470877723532152,2.097858450508267,1.6906829719503522,1.7776455871978332,1.7980405141930058,1.9019102297466544,1.8027268136190455,1.7096320844122515,1.8261495007373822,1.8999342005941655,1.6847462777013182,1.789329812981892,1.7518734060023036,1.8288208714269925,1.9412005325935153,1.9369111804284238,1.7857311100844913,1.9046075438297216,1.8233776199677307,1.9233751811374307,1.836826616239242,1.8700605741926766,1.9924563909137012,1.9946144026615045,1.8754610842772872,2.1292153893532073,2.2561574206872876,2.114754790936823,1.8163485207400267
1.9833933773236554,2.0234963418427245,1.939010664281051,1.9871301723902073,2.00187596279681,1.9178631557459929,1.8146678075760838,1.8642042825768144,1.8561837888774624,1.783079983873338,1.7470924202500158,1.9094545229984883,1.9046906642820671,1.7648405437851,1.8114953187489673,1.915493255345709,1.97819023353443,1.9407605754592532,1.8009987269352428,1.9430553437457359,1.791460153670176,1.8942387073228943,1.9585468614337433,1.8154458539854865,1.9361201909194714,2.003933223440827,2.0701156084912955,1.7146360567201908,2.125994950544112,2.078923654369325,2.0779801877232873,2.059077959843044
1.8762536432800907,2.17313438520823,1.723136342447205,2.001782568396687,1.7980962632146757,1.6472815233214817,1.6852269495351488,1.6841327486390845,1.7876391632202406,1.603636368370588,1.5684561736825573,1.6055736943767052,1.8866856130174228,1.563367643415225,1.6228557678851305,1.675656450952982,1.7368850057879286,1.7933066217239915,1.899578286573562,1.7318360932283718,1.7552081632115895,1.9893857562263577,1.8582827136476228,1.760677026036114,1.7790183066577006,2.0859120376961227,2.103501111408237,1.6724816288181819,1.9863407141974123,2.180975472533068,1.9032528863358729,1.937256778707901
1.9855202247064292,2.234034965493644,1.9013654099340702,2.133995770843831,1.9605322104455425,1.7086325950539396,1.7375154702987416,1.708083683089237,1.7336564210453949,1.8042688220809602,1.6302075516021433,1.7620942285990961,1.863101116434267,1.7169953527480426,1.7933569336691286,1.8971974649914205,1.7947227840508697,1.7940711044954354,1.7364782268014654,1.70860911977495,1.6311774594514137,1.7924062981898137,1.741672441996111,1.7022231668573327,1.6986917916266606,1.723708162787656,1.920685249805958,1.7206440783142467,2.1007726892844603,2.288191071829944,1.7974239213122234,1.7448162046001239
1.8344192173867355,2.084242287468886,2.0313588212122515,2.153698330906755,2.0178799962916676,1.8748392020559657,1.854833934932224,2.023695890709633,1.9977298061684687,1.8321508567865692,1.7297939239641194,1.815726284522132,1.9587261971383676,1.7241301309867842,1.7876092182247016,1.8977638465927598,1.854626679228872,1.8682697881385701,1.801564407104823,1.7050041130828273,1.7752681553494016,1.8792989157687658,1.7994366745541515,1.6785883967337145,1.6150712058187657,1.8308399704016407,2.1011980588375394,1.6387082807584816,1.8783195613732024,1.9430800874084988,2.042830673307461,2.090664728040646
1.7812513177229423,2.025483646486285,2.0343685973230565,1.956782883006544,1.9682206929653736,1.8797248964608009,1.7644619646612036,1.7541188594825088,2.0046702556955083,1.820984248032795,1.7738053962383766,1.8351806217628137,1.972222581742224,1.8683057739300903,1.8763933185733976,1.9542457253217467,1.7580555753411728,1.7916074069476773,1.691695564481823,1.6220326707863943,1.6786423112702278,1.7897353972708296,1.7658502569936882,1.6350128832613766,1.6099753789059716,1.7505110485239013,1.8090120972292616,1.590708503108625,1.934501293453978,1.962120065838661,1.891485448748001,1.873388064621781
1.896647770719008,1.8458828894408421,1.818488501450522,1.841560732881101,1.7964572127878315,1.712002051914429,1.7124517630590212,1.8685535703223484,1.831009561283319,1.7634600163667182,1.6945578387629299,1.719269772261431,1.9544000188336383,1.7603059968400683,1.7579645147170528,1.7932359466942749,1.875702154521176,1.9092004052823728,1.9438319232129484,1.9377137583471848,2.1329871487286884,2.003762672856737,2.223750479738365,1.9805092286125223,1.885623262638134,1.8494417389919624,2.1317936716750836,1.8968288934124466,2.0599305535077654,2.2752901874807576,1.9485960335117904,2.1135142000786242
2.111821707302238,2.072227782013228,1.9329269353931977,2.1773346230649016,2.1131813603255196,1.7998010300922973,1.8147942151921066,1.8075343617340565,1.8307618549493792,1.8833655528373956,1.7514978483537,1.702083082838302,1.9945182477141286,1.7894193635711482,1.760375346809756,1.7274652443998377,1.759034598592164,1.7478401822824063,1.8391181016953542,1.8471952429213248,1.982092726892708,2.0074072352828902,2.0645659316681537,1.923358231456285,1.9816697843617437,2.117718980981996,2.181232339615369,1.99643806344213,2.2479157070007676,2.1463396866805944,1.972335122536355,1.9181237339848463
1.9845688814883766,2.2411008160153347,1.7918641849788384,2.0242579096108253,1.8373690234696824,1.7261182289380241,1.7440058264287992,2.0784933620998958,1.7121256466183714,1.7997509391546584,1.753425946285965,1.6706753395014737,1.7983822157544578,1.7200004808581988,1.6669553880343586,1.7080774676350061,1.7685029677174058,1.7533400052215293,1.770287772023608,1.8070463120286022,1.85863748317209,1.8127367290413068,1.9300904194798916,1.9846493605961646,1.9608294576764056,2.0761878861628924,2.020450297179442,1.9562582229383247,2.1746442888423725,2.1835070766323947,2.0850941604482194,1.9707935167653041
1.8125203518266948,1.8573990896595785,1.7091475989931602,1.928359394978967,1.6183273839127652,1.6253617988627524,1.7166627506191203,1.9530432845070418,1.7259849927233446,1.7622996257241295,1.6860928392498764,1.5984699488608438,2.0263010463490794,1.608097974430268,1.7227064606752405,1.6618653684972884,1.693552136332426,1.7334703681536707,1.7547188737406574,1.6134229921086383,1.7626343282355914,1.862800806927865,1.8238012551379748,1.7196640980432114,1.6698990244264438,2.0413002339524433,1.9533885303147753,1.6248463304848848,1.8398899824467634,2.133537029647599,1.8535593215929278,1.9785308555407926
1.773415747299912,1.9398274294621276,1.6463481217039733,1.7334616790551913,1.6471669668704747,1.5627395676575322,1.6177022473319236,1.6985921512746718,1.7182143156906822,1.6893426617691554,1.8931999069207053,1.6941083578389644,1.7983687976765548,1.7405926745231821,1.8997360651644,1.7640202073167621,1.748202606141584,1.738602108958868,1.7482090222539002,1.6631592636399248,1.7206416917427263,1.6770276594374196,1.7773944505167103,1.7665205634162569,1.6469930606379861,1.9031181860411466,2.002705731560435,1.6917092371115674,1.9807041560905592,2.286849188553259,1.9764631485000315,1.8623861613444086
1.948144953354749,2.2078579124152347,2.019665125082671,1.8332221016953347,1.6520274773745116,1.8943929558865071,1.7686199773691,2.163676263472438,1.7455233186651857,1.7582689687293962,1.8802210371130208,1.667697844129986,2.000540235323726,1.7470833022894343,1.8700997401905435,1.9548707745356004,2.0318912390293504,2.0508995937994086,2.0588996713077736,1.8884156216964314,2.073490322055628,1.999091507999352,2.039970428524884,1.9900778267566726,1.8734824266662262,2.1110520657254397,1.7867152774526827,1.8463174305425036,2.004775332322772,2.1192473694609784,2.0995020465820753,2.101957513890107
1.9222809437790807,2.14787155282564,2.113224902334138,1.9416335367478448,1.7471448893166153,2.166395145643499,1.873316786434579,2.057221798448205,1.8471337891897055,1.9780105543619715,1.9225278272959616,1.6596473546382309,1.8350146325497019,1.7053606790677505,1.7991612415114682,1.834350453447357,1.8344404572379776,2.0077013478962016,1.9166510007754458,1.8471071490884219,1.8896218193402377,1.8697042215287254,1.853789785602486,1.8247486033997404,1.7174805840008835,1.931564713660239,2.140673970341248,1.8084590039744972,2.0503917311405937,1.9696289769214481,1.9406441897845554,2.0584860777537295
1.8200252529522774,1.971834807259908,2.276409280806788,2.001850599115791,1.8692445890227785,2.0361087654421355,2.1345993341688456,2.087639431843561,1.861533536165929,1.8277563887627253,1.9241755452123959,1.7160365346029556,1.968290820140825,1.7158245083952008,1.8111761851010015,1.842656179787986,1.922912765571193,2.0948350199985364,1.8002935116236094,1.738939373950993,1.8084506837452072,1.806168544501845,1.809901071444533,1.7685563102112998,1.641972347215133,1.899758696616019,1.962896891315728,1.6456067828845053,1.964066389110472,2.2248112903067736,1.8978364831656247,2.001942169323124
1.8817297239180228,2.2288944941735434,2.090449998014374,2.0214902537025012,1.7750902429701323,2.0930787374349,2.238906593459394,1.9085052188852591,1.747516295662019,1.8432339083896103,1.874519940868219,1.6952775427771958,2.0022074534625482,1.6996972586716508,1.881520251699496,1.7999032555848198,1.9829481793883805,2.1196519381322587,1.9309894800233631,1.7446650785828177,1.8911960604911173,1.8845812014572414,1.9410129708989463,1.7284063449648746,1.6859119638769973,2.114207863369359,2.1224533700703336,1.7109667889107874,2.0964530439678755,2.1914652795118466,1.9497836968224074,1.9052644238113476
1.923637034282286,2.1142648520430685,2.132349682258065,1.8796605613394102,1.613741992549707,1.935045740603941,1.9840203565281735,2.058549051449748,1.771274766969794,1.907245405808575,1.906055640220401,1.6872004977140882,2.045846724384876,1.7867591080823413,1.815331062748428,1.938475758074416,1.991616718911632,2.1017021504586433,1.9098974031190155,1.79548890265739,2.0286783143331513,1.9739591852667542,1.9759239517358858,1.863866587022183,1.7287048471560162,2.164377726567741,2.17305155132066,1.7899992593143095,2.1639921835640124,2.1482143219466248,2.092970112480053,2.1076318854987783
1.847489440780962,2.0961135761013985,2.270429138904884,2.022026835173865,1.8397093733225227,2.079006342095319,2.214129451854971,2.021351362740582,1.8985580498546473,1.9923229090293957,1.7258676094689276,1.7394663009110376,1.9592360378391145,1.7756595936301736,1.8720082573691388,1.8654968941305186,1.895540283397758,2.0082787207706074,1.7770025274860823,1.6215271427972158,1.861268316485594,1.816290542277534,1.7173997435189816,1.7004760804801766,1.6242556600900868,1.7888869375710983,1.9612266094120314,1.6572508228471876,1.8363032845270328,2.345429295501432,1.73201156144585,1.8205122321064438
1.7381359041659958,1.9423696423601922,2.0405930809580184,1.8988936243837817,1.8927891969304493,1.8631167565881974,2.0850524406096005,1.7161558886626105,1.7441857502165126,2.0440986994662897,1.7323830769706414,1.7403402119891274,1.8524540832704701,1.7191566478606202,1.7421001081163003,1.873636047627927,1.8743101598619631,1.8997346267382762,1.6838732135504455,1.5999147098211464,1.6978275375515035,1.716529177006727,1.6634349243126,1.668154259205826,1.5839160778042298,1.7691551644212433,1.8063255628823323,1.5477684112572119,1.8721931591633791,1.9586945252173584,1.7150780677945228,1.7897464128040088
1.730926914545853,1.9293799019467386,1.9228894676078263,1.912077985981834,1.8739547677057253,1.9340714559920353,1.8270126960891393,1.9896525595899945,1.8818969358916176,1.7573674056200428,1.6675287166209456,1.7335633225993567,1.9390248179866536,1.6340387333351147,1.7077146641301713,1.8239160716788314,1.903245724873937,1.8901741752289065,1.7419608777878874,1.792223188484191,1.813094389388369,2.0093388756856134,1.7811655000634163,1.7315166589502395,1.5777295580510153,1.8719457976585352,1.9565548635400665,1.6077554880556422,1.9131700987732623,2.253923890628747,1.8716984035557278,1.965425888371793
1.9960908126331043,1.8943897001898058,2.1871503528880125,1.988185049988022,1.787305705067019,2.130443092293813,2.049181433147679,2.0250424415678303,1.633011103367255,1.8749778150995557,1.9009809137038856,1.690480497428381,1.8642110149045754,1.7995172403905508,1.8883262192532302,1.8074370467053946,1.7565092471712394,1.6929312108488315,1.6549725411395588,2.037894483503739,1.8777554748958063,1.9858407407107783,1.9846157905301087,2.0741174546685417,1.8020578529966842,1.9126767260993363,2.151075733911094,1.721043029089729,2.1543406620312737,2.3545669808870184,1.8215362377111506,2.1591366209888543
2.0437364230807282,1.9565215360824961,2.2369508096788118,2.13783884069312,1.914561105102716,2.088201619589923,1.966846324862459,2.0292111855617114,1.7896911557423567,2.0556060029118197,1.8495146052916336,1.8423492736214588,1.9094210793645228,1.9596569953235357,1.8978900947019508,1.7850747079656135,1.7556085974087594,1.7933425695960297,1.6651966402405354,2.0379117968045644,1.9755735405962025,2.049789935182669,2.140604193890468,2.0550453443028345,1.8725274780933603,1.877577699633017,2.049472840906715,1.7026230720033246,2.126656809958574,2.3840410620515162,1.8159788178955703,2.28863257072357
2.1196135827372555,2.1518245579498783,2.443366452837831,1.9856491256595281,1.881066015086121,2.119205964013224,2.12789152467042,2.1518838901842767,1.8734447936269862,2.105623360509918,2.028208427293286,1.9644364358385398,2.0391458510000517,1.9940079998798257,2.097511897908981,1.8983029358354313,1.889425040606287,1.8351981997685387,1.801152870568527,2.12596296459354,1.9539668677160265,2.0536007911854166,1.945798927921149,1.8955649208735574,1.7573986963589219,1.9547867662297647,2.1031489654005404,1.7318947533179827,2.204210686710592,2.2807778483093877,1.9211712779568195,2.2619084683820474
2.1395303855629018,2.3252875594869886,2.3585056377300506,2.1509942616282522,1.9922864995813212,2.020808597827481,2.222326562944928,2.09289018337585,1.9825588629684285,2.0470597922244513,1.9720422174418142,2.0853520389309708,1.9733702175255547,2.105078504785884,1.9286830156476502,2.06505062634959,2.0250822923797926,1.9252754454632681,1.7742889808316875,2.1164006936083246,1.9441814365333125,1.971613754846512,2.1373649901904894,2.098338122721461,1.8116216373267673,1.8963125575085704,1.974967697156624,1.9191321193319009,1.9482526946179815,2.4869600057181214,1.9433737074963922,2.326670520082332
2.088178366225578,2.3006751433697312,2.414696343414784,1.9831809245235519,1.9997259352687091,2.122752481861962,2.23989369453219,2.0283408128408853,1.8225817636325428,2.1527275222795805,1.9562356881037632,1.9743613683613896,1.957876191616589,2.0219773701679293,2.052937786208589,1.812929194683106,1.8198840185955432,1.7983165799575775,1.6638005205909836,2.079565666720146,1.8308034524705825,1.9554809597236582,2.0228008868603005,1.9576108061796391,1.7020498586636208,1.9486596080195842,2.0433488852948645,1.9002958346767762,2.096754598372686,2.4130700767861883,1.9259634485895814,2.3091754754193197
2.1159073239879764,2.0504751981474616,2.205480918087812,1.93119034384937,1.9391734494633577,1.9031061348780671,2.012607775282712,1.9742219987858782,1.8029308194026765,2.091526512326153,1.9929103357896003,1.916677100925423,1.8201141656100914,1.9236209363175667,2.161993791535116,1.8274761959164065,1.8636655452958688,1.8838628460644247,1.683412447499322,2.0681667412877394,1.751341107125205,1.9095446703629337,1.945300132107967,1.8747278229401783,1.7209664578237107,1.8970725097959877,2.0300548165220427,1.840011156060492,2.037116242716937,2.353699253854678,2.0042566037211493,2.1920276388501234
2.1147028148066225,2.30229526392179,2.427378018834532,1.932663296109122,1.7855585277514425,1.929239851000273,2.021876358290123,2.0667131645162296,1.8943349893337147,2.171892328895512,1.9265093364146362,1.9120202421267598,1.8294824768081872,1.9133098152978358,2.0587485130525454,1.8351784336528645,1.8349882623929992,1.8503336642189643,1.7529036174495514,2.1536444553710465,1.9886478924334576,2.0741904006981886,2.0376577702937726,2.1368508879404344,1.819135727980916,1.9839172384651163,2.0810567982518613,1.880433606446514,2.047265676593327,2.472893081017517,1.86225396541664,2.0415620051687418
2.0518266162526846,1.9803449954682273,2.005999603219279,2.194978637226419,1.8942426924997773,1.804758811493951,1.9242445181360621,1.7197799954948898,1.7840517653340635,2.0810740973478903,1.8217625428172208,1.8035031750510482,2.0504840645835314,1.892248630641368,2.121114038122908,1.8294140876628997,1.7584047978534987,1.8005383835950433,1.7214830678475517,1.822002122692492,1.8296585544526318,2.1264485189668045,2.0128246786139665,1.874950171758609,1.6751693723876357,1.9263645124619753,1.9560870501285672,1.7392808735284417,1.976952357310185,2.1657377447005426,1.9350466098302386,1.8524591081859607
1.9040234038586519,2.2788580186224676,2.2191337965627493,2.215075521695473,1.83229810642752,2.1481533467537113,2.1859974935731716,1.854161942812397,1.8353216379006017,2.0091350570925433,1.8855654134095923,1.8006066008037032,1.990293674910883,1.895290928447699,1.9114904294410995,2.0498151665621287,1.9621766134550394,1.908691459155459,1.8641143313656319,2.0136880152931664,1.9894470453623236,2.002080525665452,2.0543512492342666,1.950661675918546,1.922383850306276,1.9411377932004263,2.0965924411317074,1.741661418261891,2.0783995423743145,2.3941190947275395,1.919777820051649,1.8071897636134708
1.9276190056956342,2.107183520270824,2.2475075071923336,2.0905377280945143,1.919943290646709,2.136739067804668,2.213238323334937,1.9024260329593397,1.8950705690324607,2.0701070835736375,2.0551520234148146,2.1174533818125787,2.2877047739545007,2.01830281798809,2.1266914922498468,2.1712893918634646,1.981817791192562,1.9594263712604423,1.8846460713268904,2.1053002793647333,1.8860480589078321,2.1689970330522743,2.177278405228283,1.8997088002977385,1.793265187482273,1.8257780623608995,2.107747167170353,1.8217481457495697,2.095977360138897,2.1630701472282787,1.8490463527151948,1.9601617694669407
1.771285327760002,1.9198819111325744,2.145722339429462,1.836551875462651,1.6007441370624758,1.8127956512792827,2.0052119565385342,1.7639452851902508,1.8493613233718247,1.9547729437011,1.8100990564200803,1.7230181259124477,2.114883864521228,1.827162167703309,1.8977284513084027,2.276968465133325,2.205536120341218,2.0855121763525797,1.8786444947245937,2.0871015711037417,1.669760570209115,2.147233776224491,1.7741663655528483,1.8069122474595194,1.621647648382545,1.5993034046696117,1.7280416319493286,1.6206560023320145,1.747646773991203,2.107212915203173,1.5643665053726088,1.8393058480762807
1.9775312580444269,2.1523504874747243,2.1170446362534805,1.9503866446143263,1.8558502384386615,1.7882799716164273,1.8705896573893386,2.0065768083407667,1.9725965992062404,2.059075942936271,1.8074787968321686,2.1814508550622738,2.2489931449889355,2.0058219420466705,2.1452856257220003,2.066307631553799,1.9366908807567116,2.0172855877625713,2.0988802333752057,1.8348500610629164,1.7542632779545502,1.979227268685354,2.1752762338968075,2.155976832916821,2.0051863742883103,1.9775622032602362,2.244555192461446,2.1582199731808793,2.150339150485842,2.4225774136948464,1.9846444357194162,2.048748810073071
2.268095755555935,1.897150964636076,2.378362052488702,2.2387928965816233,1.7483627137913118,2.161976392555103,2.164277085689326,1.788282026927652,1.9914650451144789,2.145199713768113,1.9493724033813964,2.122102245042506,2.3449838320339498,2.0219325105177477,2.1412360072372993,2.3365885165101226,2.2093292971102803,2.1439697071490844,2.2353936672586303,2.237955153524717,2.096095157548342,2.1501571954213428,2.0408515008366557,2.0449443056029213,1.9265607076690787,1.9516969947915033,2.1769924775761575,1.848820960988089,2.1707791169265778,2.460654173383432,1.8778853391130503,2.2300526140316417
2.2860334778729405,2.0239773544594906,2.063709752842501,2.0067112053072065,2.004365200866105,1.8433698398513354,2.3543990070491048,1.8552660724937593,1.943056017509429,2.152620627576291,1.977950780267571,2.2751353351475405,2.4382734340200374,2.1132371896142303,2.2339694855034,2.2612349973780814,2.3411029623590087,2.282313096602686,2.1686564442360123,2.315427929274423,2.01848637392465,2.1400673130335908,2.1066234430423205,2.0791211088069317,2.0002907614380563,2.103250063137508,2.2405992850099947,2.0778038965509245,2.2718459633766073,2.426875823492823,2.1601277836200015,2.1224377772261405
2.030847320630446,2.2212429181724453,2.1493615105629633,1.9296942865011355,2.10193982513484,1.853578541594943,1.9557060896371923,2.0394166084992604,2.0785088687605833,2.2677474042696337,2.085641043012069,2.2192686161005577,1.8713997655730896,2.0606976624079882,2.0563258299155684,2.4226197770981375,2.338834246595986,2.266966262488049,1.9990981933108365,2.11709035773596,2.2008670818818867,1.9506542531788633,2.0256406175292385,2.136035944591143,1.9258723642358364,1.7860305064828095,2.319926732664438,1.9530799311264444,2.4176100039656103,1.9985437423360164,1.8927616167371446,1.930769408571246
2.118463440713588,2.015078443365268,2.2522890567194516,2.004511679355727,1.8517577790446313,1.8602599713011048,2.300886213861644,1.888088141244818,2.010375399002712,2.193339332767169,2.1200813499293494,2.2030743847221395,1.8881284499095727,1.954064341420887,2.016499006461905,2.288633417811428,2.186555809376832,2.147148270730897,1.8238735316407615,1.89062523279093,1.7922023983601243,1.8518368420753957,1.8860073929086598,1.8780775750980077,2.0281688554453425,2.015128018786302,2.0863647630611246,1.7803326314593089,2.0461989075281157,2.441143149578667,2.1088573204612517,2.1315110443909284
2.196731605941647,2.0459623996347727,1.9945312810329658,2.004045052468072,2.031209504405693,1.8897162592522545,2.049566228600486,1.7681195079894612,1.837504631800277,1.8690281691037367,1.8492087479691508,1.9307743486420739,2.137880398104793,1.912949642176784,1.9878431454178782,2.038903564647135,2.144204789943959,2.0352784706750544,1.8141773375238297,2.163392452480448,1.8738772159265285,1.8331891539192238,1.817126457157488,2.0482371573229394,1.9613026278701164,1.8131164141411273,1.9570524640572822,1.9508291435117509,1.9237435177091537,2.3551090403768784,1.9738435709285544,2.1523983953951156
2.1303663797413663,2.0791311957799783,2.202905664277295,2.00545257468585,2.004496842450097,1.9633841728475974,2.064560811590885,1.7807502675719877,2.0014875120920563,2.0860924817965283,1.923659469777677,2.1459173666047944,1.8926523464895602,1.9756916682607681,2.08188447075647,2.0865197525586057,2.0421625903216927,1.9078354932919515,1.7538041976917105,2.044672825468886,1.951480983666771,1.7384356319600949,1.8961141213817336,2.1786846005770766,1.987255306658022,1.900250028776417,2.1520911077644094,2.256033656094817,2.1349430031316063,2.461417470046125,2.0633447530843294,2.0413872558114687
2.035239553834631,1.9010662181704066,2.3157694896044667,2.1057230692079574,1.845896413632543,2.1750101297646998,2.2488860982111576,1.9417754489038013,1.874175952393727,2.1029639159021127,2.0582610090596805,2.1454007241079482,1.98037224494618,1.994691823347791,1.9915415512201546,2.0536029126981146,2.067220250000442,1.92352639053438,1.7670413899300943,2.0234093574020506,1.99020874189608,1.7696261921532817,1.7993819525060504,2.0403763267417228,1.974740781505696,1.7169801868514918,1.9094018347892945,1.8661117505923632,1.8363363883610107,2.020190713136711,1.915495578076709,2.2826808337628623
2.266390514055194,2.1282800800407355,2.0951946843062617,1.9802028976662476,1.936456011997563,1.7866851745078038,2.146840984159552,1.7635924084813936,1.8069297162598863,2.309177755866748,2.055261859418773,2.0156694648279325,2.054749870886979,1.9904214752895795,2.0705928401159914,2.09106716708685,2.055717938000069,2.0190678296071694,1.981318926587298,1.9482202558918718,1.7848855235969743,2.001523731097156,2.131107168206168,2.143981196289292,2.0955077133013007,1.9842680054650799,2.154366636286645,1.9515371982926784,2.2150799408055786,2.4043303810511714,2.0790046201017387,1.9315972168704914
2.164410568932044,1.9937572481241985,1.9828748473804778,1.9312891610854301,1.9484946515825639,2.0962853459872086,1.8764909927276678,1.9342236098589962,1.7576470330371108,2.128341425369261,1.7721864716514621,1.7974309998053324,1.77334961265327,1.711896692141747,1.8418299877129356,1.774316705535938,1.8338360343900355,1.7323271392345692,1.982282449061583,1.8591382602809012,2.0102466859546135,1.9107498365293438,2.191500437613482,2.1654093563829178,2.0700097075675394,2.057462076953549,2.065327310528416,2.1465616241940806,2.076409394003089,2.3823611518178116,1.9742380935810557,2.187364447965185
2.0478560047595593,2.012333637260449,2.0428380319447434,1.9770540281643496,2.126342182159163,1.821996347124159,1.850204092703708,1.7037568482362613,1.7662546988585197,1.8218824027245661,1.7637737673635592,1.7734920054231598,1.7636229922274294,1.8465838616382306,1.9020825141641684,1.7998203191132913,1.8028981635176302,1.795497303622055,1.9632551419186246,1.7749323740929421,1.9693817661344035,1.9532532362085027,2.139185378027571,2.0097130950987916,2.1021513660712423,1.9912652344944946,2.196110805862309,1.9158595918270764,2.0733854761485766,2.279733329692873,2.149864141440032,1.8778460264531
1.8107846412827735,2.1440479265266577,1.9435382769958434,1.9975378118560452,2.1807994086657927,2.0268334944133817,1.9496562966786546,1.9352166331040646,1.837410545491223,1.9666294394850947,1.914366350436425,1.934914515194932,1.9924474938577557,1.9448030848314113,1.984801573824515,1.9187740223084364,1.917635876667087,1.9031425363147354,2.0100869473953793,1.8144593322808757,2.0495980340753843,1.9165139026573705,2.1201649364316024,2.2494786864107916,2.032458733526646,2.150997409941907,2.0694858438871653,1.9923423998726537,2.0421886151604376,2.3762702321677294,2.179217833803514,2.06508971314018
1.916446021935705,2.0529532884076622,1.8581884874763175,1.8707580841040696,1.9347142692325934,1.7685275967323295,1.8218602319083783,1.7699044449534365,1.9435986709680253,1.7918758444293128,1.7642758903947102,1.9122985713437193,1.999118873288289,1.8773157223656411,1.868323977270192,1.8731713631579625,1.9480937584391307,1.9569048226163899,1.7993401532677624,1.9849349737417104,2.000577334708868,1.7289031961155228,1.981944319251737,2.1402659493293834,2.2065733631070357,2.0148755015886053,2.1191848223168352,2.140563769227762,2.0666437330597103,2.2723465119099875,2.12915432208921,1.948955361001924
2.094259229885419,2.125443154492328,2.041417550767435,2.1378940763562237,1.9917006159997819,1.9654252603476465,1.9165250092708495,1.864133975593724,1.8780184334858654,1.9118024416591965,1.9829415244143773,2.039420908537606,1.9465262550755003,2.194404037972985,2.1420444803148495,1.9561489109880577,1.9947873902324667,1.8123738586495843,1.899848019478019,1.8841069322034054,1.8636208436516586,1.9618786496381737,1.9210506921384602,2.008884164645717,2.153488982457222,2.1465771734563996,2.133421920411148,1.9089466005060511,2.2788427211659315,2.270596047522882,2.113270196737622,1.973967009581806
2.0045496967826804,2.2125988675560566,2.000597804623185,2.134431029047161,2.131100468630667,2.05118332081631,1.8901204655069015,1.7456179776373824,1.863699664927167,1.93518571239795,1.9343256190783613,1.9559540913471343,1.8447801976542908,2.1311807450350844,2.0001261342560066,2.0435448122405164,2.054668968175039,1.7826024380015546,1.9877122237382678,1.8380087026346263,1.9820877566362123,1.9257274106973143,1.9638367314142025,1.950402837796568,2.013938953442237,2.0414955654260423,2.119393857187327,2.1324038670031564,2.224241564428172,2.3235402209279363,2.170086205628855,1.8771171879163824
2.090173805305833,2.0739640754998008,1.8958303760098543,1.9961141415563732,2.025056015786326,1.9490828333761714,1.874515271612117,1.744413963972276,1.7998400404164898,1.8944267612636028,1.975089482990153,1.8552261441425024,1.8389751542148862,2.1021621243347552,1.9510230737946745,2.022679572338047,1.9476808709553148,1.8039851027872411,1.8852512073086767,1.8915055821246707,1.9334978590695215,1.8706061436999035,1.9379071577969367,1.935391694957015,2.1292034918238403,2.029652344989294,1.9276550752569632,2.1122910756327413,2.1328187595370207,2.3026614730601827,2.05172105791911,1.957905241285516
1.843257036012852,1.9262408039775119,1.989751361968065,1.9428945395095127,1.9405424330682892,1.9647107401045376,2.001989820011792,1.698850422969022,1.622075968832842,1.886312379471924,1.999245827290986,1.714114034579354,1.725807677430778,1.8252684509570132,2.094695278402019,1.9948946957585507,1.9607162912017213,1.8967202088240098,1.912566013807951,1.901421038408662,1.9159153100698862,1.7929248123414545,1.9915778686764263,2.1863655468135894,1.9001797474250801,1.811080037615896,1.8224466829178951,1.8002730224975658,2.0594914143565135,2.2062553795616306,1.8196285456450736,1.883304760856411
2.004756089328807,2.0381016088122195,2.099739537197158,1.8447424526817005,1.801158178481082,2.0166011378677706,1.888977725380117,1.85538742393632,1.6898102015502816,1.6985239303447315,1.7818703579315474,1.6658284607549931,1.6630627825669047,1.8077407074706362,1.8207613003020418,1.8603138144521218,1.806179768099565,1.6447806645537228,1.898422538788209,1.835566171416214,1.929948216872352,1.809359097762747,2.0155105147418975,2.1650043650788167,2.0776581315713707,1.8504736665557269,1.9589003826659674,1.8828348073205325,2.139091272023272,2.0810670031828087,1.8071840583455117,1.7346177234679927
1.9570188325815294,2.0964402601879844,1.9414764026074758,1.9957504949814053,2.135576759377566,1.8354383831824534,1.7925621794351136,1.8203970117310722,1.775221995452283,1.8157047480607347,1.9692891469735319,1.8567622364045293,1.7451413178312116,1.8767662765149167,1.9785098318099748,1.8742407309124192,1.9633254041764163,1.7707663749618856,1.9498044948853768,1.7925740614934769,1.962879233341728,1.8230500099696554,1.9999281785672154,1.9136147693897012,2.139652316416129,2.1183463258173827,2.157442704315512,1.9495809157626784,2.1270187958774502,2.4128947385742796,2.1761879171335594,1.8210092582089528
1.94055391020428,2.4127517372646423,1.9521769482101405,2.1275625555333275,2.2678628718624982,1.8839432159215372,1.7243013018730944,1.634187053233752,1.910060696151136,1.5994923927927804,1.7884416555008742,1.7551348097456505,1.9150262738205566,1.9517733537302897,2.093891746498341,1.9900180805689867,1.8996878493168141,1.9037093623365,1.8120521676161883,2.0682328599586164,1.9123197833950558,1.6810913691650373,1.7362426507611524,2.2065176689305828,1.7805546453956784,1.7823934782916189,1.7879151978285286,1.921395350956307,1.8890407873390835,2.053043240893154,1.8227539203656458,1.5349179966472593
2.000218460403273,2.259731763944352,2.0553586585994483,2.0796444638707796,1.870552999211898,1.9536360251858924,1.6080512536562819,1.7887373216967988,1.583180340391689,1.7074235344746078,1.638261254580847,1.5962801341587238,1.6514198525916433,1.7074661394336363,1.9188283368225323,1.7898672879262967,1.93845540272889,1.880460127526295,1.9574390965102106,2.148866635240553,2.0236644306901805,1.8004480899187032,1.7801647852956257,2.009413038248004,1.9789741588318377,1.7074454572709306,1.874191614829233,2.066110600147884,2.0126505520655176,2.064480989274582,1.7003286862330453,1.6854041886681586
1.991836547120997,2.0737594957292136,1.903246435393052,2.046102778235495,2.2000884529631026,1.8521213597588897,1.962901129722454,1.9716351512153847,1.8024835573121258,1.90365727835705,1.928478647312231,1.921576691490365,1.8677934212849192,2.0645692570199836,1.9718944618714875,2.0470932772955055,1.9205602870186291,1.7504162798537792,1.7677204812379712,2.0842450661378367,1.800641042868917,1.7856552152128353,1.991714936003929,2.102339300080534,1.8942738352778021,1.870569746861323,1.9916667972940956,2.131460227147991,2.354422565240332,2.2837262218534575,1.9560295986090543,1.913022422358879
2.0575250473910525,2.303543982262075,2.0349722428023074,2.255812071290461,2.2720050218432215,2.020032793545956,1.9584071370861635,1.9114437092009595,1.9825498346684118,1.9896276927775969,1.8231979757060497,1.8053809699237793,1.9670632130890162,2.033371987136544,2.0527194193584566,2.026556668515567,1.9988173998806054,1.773937898499241,2.0732571832691233,1.9992420289317603,1.8692647978716952,2.041763035146242,2.092098262557537,1.9283310862401914,1.995818630452167,2.0349538162571634,2.0154377314316942,1.9050072813086878,2.1420092332009264,2.193848370381025,1.984693605393233,2.007039128934948
2.0647446121573236,2.3240589141027836,2.073693496701099,2.185329984056849,2.258688309507699,2.0489078095069737,1.7600983793769949,1.985043738919959,1.8628656038054923,1.9070539749186937,2.078686962233249,2.007105308971323,1.9317282890257912,1.8360480479959798,2.02963099497656,1.7937275792261551,1.7769030528953176,1.7378210973807109,1.8559453987547927,1.8290088825171753,1.7619126995719598,1.7966185581113845,1.887692724436392,2.038054789613735,1.9634978423145137,2.0546076958252546,2.359963804152615,1.9836463170898933,2.37810487839557,2.0908669426686104,2.090369708843132,1.8898912566935833
2.155766470195223,2.453952684714592,2.107394703611171,2.007779364865552,2.1383195275677935,2.0060070529283514,1.8836491009478236,2.0256795332340203,1.903570193758513,1.9585271157218735,1.9021207111483545,1.8495267671008584,1.8601882567618266,2.1045356266036785,2.144466306854801,1.8957315065210119,1.8400597058201609,1.824889282520308,1.991808711567793,1.8108785759649049,1.7571231272769112,1.9482433910005486,1.9368630973631487,1.9611063185733493,2.0614721430538245,2.10663606277683,2.383135014727943,1.9510137685763056,2.4655979990051375,2.2561734678938983,1.8569520610976122,2.041262134132119
2.1744527817535726,2.3583574157425975,1.938442134325111,2.2822416981937956,2.1200450259530577,1.8107688600611171,1.7106140078515446,1.8944199019779162,1.751324191562145,1.7807875242165951,1.7854240690058552,1.7676625872533263,1.7709424646175662,1.919341536489219,2.211646253470026,1.8547464104960842,1.8927322057388996,1.9258371783398562,1.9768930185731364,1.7646339211056927,1.9640530728471965,1.882453754377902,2.046867801514453,1.9654244928153706,2.0523555610683246,1.956885107017306,1.9648521600479953,1.8911159731962999,2.049128518782059,2.057393172578225,1.9335801927543312,1.9130102068507104
2.135786784334838,2.3092452105928665,2.120698913306144,2.0843325799286263,2.031868456474525,2.042238320332806,1.8777706595505246,1.8521978280613418,1.8492407689752994,1.828130590256758,1.7991114893655937,1.773829590356008,1.8427502452872153,1.8577661747489207,1.9290189689082884,1.921597147151631,2.107887463848081,1.9960322660582488,2.056629297707917,1.9583470582808498,1.885781226966977,2.1912123698397483,2.0585849366964575,1.8706768876846147,1.9098971733551808,1.8920445463413311,1.873397506482435,1.8895818534710929,2.1012571748260545,2.2565413521720656,2.0007659395028012,1.8027576527573894
2.2247853196356466,1.970263221209366,1.843778432985878,1.934985558089317,1.884533851747632,1.708988310182484,1.6757786124902097,1.6924733732475474,2.019378307091401,1.7910522212635702,1.7138374215580852,1.7905415449474928,2.099914477549297,1.9967409420594806,2.0151712690086523,2.152792961472229,2.08813388904436,1.9265156370228993,2.0009847384244868,1.9720916656961436,1.8860521301384774,2.1058425108271726,2.001912805426667,2.0781772251355535,1.8800958632506513,1.8869253292719168,2.0826111593965857,1.7296193008545144,2.078175820390912,2.109744761370124,1.891359497592782,1.9337664072487877
2.3226700136161718,2.3746492398487415,1.9453461655343591,2.183126429946629,2.002097982104707,1.8963187255070293,1.8416179749279828,1.9649439267055344,1.8429992231309746,1.8665500700605493,1.9330553857067658,1.9099466177972384,1.7616174714904014,1.9727065520958003,2.0648548119437162,2.1573411821431394,2.0806496812008572,2.1296942482270116,2.062546836687871,1.9079978605827284,1.98237429653894,2.0625417767136973,2.054891227524427,1.8282188162102835,1.916013999259104,1.866396355635809,2.0116914089356075,1.9966982547361878,2.2897809826705884,2.38850370344657,1.9101109448354299,1.9192102145541823
2.216893126811484,2.1217972633557887,1.8959119623180265,2.417015556573715,1.7592096876879033,1.773900376422577,1.7497992767185422,1.8810484141701926,2.0509966096236085,1.822956691450251,1.9158614204776716,1.8082073516027488,1.9013824522970186,1.94372795722892,1.8803997038822606,1.9231158685194698,1.9735437322870424,2.1192270597510774,2.1760435291789846,1.933141964082176,1.9993436590989455,1.9797806170925019,2.047847237934303,1.9575487103392881,1.8635464987434673,1.8429235558459323,1.992783155395853,1.9810104528517183,2.213614446862615,2.351424566974558,1.8781244580115795,1.8055794763297064
1.9783028163253642,2.2697775604002812,1.9970851501553482,2.4578869718966727,2.0315867802741048,1.6467280299610283,1.7732743552503303,1.9872707247976331,2.069265454061774,1.8736530625277077,1.9238400890113703,1.9477209547336727,1.9405918879721917,2.0775404894772724,2.0813784373764186,2.0767806762552463,1.9504034325632533,1.9244601052180523,1.8888794504679403,2.0289773623670704,1.8084632713185222,2.1371270406288225,2.0475385071493655,1.811335589308294,1.9334111476848113,1.9295482098308148,1.9160311719249556,1.8597554445744957,2.191804132882435,1.9649396072107521,1.9433908354934442,1.7948959447868809
2.1794102530150044,1.9025117352974468,1.8912982807078378,1.9595939971017986,1.7797363355642444,1.7048253332688026,1.8858655442734773,1.968268077617474,1.6678152769911072,1.719900959651719,1.7450193013556767,1.709860835301254,2.154310859241723,1.774733309308604,2.054309497496132,2.090314576712972,2.042965674460578,1.9859780851803612,2.2534667077729975,1.9400714959370817,1.9096506711667172,2.1572281640709123,1.91386474393185,1.9429284219622593,1.7259851674337483,1.6701105157783829,1.860185326598663,1.8519102673575274,1.819416551605584,2.169601617881962,1.7165700420009191,1.9551248856078096
2.136659650548571,2.1614879937803604,1.8475204136700392,2.3739317970241745,1.8237700061913358,1.657311531930156,1.7091624996249968,1.8733852398743926,1.9389751400420003,1.7346256136080014,1.8464460910503866,1.9342880913120764,2.0343274536373612,1.944363132738074,1.840542403423249,2.025810342996405,1.9016939525823757,1.9716325079801977,2.0278312093236455,2.1463201590568395,2.0708164511403178,2.206769414557989,1.9593239941268408,1.8083102558857813,1.8864171898193447,1.7664990890958434,1.9054710351829982,1.8448902993479595,1.9676686479280197,2.289214359892827,2.0032947462687596,1.8469544063726653
2.2460114733051806,2.1744500843273076,1.7205490443118607,1.9196738731631426,1.8982474790099146,1.5836878408604314,1.6519468771170664,1.7964702508352652,1.9430977984343196,1.7344720801820035,1.934282591321113,1.9216838443394586,1.9278041165826971,1.8311668301286526,1.8622642062678347,1.943698122267332,1.8220640716949248,1.9037783753947943,1.958868931777683,1.8529211365270206,1.9220047272632228,1.9791602118301665,1.8301211067054302,1.908073270429811,1.7237727928904203,1.7542857027553054,1.9366422088989634,1.7833656844287835,2.058639650476261,2.058724136042816,2.0153599560756246,1.8050851867913333
1.862725041671346,2.1140256381338367,1.8634166930804879,2.00992610084211,1.9063762805079916,1.776947839441499,1.8231978645880487,2.0363111990525384,1.9154147221324476,1.9301015371570927,1.6834719969349565,2.0031244834120097,1.9498958246433193,1.8448801081070605,1.8079480520401168,1.9664540266422184,1.844075278839443,1.9875529049774119,1.717977446416548,1.7546666887922646,1.73210094825245,1.8269518414935808,1.7045134673419458,1.8510770771959353,1.6876980490964073,1.666781558513575,1.8168244397868822,1.7147740576966812,1.9364949807333285,1.9869232812421833,1.7408485839266385,1.8305810676187906
1.9293820816182685,1.8585768040989663,1.8317260866871679,1.893207751275413,1.6883282662515142,1.8038641408871186,1.8050171438220655,1.7549980519352169,1.6059486393444968,1.8326808837622124,1.8325924439616508,1.6876941524924958,1.8185135409542548,1.6125246101634403,1.8502761908556113,1.8371730858536908,1.8685948865257138,1.8685325419311236,1.9484669115798563,1.9812243344651448,1.8716848714900833,2.0025990867289267,1.9061444179121212,1.9476953258331533,1.7885615856461345,1.7515756366190478,1.809859555355479,1.766312063034319,1.8499016219442384,2.1573667631278037,1.7210786268769678,1.9906498761936036
1.9228122614437122,2.274150787197285,1.6626424576414869,2.0612587708911914,1.840096841765795,1.6043150843489886,1.73763337761655,1.8998836107147898,1.9962858620498711,1.8070645470153803,1.7101853033917414,1.9868054819648606,1.9917952527615543,1.6889700872621967,1.767393121923656,1.9889789139768361,2.048407384883059,2.1565744291459317,1.7672449731758222,1.9437737026544484,1.833409897930367,1.729370978037401,1.728852202311154,1.9524473513821283,1.7451091522591955,1.7758279789799865,1.8806788684043632,1.934116668923195,2.0422314319415418,2.342070473357368,1.8202976000594648,1.759223645023808
1.9633619033875156,1.9663157671391573,1.7123929766340835,1.847696350267934,1.9527905021041227,1.6110057952703791,1.649976451340363,1.7492012125307201,1.875231605516737,1.7001310956099158,1.8589541176681816,1.9533059297741167,1.9877147969541518,1.7730844864603674,1.9943778493748001,2.043096561357918,1.900109578913405,2.063602939812559,1.8654812925958657,1.7630468382608733,1.7618537103354788,1.9779182003614342,1.9118653507088084,1.7734703828138687,1.7457209799991813,2.1407330306501904,1.9719401934474714,1.8577411089065916,1.9630402387092125,2.2725418557652146,1.9933575548893454,1.9887774641905651
2.225578839831472,2.061811741782369,1.9478360196819975,2.025640127439883,1.853498981101609,1.8464510389473803,1.8831347866371215,2.133913680113775,1.943322599020693,1.8380577904103388,1.959246658765401,1.8719081985479191,1.835117399233325,1.8530136644360424,1.8111424656913995,1.873165107225877,1.738045918187304,1.7936588278118641,1.6872415702973436,1.7492959875588618,1.8704359015729235,1.8308961976748963,1.9236133623928635,2.115907010177155,1.886984059016319,2.1634741705132745,2.1365200112362115,2.0394798510475907,2.1797416176801865,2.4245454492690004,2.1134228261797414,2.2279503152631315
2.08530167409893,2.153383330580041,1.8318521169411128,2.166032339528358,1.84561839661958,1.8502013542071296,1.8230316478993496,2.0839784396757297,1.9657212299172881,1.691817336465845,2.0951028978692094,2.165361768195582,1.9548341524392383,1.7080515116685766,2.015165269169156,2.18942939083819,2.128055339121334,1.9806448226039968,1.9487263816275162,1.9943706393696796,1.8875669647938869,1.957858592929377,1.9532638439930001,1.9979817673342153,1.7704065272975464,1.7858503778459922,1.9813265773408872,1.8374907887073824,1.9241463964339143,2.2967957183349332,1.8499795576877678,1.8494781668461142
2.069133438345954,2.3736301088457656,1.933707992598536,2.0589241691945763,1.7074627351653182,1.9020374373613878,1.6760899085481167,1.9290850912003152,1.992382232238406,1.7278484856305267,1.9394764759354268,2.053560270445542,1.9525280508567657,1.7122026381836266,2.013141729826974,2.247101465629677,2.121322748333819,2.0948743237792553,1.8818176497792714,1.9431509930462547,1.8402748048619992,1.8781759615046967,1.912696397706336,1.8833216908314991,1.7313080309759228,1.833905817660332,1.9970244764921161,1.6871143739223644,1.985438692406457,2.3176291628527976,1.762488415247709,1.8042275238010996
1.903768605180384,2.0335374681654144,2.0854592983472444,2.0784571273157058,1.725446630040278,1.9497205468442937,1.912169504576806,2.004830453400767,1.982965299671529,1.8565089192624629,2.0459075050795663,2.1527440147654824,2.0711867016493066,1.8891747710259934,1.8882298628801646,1.9370969446825101,1.9934251145171404,1.9669704089650184,1.8377395111400645,1.9418003396322856,1.8459201575244537,2.0441210076084215,2.050518143475832,2.127416826553359,1.7337330098403179,2.007386302329233,2.0277136090624466,1.6592997713999285,1.9785269596935764,2.024015798406796,1.8553978510153575,1.8575436860770151
1.8953263219503362,2.1009192612713274,2.1854255253111146,2.0144088231662787,2.1017387274474455,1.9251766930766978,2.038245117913881,2.017651068109032,1.9686878500479403,1.9960889232988739,1.891017237734376,1.9382574927731084,1.9708338337572233,1.885441035017149,1.762957862305673,1.7760979248251383,1.6903676818025284,1.700186763000745,1.627530356265469,1.7234214688753313,1.695454653060405,1.870014676304981,2.093174792820521,2.03229048166978,2.2542963334027424,2.1716185665840957,2.0239458109610213,1.9259448578471356,2.206547474936372,2.3066235642589668,2.0528694654216597,1.9070043338840046
1.8435638403420207,2.2240945156731935,2.340611459364778,2.11590815168458,1.915123050261216,2.1742520566221497,2.070333633648677,1.9287614218219453,2.013636849257604,2.0477546061488954,1.8489835327817516,2.0233372053828895,2.1320903149667614,1.9397130529818702,1.7188266478167409,1.8553291867183495,1.8233570504820868,1.8139867644047865,1.7984837199780308,1.9046012504690235,1.819232806065733,1.793731970847068,1.8737192240650906,2.1079838448980968,2.147265676510001,1.8370810649164775,1.9649149278945337,1.8437120603719483,2.335319648726751,1.9946460657443934,1.8861932302183615,1.8925881470090216
1.822428517686699,1.9900837033563687,2.148312818583345,1.9396622173492888,2.021979657579118,1.9050292935207918,2.106117265558479,2.09459784317169,1.8236419685328356,1.9173306207974714,1.9769208602316461,1.7669485767587232,1.689565820207292,1.6854889838658815,2.0267821083765485,1.8421441190878869,1.8889325815087508,1.7531720014801448,1.7664794914641224,1.8420132536096616,1.9639475948927234,1.7506541598993848,2.045807572483268,2.158661026459661,1.8530217557648199,2.0707313874160826,2.082229202244617,1.671422157442615,2.0801671568845816,2.298726718449579,1.930830735408752,1.9155767078952992
1.9902816958307155,2.2937895373485215,2.162965816813442,2.07662068250789,1.6609296003849952,2.2537877452381165,1.976323150756846,1.8980397077210136,2.0424527813507254,1.7202159228506202,2.1215607078514163,1.902114863196454,1.908168914745287,1.9329625407040139,1.8095078916519205,2.0663564368391345,1.9610847940887624,1.842454224326905,1.9737713470285472,1.788155526728154,2.0927419179953297,2.1298245024895635,2.0549953610940457,1.9456127962679228,1.915607855724875,1.8725666450569538,1.8921191007299387,1.9727812377699288,2.2945491724582237,2.2835024032887334,1.9509104168947096,1.8104797407960367
1.931266595132396,2.2264199194545675,2.1978818231648316,2.095856276385747,1.8643717929232233,2.0564214967945054,2.124819969746507,2.1111179733578305,1.9912658271465777,1.9961670534095854,2.0930676632567744,1.7843960053367234,1.8208392522573338,1.9291762468693627,2.0209828274178205,1.9546398348499352,1.989651518807155,1.9351782339546406,1.9513589917819354,1.9013544166982956,2.0452068607892997,1.9864536267903026,2.2563417944721347,2.2301321622468584,1.8684976398428412,2.0240373918581995,1.8320254503364375,1.8379231682599302,2.2756550561752458,2.275033596512412,2.1548635287204068,2.014963825346121
1.7872376808666455,2.1886596103515084,1.8417845454156614,2.018835286760907,2.102465232133335,1.923595984080453,1.786164794873565,1.7823056988619825,1.7888597767347272,1.9172530854218877,1.9014412939898646,1.7553062623437365,2.0269945023211333,2.0677393358422393,1.8387440599385574,1.9699793005286066,2.0857900028757506,1.9887796209342192,2.025487887838489,2.0446667098077107,2.0683602194475816,1.9854841409603545,2.1834614245597046,2.3213169325249527,1.8948560217756432,2.0234197348262613,2.2373652129418256,1.833809948158225,1.9725341396891285,2.266137144597698,2.13210188885383,2.110227397574574
1.8189070290358627,2.0630713613167653,1.87205893374361,1.9859278107741656,2.1336812691304963,1.9210022802334115,1.7542401554486344,1.8811862312781227,1.8112833715432393,1.8976095294653885,1.8763099915134454,1.741612522428591,1.9964418927703664,2.1240133419638383,1.7896781130081965,2.0146710341406995,2.0078553741469487,2.047303656568578,1.9367945440520742,2.114271684740413,2.0965122231721893,1.9562143366031606,2.2300510295761065,2.154305741730014,1.9762254478739736,2.2296755318397814,2.223049376528939,1.7788244432064289,2.090785577532578,1.9927866646939545,2.017878669380175,2.0913128601053894
2.0616034956420957,2.1692011589261173,1.9308376197804715,2.1241457305946954,2.0439753898408504,1.850919016643683,1.7582459303891411,2.1125722933090767,1.7560373223153976,1.973207859073771,2.0231170035480917,1.787137662679431,1.759458739257975,1.8689909993397473,1.9652591319991997,1.7700667139376114,1.778015011070803,1.826471132020197,1.8263752610488517,1.9140522977686412,2.2338542738229017,1.9094329178959006,1.9296415724568152,2.2986714313377683,1.7339927763211853,1.9026519017324381,2.0236735926871927,1.8014202495774907,1.9533263643508443,2.19271601592327,1.9928477715511295,1.8496012773198285
