Fp1,AF3,F7,F3,FC1,FC5,T7,C3,CP1,CP5,P7,P3,Pz,PO3,O1,Oz,O2,PO4,P4,P8,CP6,CP2,C4,T8,FC6,FC2,F4,F8,AF4,Fp2,Fz,Cz
"(0.18484414168439828, 1.951822307059976)","(0.2109062323768821, 1.7168688103436658)","(0.18902598199776505, 1.9411735297456045)","(0.18524420460101645, 1.887646538610371)","(0.159767772731732, 2.0046278262403283)","(0.20104032000668923, 1.686982020946088)","(0.2140747789129382, 1.590658456009954)","(0.21015730213043562, 1.5894432404401313)","(0.16211159040573117, 1.8852861692277714)","(0.153990850057572, 2.007866836121777)","(0.1722773420190956, 1.732922985944501)","(0.18509136018653727, 1.6495853213848453)","(0.15223699182151765, 1.8953557946429394)","(0.17671031148038832, 1.6346323554362643)","(0.17021731219014083, 1.7230721935913798)","(0.1917175169456182, 1.5743387928819894)","(0.18741437943343864, 1.5273838675995413)","(0.16123306033463025, 1.762736927809907)","(0.16642059440671123, 1.5570788507682312)","(0.16536794843847513, 1.5398301515494133)","(0.15332568677948205, 1.731576740673502)","(0.15510980938079896, 1.6931544833962318)","(0.1763592634543406, 1.4516873788620865)","(0.1800410538254051, 1.6917501180103252)","(0.14383470062127085, 1.876594830213332)","(0.17185199603008772, 1.5201100933952425)","(0.16615850594748682, 1.7683500321395553)","(0.11370439631058354, 2.5454373252195204)","(0.16683232591154443, 1.9862261269738812)","(0.17084641627051436, 2.116644480980461)","(0.17501303243872263, 1.6407705456660417)","(0.18070615189478395, 1.7805617482962326)"
"(0.1858554724910268, 1.9643701931882782)","(0.22051393858801013, 1.6776980503191816)","(0.19216149202704932, 1.9030714913550837)","(0.19827969426643313, 1.7972042756676065)","(0.17704511839944392, 1.8279251330309962)","(0.19028680851738275, 1.7571489668101545)","(0.2102526841057803, 1.5900334935032066)","(0.18165673370555618, 1.8728453708406851)","(0.1688138924723803, 1.87880443956091)","(0.15724766875969212, 1.9745289843190421)","(0.17780021734463386, 1.6771061648039256)","(0.18728351166433954, 1.6253667763540114)","(0.1532312901835892, 1.9562949004070285)","(0.1823538426008633, 1.6059784313003445)","(0.17435352186294886, 1.693708130514654)","(0.193937840105179, 1.5461987158852208)","(0.19200549371250142, 1.4698327823045532)","(0.16269825455848663, 1.752042809757862)","(0.17319430810005737, 1.5025830491772951)","(0.17130852226032967, 1.5103485754233388)","(0.16613892379114864, 1.624543273105026)","(0.15908561559632778, 1.6388390614113606)","(0.17662967673373728, 1.4459296102485353)","(0.18393031388082348, 1.6461918062552439)","(0.1429641300513101, 1.8968513869704358)","(0.17028599153482127, 1.5539363566192508)","(0.16720790345230988, 1.7668057513127453)","(0.11435816335143863, 2.5322181972143847)","(0.16619014975564064, 1.9881330315979593)","(0.17038985771606738, 2.0688429153906482)","(0.18888467840641826, 1.5580825983032582)","(0.179827378590177, 1.7877710947517758)"
"(0.1876604049115737, 2.033570560152091)","(0.23392681163959325, 1.5704331751279794)","(0.20843818555478555, 1.774694004488826)","(0.20002499692634995, 1.7794285207827307)","(0.1954417614353137, 1.6574302142225836)","(0.18610764825761897, 1.8608670001278087)","(0.2132772766761507, 1.6836654759541996)","(0.17890915926841047, 1.9327174999320074)","(0.16685283497545275, 1.9933588016847286)","(0.15295015772768944, 2.129979628182595)","(0.16828925383797572, 1.9573478538759812)","(0.18897517028325445, 1.7236202458232295)","(0.1542073873416452, 2.038184750483176)","(0.18480438852135397, 1.7099892027615413)","(0.1678683204133584, 1.9183787705653224)","(0.19724873634630832, 1.6303212293751703)","(0.19521506683243983, 1.5395257053815357)","(0.16848187612889146, 1.7683392577221724)","(0.17488204322533937, 1.5924541093714852)","(0.16663593989141243, 1.6491854622862132)","(0.16181474351430086, 1.7961487842282753)","(0.16281452702559365, 1.7568736974604522)","(0.17570829297130594, 1.5886456619428488)","(0.17724843702725449, 1.8136447744257382)","(0.1376668251280882, 2.0521765743884988)","(0.1616426985885077, 1.767787630075149)","(0.16583032647126628, 1.8278678549272025)","(0.11090432307207487, 2.7271626102513906)","(0.1583601094189239, 2.078851863309886)","(0.1653537016014999, 2.151973692324652)","(0.21112798968514782, 1.4639081960025202)","(0.1971582101304993, 1.6942915800680898)"
"(0.20522498136436798, 1.8671425003964048)","(0.2378839266070262, 1.5534261971793695)","(0.20490411378232593, 1.8228773739168338)","(0.16804213558797557, 2.140048306811947)","(0.19473935706269668, 1.603392977081201)","(0.1936226717440704, 1.8008799157966877)","(0.2279271017659361, 1.5884133387542985)","(0.18366448123587514, 1.888973332886975)","(0.17048075633874013, 1.9508102363311906)","(0.1545428041569659, 2.1040262290563603)","(0.18338529878659762, 1.8370164210274198)","(0.19887044732450884, 1.630671663885285)","(0.16507960371784594, 1.9533977372270395)","(0.19827052022536593, 1.6048853985305764)","(0.18684270306484274, 1.7576507154351462)","(0.21469587512374153, 1.5195117120324215)","(0.2113370047805685, 1.4394989176275517)","(0.19178840286851012, 1.6221905507200205)","(0.19036035772592827, 1.547202041551813)","(0.17250658140940886, 1.614381141748237)","(0.1695044169534138, 1.80349619125463)","(0.1877523612721042, 1.6073423925954877)","(0.18630390564275537, 1.538547903036771)","(0.18586056293395026, 1.7452248799513554)","(0.13715996607113629, 2.0470429947580704)","(0.16374759343391698, 1.7907879144956855)","(0.17453034323424538, 1.765071304703581)","(0.11631737106066023, 2.602138374383774)","(0.16240791568419596, 2.038956305997475)","(0.1672706969956254, 2.1266509103066125)","(0.21167086034199542, 1.4697626531586132)","(0.21128280982594375, 1.599332297961814)"
"(0.2147447686316441, 1.8238058979410816)","(0.2520439795476204, 1.457337214178693)","(0.2144335127458626, 1.7836816101772341)","(0.17091423501524425, 2.1205175855526863)","(0.2013713969030759, 1.5654868390451413)","(0.19951042650201042, 1.724704150498884)","(0.23273049851580535, 1.5431054259032764)","(0.17582925989847017, 1.8807975500966632)","(0.16890723234087196, 1.9108814535652454)","(0.16931150121203845, 1.8698498833659927)","(0.19470721049158005, 1.7315929333619764)","(0.21627501368982996, 1.50431860440684)","(0.16720955290754114, 1.9538848194742136)","(0.20866190305169907, 1.514970815464888)","(0.19674736382646596, 1.6706499773803545)","(0.219744842377218, 1.4448316531315257)","(0.2144622545568172, 1.3864404042864749)","(0.1932609085393997, 1.5996278144261524)","(0.19977828659008368, 1.479272815593043)","(0.18060506944855004, 1.5476672835914291)","(0.181912356291574, 1.703362204301621)","(0.18205462990516547, 1.6353072930869428)","(0.18424842571233632, 1.586368830079696)","(0.19700491851366, 1.6942405459973564)","(0.13897002110912382, 2.099168593811134)","(0.15777546390449115, 1.9425911350680196)","(0.17933174117896417, 1.7614018048387297)","(0.12310330528133202, 2.52931528146454)","(0.1654012194816581, 2.015144121396996)","(0.17532520339313734, 2.0645161793117808)","(0.21125914507307608, 1.5116238594490192)","(0.2130866665468153, 1.5846962507540208)"
"(0.2415058935615514, 1.5965560377255201)","(0.26026593729433345, 1.3926243778327763)","(0.22052945751110495, 1.7326139582771747)","(0.1695138731213724, 2.1632147411785914)","(0.197420721372665, 1.6153940422070046)","(0.20285190294734773, 1.6800049798296364)","(0.2385422320498674, 1.459050710190717)","(0.18180792951101338, 1.6968342225260296)","(0.17856110471989486, 1.8216327186090477)","(0.17741749641960614, 1.7910226805470824)","(0.19462077799995456, 1.6462370142370089)","(0.22581869002563468, 1.424618343697324)","(0.1702322472460418, 1.8747314275069529)","(0.21434034873969612, 1.4544059832842173)","(0.19487389986616488, 1.633212350747557)","(0.2191144039147153, 1.413957306491946)","(0.21342219538885723, 1.381691007385376)","(0.18452191946983582, 1.618111609944232)","(0.1921339839535948, 1.4964437143421703)","(0.18451420032918456, 1.5206326683446483)","(0.19524780816295645, 1.622422898306658)","(0.1800048022105974, 1.6079246409470198)","(0.18931676150399418, 1.5525651914247058)","(0.21568639319108338, 1.6037687620192225)","(0.15991148393249138, 1.8438364129709586)","(0.16955222903068698, 1.8195803474621368)","(0.2031044895536972, 1.5796520835518568)","(0.15098274819939797, 2.0742012362420303)","(0.18591938930576, 1.7898382372865418)","(0.1839611036803975, 1.9634290724543593)","(0.21550667917760324, 1.4931752903714781)","(0.20741655187220015, 1.5762043956747296)"
"(0.24508603741659957, 1.5650346704497555)","(0.2653025031012916, 1.3692536151212145)","(0.2426882754802464, 1.5589610489799606)","(0.1703746589222737, 2.1585596708554182)","(0.2067158891111402, 1.555144839719134)","(0.21115704987800707, 1.637590051289303)","(0.25107977633454037, 1.3929518006339312)","(0.17580557000995403, 1.7533785239972304)","(0.17300312918739957, 1.8668234179900027)","(0.17851803602121086, 1.7818265023066377)","(0.1922059673326746, 1.6762656434537702)","(0.2226184441815379, 1.4294196950373381)","(0.15273253303074583, 2.076486386241583)","(0.20973985055282526, 1.4838932981796427)","(0.1974107522877418, 1.6162739072911236)","(0.21528631335965293, 1.3834679158844227)","(0.20584588846745785, 1.3530564714438986)","(0.18628457294732714, 1.540926436298926)","(0.19113168792054408, 1.4428737203386337)","(0.1863668705264271, 1.465426608617389)","(0.1903512736262962, 1.6540219711636526)","(0.18564528791242987, 1.5483662824350712)","(0.1977352452633904, 1.4958959075078757)","(0.21412674620087874, 1.6197245687902357)","(0.16106169011871752, 1.859417901694485)","(0.17661161408009315, 1.7756792867774709)","(0.21556076048791112, 1.5155221427225503)","(0.15768623777346052, 2.065320446177665)","(0.202193264161588, 1.665310000106103)","(0.2043883384064757, 1.8143738191356946)","(0.2164168271195434, 1.4987469848593282)","(0.2159866456939001, 1.5135453195250697)"
"(0.2460922213966577, 1.5580612349980592)","(0.2729213024469302, 1.373814384002551)","(0.24891495869840397, 1.4729953879059867)","(0.17404512107084427, 2.087282366731717)","(0.19441487988499692, 1.6541436962443405)","(0.23212399134587627, 1.453971130220426)","(0.2546549554722809, 1.3475215183988858)","(0.17702499556514648, 1.710537388027638)","(0.1811145914517998, 1.8134563874307787)","(0.18483697177583558, 1.6947827138403357)","(0.19788947442036597, 1.5963023692544636)","(0.22734970814329195, 1.4156691442594325)","(0.14188183727556658, 2.277597707834102)","(0.21446278419852385, 1.4650940907426853)","(0.20547902602696475, 1.5729442660482615)","(0.21441274938490337, 1.4180629643158105)","(0.20976523917810277, 1.371067757322297)","(0.1874630708614087, 1.5981977107522916)","(0.19188685950553971, 1.470018356776488)","(0.19611954774263127, 1.42159398987873)","(0.1890058185305698, 1.7017740981018488)","(0.18342601009493856, 1.6002435491710048)","(0.1972425720313967, 1.5096195685541354)","(0.21837869581779767, 1.605806755768918)","(0.15735451036498077, 1.9092603424636603)","(0.18407668541915215, 1.7287893689017457)","(0.22170998496851246, 1.4717534152140834)","(0.17436675287112685, 1.8453334369812466)","(0.21028905927527455, 1.6035535748883505)","(0.217072359999806, 1.6735607243050585)","(0.21799403360154707, 1.4731146467576663)","(0.2138451303682072, 1.481494893581934)"
"(0.24486102342911276, 1.5686544656252337)","(0.2812795272132141, 1.3484674719618925)","(0.2638079525793022, 1.3900669337094533)","(0.17254477582496955, 2.0813982542403875)","(0.19549275447926154, 1.6938122012725714)","(0.22652124826564216, 1.4483676085232504)","(0.2537291307099917, 1.3584516331453362)","(0.17484980656036087, 1.704616464332229)","(0.2014662132777187, 1.6220035551713838)","(0.18414454488779677, 1.692863731830004)","(0.2081613379190515, 1.5226101499312532)","(0.23922831728188773, 1.3397498718636758)","(0.13272234226622548, 2.396730136115225)","(0.22332629716430902, 1.4060688691795782)","(0.21325473889854193, 1.5136951954283502)","(0.2142580319419048, 1.4223871811359587)","(0.21030145803294117, 1.3665595365531849)","(0.18754719706674167, 1.5764625944224637)","(0.18570672318349085, 1.4964941663000322)","(0.1950653245325787, 1.4236308451719426)","(0.19529364435719945, 1.6435470238498733)","(0.17639640638246382, 1.6423331228929527)","(0.1896580884913889, 1.5727895575861663)","(0.21860522777461933, 1.5923789142435616)","(0.15737372736810654, 1.9493294509101031)","(0.17912991675587114, 1.8124790614795296)","(0.21218069179562862, 1.597293933708306)","(0.17309662787630986, 1.8591344880971794)","(0.21941026824383023, 1.6091649212360875)","(0.22848136434454577, 1.5927953498188139)","(0.21724087670845996, 1.5125510541530505)","(0.21462345517044784, 1.4610545818562088)"
"(0.24263601025218212, 1.5836348997223997)","(0.2866103625489641, 1.3126729190439088)","(0.2683473186880067, 1.3732247703873397)","(0.18611831309975035, 1.9039887532620983)","(0.18930393171938287, 1.7432420767383838)","(0.22916678238357616, 1.4458181556356344)","(0.2584406478512998, 1.340913755437483)","(0.17797789545475812, 1.685684655699778)","(0.20183901568542784, 1.6844890861533381)","(0.2075514633500231, 1.537082057270196)","(0.21279708922937013, 1.49741645846664)","(0.24540700978868618, 1.3545630700538587)","(0.1282798419075614, 2.482437845204114)","(0.22937693249418453, 1.399276311755638)","(0.22663164633097999, 1.4406371279969867)","(0.21557320460171966, 1.4421598714483983)","(0.20792485898242877, 1.4075034511424327)","(0.18578203357042283, 1.5676267159323414)","(0.18918809262601444, 1.489913356922036)","(0.19488626198795353, 1.4622950602082727)","(0.20410553734931755, 1.5599685565345538)","(0.1777493094576893, 1.6264972729108602)","(0.19394586987691723, 1.5284115484098868)","(0.23228261373055487, 1.5204281687473598)","(0.16978901534287202, 1.7594427025880501)","(0.19012221950581798, 1.67297092887089)","(0.21055008954014864, 1.5532412063167962)","(0.18631366566034194, 1.6933616008985215)","(0.2257187535543326, 1.5868208491838096)","(0.22859681291990233, 1.5828304202894476)","(0.21062531963135903, 1.5324233781222134)","(0.21760994510933712, 1.4442477093595223)"
"(0.24326865103605957, 1.5077916009064982)","(0.29339899805296377, 1.3284742486411312)","(0.2663919221971115, 1.3977350767403998)","(0.18801555040139403, 1.926587923778122)","(0.1887208506603501, 1.757736837722879)","(0.22792388355075868, 1.4832233965168593)","(0.25617081675571735, 1.3373799832492326)","(0.17682890000317197, 1.6644056255417337)","(0.19311494354621658, 1.7598342469589554)","(0.21096500666523918, 1.5283117771575156)","(0.210722618643629, 1.4690251178080178)","(0.24149640884456305, 1.3341777671288244)","(0.11616832539623087, 2.7086742569088234)","(0.2250271465521177, 1.4047409937720658)","(0.22483030080839864, 1.4284034556777834)","(0.2129148923031487, 1.4477907307123878)","(0.20754347197312442, 1.4125306741814494)","(0.17953015305404324, 1.6124864531432732)","(0.18567806049057145, 1.5400111641141228)","(0.1958878700315231, 1.4530814685805822)","(0.20043749400222496, 1.584703725465233)","(0.1711232439994495, 1.7117347103264786)","(0.18612476010805024, 1.6162114267757002)","(0.23322032559056724, 1.5245814673188705)","(0.1660140891028995, 1.8028421234496224)","(0.19353983869482086, 1.6369319154757738)","(0.20481544197470183, 1.5936053537023405)","(0.2048955665964499, 1.4845392944825428)","(0.2501767082990842, 1.4264827409137322)","(0.2405107338014838, 1.4923550397734944)","(0.20258415654388356, 1.5747315470394532)","(0.2046954628753045, 1.5517917271754451)"
"(0.23238434872285116, 1.517493140638446)","(0.2945537482122768, 1.313982824642657)","(0.27002012826246213, 1.3957835203813433)","(0.18412091252705742, 1.9950717253125776)","(0.18775587355173123, 1.7472634964274898)","(0.23595843199980054, 1.4283669939064598)","(0.2535832663644702, 1.3465392292260878)","(0.1924413300687123, 1.5249341277233222)","(0.1928955389468539, 1.700323737914113)","(0.21291900341541484, 1.5000738579722073)","(0.20583340817266807, 1.4861166077181485)","(0.22982788271289173, 1.376115655114275)","(0.11992277363455174, 2.687497332794975)","(0.2127387616184874, 1.4748934729984582)","(0.21813210139527356, 1.467663898647733)","(0.2123405613625319, 1.4835783367403197)","(0.19914764253071054, 1.4880651255329411)","(0.17742553814452208, 1.6457310794287128)","(0.180412486449563, 1.59935238156425)","(0.18512634552459314, 1.5139158590296031)","(0.17916592687969518, 1.762033288207557)","(0.16889613015845995, 1.7457502343732207)","(0.18624524282889335, 1.6144075730349816)","(0.22666989466424392, 1.554486154783308)","(0.1708867815079822, 1.7463122096826549)","(0.1926336845238615, 1.6564504937358286)","(0.20311224259562555, 1.6037725186490586)","(0.21278296966645327, 1.449758398920798)","(0.25997809120810034, 1.425374324884705)","(0.2472092648375727, 1.504792538361254)","(0.1977936362793168, 1.6250286756594081)","(0.21173515140880725, 1.5317358626678688)"
"(0.2320491706419428, 1.4518987700636157)","(0.2985197076828236, 1.307995667334673)","(0.2937282278298962, 1.3089916809933517)","(0.19115212003248658, 1.9507050299505504)","(0.1902169135513179, 1.721679436668653)","(0.249068153380044, 1.3723661245387957)","(0.25388262252339105, 1.3165006288655603)","(0.21336932464970337, 1.3911165870818618)","(0.17093913349752166, 1.985370495073735)","(0.20159127876073238, 1.5751008314704167)","(0.2067085556583579, 1.4405939913559882)","(0.22369655809870767, 1.429632243842692)","(0.11619731795317438, 2.7989302716201268)","(0.20334744742421215, 1.5309997272577474)","(0.21724183310644077, 1.4462225479823243)","(0.20750549728506118, 1.5009036387062469)","(0.19576742191310575, 1.4742884387937476)","(0.17409674788462282, 1.6735016225484887)","(0.17812946770467927, 1.5903862028684854)","(0.17813034879192416, 1.5248765421015347)","(0.17768309479939784, 1.7505400921063268)","(0.16278897109791612, 1.7749107270190405)","(0.1853973683264879, 1.5875555700703785)","(0.22867351783895, 1.5348400747911863)","(0.17208099618029377, 1.7628985603302598)","(0.20800197899346967, 1.5221416501223892)","(0.2038997688509556, 1.589828456001552)","(0.2143325237801752, 1.4383986923480732)","(0.2733794064034557, 1.391396441315346)","(0.26416834004226103, 1.4259296714831788)","(0.19963738505476855, 1.6346026176125652)","(0.20247302408111514, 1.5789917049541955)"
"(0.23848136894122313, 1.4262460021922365)","(0.2938949995428763, 1.3376204165658871)","(0.289256615963115, 1.332837689047469)","(0.24097127369432356, 1.5419976907545725)","(0.19305934160262486, 1.7164168194051004)","(0.2490412237769079, 1.374870112247014)","(0.24671867762772073, 1.3327112696574173)","(0.21363420909222594, 1.3722219904979809)","(0.17856054288430773, 1.760383108210784)","(0.20102500155840286, 1.5748741974542497)","(0.2081156585489456, 1.405151938014184)","(0.2200307088538232, 1.3646288049802866)","(0.13254215200109015, 2.272138347421567)","(0.20332462403597487, 1.469635147829674)","(0.21235845457323654, 1.4524324852807473)","(0.20141773620018424, 1.502263627009056)","(0.19185468883300302, 1.4954907582407895)","(0.17447569326352444, 1.6689025554528276)","(0.18411849352506454, 1.569087386021619)","(0.17552905512205846, 1.588736634080926)","(0.17581316669734695, 1.7968801093321836)","(0.17253388494214203, 1.6548889697442097)","(0.19024156238763093, 1.6041407102374383)","(0.22393854286802184, 1.611898389809843)","(0.18467088810462404, 1.7208823707445247)","(0.2167393471679997, 1.4896719884025689)","(0.2284290684856289, 1.4792850222100578)","(0.21138579825153916, 1.4982134482368294)","(0.2776848760476054, 1.3873352596431308)","(0.267516276833658, 1.3859736226947428)","(0.2059007652204365, 1.6233241542890138)","(0.18820197008654221, 1.649406710118039)"
"(0.24525302299605561, 1.4055696660387447)","(0.28987522165870044, 1.3874656115236632)","(0.2916104906949859, 1.306165110482912)","(0.247803783109471, 1.4802542751456)","(0.19165842745405542, 1.7452673178037845)","(0.2652617149583364, 1.353582061575979)","(0.24981396207753556, 1.3369269984366794)","(0.2206542155799427, 1.424312074885648)","(0.16961173846517158, 1.8684467276940309)","(0.2011073371598874, 1.6022777766553247)","(0.21524819932426778, 1.3678757538601727)","(0.20692093729456315, 1.4496852799149227)","(0.1379865315107841, 2.2366023109407176)","(0.211541226558618, 1.4173067027014838)","(0.2050952326622425, 1.5483400681101716)","(0.20270450831631878, 1.5294752871761783)","(0.19105837086650027, 1.526344575758386)","(0.1735107745156913, 1.6806873389079784)","(0.17841950425398867, 1.591850981633847)","(0.17702070861117283, 1.5567155884702526)","(0.17160895191872838, 1.7940896343043629)","(0.17630123410004359, 1.6008998438891189)","(0.1905380555078824, 1.5738680336519986)","(0.20715652972770143, 1.69565412656784)","(0.17567450847099259, 1.7117144569846576)","(0.2198344197999496, 1.456264584525602)","(0.21922803492383977, 1.5156824244830778)","(0.20491278664514606, 1.473027262396005)","(0.2708529811323444, 1.3990449712195951)","(0.26245392586918653, 1.371123618101936)","(0.20389472126794322, 1.6382868003587714)","(0.20190652139208168, 1.526725097931253)"
"(0.2511054323021729, 1.3758584696930634)","(0.29443097396673584, 1.3718166570061978)","(0.2802984471169771, 1.3564595232902754)","(0.23751605604830417, 1.531487192952448)","(0.19941118940137764, 1.6797150324203665)","(0.25491867654685774, 1.4422762261034467)","(0.24127880812246585, 1.4136387137730988)","(0.214532216137404, 1.5804994955545608)","(0.18954595294000193, 1.6584848447550689)","(0.18996641652052867, 1.7183112189367544)","(0.226340423533745, 1.3706877834959912)","(0.2087996441142433, 1.443201161925792)","(0.13293524098866258, 2.354675767789637)","(0.21621445912645965, 1.4242116382102)","(0.21332097318114476, 1.5533858664990192)","(0.21545968480985664, 1.4742376228805085)","(0.19858802649637436, 1.4910422258620075)","(0.18991724890581504, 1.5852562433302166)","(0.1839143645281118, 1.5809807618854195)","(0.17626614980151112, 1.589338364842109)","(0.16709938728953957, 1.8185693946041241)","(0.18281872182164838, 1.5871438119057226)","(0.19327213528578338, 1.5682932813784458)","(0.20048072398156327, 1.7218424948657522)","(0.17801397566772212, 1.738488143129974)","(0.21521343656684924, 1.5386577326780704)","(0.21937168147565406, 1.5560862839512517)","(0.20468332115508572, 1.505140616488581)","(0.27514876432938423, 1.3997597107227204)","(0.264675348477377, 1.3493224985628758)","(0.23562418521260636, 1.4525252382651563)","(0.1866534846552151, 1.7533458498276588)"
"(0.2548178349626827, 1.3823437088528794)","(0.3107913877163733, 1.2981108565593376)","(0.27993624791095595, 1.357515683496652)","(0.2340991368449556, 1.5437411639466285)","(0.2040747346144176, 1.6911623283112043)","(0.24835172549911017, 1.469711873114002)","(0.23285539071796083, 1.4934535901399277)","(0.22314379735529077, 1.54060454993169)","(0.19638772091426795, 1.6506471702330585)","(0.19123549915414437, 1.7096305536437846)","(0.22003587301238242, 1.4370710830858489)","(0.21431339140047542, 1.4854797955564822)","(0.14050947486800955, 2.2913752649591146)","(0.2284336211974324, 1.4164894509409107)","(0.22546190945853956, 1.532534601875048)","(0.2188553195262196, 1.5572433285699072)","(0.2062413489336714, 1.58095488697708)","(0.1902892577098956, 1.6801721900444775)","(0.18818591847082128, 1.6520438022531647)","(0.16609551512175028, 1.7820952869064843)","(0.16372839379608276, 1.867889100226751)","(0.1820354408248351, 1.6102033116908048)","(0.18617017749843345, 1.6102655703987787)","(0.19608568239342689, 1.779820479012314)","(0.17692256282714627, 1.7457174054884652)","(0.21393030823050976, 1.5379328256636189)","(0.21673034259426954, 1.587548533396354)","(0.193612435957228, 1.5794749597438797)","(0.27609100165854733, 1.4223227224736044)","(0.26142278282587195, 1.38671267434129)","(0.24829269020017106, 1.3993579749757692)","(0.1730395809129268, 1.9021087315812335)"
"(0.2591570330370794, 1.366579998555474)","(0.3054003774535445, 1.3124345052700805)","(0.2876297265761091, 1.3768839018638124)","(0.21994952241760327, 1.6260035681989606)","(0.20799719745874823, 1.6592662806630585)","(0.2431724537808274, 1.4987768519438422)","(0.21446697459995948, 1.6556578570005305)","(0.2239789044560346, 1.522858824507529)","(0.1976491135995597, 1.6308569330169187)","(0.19572265172510897, 1.755128874877248)","(0.19930168375096732, 1.6270522629283002)","(0.2021930482546783, 1.602277907900133)","(0.1527628734277314, 2.0945706544580465)","(0.22396064927415704, 1.4716246912693252)","(0.22040960291767767, 1.5879813519527377)","(0.21725780715624488, 1.6017221142275921)","(0.2051215552966513, 1.6356886673599422)","(0.19152124434272638, 1.6980478443850153)","(0.17697046655582976, 1.7603015735498242)","(0.16227719838309906, 1.8473817765079588)","(0.1622399445591317, 1.870445540778757)","(0.1811572924755708, 1.5869318559729453)","(0.18038503262185235, 1.6684459046492663)","(0.19467765005213383, 1.775441510492889)","(0.16888021802167674, 1.8200808988442274)","(0.20932843354537292, 1.5629462550483355)","(0.225598205416382, 1.5516667548868313)","(0.1943263902267659, 1.603931377684794)","(0.276508171372024, 1.426935388034489)","(0.26697795459290635, 1.3901509365295388)","(0.2469925331006409, 1.4150318383142058)","(0.17820865952673665, 1.9460978649455956)"
"(0.26809236747951176, 1.3487740609116516)","(0.3151957489964885, 1.3152446032739444)","(0.2970732713184961, 1.3472948203998985)","(0.22753777094418157, 1.5614529556185537)","(0.20816430131789104, 1.6598578588941821)","(0.2458877229406114, 1.482675351882568)","(0.21417680423404145, 1.6468511129370986)","(0.2270964438202405, 1.4606730645937571)","(0.20259758389958624, 1.591884175490799)","(0.1995258465755837, 1.7316214482516672)","(0.19870321713640737, 1.6635375686422649)","(0.2025387801170233, 1.6217422366667607)","(0.1783738538653917, 1.7836034510720138)","(0.21890152524505344, 1.5170882035079851)","(0.20768586135539546, 1.704655257868353)","(0.21986702428352026, 1.590362755979688)","(0.20726160831496493, 1.6498368066811502)","(0.2022417976387499, 1.6238864479803143)","(0.18798338013184607, 1.6951737719740005)","(0.17117220642293668, 1.7986214971473349)","(0.1761858113038744, 1.7521532630760308)","(0.193117995138495, 1.505213512083164)","(0.19395367374045266, 1.5725028971701709)","(0.21012498644207378, 1.6799145711169836)","(0.1643063894531772, 1.8989566930432058)","(0.2094069530814068, 1.5838652382346432)","(0.22935690284814875, 1.565227753244234)","(0.20248556635240056, 1.625720354804977)","(0.2610559102469553, 1.5324381517611492)","(0.26293595716752594, 1.4237658774154096)","(0.24301610787661138, 1.464541563387113)","(0.179732267668656, 1.901207763693644)"
"(0.25928515488625486, 1.413487136819561)","(0.3163673851230025, 1.3167507342582985)","(0.29708904287353227, 1.3682667903430477)","(0.20531699026705888, 1.7964504337271827)","(0.2071149755116229, 1.6780758272701612)","(0.23939673828404895, 1.5191428846119355)","(0.22426903693085165, 1.6108838106413548)","(0.22077799300454268, 1.491833579224091)","(0.21413824210996835, 1.5037437131313403)","(0.20313903730950872, 1.6985032273194918)","(0.20164142797098875, 1.6512685006295864)","(0.19937937162792677, 1.6392123776993603)","(0.19029367024258834, 1.6812643563017118)","(0.21834004022552272, 1.507815353997091)","(0.20067530537772538, 1.7320324390897184)","(0.21830678526267638, 1.5699432354722795)","(0.20176028146134847, 1.6746063891923664)","(0.2058868112783412, 1.6029708255631323)","(0.17924923738091175, 1.7544692364235057)","(0.16873771678774516, 1.7684451955550573)","(0.17774793644001868, 1.7287496709213113)","(0.18921127181538677, 1.5620449095782656)","(0.18580958754582994, 1.656319499140846)","(0.20308181113932253, 1.711061202664145)","(0.16190905781292775, 1.9466453066721272)","(0.19887947772684617, 1.6823343782365183)","(0.22368442726257112, 1.6208089422586491)","(0.19599839520865, 1.695430298323319)","(0.2676073323418073, 1.4803037306482527)","(0.25785116190608187, 1.4352872442163496)","(0.22790219154063499, 1.5749637927957962)","(0.1793440894694818, 1.891999612164716)"
"(0.24610238988388664, 1.4860582035341747)","(0.3107627803778969, 1.3125588797365537)","(0.27645566593520415, 1.4688595105641071)","(0.18687142159208142, 1.941707848699747)","(0.21246261482211518, 1.6312911201106346)","(0.24232594297466048, 1.4596043660143698)","(0.22266232564758884, 1.6393455941308734)","(0.2091635805762443, 1.5332915736883674)","(0.2084721754077955, 1.5484364472213126)","(0.18894136927556232, 1.792868291551804)","(0.19925555963226807, 1.665076537864674)","(0.19916661922836496, 1.6515928570057052)","(0.19230865716936216, 1.6393516345689534)","(0.22033277262856216, 1.5160681900760484)","(0.20091180971406708, 1.7359721073141574)","(0.22624009536689615, 1.573190674297443)","(0.20237412162280546, 1.7572483289880245)","(0.21762324177136416, 1.566115237406005)","(0.1809478236260746, 1.7651298688056163)","(0.171206913917454, 1.850297900120414)","(0.17462157184151855, 1.7885952243869325)","(0.20462379089543536, 1.441635326379746)","(0.1999554796322462, 1.5572477305968822)","(0.20867271905368265, 1.6755573473436078)","(0.17126432887941478, 1.9175488846680377)","(0.1947688153378043, 1.7511391883049305)","(0.2407446527767935, 1.560432970910966)","(0.20463159618888976, 1.6335197882309989)","(0.2549789862202404, 1.527674001235073)","(0.2601976890757058, 1.4234004263110291)","(0.23364336288289606, 1.542331435835275)","(0.18355916472142478, 1.8559180121014793)"
"(0.2454196833655809, 1.4869087295137906)","(0.31343340152175025, 1.2848699691596088)","(0.2743057966288558, 1.4179129403625979)","(0.1871984676408283, 1.8965636700893838)","(0.21194780342743305, 1.6456384901481436)","(0.23809774388591243, 1.4914774419089176)","(0.2070002318464737, 1.7496288829817002)","(0.19641131892525915, 1.5894652957396787)","(0.19109789664625818, 1.6963244642058977)","(0.16548700524111618, 2.038721117468844)","(0.1685865395148463, 1.9413718540215044)","(0.18501029172267094, 1.782164320175101)","(0.1893761385584929, 1.6235902909944682)","(0.19735619071949748, 1.7090839034673924)","(0.18551425679651296, 1.8749274431953844)","(0.1992888155627076, 1.7681675339935627)","(0.1791304514896501, 1.953296512955735)","(0.18951132759125597, 1.7763176492772978)","(0.17245598453753033, 1.8095144897556057)","(0.1591083957618467, 1.9642919295022994)","(0.17442686637049745, 1.7507607617946586)","(0.19031349189879737, 1.54477821289786)","(0.19056330772596997, 1.6101033093057113)","(0.19944913407472903, 1.7329365586432222)","(0.1642550321302281, 1.9428321807740152)","(0.1893305017989728, 1.796465860262952)","(0.25741719773321914, 1.5190749326017514)","(0.1874151149174773, 1.7178087264932445)","(0.2407378042018961, 1.5679814991403453)","(0.2470013096171431, 1.466556733242127)","(0.22308462370880056, 1.603190734144626)","(0.18074027742888396, 1.8852205260648602)"
"(0.24198010590568678, 1.5182248782958827)","(0.3050567364333497, 1.2888656680597312)","(0.27111511955372963, 1.407004260654271)","(0.19307331264724267, 1.813041844725985)","(0.19829336308953283, 1.6816752744389016)","(0.23984286813897798, 1.4563870335503801)","(0.1978007387970292, 1.8070571307179253)","(0.19506113255585295, 1.5803122497876374)","(0.2049403768484106, 1.5806495351679501)","(0.17068658025993774, 1.9548907415390997)","(0.16044220238692794, 1.9849381394457533)","(0.17851119067741267, 1.8178665187718728)","(0.19564497713042475, 1.5925106748340205)","(0.20025529875130843, 1.6430717896436462)","(0.19087914292330857, 1.799314977100184)","(0.2002340368951176, 1.7701250293312902)","(0.18505714286052632, 1.9069573491371679)","(0.19666161076278513, 1.7344069495986516)","(0.17845982645946, 1.7586090706426072)","(0.17403014478010329, 1.8454199853594004)","(0.1785797551094753, 1.6993348453298645)","(0.19651097571381723, 1.5064250402981783)","(0.18820887225033453, 1.5993439894556127)","(0.19739728449888483, 1.7414450902481415)","(0.15902842776335827, 1.9839656476047847)","(0.17833667879398143, 1.7413748580360155)","(0.26469759106595664, 1.500093745576648)","(0.17331063363824897, 1.862930246317869)","(0.22326397641094262, 1.635261031236146)","(0.235308129701775, 1.5400752690558428)","(0.22359895694554358, 1.5112348658599182)","(0.17778420478250273, 1.8892628971931298)"
"(0.24891939259495663, 1.4724586130396657)","(0.2975836608433039, 1.2911988504981973)","(0.2716174293078046, 1.3558953162481586)","(0.19274099877242074, 1.7880631860568348)","(0.18475133152751133, 1.7792218484351494)","(0.24101515630034978, 1.4307433524594955)","(0.20162933622919507, 1.8135102793059377)","(0.19099032932355867, 1.6168447464511035)","(0.20849492576432652, 1.620280447667535)","(0.17173490952855738, 1.9452860284848852)","(0.15793931365689165, 2.013549547871199)","(0.17212834464504811, 1.9580734667695778)","(0.19240252862303825, 1.6960224135031388)","(0.19393109357683208, 1.7074465779419308)","(0.19164403959758636, 1.7766623125586656)","(0.2001495684374996, 1.7736253376179634)","(0.18580221607198014, 1.8752312715822543)","(0.19475377801325625, 1.748050692974006)","(0.1753100500250395, 1.7782380089268106)","(0.1744252814460522, 1.8281268191577686)","(0.1830247800736616, 1.6612127778841046)","(0.19103913798247346, 1.5718644664514925)","(0.19490864622661758, 1.5006997117442493)","(0.2138159760826714, 1.6218645807786776)","(0.17278518267816892, 1.858903318222165)","(0.18285606114915828, 1.6011859834848654)","(0.27395242652224205, 1.4531689821093718)","(0.1891174207867589, 1.6775944923351769)","(0.22580795018187744, 1.5586850269093817)","(0.24594562705780226, 1.4922132650233744)","(0.21933098438204357, 1.5021368448644081)","(0.1826163755372369, 1.861040024833454)"
"(0.26078373235447566, 1.4172515171810582)","(0.2931615242441316, 1.2985434850522741)","(0.2814633355265641, 1.359438820811698)","(0.19217002322183474, 1.7920735240574708)","(0.17995422184543416, 1.8349984439834106)","(0.23588932009459002, 1.427791063418192)","(0.20395463714872333, 1.7885084176034367)","(0.18048798496091228, 1.70152251284228)","(0.2072308960482932, 1.6388016284362494)","(0.16564400893388068, 2.0085538043496785)","(0.14828574688316298, 2.1276710757574047)","(0.17552795006088712, 1.8998605800999355)","(0.20062647761711408, 1.6038410029113261)","(0.19176432618814135, 1.7073446833573303)","(0.1884596792257987, 1.7830699241118009)","(0.19445602178848, 1.8241961388123167)","(0.18454363878304583, 1.885133681995921)","(0.19495537695720722, 1.730079948222241)","(0.18124013435245556, 1.7335658112751449)","(0.17448588450990965, 1.8607755541187392)","(0.18772369353548274, 1.6427038669732918)","(0.19623501838391016, 1.5404264758833845)","(0.20012395041301756, 1.4821196054407506)","(0.2227097821331025, 1.5826867124653752)","(0.18455812481431466, 1.7918821580151527)","(0.1760673752540385, 1.6691035535387877)","(0.27729484876762317, 1.4717801583688326)","(0.19906579688318532, 1.6419402537970633)","(0.22927192912511185, 1.5794072954676401)","(0.260426225151795, 1.5008647027441844)","(0.22020779178690678, 1.5219179643005805)","(0.18391244690792224, 1.8703885579486381)"
"(0.23685975907933574, 1.541692375196945)","(0.2936548100190985, 1.29323885412715)","(0.2773981890049611, 1.378847753932485)","(0.19725433379642504, 1.743356475984724)","(0.18142257952822835, 1.8200491351362127)","(0.2296130272597864, 1.4790736331405807)","(0.20174061006166588, 1.7952002021736888)","(0.1864101628795383, 1.6274466525810953)","(0.1940479121492771, 1.7553394525585042)","(0.15210296970756607, 2.1346363640128123)","(0.1457823947311659, 2.0489364792181766)","(0.17528124473784712, 1.855009360316991)","(0.19961872510628967, 1.5825909066618788)","(0.18414952175584698, 1.7294538305404314)","(0.1880407282084342, 1.7384921789153882)","(0.18546662851080453, 1.8490319035964426)","(0.17921572629570098, 1.8612035917012735)","(0.18506440296965368, 1.7047928495095135)","(0.18239581341502523, 1.6090222964368255)","(0.17149864487069175, 1.8023317577317925)","(0.18600530290078315, 1.587296429984663)","(0.1932399226973517, 1.508244032318634)","(0.19955583713834654, 1.4787495235842718)","(0.2198970705997662, 1.5879608139990922)","(0.17111474675589544, 1.91001776126018)","(0.18606972396716656, 1.5554410212651477)","(0.27305403641814185, 1.4975101146405503)","(0.17443412296314612, 1.8512077345313016)","(0.21527122243055175, 1.6707656246652836)","(0.25287110862503, 1.5688274026273257)","(0.20350170684933697, 1.6459982868161545)","(0.18164595214604348, 1.8673223361743332)"
"(0.24650569400294606, 1.5127131438436914)","(0.28600237370142506, 1.3033157792977925)","(0.28803784785054976, 1.3495083680730544)","(0.1990573664250038, 1.7284608517311053)","(0.1831659918716652, 1.7216191921899888)","(0.24638306487836256, 1.4166656402000277)","(0.20458702819403943, 1.7656844029222072)","(0.1846379542990545, 1.690391873044521)","(0.17997073181520348, 1.8732710556571714)","(0.1445700399796592, 2.2477787385109314)","(0.14637999379942843, 2.0102292437152243)","(0.16093250949681348, 1.9521175668743778)","(0.20220945238977794, 1.5602637139792452)","(0.1718507360875287, 1.8243239356366066)","(0.18343023016246693, 1.779718881993371)","(0.17992918869017996, 1.8708718105471176)","(0.17248141600986513, 1.8686537412111244)","(0.1787785291458497, 1.732726168533765)","(0.17252895071821345, 1.6805424058426575)","(0.16693270509211766, 1.7733960406701852)","(0.18026222925173432, 1.6499161815267047)","(0.18902223575624919, 1.5584895734713704)","(0.2026646114058803, 1.5168571326704645)","(0.22351042059625015, 1.5834785798006596)","(0.17317296854136616, 1.8794116496864037)","(0.18624268282521636, 1.6005582725444725)","(0.2659854552594696, 1.507915726795569)","(0.18151365198756353, 1.8223122886676708)","(0.21946916201248445, 1.6020105961162232)","(0.26702287719299017, 1.5265767879728467)","(0.20240006756601206, 1.6072634534808392)","(0.1820839549212233, 1.8295628794723693)"
"(0.24324465037114537, 1.5317258861198266)","(0.27554956342058745, 1.3331344259290152)","(0.2758818461904212, 1.3836395478776684)","(0.20550630857283367, 1.7130088210959462)","(0.18980535048891628, 1.7423473424914275)","(0.2630704397406568, 1.430832772710912)","(0.2223035675838644, 1.6777363681756425)","(0.18025533149719572, 1.7696144152421704)","(0.1753320090353823, 1.9304089327541853)","(0.13637001612243108, 2.3313026192704744)","(0.15170860758137064, 1.931538981097103)","(0.16274125997160446, 1.9010086355689195)","(0.2040301767420489, 1.5584948254975355)","(0.17102529226723195, 1.7957433504337932)","(0.17919999376804266, 1.783018980899297)","(0.1805035951680249, 1.7957250603874706)","(0.17230775930921952, 1.7789542368493512)","(0.17805891630406398, 1.6766475075282876)","(0.17358781031775047, 1.6282166067891755)","(0.1687911701355268, 1.691566754527654)","(0.1778792558178803, 1.6442253651678824)","(0.1904132327032552, 1.5508602644556604)","(0.2068758079270711, 1.4754789458523878)","(0.22689436801621685, 1.5591018887573451)","(0.19001501685487557, 1.7465058083290788)","(0.1947536902688772, 1.5589160152736796)","(0.2647239325420998, 1.5135939929451585)","(0.19106836549356956, 1.776312454681402)","(0.23417675127673362, 1.5539308592836028)","(0.26619577320930105, 1.5101021512584205)","(0.20341302188262553, 1.6226833859286518)","(0.17934000549384066, 1.77067855869581)"
"(0.2481428015777756, 1.5344739866514618)","(0.26637170793311654, 1.2967913894939997)","(0.2701939128289783, 1.4340002887826324)","(0.20457372134364135, 1.7252217224659148)","(0.19249927345280307, 1.703483477676691)","(0.27113473875876426, 1.388289998531683)","(0.2258838373986686, 1.6704242799805884)","(0.18079181662960858, 1.7770691613044995)","(0.17695602645730532, 1.9061428050942144)","(0.13607089360659622, 2.3009996115407616)","(0.15163759117007314, 1.9185825259071867)","(0.1620914110067675, 1.8941388967474637)","(0.21091384685723627, 1.5665231043971986)","(0.17349421479849564, 1.7762308555437334)","(0.1839276396091691, 1.7434908067197354)","(0.1835508150066511, 1.7627707071353143)","(0.17516478964671764, 1.7419636447867197)","(0.17450196725134548, 1.6842721861250218)","(0.17230385006393462, 1.6092557886926004)","(0.16866269114583968, 1.6654896218915352)","(0.17306973171368017, 1.6822657073580467)","(0.18978956613510198, 1.54415055368605)","(0.20700448305256375, 1.4740543097959722)","(0.2187506229938078, 1.595119382003655)","(0.20123549719634568, 1.669830782969287)","(0.197925736704359, 1.5380978110769257)","(0.2726729683486215, 1.4842577405518804)","(0.19060684701991273, 1.810347062512204)","(0.2515993698928144, 1.518360220185456)","(0.2716484274326154, 1.4867753640652264)","(0.2004607367931372, 1.6757772587787998)","(0.17869136336411984, 1.7495308460924952)"
"(0.25105521843335904, 1.5162483755138414)","(0.25881022637746015, 1.34665258013892)","(0.2647016363734173, 1.4494310809031579)","(0.22063810390221775, 1.5787958670133198)","(0.19466996099720235, 1.6498090038510793)","(0.2807885868076315, 1.335450176794368)","(0.2173892289686369, 1.6934378496586036)","(0.18920419523910811, 1.7220629553142728)","(0.18180973520856514, 1.8455304751830428)","(0.13446100100098599, 2.3641500421597175)","(0.15840443621594227, 1.8149308100101762)","(0.17053226620929482, 1.8124683690455201)","(0.21084416337796447, 1.5814374677628518)","(0.1778648890212273, 1.7227820980386217)","(0.18795067120938022, 1.680143021695831)","(0.18640700645072167, 1.718487832852441)","(0.17941137540727048, 1.6870221760297544)","(0.17196631020500824, 1.695893526696189)","(0.17346404628216133, 1.595095738227701)","(0.16833345776556002, 1.6825578841803754)","(0.17028280677792412, 1.7212799695591479)","(0.19022623094151694, 1.515629466066637)","(0.20031599786687154, 1.4899249072933998)","(0.2122307487135233, 1.6445397228427863)","(0.19339647376342387, 1.7002128886982513)","(0.1965188855547056, 1.5312358817948877)","(0.26236422406805093, 1.5376099373169652)","(0.18927801516433684, 1.8037452110735206)","(0.24621031950979697, 1.5359983020571064)","(0.269827615851216, 1.4803028919622085)","(0.20852683743138273, 1.5806596130562625)","(0.17844786701631096, 1.807216693409532)"
"(0.27530672189515915, 1.449250815106123)","(0.24546291375168633, 1.372123684502513)","(0.2584849394928691, 1.4957552371547578)","(0.2498348476483904, 1.4377456541093603)","(0.1948273774995955, 1.598855268600099)","(0.2841281837139951, 1.3934837389220183)","(0.21991852817198565, 1.7140807198154875)","(0.20502792220759988, 1.7022905601709843)","(0.19375462049940836, 1.740226466936765)","(0.13500969691984768, 2.4750432089896233)","(0.16214086070179215, 1.8233445458858673)","(0.1758119786401073, 1.7546444396782315)","(0.21646564312436553, 1.563497908651402)","(0.17820259113036394, 1.6895962048372701)","(0.18910099094202124, 1.6422522305200182)","(0.18673872109861123, 1.6496890118968612)","(0.18226762280034206, 1.584916749349828)","(0.17923828090919924, 1.609918890056637)","(0.18223718770637662, 1.5410758818329289)","(0.17112277580045926, 1.6174767074077814)","(0.1790568201388032, 1.641332712760278)","(0.19421408457383604, 1.553467022771678)","(0.20676499921689417, 1.4786922384758525)","(0.22090277155257895, 1.6235869359796828)","(0.20528339739944135, 1.5942983838676652)","(0.2103916665072744, 1.4956716324183297)","(0.2715025206430197, 1.4745480312768098)","(0.1979647736163945, 1.714942370861648)","(0.262161647544091, 1.4466083343894287)","(0.289246749645961, 1.3846547309177701)","(0.21376567295349908, 1.51983419316733)","(0.1924195027441405, 1.7578049277679197)"
"(0.2544227354553168, 1.5678590208675451)","(0.23121703059991697, 1.4558852884026987)","(0.25117620663928053, 1.5762763516978844)","(0.25574746034090934, 1.4320051725707856)","(0.19537219591404567, 1.592080001008321)","(0.28838399741789983, 1.400691257145647)","(0.21789104376552146, 1.7427496892160108)","(0.21460614399759365, 1.6800092877600614)","(0.20167955694130577, 1.6689745066117458)","(0.14763939625011935, 2.300691534484103)","(0.1731777764299074, 1.7415882838561512)","(0.1841018379967935, 1.6638672039574567)","(0.2123133469355841, 1.5700795217891277)","(0.18092064020327747, 1.6389869536165103)","(0.19133229545870073, 1.598351119971471)","(0.18948491928202688, 1.6220689474584553)","(0.189639877213084, 1.5430049328032511)","(0.18482694091458035, 1.566713699017334)","(0.18565850677174356, 1.5244316727103369)","(0.16644055967874344, 1.7080402166951845)","(0.16320038186989358, 1.8252077839503626)","(0.20376876661484855, 1.4769311119981263)","(0.2004688075646941, 1.525903190720511)","(0.1929090794070826, 1.8973211634759328)","(0.17749379289833184, 1.8511547055171056)","(0.20826452282720717, 1.4985376893816726)","(0.25946565162016183, 1.5249363481227731)","(0.173867156318558, 1.9431268318473671)","(0.25511496403196393, 1.4874440417889976)","(0.28580828906874245, 1.3887100752880206)","(0.21780901337820907, 1.4761728196001014)","(0.19637646843928064, 1.694153697114979)"
"(0.2519375086034251, 1.543694488468073)","(0.22300361760349613, 1.522665469195533)","(0.24558946352467542, 1.584231269729849)","(0.2616075517511204, 1.4071808084690456)","(0.2037082771374842, 1.5505381822203887)","(0.27920819388376616, 1.4581427091100656)","(0.2209182373139398, 1.6791994466178066)","(0.20445612892819934, 1.8230095510867543)","(0.18663490238224137, 1.7926700807786777)","(0.1618283138496544, 2.160426860490481)","(0.188126728782165, 1.6519933796760826)","(0.18478917898974145, 1.6627193300285172)","(0.19738564047032617, 1.6842808724200642)","(0.17607250730687413, 1.6973994349244825)","(0.18970747321256914, 1.6065591841179987)","(0.18723396749967874, 1.607014190977886)","(0.1856821576099565, 1.55860850993218)","(0.17708363366507984, 1.573833209219467)","(0.17455229574835027, 1.5937998481223141)","(0.1530745403344571, 1.8367865261849032)","(0.15379672138875383, 1.938949879462307)","(0.20200875890382616, 1.4813324593232766)","(0.20632987459773375, 1.5070704748632409)","(0.18540023726730792, 1.953996975185658)","(0.1835131899100375, 1.7441423500448014)","(0.2240565697093691, 1.4592394736526877)","(0.2720839996778301, 1.493425665395937)","(0.18848485060153147, 1.7799717132572794)","(0.27425815702087797, 1.398349527998388)","(0.2921073429395175, 1.3452833528689387)","(0.22344719796638207, 1.4819889309791532)","(0.19959426671038943, 1.6932113579202044)"
"(0.24541264999881746, 1.584554688578729)","(0.2307956784595819, 1.5411950469391595)","(0.2506635594506377, 1.5466182955231194)","(0.26266244852918624, 1.4212476131735328)","(0.2129809951063035, 1.5085152765665129)","(0.25965090619871795, 1.5583631368702915)","(0.21644660120086262, 1.6707746367816652)","(0.18379248494032419, 1.9909690253973344)","(0.19043039585959065, 1.7898166512644758)","(0.16537514697731054, 2.054093999665048)","(0.1897945181948164, 1.641466317676528)","(0.18425379554010762, 1.660752852983753)","(0.1959567278764643, 1.706906671615933)","(0.1753226627586042, 1.7093507220512587)","(0.18386341742432505, 1.6489798032943657)","(0.18538550742961452, 1.595245372298283)","(0.18508485220167475, 1.5355177347233462)","(0.17571876089254307, 1.5522140592750746)","(0.17339534500070877, 1.5756405080843081)","(0.14936347527676547, 1.8300656111727873)","(0.14956654327658292, 1.9547693421338868)","(0.20244872329719563, 1.5080753594009053)","(0.19978445844902495, 1.6039054701436326)","(0.17602634011956436, 2.0160212788503853)","(0.1730081532106564, 1.8269369416836427)","(0.22281301536077522, 1.5348843469424431)","(0.2720704516383606, 1.5187803962285995)","(0.1798705331086569, 1.8909715780264957)","(0.2773703579098611, 1.400420138399162)","(0.298735271488579, 1.3382322642874835)","(0.23307671903708307, 1.4283408241271356)","(0.1952509311097266, 1.7384847099541092)"
"(0.23684412549672085, 1.6410594568171488)","(0.23103074049192407, 1.5581088762628446)","(0.24553361393207382, 1.5835592974299835)","(0.24194879507900843, 1.5515743835990177)","(0.2135910118232567, 1.5177662898236617)","(0.2724343470648758, 1.5282073005261319)","(0.2093565487033397, 1.728091112167066)","(0.18213595527795473, 2.001372810575131)","(0.20069673129609242, 1.757521664805755)","(0.1670249372265704, 2.0649391393057024)","(0.19981416283170755, 1.6096053753554143)","(0.18399080588359143, 1.703012316586295)","(0.19430680471189193, 1.7219387202940477)","(0.17673941936961324, 1.746534585445148)","(0.18943586122940095, 1.6619826045227344)","(0.18747015542474074, 1.6011055496333637)","(0.1844854180284948, 1.5530075220374076)","(0.17154017845118108, 1.6149624265726628)","(0.17292755346193547, 1.6080593342380234)","(0.14873786036615314, 1.8306101733730968)","(0.14431977046720312, 2.061889175155858)","(0.20108250804955818, 1.5448482573914142)","(0.1961567482320094, 1.6359654138107083)","(0.17852681419277144, 2.0294879775584564)","(0.17086898820821766, 1.8812449110972411)","(0.2192499874977227, 1.5757918398492865)","(0.2760400937558793, 1.5155288459662088)","(0.17390917131924863, 1.994888990969784)","(0.27716432927950063, 1.407185350032263)","(0.2939758426673671, 1.3548724016973976)","(0.2225447916712022, 1.506470238996242)","(0.19329140205760986, 1.694505014271093)"
"(0.24429534137316614, 1.5828801130854133)","(0.2275830311106923, 1.5637014811884842)","(0.24960213592256664, 1.5430383189390315)","(0.23524072349104508, 1.6074989542949156)","(0.21605917757571924, 1.4515333753485502)","(0.2756354711836228, 1.506112951870227)","(0.20559151923203936, 1.7635805523939112)","(0.16955819573887565, 2.1552545585394176)","(0.2076357694810066, 1.6741314332091057)","(0.1728732153255819, 1.9463737189372265)","(0.20358221948259933, 1.5961883089769657)","(0.1930511112346449, 1.6425906963722838)","(0.19706854423880396, 1.7382230241642649)","(0.18370695801616083, 1.6822869424296047)","(0.1933940846375706, 1.6465108452268076)","(0.19163749080353243, 1.602732910378451)","(0.1880965048752236, 1.5616083346070597)","(0.17643097440935787, 1.6636265404197441)","(0.17234555084368938, 1.707688669778634)","(0.14858374943881064, 1.884511673353698)","(0.1361355951585912, 2.297241455216358)","(0.20591136624251213, 1.561856632804869)","(0.19771020447605875, 1.6210421697688036)","(0.18533611549422005, 2.0432138780603593)","(0.16240283315713294, 1.9667223765650002)","(0.22204410002225505, 1.5029562885390197)","(0.2750279413273099, 1.5242944653015187)","(0.17862465084746354, 1.944731889011164)","(0.2705649203839302, 1.4323380806377743)","(0.2976735783683754, 1.3297415714549665)","(0.22780272520117534, 1.4243494249593842)","(0.2002493032628577, 1.5969871462472227)"
"(0.23720949694427457, 1.6183162932043804)","(0.23179782315621716, 1.5530581216272183)","(0.24398116471205197, 1.564091803563382)","(0.24616982045040164, 1.5671657541100366)","(0.21941511496242525, 1.463419539976194)","(0.2758371975245411, 1.5050689638301227)","(0.20448881506009225, 1.7656093718271595)","(0.16321108805531967, 2.250534925178273)","(0.22148004617327363, 1.555675046928837)","(0.16126917263998802, 2.0757040901059933)","(0.2020823311109058, 1.6104571087175634)","(0.19415424267599768, 1.6286594855743906)","(0.20408546452610615, 1.6527850971929312)","(0.18486223034449897, 1.6241095488025505)","(0.19397837446467403, 1.5842160189812833)","(0.1883605452229075, 1.5656890708122868)","(0.18392004044499558, 1.565717204744273)","(0.17833407208539176, 1.6272749340177297)","(0.1746965690341205, 1.6774420664364562)","(0.1454571973146559, 1.9626959202520216)","(0.13358420398695894, 2.3397450159354163)","(0.2104712336938058, 1.5150329423605176)","(0.1955312193217378, 1.5984296841622416)","(0.1780603198060548, 2.1369968320941455)","(0.15048779811439691, 2.129416379804321)","(0.22202393959789501, 1.502053960169568)","(0.2828288739437111, 1.498893253590641)","(0.17130163618487465, 2.0146297504750814)","(0.26757651214745864, 1.4406678662273542)","(0.2957111902008454, 1.313119599445415)","(0.23202763661757242, 1.416583914139119)","(0.21836731792718672, 1.4878272013833949)"
"(0.2365533617648484, 1.635071966811184)","(0.22800443935909132, 1.5886550557313222)","(0.23635989409275296, 1.6271099519996703)","(0.25057185391137976, 1.533622661125166)","(0.2093809951974617, 1.4643930798653237)","(0.27076949187895066, 1.5209639115074594)","(0.19853971651522592, 1.8053298942989247)","(0.1601522477706195, 2.3043049608577593)","(0.20956540797448525, 1.643789000773995)","(0.16431852723631624, 1.9880334598909533)","(0.19692994194386787, 1.6409588229396908)","(0.18707849594197618, 1.6580578506664092)","(0.19310709079114918, 1.7326007748035532)","(0.18078172248019866, 1.646986056882301)","(0.18704909480193913, 1.6524754626713218)","(0.18158900375073891, 1.6543438399667214)","(0.17440428339794967, 1.711494067526196)","(0.1773427017310798, 1.6926989940764685)","(0.16571863183437643, 1.8426821139405773)","(0.1371903658437786, 2.1827016571900018)","(0.1342992895089148, 2.3994895438483788)","(0.2110436210444846, 1.5287639202999475)","(0.19586845242429723, 1.6179434133297446)","(0.17412222695555818, 2.2011942932444217)","(0.14288091184882126, 2.2068572782651987)","(0.22044577243880378, 1.5115622738285683)","(0.2864264156469531, 1.4852297684827094)","(0.16483335161621143, 2.065394523578536)","(0.2632902372953856, 1.4535110485171614)","(0.2958677733188507, 1.3285493235723438)","(0.22915246566377512, 1.4210928853495888)","(0.21459868515141636, 1.511379867574602)"
"(0.23067792374177745, 1.6259711654929914)","(0.22562589712508743, 1.5819770240781155)","(0.2299303606851556, 1.6168339373961396)","(0.2512359161667179, 1.503694911556512)","(0.21079881806908415, 1.424523497463825)","(0.2685980610816979, 1.5331116815960861)","(0.19888724992420775, 1.789257142434098)","(0.15462406469838955, 2.4180601752439723)","(0.17866283704726407, 1.9104945692843502)","(0.16622206369744283, 1.9612483596523627)","(0.19957489135217318, 1.6026763886142787)","(0.1895609625530181, 1.5945957731306524)","(0.18413543555490533, 1.7561246809843298)","(0.18338725231543856, 1.5928484198211197)","(0.18820582275535666, 1.6216298940984388)","(0.18294358790534437, 1.616593839173575)","(0.1744056693646676, 1.6731150615367207)","(0.18374489008361006, 1.6311829268907188)","(0.1715932772633582, 1.7859712637414975)","(0.13697809022651458, 2.183245605493002)","(0.13407003031170525, 2.396776969465351)","(0.20484742406557538, 1.5957156807043507)","(0.19854120401831132, 1.5823146430009878)","(0.17579186357592985, 2.1741026667621166)","(0.14150077525815016, 2.157297047908737)","(0.2157672879249627, 1.5133606337804708)","(0.2818916082925594, 1.507296718499607)","(0.16255275891006657, 2.028358557639713)","(0.25142194899772125, 1.4746382924090145)","(0.2923621451984232, 1.3450496092718545)","(0.225481586216406, 1.37555909236796)","(0.18651942455060755, 1.7494970577158742)"
"(0.23178483138731198, 1.6097713732072005)","(0.2270951167527018, 1.5451068158570676)","(0.23116335904930427, 1.6027775470075505)","(0.24591186740714782, 1.5294310571514855)","(0.2132360966107727, 1.4293659490648252)","(0.2625943090243256, 1.5676551739986446)","(0.2011624862506673, 1.7671067113960728)","(0.15028408092501214, 2.5118315268716906)","(0.1739524319878754, 1.9175101528546648)","(0.16585473482194096, 1.8909885303229175)","(0.19768710931242156, 1.5963859004156074)","(0.1881552276089217, 1.5762832428053712)","(0.18432071738728353, 1.7275602047100593)","(0.1833524670047316, 1.584918265386766)","(0.1902947795640233, 1.613057571615849)","(0.184240808336902, 1.592299350484829)","(0.17666753461042364, 1.6392577150251768)","(0.19170331629326248, 1.554908386027671)","(0.17499187657878676, 1.7977814584116545)","(0.1404417481119818, 2.095856858875449)","(0.13190109994455435, 2.4916229918898383)","(0.2120659142812502, 1.5508011547702756)","(0.2038353661173477, 1.5727897230237575)","(0.17792366665183895, 2.1505156483009875)","(0.145295984493914, 2.131301279460866)","(0.2084969767367332, 1.5923490411290684)","(0.2870873751663448, 1.4673937027402388)","(0.16225560614124854, 2.024678005981596)","(0.2519608715958701, 1.4651670467737063)","(0.29313939112711496, 1.361570721355035)","(0.2201732849806516, 1.4280680202336233)","(0.1888173776126402, 1.668556247628294)"
"(0.20164518442683402, 1.6608023030917403)","(0.23287669298991695, 1.5588422606213137)","(0.2280090876140464, 1.6049163500811943)","(0.22308946356625312, 1.6529128462403813)","(0.2088770892974836, 1.4873517323407497)","(0.23865570295069097, 1.7205956255657056)","(0.17785653898870105, 1.8327271979838118)","(0.1399999955883516, 2.6381331140768594)","(0.15459742284701333, 2.123956196546904)","(0.1665039221272969, 1.7763258959173969)","(0.1877006102853059, 1.636082758137243)","(0.18549673577030645, 1.5550480809022882)","(0.18134207635449262, 1.685129402995833)","(0.17887603135810673, 1.6007054331718549)","(0.18721920335543926, 1.6632424947651827)","(0.17795583402834744, 1.63758576712431)","(0.17473296349679696, 1.6903785650652836)","(0.19157685330614418, 1.542960021758658)","(0.17097259579763224, 1.7746144921895737)","(0.13865724255441464, 2.1310426305792984)","(0.128070146217746, 2.5662927959521546)","(0.21094243366575488, 1.475607112867124)","(0.19727394514343113, 1.514509102952915)","(0.16851954253479995, 2.206327791696943)","(0.13173608048593313, 2.183215708458624)","(0.19609241601413963, 1.6117330320195717)","(0.2664802964235579, 1.5798780057575026)","(0.14887277879814184, 2.121496119703985)","(0.23614297195174794, 1.5534386086930656)","(0.2680810608718301, 1.4605238448403657)","(0.20609582707338742, 1.4829377698865995)","(0.16835429661755413, 1.7124100975440777)"
"(0.21544480981319436, 1.5667234984244431)","(0.2309132912324634, 1.5527576714204265)","(0.2239439648041666, 1.5846523379732795)","(0.21149732686272332, 1.6796824277286544)","(0.21359496836728648, 1.4293958750252915)","(0.2248751442748424, 1.7926499613600593)","(0.1792076029189885, 1.8140126140372013)","(0.1362904294709477, 2.6629474125871924)","(0.1674134861507588, 1.9909279619848186)","(0.16415826541106482, 1.7199283664058755)","(0.19376055120984725, 1.5628993780464655)","(0.19161385498396294, 1.546832684839394)","(0.178119234302103, 1.7207156058646724)","(0.19053976904485118, 1.5540301240019496)","(0.20005341878611907, 1.5750461270422722)","(0.18741810230952982, 1.5623045323921525)","(0.1790001005843166, 1.6521014484486911)","(0.19646787038755079, 1.517290719636033)","(0.1675916011072467, 1.8070484105755114)","(0.1412999986207469, 2.0197984560591147)","(0.14502233992836364, 2.2876173160819304)","(0.20518795175232651, 1.5393055248940424)","(0.211564611450584, 1.409089110733546)","(0.19336645255259569, 1.9173463068353735)","(0.14925921043604104, 1.9288045558354883)","(0.21192106595556634, 1.4715316888239038)","(0.27172527589467305, 1.5374162150472979)","(0.16318736568771414, 1.9628801352407652)","(0.23874513565500052, 1.5202739849613387)","(0.2778620357355783, 1.4400954377043451)","(0.20757231929860112, 1.4487200899341823)","(0.17038717970718106, 1.6701884741143487)"
"(0.21425861895411233, 1.6165161874994927)","(0.23534881000338106, 1.5076369793794)","(0.22266871184252984, 1.640231217911913)","(0.20617876693987633, 1.7146681646681619)","(0.18350861850669356, 1.6131125299097573)","(0.22700309905628063, 1.7759100552763796)","(0.18113324475913906, 1.8610335091582018)","(0.14001772292919523, 2.5097934308264387)","(0.16836625625953436, 1.9361663520232086)","(0.1656115309945006, 1.6760635255247067)","(0.1893787216768513, 1.5453578643475412)","(0.1917782067657808, 1.4633342478310134)","(0.18368098256112173, 1.6804354396195786)","(0.19411649750919877, 1.4569364327455745)","(0.1985300810817715, 1.5623883525219826)","(0.19056032441713983, 1.5197267755133905)","(0.18387872076338535, 1.5855177977365134)","(0.19605661901143157, 1.5233518818958516)","(0.1804387733549032, 1.6296602189861535)","(0.16169897657777782, 1.6581210581320565)","(0.16243435537124012, 1.9382364718008511)","(0.20604794089228146, 1.501135745215317)","(0.20720001533391486, 1.3451239596159132)","(0.21322324901909864, 1.7135662164310939)","(0.14063178653353453, 2.029274251988976)","(0.19839150835473165, 1.5017814411464538)","(0.2493504069277134, 1.5851566887341708)","(0.15107683863049853, 2.040430839564827)","(0.20947299973256364, 1.627593802570609)","(0.2670373771359507, 1.4956262511874832)","(0.2012549587074716, 1.401204348638996)","(0.17599757508163877, 1.6419572813669905)"
"(0.20999502337404116, 1.6333881598042077)","(0.2312569135464667, 1.5181622060554851)","(0.19337985241745975, 1.9345348010429535)","(0.20962111130284014, 1.7077473924887323)","(0.17998076313131342, 1.6430556660467155)","(0.227271092791171, 1.7622869507595147)","(0.17841663063622717, 1.877735821383055)","(0.15506486240735648, 2.2557196932619075)","(0.16122007474805913, 1.9806976352527543)","(0.16382250464110473, 1.6557603918529713)","(0.18003589616621127, 1.591808157402043)","(0.18872368074549772, 1.46626753077513)","(0.18721138117711894, 1.7108400659799454)","(0.1870311102278168, 1.5049924048666938)","(0.18135923155457873, 1.7107704407528705)","(0.18281387718578723, 1.6034348409516042)","(0.1714638309215677, 1.7336145665423521)","(0.1772891190385565, 1.6981151703528583)","(0.17031670773525726, 1.7440367425116277)","(0.15484485175554183, 1.799998890933741)","(0.1463532653727895, 2.1484983353219542)","(0.18940392244879622, 1.61406852852223)","(0.18306072836793474, 1.484658295212669)","(0.21329955846976686, 1.7434314420465)","(0.1208551883164656, 2.3179274810843817)","(0.17766599943963743, 1.6220400696891928)","(0.20100894324500002, 1.8867150661928698)","(0.1209328465566632, 2.4449685374688643)","(0.17341069905717288, 1.846286654590039)","(0.23598719210380295, 1.6371747912889212)","(0.18388763593770557, 1.512326607224639)","(0.16373074097926055, 1.7368637822050186)"
"(0.2124294693155995, 1.5943308810891395)","(0.2304601149285416, 1.4750717869176455)","(0.16622673027948648, 2.0857400888708697)","(0.2289336479129066, 1.5666398123367433)","(0.17899690551290412, 1.64976485471617)","(0.18556569988186436, 1.8031965231708906)","(0.18472415918247176, 1.7487120547452364)","(0.15269089721978232, 2.157259029625999)","(0.15970212443656195, 1.9057846643412173)","(0.15940166544488432, 1.5802328748766303)","(0.1757167851397393, 1.4611918694802475)","(0.18639904320441597, 1.4309795160473355)","(0.18655501400973357, 1.6718690351154497)","(0.18062285283020874, 1.4630334964099043)","(0.17484438314357642, 1.629779866297671)","(0.18272652643786294, 1.5150064115982766)","(0.17119533352492156, 1.6450379730386213)","(0.18017554203598066, 1.5652157850314634)","(0.16847304227686669, 1.644630727399265)","(0.1504622801924985, 1.7466056559925511)","(0.1513349464747137, 1.937264768964136)","(0.18629089534546533, 1.5645190318473914)","(0.1722894554589563, 1.5501820220349876)","(0.18848757666713992, 1.8334809182441163)","(0.11223942971918635, 2.3921999078792653)","(0.17094978534484523, 1.6573579012621842)","(0.17048872911911445, 2.063225894429035)","(0.10646378292208934, 2.5982137198224033)","(0.15972934360551402, 1.9443647180030206)","(0.21254885824308262, 1.780295654153654)","(0.1891528000399372, 1.4520685032876692)","(0.16454950750384412, 1.7590646813840871)"
"(0.21513459552184708, 1.6101922529638575)","(0.23815971834316899, 1.4840919328800724)","(0.14739144224094033, 2.4913838798172683)","(0.2277902349014076, 1.5598616289316027)","(0.17121686264060546, 1.7733347780139717)","(0.16085852190547129, 2.053380240153524)","(0.17714747689352336, 1.8191256241820368)","(0.1593678206154436, 2.0219665788203876)","(0.15959710735238838, 1.9088629440720093)","(0.16084426995547466, 1.636714472768822)","(0.1699513615285806, 1.5658424914062194)","(0.18406076402097735, 1.4460275108335194)","(0.18044620707559483, 1.679522373289186)","(0.17706487238950266, 1.5175332774285144)","(0.17188629639983555, 1.6741810845162481)","(0.1789929106351881, 1.5380977086026786)","(0.1657423948356092, 1.6885192058796485)","(0.18100031416664555, 1.5560619326545897)","(0.16250215189636014, 1.698783006328813)","(0.14497919923422478, 1.8070571923281116)","(0.1676453165628601, 1.7361229779368816)","(0.18205096003550528, 1.5851696930349675)","(0.16445184047936068, 1.6186915434952314)","(0.17516350843459866, 1.7635421967751457)","(0.11566281141046826, 2.286815989557032)","(0.16672787085327107, 1.7157484700283812)","(0.16786944178250232, 2.035989192864891)","(0.10450810508245421, 2.598618414732272)","(0.16013081539514268, 1.941425076167985)","(0.2045102122444958, 1.8332706472733138)","(0.18605976213222852, 1.5135383378566083)","(0.16543878933292314, 1.7477533691359821)"
"(0.19415916907664427, 1.7534552991848444)","(0.2278634072792392, 1.5708127505448233)","(0.15336960409195863, 2.3281997055966777)","(0.20822697799492212, 1.6245277411475672)","(0.17517213434713313, 1.6902943973064306)","(0.1639536207319954, 1.9989564363566756)","(0.17299869045679672, 1.8474661060240745)","(0.1648604058365944, 1.9912827012793095)","(0.15587455717500487, 1.9656089258479954)","(0.17263519947823214, 1.5565589663320047)","(0.15973622952034908, 1.6842394572637047)","(0.18568075973940473, 1.4420733390149454)","(0.17863643130795923, 1.6592231335178849)","(0.1775768714577828, 1.5340174799670563)","(0.15497485804633193, 1.867541769006958)","(0.1693240214962914, 1.633683335183561)","(0.15952875608895853, 1.749596754514304)","(0.16357575241717429, 1.6861013680542267)","(0.15219345193470074, 1.7538096170026238)","(0.1395652228913751, 1.8078452001755332)","(0.14149363293062409, 1.9859871893787535)","(0.18093756779369036, 1.58321789671039)","(0.15779794391680163, 1.6703181011318078)","(0.16462255205222082, 1.7974982301710445)","(0.11507688883814025, 2.2563485364309255)","(0.15859183346900077, 1.7851240151937369)","(0.15354258658508244, 2.170829156783554)","(0.10006090967185062, 2.6588287286256462)","(0.14066871026574798, 2.1875818587674076)","(0.17208785316759548, 2.113384775929697)","(0.1765390498422638, 1.5655341748856781)","(0.16478648122980172, 1.7756075848413289)"
"(0.1870362649774823, 1.816166850096808)","(0.2281009120079003, 1.5813065410300904)","(0.14253639927802333, 2.555561362217512)","(0.20692810684930188, 1.6283977921583364)","(0.17524903095361108, 1.7110521493926356)","(0.15597790658996946, 2.092392681249527)","(0.16576515990674567, 1.858299432182972)","(0.16701971592263812, 1.9626524022370209)","(0.15595670311532875, 1.9427791389266829)","(0.17260353249333696, 1.5861538583882158)","(0.16128606809005946, 1.6800073359554326)","(0.1955105729522661, 1.4011982977786597)","(0.18760192969264153, 1.5695692686398757)","(0.1871862213883236, 1.48888057747396)","(0.15624514728253047, 1.9008189785077254)","(0.17650345417569643, 1.5962936771084502)","(0.16598156897768343, 1.7064266850917056)","(0.15304210158192813, 1.7805642080188524)","(0.15086836197739584, 1.7186316084084645)","(0.14237111906926536, 1.7309322182154017)","(0.137751316488829, 1.9588089945190608)","(0.17370514420376246, 1.6114562244597654)","(0.1498762868867571, 1.7099012057195153)","(0.1640840511999594, 1.7888489132329009)","(0.11011590472631255, 2.3205556465476525)","(0.15454243154636607, 1.8492878149757082)","(0.14975865949464973, 2.203103805912721)","(0.09376880296933258, 2.7768463966812207)","(0.13420424619761886, 2.2861356135007345)","(0.16329016587271147, 2.248587950402163)","(0.17583994114888676, 1.582663246221547)","(0.16347435075021863, 1.812257823616934)"
"(0.17269121054584224, 1.9736067924391736)","(0.23307925517053527, 1.5821803060276187)","(0.13474253119410573, 2.8190860623766065)","(0.20865258778566945, 1.6478267962292494)","(0.1685736407610065, 1.8443836774525566)","(0.15327836334146935, 2.1505667280233434)","(0.15621637267355973, 1.973498119605181)","(0.15833087300544604, 2.0961941355587723)","(0.16783854107362134, 1.8268900692473766)","(0.17271169588851892, 1.591289927356773)","(0.15750698680532738, 1.7435148492069545)","(0.19345079609716137, 1.4412178996821485)","(0.1826622242766016, 1.6005595746741428)","(0.1892443748924742, 1.4927869698114866)","(0.15261363038032405, 1.9719828815515208)","(0.17240025092055883, 1.6341984497247648)","(0.16045173090245782, 1.7596965131971603)","(0.14577372928976132, 1.850554454466267)","(0.14156545089367556, 1.7556157045432625)","(0.13917067110581857, 1.744916103628772)","(0.1308356713088448, 1.9945379080204486)","(0.162033073413495, 1.6663873125621755)","(0.1391725654505346, 1.809568142707566)","(0.1512811239611078, 1.8993946259587098)","(0.10215072200509125, 2.519525084473958)","(0.15052675590888306, 1.9257982307269257)","(0.1441987016836548, 2.3268820762157554)","(0.08537461138304601, 3.015245082410403)","(0.12208370552437618, 2.470538736509475)","(0.14354479807653306, 2.514695659247368)","(0.17500982947223953, 1.6239487915547055)","(0.1729178333078927, 1.7531919942979481)"
"(0.17414992912072855, 1.9156017383796826)","(0.23641394005595853, 1.6195027908669357)","(0.13177980090660354, 2.9433153952965454)","(0.215411648131972, 1.6315324323528813)","(0.16716326195653683, 1.8576793005942829)","(0.15533481752396858, 2.1724455187413043)","(0.15162053019761454, 2.033466153306109)","(0.1620819405303145, 2.052203155511567)","(0.17448883023486983, 1.7592459114473205)","(0.17320557730833017, 1.6462222136645133)","(0.15902296252345108, 1.7463467702837188)","(0.19441177175129115, 1.4388849441219271)","(0.17924411527781614, 1.6545848944096488)","(0.18919618098366853, 1.489111149398147)","(0.1507588749718814, 1.9952601114963866)","(0.16906596419151285, 1.6728021870433645)","(0.15541399256683452, 1.8151152651670495)","(0.14056928428652635, 1.948287229892885)","(0.13760882284253795, 1.7406347809272003)","(0.1334276982763575, 1.7863881033440756)","(0.1297177021264393, 1.9660743761442745)","(0.15387489255794998, 1.7444547471688674)","(0.1383945599943202, 1.8027774344720684)","(0.1467735261500444, 1.95611224128175)","(0.10133530301070329, 2.526676207129768)","(0.15798126331397316, 1.8129326420242)","(0.1467695892270722, 2.3583143547345484)","(0.08521514426302969, 3.030219500658263)","(0.123703850131046, 2.4754815490999853)","(0.13651804315876395, 2.518393503372726)","(0.18105233094993275, 1.6025610807391084)","(0.17038480363692662, 1.7898482959356086)"
"(0.17636394238068268, 1.9253862160911204)","(0.2400462404136849, 1.601071672706249)","(0.1321775888525552, 2.8521494706605277)","(0.23063896065855377, 1.5363808759075954)","(0.16690741740451853, 1.8596995897330668)","(0.1596772341318014, 2.1187596238685376)","(0.15824140788232954, 2.029129433042327)","(0.16261378161429182, 2.07875406327988)","(0.18100400652703413, 1.7031236064471869)","(0.17707980920008906, 1.661155038807524)","(0.16284893208293955, 1.7148748142106272)","(0.19175058046791973, 1.4632304600968504)","(0.18238930046247015, 1.6690364728345048)","(0.1875087641658012, 1.504538355945222)","(0.14833276273593124, 1.9963808768391949)","(0.1676308458846179, 1.6739437043275398)","(0.1531783443644561, 1.8175133399658332)","(0.13791753337080084, 1.9827116601414887)","(0.13568445947291163, 1.7770615376532848)","(0.13004360344074334, 1.7716505124369228)","(0.12776671474604576, 1.9904728491743482)","(0.15426864316244718, 1.7894524163529684)","(0.1383930090541588, 1.870779162862263)","(0.14751396626862456, 1.9796186968204903)","(0.09559362960310744, 2.7511264519460505)","(0.15902104080486512, 1.7983113396418948)","(0.14762864080592633, 2.3347072025330626)","(0.08110637334902977, 3.3091051003193823)","(0.12208497576296518, 2.500303629366146)","(0.1343005808648843, 2.6041804622711)","(0.18135128010018176, 1.6216779251656857)","(0.18276315556196043, 1.6951749003820116)"
"(0.17953959134235986, 1.878987784153047)","(0.24763854133901708, 1.556118771304081)","(0.136986181316759, 2.8179639986526683)","(0.23994197142915893, 1.5130102774275151)","(0.14930424615438295, 2.1454016679495282)","(0.15460473395960025, 2.1440957190266556)","(0.1625193019010185, 1.973884964304343)","(0.1744919942380774, 1.9306066458737756)","(0.1763617093828071, 1.6914664176321526)","(0.17754380662817584, 1.6911582802084941)","(0.16052066464384385, 1.773038294997548)","(0.18610175567907536, 1.4876084440948876)","(0.17770477879606272, 1.7286180568539056)","(0.18392741796341025, 1.5279757762455661)","(0.14543949818834412, 2.053590877675378)","(0.16784319464304132, 1.7323757438514926)","(0.15425450556851408, 1.8568742114365908)","(0.13435932863547256, 2.0865692499009985)","(0.13667151269555436, 1.7807558503326106)","(0.1333843795122236, 1.8008544883310535)","(0.12664568327654074, 1.971879255481711)","(0.1523911500436041, 1.8078900879675441)","(0.13348049792872907, 1.882378502912095)","(0.14708132503618268, 1.9827256359614671)","(0.09340941438142811, 2.799286647710554)","(0.14974008123023552, 1.9005116675637777)","(0.149013050658071, 2.366413619495402)","(0.08159005780230916, 3.3713891123690383)","(0.12213681952835118, 2.5260062619242323)","(0.14158001892151795, 2.5812859385153897)","(0.1752953901924579, 1.7244244738690981)","(0.17775335129170597, 1.7407781997691287)"
"(0.1776471444321469, 1.9737895149692737)","(0.22755314798321088, 1.7242099650297682)","(0.1320918314344603, 2.9804019555821286)","(0.2224943278787935, 1.636743806934051)","(0.14531104921155932, 2.292155034651448)","(0.1437066505912027, 2.2457138561296275)","(0.15850095121407845, 2.0566869208785183)","(0.18108481241182348, 1.7925601777890476)","(0.17695354945344943, 1.6899646245602824)","(0.1758387397226819, 1.73666848396257)","(0.15473250526982532, 1.8968279254983056)","(0.19374807807176636, 1.5019659481750407)","(0.1833620557973821, 1.5791867507741997)","(0.18863536938814435, 1.5287784209389368)","(0.14278548507387637, 2.086484858585234)","(0.16631817422467596, 1.7204337183362635)","(0.15156626298226003, 1.8600917155839385)","(0.13751508130454518, 1.9723099810736042)","(0.13298775490428866, 1.827801680660594)","(0.1311752088593507, 1.828724102808598)","(0.12406298688247228, 2.102841991317099)","(0.15090343950139734, 1.8338427452923607)","(0.12815355615448484, 1.9990764207073466)","(0.14486705075625367, 2.08522598357659)","(0.09024472682008207, 2.9053585059035285)","(0.1462136310969156, 1.9703124247459558)","(0.1457856770557193, 2.4432008270744916)","(0.07918162966949616, 3.514141779834005)","(0.12173320619911697, 2.5973492650100862)","(0.14341449541289894, 2.6401372168944577)","(0.16958099247219843, 1.8628886734102073)","(0.1828424686200723, 1.6716492812317638)"
"(0.19095668675282274, 1.8723804345107924)","(0.2278183005128391, 1.748561319232255)","(0.13811129587800658, 2.931873852659233)","(0.20777966827008634, 1.7019307853266221)","(0.15054013524323429, 2.1977794996321474)","(0.1425070255897889, 2.297899021559471)","(0.16399007743205452, 2.093871433792128)","(0.18721634108487903, 1.751401519109796)","(0.18045026558738825, 1.6375344689818654)","(0.19703873086245588, 1.655901891237361)","(0.15586655178151693, 1.9410367563791304)","(0.20386978226455477, 1.4728994215889586)","(0.17721116421600328, 1.5972144255006242)","(0.202322747712418, 1.4510890845022597)","(0.14825947957109642, 2.0230142132566917)","(0.1715268675132482, 1.6836920781787081)","(0.15462265296710004, 1.830510973275998)","(0.14591476158295566, 1.8826495635824325)","(0.1353190812921602, 1.7879741660729895)","(0.13283278361289463, 1.7644496634232991)","(0.1307934838433904, 1.997229777340425)","(0.15656891770456155, 1.795145713070836)","(0.13234265405685153, 1.9688735998626534)","(0.14426002029436086, 2.050567028886022)","(0.09388907915399253, 2.8253279321369202)","(0.15283994729107475, 1.9312197259731927)","(0.15545951510055853, 2.3135869271965177)","(0.08434188211711237, 3.4134194862240896)","(0.12901751393824598, 2.495690824052052)","(0.15309941919374606, 2.5607390974834194)","(0.18140568142313865, 1.7582240521930579)","(0.19699608432749732, 1.5892298493700956)"
"(0.20915966764959712, 1.716270262000693)","(0.2295611097029194, 1.7720555566868268)","(0.15540815710372832, 2.6503280371405373)","(0.19929077481347882, 1.7340482781511963)","(0.1586184158529602, 2.1196167044483305)","(0.14403458019462295, 2.3468984178875116)","(0.1615497602552613, 2.195535964611695)","(0.1846012922735427, 1.8189885008339377)","(0.18550409398633733, 1.5784997903449292)","(0.20883361386461963, 1.5943326536286195)","(0.1606313148127898, 2.0891458251375115)","(0.21859316402534104, 1.4244746610843781)","(0.1724474146761953, 1.6171113127472576)","(0.21996187406608833, 1.4251051866949729)","(0.1602522769378768, 2.0103008227807533)","(0.17390090443758607, 1.7536700428855556)","(0.156005982454786, 1.8970697867891824)","(0.1516026297361847, 1.909992593926048)","(0.1300823974077126, 1.8701234211399003)","(0.13238116291848248, 1.8112038227917266)","(0.12917069180105303, 2.0251689126233012)","(0.15392990379373112, 1.8239416188884825)","(0.13902452937631538, 1.8835943874274992)","(0.1484920721989357, 2.0308487308962047)","(0.09786578468233285, 2.723516617984267)","(0.16266089559996103, 1.834347480519536)","(0.18670276651474527, 1.9918409957174346)","(0.09741289086660433, 3.0140548876613606)","(0.1408171162562001, 2.320360668807366)","(0.17855742700387298, 2.1896188895891617)","(0.18120094698404793, 1.7990497821436833)","(0.19217907028089343, 1.6243997865426096)"
"(0.21258128161807271, 1.6951451726196105)","(0.2310269109781451, 1.7265252282251375)","(0.21325801461745383, 1.882946982011797)","(0.20937348075018822, 1.6184232181727916)","(0.1560710421157738, 2.128067558033177)","(0.19007600063818386, 1.7641196451679497)","(0.18391026320369208, 1.9380378664039735)","(0.18957969061222174, 1.827938263642967)","(0.17751669921144062, 1.643921680905063)","(0.20595744039656722, 1.6191777913879528)","(0.15963692705271312, 2.080493595165391)","(0.20743745629278865, 1.497716452217151)","(0.16971200371136125, 1.6575147641672434)","(0.2118894117876515, 1.4794090143423424)","(0.15497365222285656, 2.0709411771265525)","(0.17014923206215357, 1.7885236843331567)","(0.1578024107420376, 1.8774226577668505)","(0.1541870034612356, 1.873544761284609)","(0.13076098577112008, 1.8556346924443277)","(0.13599025882382318, 1.7326540287947225)","(0.12214925930910894, 2.0596088385112066)","(0.15697380047112183, 1.7899942316034798)","(0.1509085626146139, 1.7229720502277148)","(0.15437562814726866, 1.947985156950522)","(0.10529063005563832, 2.5533242278984747)","(0.16809393896744573, 1.7676207815234275)","(0.21795482237922909, 1.714935233240041)","(0.12525504414047153, 2.3230272890304016)","(0.16602234942789362, 1.9726142164620108)","(0.20828419856142277, 1.8244079456318218)","(0.19642530072433786, 1.6287133243359382)","(0.20951104808755186, 1.5236526481573005)"
"(0.21613478583416112, 1.6661503038149903)","(0.24882899004420503, 1.5788246642177346)","(0.21705008471692047, 1.8539575711233562)","(0.22048369023482137, 1.5213794981624018)","(0.1570992446637211, 2.089160604562789)","(0.2109572242488251, 1.528960436174927)","(0.20658076225783828, 1.6734128947585736)","(0.19838984010005528, 1.6484932038563498)","(0.18270496528049707, 1.537372246501438)","(0.19777011274002956, 1.6422775347235032)","(0.1811149585205382, 1.7770871192034812)","(0.2041413669305978, 1.4555508689242067)","(0.1698891470579548, 1.6106307618727518)","(0.2054462303710198, 1.4675530520133575)","(0.16931088281201853, 1.8676564789949783)","(0.18144708721051467, 1.6639669325661044)","(0.16707337174072243, 1.7763935442182877)","(0.15921446320745783, 1.8424931375514892)","(0.13624781513720632, 1.8117593384783894)","(0.1395996575726306, 1.7509583542906095)","(0.13829132605714933, 1.88499760439206)","(0.155478334287206, 1.8002710649391038)","(0.15284375947293696, 1.7273936672276888)","(0.16092833766153317, 1.9472158501517463)","(0.10795944232584556, 2.605899116528985)","(0.17561457810087197, 1.7226800843480734)","(0.22234682644101667, 1.7373980089581502)","(0.12745998730577, 2.3573443610730873)","(0.1811986385580278, 1.8474590387374985)","(0.21835857683712975, 1.740626035369359)","(0.20104495558017543, 1.6020575535595858)","(0.2074370831085615, 1.5031280030994865)"
"(0.21605040707797865, 1.6311872133484548)","(0.24411371557731518, 1.5927584711989795)","(0.20581243212051972, 1.9397783808693847)","(0.2214035427307073, 1.5603014055467235)","(0.14493879119530415, 2.2477914106849317)","(0.20338175567978792, 1.5704671121788083)","(0.20680983269104378, 1.6764083373465153)","(0.19514145619564052, 1.663035255086733)","(0.19234698810475898, 1.488675090264877)","(0.18931621714268304, 1.6882610564227702)","(0.18910704118825775, 1.6903252108214204)","(0.20608665659349573, 1.4426405743878943)","(0.16299313838414806, 1.6889142553842205)","(0.20911798485948144, 1.4399841825325226)","(0.17642152838123812, 1.756075631481667)","(0.18567017841445674, 1.6031896834825154)","(0.1725271498605104, 1.6781996409143878)","(0.16612064426238318, 1.7784484597903356)","(0.1406691152956532, 1.7622685080226228)","(0.14240069778213937, 1.7118317475868308)","(0.13850147485500217, 1.899962840297931)","(0.1580678953123738, 1.7999103737232949)","(0.15814956275537975, 1.7060212555621705)","(0.16017635232985586, 1.9581536436220264)","(0.11400660427325879, 2.517245857357755)","(0.1796217844704284, 1.6493992980540109)","(0.219098849633314, 1.7553406606185462)","(0.13036445616498007, 2.357515821254027)","(0.18416005948023326, 1.8615983657549697)","(0.22136448365282108, 1.7046806898124305)","(0.2021122120822543, 1.6112780135896818)","(0.20939291988966433, 1.472670258743721)"
"(0.22981089968338453, 1.4779899677088346)","(0.23668517970256, 1.6594680367730381)","(0.20433479169142812, 1.9034831554688874)","(0.2104782288909802, 1.648129656177994)","(0.14094835834675568, 2.2595881246190417)","(0.19662937676175446, 1.6388125603743446)","(0.21407180658046365, 1.6197010723216954)","(0.19778300164755538, 1.6212623287279522)","(0.1895888350056374, 1.5090353752181984)","(0.18949571617934616, 1.6846178857175627)","(0.19378420282349643, 1.6164774818181546)","(0.21041061668744057, 1.4105218549416092)","(0.16726302599837573, 1.719343785943755)","(0.21259976790010804, 1.4160067534665477)","(0.18048667964448045, 1.662580243214094)","(0.19308719900294297, 1.5748130929697937)","(0.17966577515190033, 1.6443112136629312)","(0.18088041312167394, 1.715342296860193)","(0.15045905942587284, 1.7544432615121983)","(0.14359038467348, 1.7493615403271476)","(0.15116485007240937, 1.7967476314069077)","(0.16632014469083425, 1.7612324962768453)","(0.17398715460783712, 1.559672189590486)","(0.17780094527454776, 1.780500823525669)","(0.14420453688845306, 1.9897779437949454)","(0.19130998651098033, 1.5406652204568458)","(0.24177560227560912, 1.548727456661186)","(0.1699554121185082, 1.7834861769488888)","(0.23137174189730894, 1.5017192890681055)","(0.2589368475434951, 1.4629875548871563)","(0.20609842580629373, 1.5948318801160515)","(0.20803111715829378, 1.469776292606317)"
"(0.23120298955548774, 1.4999746611371696)","(0.21934488871766225, 1.7382755777426075)","(0.20533379112739686, 1.9168375512850304)","(0.19323017012678687, 1.7379854695965657)","(0.12591667691032035, 2.4480998179557316)","(0.19153481428825136, 1.6604854688561592)","(0.22031582846763162, 1.5470752386066045)","(0.1949304800993898, 1.613135931927205)","(0.1878577289559058, 1.545848368853508)","(0.19365826732168878, 1.6327939787194945)","(0.1903230398442056, 1.6395745381535272)","(0.20057553659168978, 1.4785856177894166)","(0.16693828249842432, 1.7075943717269257)","(0.20787823357164376, 1.4528042159122105)","(0.17991752710575565, 1.656837894513781)","(0.18227537298915678, 1.6637782180869682)","(0.1720515276059029, 1.6913091552987334)","(0.17186696998770806, 1.7863601265216424)","(0.14652232766055032, 1.7852135665236841)","(0.1430962613593143, 1.749151489888316)","(0.15016626471211378, 1.867929290443285)","(0.1634180396444885, 1.7162623160717494)","(0.16927832082367145, 1.636968061166578)","(0.195084170465254, 1.6945190080127015)","(0.14784846282369482, 2.026913897109847)","(0.18157688778853256, 1.6569163375196196)","(0.24527850380709712, 1.5526215127524838)","(0.18419617950093825, 1.7008680018283593)","(0.23513757487155396, 1.5063916437487135)","(0.2779725177418917, 1.3984089585730697)","(0.19869294509944604, 1.6552886973873553)","(0.214278148268365, 1.4295996320888507)"
"(0.23544902144379753, 1.5012032325969333)","(0.23021893471627763, 1.6779636385726213)","(0.2020874143377061, 1.9463883844053445)","(0.1909940696103029, 1.7557558766348644)","(0.12586214669531676, 2.4554930483050024)","(0.19215038489885464, 1.6264819010268419)","(0.2240868836738474, 1.504987138665223)","(0.1961229157902943, 1.5800662527558345)","(0.18540490543793017, 1.576363002309861)","(0.19469069228080232, 1.583129299829013)","(0.1919345531891415, 1.6079189425401013)","(0.20035622763918798, 1.4933829685961197)","(0.1591512907340765, 1.738165843701346)","(0.20674832183213196, 1.4524559197958353)","(0.18396232637346596, 1.6158205986057614)","(0.1845111248816728, 1.6604208389317383)","(0.17548042085979235, 1.6605250625936845)","(0.16967006274561935, 1.7727827207458282)","(0.14244276521700044, 1.8121239339041988)","(0.14632106232663974, 1.7249852627641258)","(0.14522001871860651, 1.8374045248206625)","(0.1544508744019945, 1.7409519560910716)","(0.16240420666870412, 1.6344508124307064)","(0.19498492409582094, 1.664539226070774)","(0.16175154357551325, 1.825928538651513)","(0.17792679198917477, 1.6979781760109836)","(0.24224689350915107, 1.5931773416742092)","(0.19469789570283563, 1.6111447080915022)","(0.23944259479796778, 1.489454827503982)","(0.2767228927810406, 1.3971027562903218)","(0.20439015016549347, 1.6288514078788414)","(0.21068000344428164, 1.446267499663999)"
"(0.2372566561823195, 1.4672877186793092)","(0.2246931202803876, 1.7099058029480025)","(0.20663398790893214, 1.860794155996133)","(0.19193711768775196, 1.7344125899124254)","(0.13166154254689966, 2.2625605563912536)","(0.18833534566817312, 1.6432912925819292)","(0.2192283807887154, 1.5339397615428931)","(0.20146154374337275, 1.5084035057245135)","(0.17267479582021605, 1.5351987350764489)","(0.18188129136684653, 1.68161246001708)","(0.19593284317111817, 1.5311708965051019)","(0.20107790906843567, 1.4154080396107673)","(0.1571406791763669, 1.6171336764162274)","(0.20166968098302968, 1.4292524583987671)","(0.18936069735880087, 1.5355585502473685)","(0.18212951235042554, 1.5806024632640665)","(0.16988165210583064, 1.6059005272344706)","(0.16792541618466456, 1.6775131414892273)","(0.13988677258769722, 1.7317476380096968)","(0.1443008174568723, 1.6620431329875247)","(0.14370018754178263, 1.8039369715440472)","(0.14935456532117009, 1.6553159831497086)","(0.1682939059992866, 1.6258255499435563)","(0.19273834713269022, 1.6712396440524064)","(0.15385689131872574, 1.966684323008276)","(0.18273918643492534, 1.682168239666842)","(0.2431445791358104, 1.582448219287803)","(0.20971300231630824, 1.4981806724253501)","(0.24403817164846348, 1.4663190509507207)","(0.26988630462689933, 1.3852878897477885)","(0.20580506783861502, 1.574315400853596)","(0.22451721763409963, 1.368023668118395)"
"(0.24897976972526797, 1.3938963601067178)","(0.24867303847290204, 1.5378994227678215)","(0.22573877516323085, 1.6928344404101998)","(0.20524346491271842, 1.6245201116929693)","(0.1409911182153304, 2.160361537229661)","(0.20588003909671207, 1.4911061617035986)","(0.22474118488663306, 1.4392141178370148)","(0.20540651480687874, 1.482808273581209)","(0.17191907208744658, 1.592114522218399)","(0.1756556977737979, 1.698164824711181)","(0.19837114018524915, 1.5007652241428693)","(0.1959930568019895, 1.4729723593018353)","(0.14934025448808685, 1.8103381724414567)","(0.19240097564056127, 1.5273439356884875)","(0.19724812055110819, 1.521146921735682)","(0.1786120444881417, 1.7062368504258205)","(0.16601599393263125, 1.7534852218201615)","(0.16569694984547984, 1.7814626688558715)","(0.1431243138324939, 1.8392613511743758)","(0.14067759120365708, 1.7649633697529994)","(0.1454485685798329, 1.834600542646277)","(0.15175363776498238, 1.6585078908637998)","(0.17580043994152747, 1.610649009500944)","(0.19876409278922746, 1.6419731038553296)","(0.16181735471909692, 1.9423243945519482)","(0.19630945607817754, 1.597989134431776)","(0.2488904599439588, 1.5442390617808759)","(0.22290315967956065, 1.4203238481576472)","(0.2549027490441843, 1.4211227433777052)","(0.27639867140006424, 1.3363507828759815)","(0.21898313219226495, 1.4766694746428688)","(0.22032331564201083, 1.421987600337801)"
"(0.24506031409484727, 1.3968025975865035)","(0.24805238690982578, 1.5243248088675159)","(0.22876509641158452, 1.6236825441611862)","(0.2244190598807625, 1.5353190140561415)","(0.16033666808627575, 2.0158651106436873)","(0.21296622461802586, 1.4226408204821321)","(0.228665190719885, 1.3798506790791598)","(0.21831947442459876, 1.3897932254230942)","(0.18095619126687637, 1.614427317632609)","(0.17074039493344365, 1.708195426177136)","(0.21284499318061495, 1.402516906833901)","(0.19758044634662472, 1.4757059867446511)","(0.15934122125263045, 1.8370222517969752)","(0.19883290260613262, 1.4979922810627901)","(0.21471817796069692, 1.4508050639209262)","(0.18773635109676928, 1.680156059991504)","(0.18062235405033175, 1.655296265584382)","(0.17441597943301526, 1.7191118795612472)","(0.15221427363300338, 1.7796876952476974)","(0.15543500426839973, 1.6722873938306169)","(0.16267602183376845, 1.6831584912069912)","(0.15883706784290227, 1.679462559871316)","(0.17668948254519795, 1.5942181118458822)","(0.20039884855744994, 1.6185019022381755)","(0.15947984869639842, 1.960060594037635)","(0.20266792373854262, 1.5690325047881293)","(0.2436450011501551, 1.5766619951715728)","(0.21267249357789633, 1.451236514206679)","(0.25767716910945054, 1.4137268899947926)","(0.27100205978256786, 1.3206723045392208)","(0.22258163295824937, 1.4840178598570852)","(0.22834487480689522, 1.3469281528443768)"
"(0.23920777926271614, 1.422724045385641)","(0.24938091057851713, 1.5273086656773305)","(0.22498747494319074, 1.6406769898460472)","(0.22352096696170934, 1.5250185844826505)","(0.15740855018571207, 1.9590588109540845)","(0.21138796422109205, 1.426260883614792)","(0.21703393363141213, 1.4543406653017519)","(0.21371101645545335, 1.4152078959166767)","(0.17669869403359395, 1.6558989825908834)","(0.1580865005591228, 1.862925883737411)","(0.20203606573684293, 1.4482438214017006)","(0.19173090493828612, 1.5248343560170219)","(0.16025211385251975, 1.8350244727489222)","(0.19477980883588739, 1.530876137113637)","(0.20435805526643663, 1.5264570150282057)","(0.18033033145301028, 1.7523557740448428)","(0.1731091493545213, 1.743655822398043)","(0.15859682161101402, 1.9085856640325756)","(0.15244871913206193, 1.821656673090262)","(0.14379448335589623, 1.8323320101490002)","(0.1605046841550102, 1.7553653454488798)","(0.15805875652813267, 1.74303409828126)","(0.17462422901736427, 1.6277077181132842)","(0.19449898805100382, 1.6967398848597124)","(0.1647245490816831, 1.853078816796386)","(0.192780349324944, 1.5982480351181445)","(0.2263430101385438, 1.6129213625435534)","(0.19877856458182086, 1.5085230458813783)","(0.24287638798860467, 1.469331504122408)","(0.25541325458718367, 1.393388609682249)","(0.21555088761386731, 1.4520419912708513)","(0.23376027350447448, 1.3330546108231711)"
"(0.2298007971336564, 1.4771383572465004)","(0.24607016873334603, 1.541471449713887)","(0.2236453876465692, 1.6487010091312482)","(0.22681095949008234, 1.5066877583229221)","(0.16268419805484682, 1.870730449526605)","(0.21935536620852236, 1.4070337662397585)","(0.219107126056767, 1.4544789295650418)","(0.2191458009295836, 1.387905269977425)","(0.17737823378146775, 1.6383477114295966)","(0.15535316658751566, 1.8637331699132402)","(0.1986360121371796, 1.444023117816189)","(0.19569608461736257, 1.4900720289343286)","(0.16312060868291833, 1.8321997090565973)","(0.19753910570583477, 1.4904182305113887)","(0.20484352068883752, 1.5145389500852187)","(0.18905478887481839, 1.6740470859780827)","(0.1773331502942187, 1.7091553835828175)","(0.16330956608517475, 1.8623644591230786)","(0.15834999327747173, 1.7513279859307145)","(0.14591530654948054, 1.8018588569654068)","(0.1635278869067495, 1.7302383450833116)","(0.16139949095984785, 1.7129891045725996)","(0.17722260876519466, 1.590957540399318)","(0.20184232906214122, 1.6041295080179752)","(0.1715123914126928, 1.7490572049777473)","(0.18872628371701894, 1.6300019765724365)","(0.22475117271911266, 1.608533839817839)","(0.1973486969208367, 1.4910829047595742)","(0.23955458339772032, 1.4923228875916243)","(0.24415538150405636, 1.472880389400759)","(0.2115799988693154, 1.4699273140813134)","(0.2209766657602875, 1.390605628820135)"
"(0.23046086880073, 1.4806384216322215)","(0.2304570508118604, 1.628069558303613)","(0.21502570882762367, 1.7087459556660083)","(0.21582368600280463, 1.5735745504460368)","(0.16153563580166796, 1.895250235184199)","(0.2112097834578267, 1.481171010439241)","(0.2090916628069509, 1.5523958980874055)","(0.21575006801971225, 1.4233742223769352)","(0.17085503668258095, 1.7517597175026685)","(0.1566516316534978, 1.879911649468193)","(0.19575425794376813, 1.42587236361283)","(0.19939324187520377, 1.525212626679378)","(0.16352129416158098, 1.9526079615186283)","(0.19854084395280705, 1.5045566601019689)","(0.20498214787869246, 1.4719025534513392)","(0.18851901145794048, 1.6877855265177124)","(0.17381197038085583, 1.7445624227710206)","(0.16250017003338305, 1.891259976700659)","(0.15607535955527976, 1.7881928637752054)","(0.1430521461150937, 1.8194341807408352)","(0.15927600423585578, 1.7643248355755723)","(0.16336494801098053, 1.703824065769954)","(0.17619134414196816, 1.5766576096689304)","(0.19514219853373937, 1.6365999340466613)","(0.17401965214470938, 1.710222886623968)","(0.1962583935358671, 1.531872918715388)","(0.21708938575701953, 1.618887486543581)","(0.18998135504185487, 1.5492107738197989)","(0.2366250467994146, 1.4989384403582768)","(0.24130279201887206, 1.5079071660043772)","(0.21811462806436505, 1.4235938852165408)","(0.224035789932006, 1.3835143511908226)"
"(0.22660938424672747, 1.5168922644699496)","(0.22143379848623462, 1.6333071873190421)","(0.21331896174926113, 1.6764714411957595)","(0.20778869256124102, 1.5288002789309483)","(0.16566696845303816, 1.7689140518496027)","(0.2104863016143562, 1.4600319944971625)","(0.2060869556559739, 1.557446305667157)","(0.20583144018319663, 1.4672175317310971)","(0.15587236993276019, 1.856555250488336)","(0.15997870099884376, 1.8342277136030596)","(0.17938759962790396, 1.489312202437546)","(0.1777857055308369, 1.597350236831563)","(0.15911965922441274, 1.904252097875113)","(0.17516320225007703, 1.5897692475241691)","(0.18495220730753265, 1.5485736621983364)","(0.17014455092738134, 1.7433870277939187)","(0.158602117977572, 1.7517756182063648)","(0.15125477002287918, 1.837270979909546)","(0.1498880650733711, 1.7388260129659348)","(0.14085049878796874, 1.7303562597225999)","(0.15814486386956916, 1.72800558818755)","(0.15809564144399213, 1.6758159310574732)","(0.17626313209514965, 1.567660389101115)","(0.19649671894329207, 1.6120498164193506)","(0.16884349954593952, 1.7454799071206781)","(0.19191925977574417, 1.577175181394721)","(0.21751654954420893, 1.6260253138246872)","(0.18997345271218197, 1.529251850905877)","(0.22848572891875615, 1.5194530261974029)","(0.23081541128384075, 1.545368928036925)","(0.2115425873217639, 1.4293817635739554)","(0.2229840127951025, 1.3680475891805934)"
"(0.22297298513002944, 1.5574077529164878)","(0.22019469611409928, 1.6253023871653351)","(0.2120276523012317, 1.7202215580402396)","(0.2065121103556955, 1.5373600430199659)","(0.16641915116281966, 1.7748734863375166)","(0.20395179991417717, 1.4985649210266758)","(0.20501735025783022, 1.5435059892148433)","(0.21276310592672523, 1.4275332220650585)","(0.15164646788361746, 1.843746027334048)","(0.15587466497751656, 1.8868229565139465)","(0.17645585538605407, 1.5118541766067737)","(0.17184746752733257, 1.6329832005226674)","(0.14883143028621437, 1.9781958552492007)","(0.16955502611181356, 1.602389368022157)","(0.17694908961751654, 1.601523903741298)","(0.16453306969948697, 1.7285371181294926)","(0.15502217976834531, 1.7012415081611278)","(0.14475573445620854, 1.7872406191020553)","(0.14345020528145994, 1.7513979391067092)","(0.1436341017023514, 1.6715395458893498)","(0.15010278617256378, 1.790730420642862)","(0.1542237655229803, 1.6761461007566376)","(0.1733912251094433, 1.6053784687500063)","(0.19875447380379727, 1.613219178491235)","(0.14982247378321958, 1.953945078832946)","(0.18995863992958054, 1.5760422120803514)","(0.20777277181358086, 1.721914986838175)","(0.18783048767724325, 1.5637890459706614)","(0.21520731745023802, 1.611153375720061)","(0.23217736599015773, 1.57717983683546)","(0.2064475615206101, 1.4497872102348937)","(0.21486479233776637, 1.3911032530336032)"
"(0.22404242275123434, 1.5558635551766449)","(0.22152032993915993, 1.594361178053867)","(0.21725776757140944, 1.582398406706729)","(0.21622846462877665, 1.461937322961111)","(0.18043441875181113, 1.6514139554986083)","(0.20159296958637907, 1.472939337868485)","(0.20315939620657314, 1.5424396293678277)","(0.21622648026638877, 1.4055669290276438)","(0.14757330205731187, 1.8798106159412107)","(0.14424888939817643, 2.0075369429865844)","(0.1750687308813983, 1.5215657004889345)","(0.16942839632161363, 1.6452347324321142)","(0.1538344731840703, 1.9177026878178782)","(0.16635046434481954, 1.6396377921223368)","(0.17729143956829518, 1.6075345534588088)","(0.1701901474059275, 1.6872148544236454)","(0.1578355663471245, 1.6978068561435253)","(0.14610559963651676, 1.764313318761919)","(0.14261997772596477, 1.7467770701433318)","(0.1458091227658359, 1.6344881865016383)","(0.15117076855584283, 1.7465103888009288)","(0.1534565913778119, 1.718336287351714)","(0.1750861345411103, 1.5504450451406289)","(0.2008137569171824, 1.6276774620443297)","(0.13737208183813263, 2.109135886520758)","(0.18998577326758925, 1.56677512871847)","(0.20393765705623668, 1.7243745853308046)","(0.18578221082793644, 1.5968355311076123)","(0.22138101996541945, 1.6134535467417868)","(0.22390876751877586, 1.6046075288954993)","(0.20933815483714757, 1.43991835314034)","(0.20003773580964487, 1.4780165818219433)"
"(0.21646731715126993, 1.571928925527408)","(0.21302853341691608, 1.6531573051768114)","(0.22300847381434769, 1.5735201868331203)","(0.22189302071991898, 1.4537182252186927)","(0.18271977357336072, 1.6316120434586452)","(0.2018048867190368, 1.5117981161858436)","(0.19540613707429222, 1.6116000971214128)","(0.2144685796240039, 1.4128575424328678)","(0.14574563339966273, 1.9141484596383647)","(0.14210646526325454, 2.0484364750313255)","(0.17248566497538054, 1.5394717931815791)","(0.16304984276664772, 1.7208074279133747)","(0.159297251821602, 1.871155446816283)","(0.16137204178069925, 1.7234141540947483)","(0.1765508592200771, 1.6267641742193604)","(0.16564786063586148, 1.7190733038293646)","(0.15444267540131623, 1.7260024530407259)","(0.13807609670382118, 1.8657408258469215)","(0.14286438004064855, 1.7243304631152783)","(0.14338579349562283, 1.6453505807640871)","(0.1526100391100989, 1.753840584700716)","(0.15556992017308513, 1.6912566780370624)","(0.17604250000726146, 1.5334290075681745)","(0.19951857704519108, 1.6733355569012769)","(0.13026062547656322, 2.2162380922924902)","(0.18974506051186918, 1.528626502086355)","(0.20713802549073368, 1.6695402826306929)","(0.18403435679684774, 1.5912448340772636)","(0.22502805461474742, 1.6014181169911712)","(0.22594997357591332, 1.6064782168856124)","(0.2070861054551617, 1.4587490947172483)","(0.1979681378526217, 1.4612025404263833)"
"(0.21360959450641018, 1.6259376547717015)","(0.22189016968363112, 1.599426324040297)","(0.2228224628461278, 1.5440263248876824)","(0.22125274856478677, 1.4651033137009584)","(0.18361174570583638, 1.6400330210908207)","(0.2112280202495837, 1.497374217192859)","(0.199064570406065, 1.6050145283031738)","(0.22215201842306093, 1.4088947853858538)","(0.1513272877252677, 2.045421175007293)","(0.14563237138770518, 2.0104649906450307)","(0.1657516140284611, 1.5774057154365924)","(0.16044173840943318, 1.7915164640525654)","(0.15972417241517273, 2.0097405324245723)","(0.15742473707342525, 1.7995024152323955)","(0.1701958581902624, 1.673434281298619)","(0.16202546753172534, 1.791234202482861)","(0.15216562784250423, 1.7882266625537504)","(0.1374700195340869, 1.964925471348648)","(0.14572327720086092, 1.7718425257431216)","(0.1403828019444369, 1.7092153040004006)","(0.14740270254944313, 1.8554821279376217)","(0.16096545293000075, 1.7682657887688698)","(0.17282598481318526, 1.5824373626671382)","(0.20229009862655106, 1.6794898886026923)","(0.13227482572956611, 2.153052263956513)","(0.1920338968886891, 1.5223096894785992)","(0.20641813363615316, 1.6663740413583927)","(0.17601924369957986, 1.6340233818813805)","(0.22563265061788929, 1.6002685935736234)","(0.2256012571248218, 1.6697323114891842)","(0.2104159607335316, 1.4502475790174691)","(0.19363363391513874, 1.5141651112291756)"
"(0.21252172536168273, 1.6293238652244877)","(0.22063295746225126, 1.5901680522504833)","(0.21752428656416128, 1.5694789398930526)","(0.2221238612998201, 1.4752657056135794)","(0.19279481576464644, 1.566674593219931)","(0.20682266637819424, 1.5708283819633575)","(0.19646793093804532, 1.685345648180224)","(0.2192953396697051, 1.4614361959531277)","(0.14911061858870045, 2.0924598083010735)","(0.1413154083975147, 2.14241988717392)","(0.1691416514765322, 1.5468486379226443)","(0.1609089546894282, 1.8161402465160181)","(0.16201948625087192, 1.9377005419154365)","(0.163479578218919, 1.7482711756500662)","(0.1673787619060902, 1.6693147601230853)","(0.16389854771726328, 1.741610735822695)","(0.1540465208694833, 1.7196694965665973)","(0.13895805888557988, 1.9484947811871054)","(0.14650832523036952, 1.6960131586883271)","(0.14832461375832348, 1.6291677180989983)","(0.14311021542212168, 1.8720908364952826)","(0.1608357022525421, 1.781840217900149)","(0.17445054932849025, 1.557191307826092)","(0.20187212638553925, 1.658573665856513)","(0.13811611021383666, 2.032159037959701)","(0.1918051213608434, 1.5059622020593444)","(0.1976779752625045, 1.730819234850737)","(0.17128398822200175, 1.7260767995203834)","(0.23109671225413642, 1.6301253558682849)","(0.22877268623086303, 1.6862440308984583)","(0.20349050337906566, 1.512865881331657)","(0.1929553892778749, 1.5004120994199477)"
"(0.21526492405945644, 1.5770009163177245)","(0.21571149830179578, 1.588138044151398)","(0.22694228390901233, 1.5310587361561765)","(0.21340737464360324, 1.4752598662561984)","(0.1805720108959435, 1.5995889652145876)","(0.2061584495423101, 1.5699597466225315)","(0.1981578543236732, 1.6712858983797336)","(0.20657504748364536, 1.5761189953051522)","(0.14324039394464622, 2.0185590389593897)","(0.144333910526446, 2.094090580060868)","(0.1774123778659811, 1.4501104303731587)","(0.1619394119317887, 1.7609531985361584)","(0.15148388647572378, 1.9136929983411655)","(0.16873459386552064, 1.6527375679568326)","(0.16939107989858604, 1.5544287229050104)","(0.16224145848034466, 1.6364362906306154)","(0.1533223379678222, 1.6135558972157733)","(0.1350024531076311, 1.8872069378214564)","(0.1462493060879261, 1.6179557988793378)","(0.1454186871482164, 1.5508446428125517)","(0.14280113443232348, 1.8592375832090962)","(0.15589552528439354, 1.7443777791914261)","(0.183922453880296, 1.488815150747379)","(0.21189677596034548, 1.589371807949701)","(0.15489770997149382, 1.8295282096547658)","(0.192468623369259, 1.4971668227553954)","(0.19993393589161104, 1.7023446534506528)","(0.1768394691076054, 1.636860659886971)","(0.23150728963683603, 1.641249982271993)","(0.2295299262733989, 1.6907116817590893)","(0.19560781933684648, 1.5240718212616193)","(0.16401264661518283, 1.8193326370952358)"
"(0.2211264115257754, 1.5882214793025031)","(0.21799048789287612, 1.5148361214893458)","(0.23961181316342955, 1.4818704669738227)","(0.22527022412444955, 1.4889929836126399)","(0.18474336733551772, 1.591761177051944)","(0.2081798109409142, 1.6239107831557396)","(0.19989038450493485, 1.6761876699796754)","(0.20963037491628733, 1.5692734855298136)","(0.15371224542016196, 1.9320059736465367)","(0.14959079530402908, 1.9781819541712)","(0.17239998836538073, 1.47000120069996)","(0.1587786144101249, 1.7803330082763675)","(0.15300823678259987, 1.8763337681723087)","(0.1613145496224461, 1.6990281566137624)","(0.16820836844373271, 1.5684127975886528)","(0.1642426119786407, 1.636371694623649)","(0.15485425152410295, 1.618772455000341)","(0.14352970303578844, 1.784662203766023)","(0.14534052802094125, 1.6470668477782027)","(0.15098233674525158, 1.4871263407910942)","(0.1424054634594129, 1.8726420519274745)","(0.15721380481202957, 1.7306632934356723)","(0.19035027052959594, 1.436494083349475)","(0.22439070347003798, 1.4885522820777737)","(0.15614961825751444, 1.8806432251033487)","(0.19493766001085688, 1.513296640047451)","(0.21133208586787097, 1.679856600669079)","(0.18726453900204873, 1.6395253851288936)","(0.24700782031977256, 1.5941688066791397)","(0.2503462385918255, 1.6029141306344203)","(0.19804044205871124, 1.5889636285194026)","(0.1581223802322854, 1.8388926044145222)"
"(0.2237196313183919, 1.6030687160939072)","(0.21753083835726647, 1.5021090847673073)","(0.2464482115152451, 1.486807262302354)","(0.21638935726348216, 1.5967351613636167)","(0.18165476512585946, 1.6438270453924642)","(0.19597236893278888, 1.7025645624348447)","(0.19858857281949951, 1.6919443232258227)","(0.1932282529630455, 1.6804162174738124)","(0.15705686441048683, 1.9287428554908457)","(0.16005541964445874, 1.9176859368763906)","(0.18013300221651654, 1.4993054959541714)","(0.15987806669884289, 1.8288026842298655)","(0.15717543926583455, 1.87400221707534)","(0.16426048335496485, 1.7510474561032883)","(0.1716113946672459, 1.5693052332690318)","(0.16896775192497315, 1.6477819185018645)","(0.15485483604485628, 1.6464916508974148)","(0.14348406154413026, 1.7550788146678802)","(0.14053569088241594, 1.7005468785818798)","(0.15178671033585794, 1.4826331413806335)","(0.14193867151907502, 1.867494836072044)","(0.1571495846607379, 1.7272450003631006)","(0.19515193027111263, 1.4414304600324463)","(0.23236226685387626, 1.4969184936250928)","(0.14934889928621772, 2.0079795445993374)","(0.2003486267234364, 1.4916137944181398)","(0.2324419297918283, 1.6120625135295492)","(0.19386071035945707, 1.6512396050444627)","(0.25282164160444226, 1.5568787795593304)","(0.26398733235098015, 1.5824314368405792)","(0.19789435506077221, 1.6214207718250921)","(0.16324642489023358, 1.8488919682290608)"
"(0.22007147755371628, 1.643135256449012)","(0.22745331214832004, 1.460369408766003)","(0.24783097005538854, 1.497207471984434)","(0.21773065993333512, 1.60837952768232)","(0.18737578315055164, 1.640076317472287)","(0.19370510448761735, 1.7052093487041748)","(0.19882924678299924, 1.6712173962040935)","(0.18138570309064259, 1.7911272627430612)","(0.15318230106039762, 1.9633098166472902)","(0.16132341543303597, 1.9106055816279859)","(0.18392267395306688, 1.59082342282863)","(0.16202544195915047, 1.8088048372196868)","(0.15765337333831453, 1.8544512838408322)","(0.16760146212884872, 1.7560226104641687)","(0.1857169377820286, 1.588000353919111)","(0.17873989565786827, 1.6539210611992103)","(0.1625562832944385, 1.6705152425346441)","(0.14714037413478737, 1.7511394931212902)","(0.1445820411557735, 1.6981446765476382)","(0.1566840483036767, 1.4735431311787401)","(0.1402144591848488, 1.8897707824030758)","(0.15958360272392488, 1.7192505797219817)","(0.19427216203173048, 1.4539997568926644)","(0.24095125424631925, 1.4671929515327564)","(0.13157675584190542, 2.2612595656577446)","(0.1923241614237942, 1.5476507257916037)","(0.23700553065467, 1.6054588360843236)","(0.19662951071840806, 1.6249794928298675)","(0.2525191718771922, 1.5556804290974546)","(0.2651466003182509, 1.5719455880697462)","(0.18837292179450213, 1.6962750510504365)","(0.16175358668272163, 1.8570803129039677)"
"(0.21972110134526882, 1.6457425765769835)","(0.23313170331345584, 1.4744247345014034)","(0.2530235345947265, 1.494107285853807)","(0.2186844904741428, 1.7008745371642982)","(0.18870784250302694, 1.7510512810846623)","(0.1763789139848034, 1.909283501026752)","(0.19935391477467665, 1.662709699635322)","(0.17991320415397133, 1.819065359967428)","(0.15525698730064982, 2.0136557654230254)","(0.15967080931426575, 1.931263667190722)","(0.2052635043771328, 1.510028355202495)","(0.17958860866520743, 1.7421480168444623)","(0.16459716536404853, 1.9786801579867666)","(0.18191446878162043, 1.7341674353733179)","(0.19636908329023192, 1.657770571064813)","(0.1969030275237763, 1.6397786907485987)","(0.17847245471778025, 1.7088333298566551)","(0.16495001470068488, 1.8152151548508602)","(0.15917574039769947, 1.705092546413659)","(0.16604000335484967, 1.5437947488751333)","(0.1401916438185678, 1.9455493433402438)","(0.16974930522284762, 1.7448035311779477)","(0.18677657666545738, 1.475004783089543)","(0.2365217357139755, 1.5016354335970228)","(0.11960172557058453, 2.5350015351300055)","(0.19020434424713256, 1.58127080922655)","(0.2367874057408983, 1.6304973016172501)","(0.19617055645848464, 1.6895984543879274)","(0.25363465746486363, 1.5403070185493264)","(0.27870159753227847, 1.5051844032341666)","(0.19137347653190112, 1.7425560653811687)","(0.1544346237864373, 1.9363631102005316)"
"(0.23294932680103664, 1.5956919569001684)","(0.24152418140370424, 1.4305912122002085)","(0.24882984367157907, 1.497464921076316)","(0.22467431103676228, 1.6317408987142474)","(0.19653334450357915, 1.602132700832933)","(0.17534927773600548, 1.9186628344814758)","(0.19878250588882493, 1.677139254493591)","(0.18734116725027872, 1.7472938444364616)","(0.1592228780441632, 2.0244262921466745)","(0.15922109726717734, 1.8949738980778197)","(0.20506792917145056, 1.5275248987976038)","(0.1816241464443755, 1.717165059472675)","(0.1913226337000462, 1.7351389537437225)","(0.1787428249665013, 1.7978038932395366)","(0.21065826594130097, 1.5701462017088101)","(0.20105356580423756, 1.6456254381441469)","(0.1759162791913103, 1.799207815673242)","(0.17245354537540702, 1.7864623859867048)","(0.16956021731426213, 1.6086463168411855)","(0.16381258558264125, 1.5617972734717076)","(0.14535370018583, 1.9087242058046918)","(0.1821449122151856, 1.664449654562808)","(0.1876477405422426, 1.430069200728188)","(0.22983129813757927, 1.5595172669859236)","(0.1243685204762745, 2.4453103643696426)","(0.1943152240192207, 1.5714585930543425)","(0.24625737260152789, 1.563900435680698)","(0.19777055278543657, 1.6985147893089063)","(0.26581488031126155, 1.485072668435647)","(0.2887067617821609, 1.4301943444178236)","(0.18945351210061506, 1.754206251890856)","(0.15949712482867182, 1.9280065141269507)"
"(0.2375454151388055, 1.6424784790631235)","(0.24359936660925663, 1.5021028669409344)","(0.2323097364499247, 1.708433684194627)","(0.20992630114817593, 1.7595497381102065)","(0.20441201090612468, 1.5776531752540328)","(0.15678782606579614, 2.139506987039723)","(0.18177533669278062, 1.8936773708892412)","(0.18503974233193574, 1.7382387206017942)","(0.1562539644293491, 2.038102344588783)","(0.16563294978142895, 1.804682796474178)","(0.19905554101751188, 1.5447589212461925)","(0.18247015056973875, 1.6797638607484162)","(0.18234056122712083, 1.8105633076879144)","(0.1814808462845284, 1.729874503927407)","(0.21008800148709164, 1.5527905565751652)","(0.18970574069928378, 1.7095777617953682)","(0.18076422501281073, 1.7335297225311133)","(0.1728994196240471, 1.7574104652898224)","(0.17550657130490835, 1.569341196083618)","(0.16141703361605214, 1.6327301853809508)","(0.156185948656697, 1.841879333831925)","(0.19031219958283474, 1.5984631786454604)","(0.19638761869828264, 1.4333471830514486)","(0.22347634626566978, 1.577446032846158)","(0.14227303054344856, 2.207055338379947)","(0.20940954081296934, 1.4749689630806337)","(0.25803040724608683, 1.4899455242148685)","(0.20069978602281702, 1.6542251148746627)","(0.2716897716631064, 1.4501270051458883)","(0.29592059548033817, 1.3839506678663638)","(0.1904846578622115, 1.749623878108972)","(0.16817064200207393, 1.883198525877217)"
"(0.24467331577401896, 1.5815658840976574)","(0.24183428464253606, 1.5262843372857449)","(0.2317333883040832, 1.668462006954773)","(0.2060858734376169, 1.7905863426664368)","(0.19829597811966243, 1.6245002772544703)","(0.16001328371443524, 2.0812936933088637)","(0.1847102195275812, 1.826817585707014)","(0.17076563052701177, 1.8919559253377478)","(0.16050248234559344, 1.9466104791636372)","(0.17191052473787313, 1.7476804120052964)","(0.19894311164202272, 1.5507249148071622)","(0.1842862607133569, 1.6347900097627501)","(0.18488642188234963, 1.784314987549987)","(0.18193735803287395, 1.690559200407863)","(0.20502276520456952, 1.5786278064726251)","(0.19567675013758717, 1.6548868138708173)","(0.18297010805978756, 1.696043456920705)","(0.18096800449948927, 1.6955752212299524)","(0.1766062882613072, 1.5719916542983394)","(0.15982290450321698, 1.5884559776078506)","(0.1556362695995512, 1.8490314939875736)","(0.19495928780184937, 1.6056404322549451)","(0.19443278024858296, 1.4425280118469421)","(0.21855041364534902, 1.5613940123660008)","(0.1502209333078815, 2.0441105652514637)","(0.20271092910972838, 1.5204684446412817)","(0.2516002160490133, 1.5285600448095775)","(0.19804565848305128, 1.6416771040344633)","(0.2622067775594135, 1.4854922702550033)","(0.2898617217181512, 1.4037134482416145)","(0.1920656465767403, 1.7163402384145867)","(0.1571541499242336, 2.0069422790801092)"
"(0.24071963677291772, 1.6111623673952764)","(0.24555050775372197, 1.4462441791559628)","(0.23219998794775126, 1.6726185407723395)","(0.21080385096691764, 1.7285584366298774)","(0.20589237969863378, 1.5736375935610387)","(0.15980983424139295, 2.103683043793796)","(0.18638583021361257, 1.801342376141885)","(0.16662755864077589, 1.8885629994527655)","(0.15721396678825128, 2.044097986503171)","(0.16686715058742493, 1.7607539390310891)","(0.19756495757026601, 1.5604800989581)","(0.18410302774090642, 1.6543792917976465)","(0.19300495098370465, 1.759611918005765)","(0.18221963377975334, 1.6920858937816432)","(0.19693270975855004, 1.6346003656073105)","(0.193693285377068, 1.6707828688365556)","(0.185476186614474, 1.6611511729282615)","(0.17578648123308996, 1.6638187493219705)","(0.1748688815416298, 1.5931655846702666)","(0.1640121404905052, 1.5958996558109992)","(0.15908553649015222, 1.7980961076708326)","(0.20110097347006414, 1.5418548791214484)","(0.20048263853535295, 1.4353544328938994)","(0.21090766494402216, 1.5623710265282276)","(0.16103739436610284, 1.9335181268606783)","(0.21164504394695152, 1.453511390691584)","(0.2519076214617838, 1.5097712869538966)","(0.2022904244514903, 1.6147343507982683)","(0.2619974424740731, 1.4568934516740573)","(0.2904982050954196, 1.382857628429257)","(0.20405535006048459, 1.5988354327869978)","(0.1585059716210547, 1.9284219855311244)"
"(0.23357142386785099, 1.6717653989833385)","(0.24145993343292127, 1.486102202394037)","(0.23727221034555554, 1.6471303632571128)","(0.20869564116620024, 1.717610581506829)","(0.20588038734199451, 1.5502217546629036)","(0.15840455815087318, 2.1004479416967445)","(0.18313257046709958, 1.8141730913361889)","(0.16964596228468865, 1.818509110145625)","(0.15756049139250947, 1.982299033843273)","(0.17036888507965986, 1.723270771492085)","(0.19213385222167353, 1.6289937164173007)","(0.1805588174271687, 1.6724706158871385)","(0.18690264936666573, 1.8344278885244798)","(0.18085075532579617, 1.699990393779392)","(0.19736322871124534, 1.6402005594424873)","(0.19033836126432704, 1.6702371942564396)","(0.17322003094906172, 1.728412934362301)","(0.1690234398892691, 1.6158647432992914)","(0.17305183199758242, 1.5545155216288251)","(0.15912972106347492, 1.5505623838729248)","(0.15696147424056892, 1.7412636879345884)","(0.18250435916691934, 1.6573773810630317)","(0.16928856068672274, 1.6621801973551762)","(0.19175061662867066, 1.6662261554517421)","(0.16681304009459438, 1.8024669673562361)","(0.1850949224605873, 1.684843568548116)","(0.24509092968408355, 1.5438998311693917)","(0.1913353261626708, 1.6575946694195307)","(0.24519818658417358, 1.4848727254861467)","(0.2777338035655372, 1.4339327241708428)","(0.21391035161978503, 1.5083097480612844)","(0.15777382334570428, 1.9067675706439073)"
"(0.224963560307006, 1.7421075643376505)","(0.24224727032656987, 1.4594583405732173)","(0.2225426185824471, 1.6879536156522825)","(0.20950618339606955, 1.6757880111037835)","(0.22139237777543272, 1.4471641307757965)","(0.15866200835170158, 2.0758270264372873)","(0.1770746360521362, 1.8373547312506069)","(0.16114178721543337, 1.8700751510831208)","(0.1651808306185789, 1.8507162207093866)","(0.1703766159667456, 1.684604289855732)","(0.1836402914547471, 1.6050089304440878)","(0.1821118235157694, 1.596524028371657)","(0.18295698754995438, 1.8097926789313907)","(0.17253734312910807, 1.7069034089641892)","(0.18048588147715203, 1.7675091234956088)","(0.18718002925551402, 1.7054851921020302)","(0.16921829574890496, 1.7201720823696671)","(0.16525097748391382, 1.5399279374318438)","(0.16346690973860278, 1.463373238462445)","(0.1532636278483669, 1.5153047390845296)","(0.1445650133291018, 1.6731046557649607)","(0.16938378974316012, 1.5391251856177321)","(0.164437439819696, 1.543613388896633)","(0.17717685298468056, 1.6862842505006874)","(0.16565260825483713, 1.7129752460278427)","(0.18087421398855444, 1.6641416590925737)","(0.24030043826834468, 1.531154083883788)","(0.18649377660201363, 1.7019171503012234)","(0.24056485021710322, 1.4685951386414269)","(0.2822384299863536, 1.4227434138074861)","(0.2114153839140466, 1.531836590307149)","(0.1623650709533527, 1.748752829634045)"
"(0.2302193042004531, 1.7397104608515765)","(0.22968848615695994, 1.5271226549109118)","(0.21383593990078278, 1.7348733696853882)","(0.19733619849795236, 1.7228629197643759)","(0.19575053152816685, 1.6266551493418646)","(0.16204792514198713, 1.988081760328077)","(0.18378708124954055, 1.7119934031641206)","(0.15880859656449756, 1.8714122721704098)","(0.15562952796185803, 1.8504248651504362)","(0.17037590402107208, 1.6964558217394812)","(0.1766673511759671, 1.63188580543081)","(0.16765612895305754, 1.7048502974229527)","(0.15811628430478133, 1.970623078564641)","(0.16813190998466424, 1.7066477957114097)","(0.17244208105850595, 1.7733979685607417)","(0.1489549159071934, 2.0134232336664755)","(0.14140418170184524, 1.9086515963170847)","(0.13625559727173248, 1.7832180784598377)","(0.14353265157756406, 1.651989751514038)","(0.13539625647515138, 1.6899279190951768)","(0.13788485258108824, 1.7548842548555341)","(0.15946545597195624, 1.577496829586776)","(0.16125907569541198, 1.6166433565739649)","(0.17327975500310003, 1.7668627573564541)","(0.1633440797940812, 1.7040909819361936)","(0.1834972837019159, 1.644629060111955)","(0.23335554411799875, 1.5558449182620475)","(0.1797044475079009, 1.7031336524505887)","(0.23260747028894208, 1.4767311947434052)","(0.27466719546667895, 1.4501390198500246)","(0.1996222151805883, 1.5738618616966704)","(0.15874680472213065, 1.8051397372847149)"
"(0.2293429315767372, 1.6590863506860873)","(0.22939603932254596, 1.5564689930409352)","(0.20985280838277043, 1.6662949404743856)","(0.19704242194812613, 1.6820915632732116)","(0.19174545068144236, 1.6780473438135193)","(0.16543055689200895, 1.9237996079772925)","(0.17312199836485984, 1.6890060541081846)","(0.16539376396206873, 1.7811947394649432)","(0.1375126309543367, 2.0812225771507107)","(0.1622729814892057, 1.7328649732293593)","(0.1605661981857016, 1.6614409929796283)","(0.14965857160230264, 1.8173045501638372)","(0.14797556251319455, 1.9795550286563761)","(0.1583371382930526, 1.7014489246075977)","(0.15828734590814256, 1.7900820184588648)","(0.13577417883230733, 2.0023224259994916)","(0.13531535223277646, 1.815747057861767)","(0.1310758957043796, 1.7638193261850963)","(0.13852542047614247, 1.6550547931635289)","(0.13401448431781152, 1.6433640076523823)","(0.13875798781564913, 1.7590427164144693)","(0.1508145852752226, 1.6322156543519604)","(0.1596009888004033, 1.5936773714434853)","(0.16718579056890573, 1.7612492279644112)","(0.16296115082777177, 1.7195792173578963)","(0.1895530341881533, 1.5497171616014551)","(0.22705300451288193, 1.4996579758140494)","(0.18207869348492803, 1.6781988345487513)","(0.2412125136784381, 1.4301597657220748)","(0.27393326785826994, 1.410357058846228)","(0.20552974036430818, 1.5314214121393182)","(0.155482606392881, 1.822743832994024)"
