Fp1,AF3,F7,F3,FC1,FC5,T7,C3,CP1,CP5,P7,P3,Pz,PO3,O1,Oz,O2,PO4,P4,P8,CP6,CP2,C4,T8,FC6,FC2,F4,F8,AF4,Fp2,Fz,Cz
0.6304191512690303,0.6175011025033629,0.6305032941932616,0.6280239235642583,0.6160741437338404,0.6055423623823973,0.6341333049046795,0.6210824304664074,0.6000954951410487,0.6269046066826454,0.6145942166159274,0.5998203095077497,0.5895219128729581,0.5907340625259658,0.5954094969993172,0.5864173194937558,0.602389004060493,0.5875005288096817,0.5885428609312837,0.5802058325470096,0.5614918179224544,0.5767233268444008,0.5633671185864398,0.6074903760320802,0.5833494566120964,0.5761496834562112,0.5831987009800577,0.5908004507701494,0.6099338905012163,0.6263349830013067,0.5818544461266999,0.6172934647299498
0.636365982067528,0.623123567853225,0.628317123523131,0.6421862064925903,0.6158436983881416,0.6064075536643341,0.6269614813382245,0.6186378818682903,0.6162366398887463,0.6212756792819917,0.6147316194061683,0.5962190442384865,0.6034570183688973,0.5946499185033267,0.5976934232626495,0.5831982893246686,0.602242468274927,0.5972759955526268,0.5946373170776126,0.5838145756636003,0.5664826626797702,0.5765689670658627,0.5634872824081693,0.5994668905156816,0.5805591257556986,0.576842923721244,0.5864951261542047,0.6000430760756056,0.6000430760756056,0.6168967630962089,0.5861289884900803,0.6214682013869505
0.6476499166539185,0.6127576636530057,0.6285071054276262,0.6343529885468475,0.6064229992566996,0.6125270086870714,0.6359184139743913,0.6153244677575345,0.6220135059073711,0.6297741393054693,0.6218506482643585,0.6028138181231442,0.6092680016773739,0.6024681266227293,0.6072365794868204,0.5913533236384094,0.6092211818655147,0.6035712191572667,0.6006235526508605,0.5904915948195053,0.5730828714257405,0.5826249533882957,0.5770521627468216,0.603175605519458,0.587319019675721,0.5904985055186258,0.5919713276402385,0.6057427739443983,0.5968871035871581,0.6196832424806423,0.6021996672183766,0.6199592172869782
0.6505087493370241,0.6202614996981909,0.628492578625629,0.6399641854823918,0.5939444141850044,0.6114465861338257,0.6419550264309821,0.6216651392125199,0.6252743711561651,0.627788088447999,0.6311916019475551,0.6128698474550919,0.6113496303586752,0.6031464266968245,0.6092680016773739,0.594115818473058,0.6099177902217814,0.6035569450033347,0.605138288090162,0.5830439031436699,0.5773152417391519,0.5849226205680707,0.5798715361926838,0.5985651329485447,0.5805843715342807,0.5969774800508079,0.5964796927431227,0.6053759906251764,0.6000528575210137,0.6228647055185424,0.6094749784107746,0.6224943765144368
0.652535181073243,0.6203241880790308,0.6283607044980114,0.6368049442429814,0.5930015898865331,0.6116008701266159,0.6422351723767338,0.612586447204928,0.6183077403750372,0.6256460840592254,0.6269523003072489,0.6188370576171515,0.6085160911885522,0.6054438460694502,0.6126211393216681,0.5978839336006626,0.6064096349295457,0.6062946802258063,0.598029431027268,0.5851305662667644,0.5781605497591137,0.577027461089365,0.5798715361926838,0.6050381149714821,0.5870862108541066,0.6063316988663457,0.5997724999924017,0.6113682550862858,0.6066694609121732,0.6238715098144608,0.6126782518208137,0.6210437895659998
0.65106149638255,0.6084340991888146,0.6305816474239362,0.6388924265204744,0.6003280431543127,0.611480155096085,0.6312909525019877,0.6121889493456748,0.6247252557111599,0.6232352454934967,0.6150194853384632,0.6123572067095328,0.6107952050166051,0.5998203095077497,0.6096561992009517,0.5981159362055313,0.6067569000131021,0.5964464739581364,0.5887693310941013,0.5847314826421987,0.5832498341652881,0.5779517758044751,0.5904396984629258,0.6015038331227958,0.5907249756814436,0.6157620653029006,0.6093120304677723,0.6129847219652977,0.6099482269896751,0.6241227371087719,0.6083953827894188,0.6120357344978903
0.6510118830040272,0.6123613876188005,0.6307230977073351,0.6350502998485733,0.5962603369969233,0.6117527208552962,0.6343286689601505,0.6156616406064749,0.6244406674055799,0.6202989946148284,0.6155358540699237,0.6121758407255978,0.6097935187324469,0.6000954951410487,0.6126062233821518,0.5888901146179918,0.5936305524433452,0.5929819617480927,0.586179402615657,0.5772348239422735,0.590224725720919,0.5800992451893519,0.5995140938970468,0.6087947530984734,0.5936967527871352,0.6191542433363119,0.6123074986464512,0.6164224331832983,0.6130737949920818,0.6374108099279158,0.6076559151074303,0.6127478332452752
0.6425236033865503,0.6176696422249266,0.6237235315739987,0.6362430847120051,0.5960669923303502,0.6136359947270595,0.6310186607468004,0.6128270360410392,0.6190619919874052,0.6175508141984604,0.6107504181133135,0.611637508970988,0.6071543194529584,0.5994543025458625,0.6209468450399086,0.5978689864491402,0.6001383267137473,0.5994004027914194,0.593434284221659,0.5887693778103084,0.599310499706809,0.5925456325994874,0.5934097622461298,0.6122610777272037,0.5904186050958251,0.6249194947220037,0.612949241123835,0.6133195018685158,0.6132079067964885,0.6325577046531147,0.6057284442396978,0.6018536826590644
0.6451707306624701,0.6210140010748472,0.6274110276565065,0.6290234812855793,0.6016703808465512,0.6060807933061984,0.6342063146796527,0.6095797308803849,0.6220844913402882,0.6170944310456807,0.6181645115003936,0.6146377893666767,0.6029920471708589,0.595202119534418,0.6216447538333851,0.5994397852130308,0.5997668888150722,0.5929431890893,0.5783132793115512,0.5837715156621994,0.5998465450526197,0.5804876248452076,0.590757996953109,0.599568349563402,0.5925421029785763,0.6285119476317539,0.6151815153045761,0.6073071194800793,0.6161461433532347,0.6350481879225384,0.6094406338991555,0.6135994007367613
0.6378372266508271,0.6234598170192986,0.6300568901907562,0.6263564636331577,0.6020328153013546,0.609542054615533,0.6369355448078212,0.6115808524149027,0.6271225428563391,0.6267495908744435,0.6144162356648892,0.6156812022332356,0.60943855634081,0.6021512532896564,0.6280351221011512,0.6030279628247759,0.6031797351550308,0.5961132067194699,0.5836499960280278,0.588440500033625,0.5968384450695425,0.5836022230611724,0.5838192723928769,0.5968969081032597,0.5896209779154618,0.6223199972701674,0.6086318051554711,0.6017798616150193,0.6220614772021044,0.6332686700696416,0.6074096175317854,0.6065163796656651
0.6381307932731726,0.6316188369008036,0.6319299768679902,0.638388992260828,0.6095658270130322,0.621116754061189,0.6307090849367585,0.5996728775455934,0.6275955501213335,0.6273642633078407,0.6152327234224502,0.6066519757275095,0.6106796041246835,0.5990937552420532,0.6342703391270506,0.6032178001651987,0.6024681266227293,0.5916207690339892,0.5790802814179125,0.5845857595690184,0.5924162286367867,0.5869685629090112,0.5969865975602041,0.6002854278739249,0.5933908531577294,0.6278619339510838,0.6093933067469857,0.5958846222328906,0.6247427152961513,0.6304691119537312,0.6009385043627367,0.6089998686436553
0.6295577490213874,0.6292376173147805,0.639210863843408,0.6410688960223547,0.6061692027114397,0.6112637475870716,0.6269614813382245,0.6098030731514891,0.6153156351880568,0.6268319470578333,0.6123857320052202,0.6131236440003517,0.6069120795312495,0.6064175732034657,0.6311642745088057,0.6126211393216682,0.6066480992178744,0.5901822719038786,0.5859815805870271,0.5772883110663384,0.5979765329000593,0.5873096059725196,0.60016681429926,0.5957922008754706,0.5962392588466714,0.6336822992500412,0.6067092089679306,0.5929162890847899,0.6423762442848147,0.636715861165653,0.6053579717323301,0.6185819382535682
0.6227027196389757,0.6419550264309821,0.6403819822326802,0.6504053323576598,0.6121169209070128,0.6273985208794509,0.6229196531370204,0.6158436983881416,0.6217911313824643,0.6218339620902369,0.6037467823437574,0.6157041343169952,0.6075923048435508,0.6051379452999722,0.6210182914081774,0.6122237350458825,0.6065031034678422,0.5939916930824741,0.5784642997941547,0.5731271075052765,0.5920961156752917,0.5840154926327235,0.5905340528442814,0.5990342787882653,0.594455955547542,0.6305501131780045,0.6098873359476259,0.5964240680163209,0.6443287631864532,0.6358270206285448,0.6062362714450298,0.6152096072801376
0.6231632721652096,0.6421608865109176,0.6538121488060379,0.652011116600002,0.6177899085078118,0.6254920450506554,0.614099530472307,0.6123524268368918,0.6130757496800671,0.6242651468037986,0.5971136307028415,0.6067514358963225,0.6016793963092865,0.5993927863769113,0.6190581736971223,0.6120896232414758,0.6067092089679306,0.6004193435446666,0.58225513400627,0.5769661461551678,0.6008761231232085,0.5907249756814436,0.5971467949460159,0.6079747121700518,0.6071183801444363,0.6302295609758176,0.6131044866391994,0.5950060438520098,0.644913066598785,0.6275971014345113,0.6069365358428929,0.6090157857382872
0.6299101913917982,0.6470642383106544,0.6542030868895704,0.6507754370940312,0.6182459767535347,0.6274993894394696,0.6182018318587653,0.6189465321313287,0.6157324484526129,0.6240239332464335,0.6001285774747873,0.6096471032922454,0.6092645499690227,0.5999293849699782,0.6248209486549203,0.6175770811027618,0.6063314015707765,0.5906306213000879,0.5821093202718876,0.5755551922297453,0.6062038329107552,0.5905340528442814,0.5970008099193278,0.6025370983798732,0.59403228100961,0.6246224747973619,0.6129419904842934,0.5918921062723388,0.6308250375890407,0.6209912230260356,0.6063333104073289,0.6124427458909345
0.6299101913917982,0.6584414208860747,0.6596420149287089,0.6480884210585781,0.6124529971851628,0.6311303542728935,0.6280519158555788,0.6272871366298807,0.6034998456888926,0.6267618526522353,0.603357590960608,0.6100324897858119,0.6064075536643341,0.602742423052561,0.6272713098304002,0.6175093769282204,0.606222615995759,0.60016681429926,0.5930090696508663,0.56947565606597,0.6108378025442092,0.5968716093127169,0.5932567204590011,0.6074439363935672,0.6031508986642833,0.6244387688578463,0.6191820380612079,0.5984397968340537,0.6365161100594634,0.6236309131526414,0.6128794259522041,0.615344011459482
0.6296875590472442,0.6588795592881129,0.6572818703252938,0.649047543615816,0.6183321279938446,0.6317392397555687,0.6302979598670158,0.6235211646179666,0.6035569450033347,0.631078312525025,0.6016167272950185,0.6096561992009517,0.6109619810408818,0.6046337579869785,0.6305584342318972,0.6303407287019172,0.6189283580075055,0.6123524268368918,0.6035712191572667,0.5801663706988442,0.5984504343390311,0.5972617831935031,0.5901492506322131,0.6106080103258248,0.6069411798136513,0.6241119625376133,0.6187970428501762,0.6039084818990852,0.6428348081193614,0.6276644370716861,0.6192974979172844,0.6111352521062158
0.6295415637530855,0.6623551292492498,0.6616036189316074,0.6399150479439143,0.6212367628093908,0.6221617056026735,0.6272085531209504,0.6205275343455411,0.6098652137382308,0.6334520534703802,0.6024681266227292,0.6185438262218101,0.6092297704339102,0.6106285876045989,0.6307994547175227,0.6309742038396203,0.6250486580766292,0.6188887955074854,0.6068411628092388,0.5738530780338053,0.5975129089667546,0.5936252070588212,0.6000328046574098,0.6037628057036041,0.6042694520793138,0.6109987562358055,0.6324678780620758,0.6073178557660336,0.6455713781413039,0.630194028361577,0.6251611187528308,0.6213999294356307
0.6298422445412788,0.6727539162585012,0.6649763124761888,0.6361267865895611,0.6188321464193557,0.633186096014164,0.6262396152080835,0.6152096072801377,0.6059782798742775,0.6304172628730423,0.6127695522111677,0.6227890804021096,0.6085925551338058,0.6163530922347324,0.6295415637530853,0.6341333049046795,0.6283413354918865,0.6219457489266979,0.6155083216248093,0.5879671358820532,0.6066873832683914,0.6100181532973531,0.6035331541470987,0.612997212766742,0.6040105204627272,0.6145943997477741,0.6355891839352624,0.614849142184015,0.6504376561119681,0.6301983404741552,0.6264007405279095,0.6120893268988665
0.6363572540943669,0.6726354654048263,0.6670695534347801,0.6422175824334294,0.6190619919874052,0.6363475049308117,0.6304172628730423,0.6184913178206267,0.5994054589212452,0.6308899410434835,0.6114173577967063,0.6249607616410391,0.604477334858028,0.6097628672744203,0.623142360187129,0.6365208508042769,0.6306702574013154,0.6188190793877709,0.6126594569799013,0.5819160359777631,0.6102088059671749,0.6066767098602653,0.6065088735938197,0.6172230526313162,0.6044705002675688,0.6180800133265818,0.6427509331728823,0.6167971406494007,0.647438270983336,0.6235143585630087,0.6234768695243238,0.6126211393216681
0.6279356934742273,0.6694496631208138,0.6628683998859686,0.6359976258326867,0.616107744418149,0.624589959447497,0.6310130313750635,0.6187127800540394,0.606222615995759,0.6253289778700656,0.6113682550862858,0.6336190533284304,0.6013169133688717,0.6180186628165203,0.6242032629279671,0.6431384875195758,0.6397240668325314,0.6304529908216697,0.6189465321313287,0.593979477646197,0.6210922344336163,0.6067323620140113,0.6004609910604156,0.6207932120127937,0.614686646029109,0.6296830941114965,0.6460976216185096,0.6175710791002273,0.6415238362175834,0.6181530231015551,0.6296559415307753,0.6127836354765741
0.6246982251115275,0.6689929083502568,0.6550772348956164,0.6243658087521808,0.6183887891477639,0.6219121954490061,0.6397240668325314,0.6034998456888926,0.6146671553941795,0.6282832254393217,0.6052522543339645,0.6303239655271499,0.5972260440912104,0.6209765101510262,0.6228033465801274,0.6335500188544873,0.6319299768679904,0.6310921481346641,0.6097643567520933,0.5891899996766998,0.6144319035928681,0.5971622892204571,0.5904396984629258,0.6271370696583364,0.6082424432302966,0.6251804452832073,0.6575245646709905,0.6082866526676431,0.6306932066956746,0.6197306550742558,0.6223874449850038,0.6156616406064749
0.6217674778703985,0.6585734584256783,0.657576872895653,0.6243860504593869,0.6121218793072993,0.6158156373101127,0.6369999546043577,0.5972380953363697,0.6052137917658397,0.6249176416541755,0.6065412541301759,0.6312128060642583,0.5971405748984767,0.6192799697264625,0.6248359142342387,0.6397582676278586,0.6327481857673746,0.6281863652348937,0.6152860688224487,0.5927388773194929,0.6207756822574946,0.6001343764659596,0.5939854872953603,0.6319981496577423,0.6093140332300472,0.6127024821727922,0.6573809227065482,0.6113837124257281,0.6293841273884785,0.6222257991211458,0.6108665395033415,0.6083623921257079
0.6220603860411787,0.6506240357555962,0.6415916291042221,0.6182636874854189,0.6062798492361801,0.6155083216248093,0.6428543940808712,0.6004135123470463,0.6075888151971602,0.6221089155529378,0.6032714052311199,0.6335647201205289,0.5950124630282909,0.6192555455138129,0.6216997666187228,0.6340311572588329,0.6266474245930062,0.621226286431295,0.6152092650415281,0.5968628856859349,0.6206331057512603,0.5972617831935031,0.5901209054311799,0.6331963638856876,0.6096944304444152,0.609778693240552,0.6573308866889565,0.6149939617144125,0.6259948240723657,0.6314546887539954,0.6088995055680837,0.6078360462988268
0.6224126934341369,0.6538802607826008,0.64162749442902,0.6208933574111596,0.6121889493456748,0.6097404619970884,0.6461368815733493,0.6067323620140113,0.609205020261501,0.6254458673039905,0.6001003415978796,0.6269046066826454,0.5987883643171188,0.6171478971908487,0.6122518230537725,0.6241303028223019,0.6294249832348461,0.6268597219571586,0.6183325677406116,0.5988959602930035,0.6141937628484425,0.6000430760756056,0.6002710583275394,0.6389267704047036,0.6193263600922905,0.6127020689632439,0.6658427506102744,0.6146671553941795,0.6315440811073644,0.642827032877403,0.612294333001435,0.6120114766059461
0.6191638639373847,0.6504376561119681,0.6370564215984553,0.6276644370716861,0.6215879970146764,0.6098765418131544,0.6397390768430393,0.602610381351014,0.6094775695431224,0.6218675155679287,0.5908004507701494,0.6214537385817501,0.6020350019704486,0.6072365794868204,0.6035759771486132,0.6148207659125897,0.6213958845538056,0.6150899719832345,0.6093570432422438,0.5980616688578301,0.6058502530983851,0.5868883888254767,0.5965632594362436,0.6344746885100971,0.612500229720806,0.6094406338991555,0.6630551020748153,0.6049659314083273,0.6270339108482937,0.6432581039542843,0.6157473374136073,0.6156568408780957
0.6218734096230586,0.6482257872681371,0.6470993922334517,0.6297699043506223,0.624676938443295,0.6159245614578065,0.6333503067900809,0.6096561992009517,0.6130163111622104,0.623915006591346,0.5903783618443119,0.6252647080793441,0.6021254551266269,0.6091849884259296,0.6030422369787078,0.6152580349384683,0.6149701624872378,0.6117063144276824,0.5999247784113889,0.5927573296861524,0.6152431459774738,0.5897390597568556,0.6024919174789651,0.6373853505525637,0.6096227452678947,0.6123901234770651,0.6596420149287089,0.6000430760756056,0.6282070800915197,0.646060941430882,0.6061802267893718,0.6108169273999781
0.6249704247178601,0.638814250936303,0.639143786341216,0.6338525498124942,0.6297084383220888,0.6283558622938837,0.6389267704047036,0.6099942585423482,0.6092211818655147,0.6251483222653308,0.5965316613302442,0.6191638639373847,0.6121218793072993,0.6001383267137473,0.6000102422406259,0.6124427458909345,0.5994303546270932,0.6060562159374775,0.5896537596026389,0.601577809529275,0.6093933067469857,0.590038561814707,0.6023396430424858,0.6369999546043577,0.6090582339225126,0.6214682013869505,0.6598157009321505,0.6056156979895644,0.6242623742466501,0.646946963835459,0.6026615004724376,0.598029431027268
0.631369603106718,0.62472525571116,0.6317494873064988,0.6333263599112889,0.6319724403269006,0.6253526045149341,0.6366281128896123,0.6131600124762038,0.6093933067469857,0.6215927071405805,0.5929256372697819,0.6192025347961336,0.624414131672823,0.6062474360702089,0.605644181443561,0.6130454106415826,0.5997724999924017,0.5981179831834582,0.5921323407372423,0.5908437215894844,0.6063137541081176,0.5859815805870271,0.6065984765014962,0.635898822304895,0.605939262176644,0.6115179787068049,0.6556603345464129,0.6129320483660737,0.6212756792819917,0.6497619706680894,0.6051379452999722,0.5949555266736885
0.6344259983218209,0.6242462725555882,0.6218586504650302,0.6249607616410391,0.6271415641916607,0.6210539114068755,0.6279683835099911,0.6099942585423482,0.6077182978896692,0.621565333088102,0.5837993300707944,0.6221657098786479,0.6283558622938838,0.6064096349295457,0.6056335287958166,0.6069365358428929,0.5934620012575725,0.5983253287462815,0.5922832012439326,0.5909600191387183,0.6065889397414166,0.5811210977929147,0.5999627635272567,0.642215586415224,0.5994004027914194,0.6086318051554711,0.6540752714874892,0.6059687911494387,0.6162820767003792,0.6528951068163877,0.6125395728083379,0.5997854246308821
0.6476758711831064,0.6180740019465163,0.6275205796345542,0.6312618343323078,0.6229359861989794,0.6312128060642582,0.6291814650662093,0.6193757312760535,0.6031672371152121,0.6297581016170475,0.5831957124957723,0.6118679042343937,0.6275419227915324,0.6002912644350418,0.5991302732879462,0.60016681429926,0.5832983234268659,0.5896516332904711,0.5895451803819495,0.5817217123695233,0.6002949232591239,0.5868136865067591,0.6000328046574098,0.6346247188763853,0.5927910389109304,0.5979262394506556,0.6537320285513998,0.6090950162198997,0.6165523015059977,0.6537549349507057,0.6063503312930139,0.6049178514256831
0.6483397847680986,0.6240758052319063,0.6436846054364679,0.637229387410081,0.6225716589791281,0.645950654883013,0.626790172573354,0.6344405896895037,0.5965316613302442,0.6338552529091043,0.5872487311771941,0.6013169133688716,0.6214720263927275,0.5890541813073048,0.5925354814160718,0.598389275021493,0.5872248774184747,0.5925704674933714,0.5932773887454201,0.592718467918314,0.5998533918414883,0.5924489710639705,0.6033956559707759,0.6385059674738841,0.6029179862390518,0.5955424253202334,0.6453765907424054,0.6115430105380132,0.6201126345977784,0.6486578423518011,0.6065889397414166,0.6004980605193291
0.6423178862476835,0.62635556460908,0.6377860497451388,0.6338893016758144,0.6236877103515425,0.6458132353115034,0.6211041176110187,0.6399734060147876,0.5996679720102103,0.6389130641566579,0.5886538833456451,0.5933429732499921,0.6252559680950922,0.595202119534418,0.5968969081032597,0.5953845507185941,0.5874158002556369,0.592727070840588,0.5894300550782995,0.5961651753065914,0.5968384450695425,0.5894616226446844,0.6032291073803645,0.6274022773258886,0.5971622892204571,0.6069411798136513,0.6528366682407671,0.6091207574653643,0.6228309697442623,0.6427760459866063,0.6091007256297929,0.6085877763650727
0.6431189015580661,0.6354695513623472,0.6422566009105771,0.6341089853179824,0.6255540280847017,0.6450316696266292,0.6152327234224503,0.6315152054107034,0.6035331541470987,0.6362987571784775,0.5858716905425727,0.5877287973915677,0.6242651468037985,0.5990937552420533,0.5937301748901536,0.5907524211991305,0.5871778019345888,0.5928990515915555,0.5784769263996694,0.5925197901846893,0.5937103016620613,0.5963910513646644,0.6193167394912177,0.6243300088825011,0.5992389082637478,0.6126062233821518,0.6556386337787855,0.6111491964843052,0.6291346684751816,0.6454143225271322,0.6062474360702089,0.6054762266058066
0.6419094543977684,0.6300098773336495,0.6474045704233061,0.6280373890535816,0.6227556680571228,0.6561679015021418,0.6117505497442317,0.6249871573679812,0.6155889138632804,0.6389130641566579,0.5951343113660184,0.5859843061037456,0.6280507396933809,0.6095592412069113,0.6035183634881937,0.6004563578686156,0.5902058576499406,0.5934159680332436,0.5917353506374903,0.592668003456001,0.6064229133150054,0.6039044404343089,0.6160309406372283,0.6331915001605114,0.6023010183131177,0.612126811446127,0.657942177829738,0.614089429344656,0.6377588414887705,0.6423351823011222,0.6117217717671247,0.5977694163911392
0.6356820231108288,0.627015432144049,0.6351256042700997,0.6222969831319834,0.6150253763485046,0.656828291206186,0.6127020689632439,0.6247682515882612,0.6189726736027261,0.6425898862772098,0.608190267244237,0.5965416147632653,0.6307230977073351,0.6211737419736268,0.6067362385236464,0.6109619810408818,0.5996679720102103,0.605777708762307,0.5969836923757464,0.5910234981585931,0.6191638639373847,0.6108322097404751,0.618645867282493,0.6398215423270862,0.6030512515747872,0.6129419904842934,0.6588463469146127,0.6209447479977185,0.6361208632308045,0.6453117997892763,0.60631218063068,0.5884626365895216
0.6323227312130276,0.6275955501213335,0.6316372834508488,0.6283558622938838,0.6173439837406434,0.6570881923432599,0.6160782163384195,0.6282832254393217,0.6160741437338405,0.6341819950929556,0.6025152062289765,0.5839297380898102,0.6234598170192986,0.6121169209070126,0.5933908531577294,0.5981824089069119,0.5925456325994874,0.5963754094987052,0.5978928889421748,0.5875028903295173,0.6218634482156093,0.6084405321530633,0.6092727804461069,0.6423842103428953,0.6031000294948181,0.6126782518208138,0.6645872907490472,0.6193201246177844,0.6337795400375209,0.6430895216354323,0.6124486856275325,0.599064880346827
0.6336092894750678,0.6295577490213874,0.6416219049505045,0.6298191512211454,0.6084962397755566,0.6502594140282012,0.6186859867326797,0.6366120996555128,0.612189930681986,0.6214296332826407,0.5986791289033672,0.5769373740943284,0.6127186043213495,0.6154594649623768,0.5932283570028237,0.5916701138306408,0.60016681429926,0.5926715410419935,0.6044334226128677,0.5848551615985939,0.6252946241702481,0.6042694520793138,0.6059798914152609,0.6474878498969969,0.6066655996227481,0.6055392134976152,0.6614881776919895,0.6113953684624084,0.6338379584448115,0.6487830798254093,0.6182551319333351,0.5980114673018921
0.6234463066254339,0.6244132880775854,0.6404975027753353,0.6332533771148376,0.6063275402813516,0.6500286584250966,0.6153244677575345,0.629810177669213,0.6064133765549259,0.6202989946148283,0.5901492506322131,0.5734665944320199,0.6031035993768292,0.6032178001651987,0.5815343673644656,0.5890667535559923,0.5968716093127169,0.5964085737418794,0.6021105779950886,0.5840479758069524,0.6219832438433353,0.6016793963092865,0.6031035993768292,0.6507754370940313,0.5971467949460159,0.6098652137382308,0.6625881487030648,0.5959103918846664,0.6341527599975384,0.6509498807335494,0.6016815829783806,0.593451452418238
0.6170509462703688,0.6191539132893056,0.6422767344841841,0.6399241460768949,0.6123613876188005,0.6519422812787581,0.6149403897072004,0.6399241460768949,0.6015815958165298,0.6105116762693452,0.5939916930824741,0.5683146599996772,0.5955424253202334,0.6001383267137473,0.5790927836434954,0.5863557274764221,0.5935660770311398,0.5934537890332884,0.6024919174789651,0.587559795467664,0.6223392809480611,0.612375675852559,0.6087525573880074,0.6415140979331552,0.6000102422406259,0.6190569363988628,0.653705526893315,0.6027714504534858,0.6312965933317447,0.6497538906010385,0.5999620151735183,0.5985169070404116
0.6077852703161681,0.626610609518493,0.6411783754176816,0.6282046191601415,0.6152727628277616,0.646769988211673,0.6087785914944598,0.6330985690261635,0.6087130814346845,0.6009133339045455,0.5907957337962249,0.5691479259733732,0.5961333881085805,0.5968716093127169,0.5848816475377671,0.5828936770642875,0.5895474714122498,0.5899227804693954,0.5948540396771943,0.5796580643059027,0.6216892445116293,0.6006143687849169,0.6092805792969902,0.6446097101950339,0.6028138181231442,0.6149701624872378,0.6595946400876702,0.5939444141850044,0.6341340834304666,0.6496799448251414,0.5992356851556404,0.5855542979255409
0.6186667451587463,0.6263066630801881,0.6353891618666128,0.6160741437338404,0.6125007790810852,0.6315060277499942,0.6024533359638242,0.6305816474239361,0.6117178972126378,0.5877827496620699,0.5906306213000879,0.573711419693554,0.599568349563402,0.5973720333368331,0.5916137340135013,0.5898639734136953,0.596076451753978,0.5968969081032597,0.6017084881466453,0.570972359726426,0.6208415159807319,0.6076064543610196,0.6084962397755566,0.6461295021182548,0.5967958031968043,0.6153156351880568,0.6533179890947503,0.5958475862894316,0.6253676339452214,0.6528061698956026,0.6013169133688716,0.5800652412656345
0.6215879970146764,0.629580540699979,0.635832904996526,0.6064554124226708,0.6097809509420941,0.6318363500118789,0.6045154929485879,0.6300514503463378,0.6070258487784234,0.5807809409133287,0.5936545102889262,0.5721452726454953,0.6003280431543127,0.5891087169296794,0.5880472223677427,0.5823610925024097,0.5968123350210417,0.5996972182039377,0.5958656724799145,0.559730241978303,0.6147631656630013,0.6102088059671747,0.602681754819388,0.6508907235126035,0.6037515403351039,0.6131332224974639,0.6415370973628793,0.5865918544264298,0.6129419904842934,0.6506831929765421,0.5961556999631085,0.5801836108301762
0.614686646029109,0.6293732274473992,0.6388206447194994,0.6081085955804479,0.615407456142801,0.6322047062467202,0.5967428638260522,0.6340311572588329,0.6092645499690227,0.5732618778824573,0.5970485658329767,0.575867798991361,0.6088911655275572,0.5896210212807605,0.5955007973896711,0.5895919501320859,0.5992145931437854,0.6025046722817246,0.6021147076306612,0.559908028887177,0.6176181636116039,0.6016706850398177,0.5901492506322131,0.6588387428302941,0.5929936535516128,0.6089425199555935,0.6355845835885251,0.5833494566120963,0.6124699948013571,0.6452725398344367,0.607364468168141,0.5863399240259725
0.6064554124226705,0.6267396895056174,0.6344547962539461,0.6135994007367613,0.6074431043452637,0.6202884734127304,0.5899748821322385,0.6280883967787899,0.5964321076131902,0.5558728064491614,0.5803030684205652,0.5672571259804257,0.598607850021224,0.5721099513157494,0.5862303235046267,0.5790802814179125,0.5891222411970432,0.5940008627594443,0.5851789018974337,0.5577833254666927,0.6032291073803645,0.5969572654426228,0.583208306841082,0.6417296962975187,0.5835505495193797,0.602381940893241,0.6274760368490321,0.5769211768510156,0.6063316988663457,0.6331769087928286,0.5951343113660184,0.5900149348127786
0.6099942585423482,0.6332201447808741,0.6493828141633258,0.6145327203173023,0.6060353665927688,0.6231406453183885,0.5944514755758429,0.6191638639373847,0.5958355654465002,0.5518746113486113,0.5801934518417959,0.5664208807798824,0.5928212792645291,0.5719360336199177,0.5938796554182508,0.5822388120209686,0.587144910887455,0.5858843073886738,0.589448923149278,0.5628988851030401,0.596466709889059,0.5972014685092139,0.5858926919055847,0.6345912980875641,0.585986087689075,0.5973463267879368,0.619232476695081,0.5791486100758583,0.6092292248689538,0.6275821994815345,0.5989363632245208,0.5923405640355593
0.6068793134715725,0.6356820231108288,0.6421543230488115,0.6116187917201545,0.5973944707654024,0.6180800133265818,0.5907362300236536,0.619260271419977,0.5932710784204104,0.5664255791122582,0.5938531137946506,0.5794897415771363,0.5926551524360087,0.5798397744361802,0.6017720361345589,0.5897528836192096,0.5938937445578035,0.5949792987851166,0.5815138078789672,0.564573309060173,0.5836022230611724,0.5961227719227304,0.5878869115402912,0.618136328261749,0.5783081672513256,0.5945890406500357,0.609650089809169,0.5719709979289752,0.6067569000131021,0.61447867658205,0.5932304779212182,0.592624267438798
0.6068793134715725,0.635945375239122,0.6392509081317741,0.6107504181133135,0.6079720944349291,0.6147203048049987,0.5850187978319477,0.6190619919874052,0.5924678313215693,0.5728565230937898,0.5936305524433453,0.582121874232263,0.6007377707180548,0.5860682928566984,0.6039617455432477,0.6012303590234086,0.5934846740304991,0.5899903371921712,0.5713792543972406,0.5575789690415315,0.5737930356892509,0.5937458106792801,0.5775559944610594,0.6117635019149447,0.5791676480504844,0.6075100419319357,0.6032714052311199,0.5658564920070189,0.6065336457814398,0.610799484885976,0.5964281492138355,0.602667480665456
0.6068411628092388,0.6415728021017268,0.6431625314104056,0.6110042146585734,0.6147625379035792,0.6120114766059461,0.5842122520074544,0.6250098756190884,0.6031904826509964,0.5659259138968559,0.5963719469147236,0.5837441212634874,0.5931353419645564,0.5898026367950815,0.6069120795312496,0.6014948176600605,0.5955221157927869,0.5851340196274579,0.5606749229844505,0.5529728203603346,0.5600570381197382,0.583889638148575,0.5721370406545552,0.5921213550814732,0.5839401210735311,0.6116270100318322,0.6068427362866765,0.5653012467088222,0.6098765418131544,0.6151564578693185,0.6028683108796469,0.6185042490038404
0.6096561992009517,0.6467446361247841,0.6486403927224925,0.6115666352862458,0.6125395728083379,0.6166361849507805,0.593845081777559,0.6186349989622254,0.6034570183688973,0.5699959637301303,0.6030958420446292,0.5830119771787268,0.605224162427282,0.5894791712016271,0.614359839708876,0.6021996672183766,0.5958475862894316,0.5881612953182261,0.5544108684284532,0.5516724789160512,0.5562488164891228,0.5773128544048709,0.5691671926075313,0.592831157396707,0.5833177597649749,0.6021105779950885,0.6127883195075948,0.5685701913976231,0.6162942401383348,0.6096471032922454,0.6070453064844125,0.6085918306466169
0.612786744968929,0.6375737722549151,0.6400423610665631,0.6156568408780957,0.6087130814346845,0.6226260041914979,0.6050609155045086,0.6301533101530313,0.6005522914507695,0.576797459377063,0.6058534204691386,0.5857460112158913,0.6118884105531255,0.5924646022751119,0.6094775695431224,0.6122469825358253,0.6056473465230826,0.5886443406726202,0.5644121772499231,0.5480877528057796,0.5597314969961454,0.5872193972289127,0.5724137933488719,0.5933793246556273,0.5832076756058944,0.6064554124226705,0.6063275718353838,0.5800869307848712,0.6095492766062293,0.6131887494353363,0.6078602509062795,0.6174066049339044
0.6005048127374002,0.6351771800812572,0.6429566713304702,0.625264708079344,0.6159157201835136,0.6232202726437815,0.6076237582321964,0.6304304042901939,0.6005522914507695,0.5883519380941215,0.6080898428440866,0.5835125212043772,0.6090385850430511,0.5934409152810501,0.6026466233408992,0.6084030913109739,0.5945795812264077,0.5927587303379613,0.5533053652643829,0.5579413124850837,0.5523848610478954,0.580506371962941,0.5699574828043821,0.5863395066811431,0.5867623997056872,0.5983160571140891,0.612515755665908,0.5863166687931308,0.6161461433532347,0.6191243014373644,0.6056918724887326,0.6115036083410572
0.6130374320218339,0.6415609290750315,0.6513672135808799,0.6373463500288573,0.6189946425742616,0.6198359735730817,0.6136762000845348,0.624589959447497,0.6005048127374002,0.5926925090109412,0.6111305680751951,0.5829909839312442,0.601884051333136,0.5934152870908677,0.6035569450033347,0.6092211818655147,0.5855449818766268,0.5840479758069524,0.5563745384810045,0.5615534495637922,0.5598256346418033,0.5735153942188276,0.5738646565344844,0.5930494820095907,0.5840953590256764,0.5921323407372423,0.6187262993525795,0.5920965425976823,0.6189283580075055,0.6313057247922047,0.606266068496877,0.6116580576138781
0.6161406296199246,0.6481090087440657,0.6546139026285238,0.6306737944552984,0.60631218063068,0.6199477604095426,0.6197839521584436,0.6282046191601415,0.6034570183688973,0.59906934894159,0.6144786765820499,0.587522510974901,0.5957885844486842,0.5941868829324893,0.6034998456888926,0.6091533021133434,0.5905340528442814,0.5941260050791981,0.560855814595829,0.560410466893148,0.5523757614404107,0.583677378344343,0.5769211768510156,0.5803307059317626,0.5925893765817717,0.5894628367654766,0.6199661610041352,0.5957175199892529,0.6188321464193557,0.6370049030541387,0.603357590960608,0.609010753423763
0.6219832438433353,0.6534090080091634,0.6540216227077129,0.6242752621627857,0.6116285423586235,0.6217009276995672,0.6231757769216395,0.6312909525019877,0.5999588132794688,0.6058828524529618,0.6252063489572149,0.5916786226665178,0.5999415042670558,0.6072115286090188,0.609778693240552,0.6137896052454698,0.5969297454598965,0.6018529587146824,0.5540422573918617,0.5618902930529024,0.5485577010206182,0.5734495624281928,0.5739206587191316,0.5919349104502102,0.5961479584563175,0.6001203078071403,0.6260451431965813,0.5943514030015078,0.6248254653773762,0.6430895216354323,0.6131236440003517,0.6095430796028978
0.6250714201641179,0.641270215492161,0.6427270742189276,0.6185053400991226,0.6139370343174012,0.6150895155679975,0.6237566705478457,0.6420367962980341,0.5972049310931955,0.6051379452999721,0.6268257515516935,0.5896209779154618,0.5968861796604538,0.6015815958165298,0.6024533359638242,0.6082745300403738,0.5969865975602041,0.6088856017007309,0.555162739163388,0.5695560260818802,0.5406278970155456,0.5700342496197748,0.566251918610123,0.5932625247671397,0.5933784557636812,0.6000954951410487,0.6293817355758519,0.5902343144795698,0.6250292021494648,0.6373610885299248,0.6032178001651985,0.6123382829261793
0.6277844503404849,0.6423156388799574,0.6452381856466651,0.6113312512936451,0.6185993957456027,0.6135263057443633,0.6199923191392462,0.6323478293255117,0.5940578785973138,0.6025370983798732,0.6247658719241719,0.5832083068410822,0.5933784557636812,0.5951093650852951,0.598607850021224,0.6049189053556677,0.5931621714879839,0.6128649783276982,0.559270336156606,0.5621194705002901,0.547982394859962,0.5662719035876882,0.5692228318548576,0.595190167253339,0.6028905173719413,0.6067514358963225,0.6425997323186619,0.594378261375972,0.6278763275354671,0.6459948269223124,0.6052137917658397,0.6088911655275572
0.6212367628093908,0.6398805271264384,0.6397582676278586,0.6137725410202273,0.6160782163384195,0.616439688800353,0.6268597219571586,0.6268257515516937,0.6004704864456146,0.6023291090952339,0.6220266373123435,0.5864619165333014,0.5858079581253017,0.594962285102561,0.6022176283241913,0.598499092289459,0.593245750231277,0.6161317439834288,0.5626674243606292,0.5697031664305556,0.5482401844792156,0.5759251703959724,0.5817206183449871,0.602040137722902,0.6027714504534857,0.5929045923967575,0.6503922643331633,0.6001640672592626,0.633841416991847,0.6452435392826982,0.608210940215256,0.6060795138620692
0.6189283580075055,0.6482212713635402,0.6369122063283168,0.6116580576138781,0.6129320483660736,0.6193367640521724,0.6290466944776183,0.621106951301442,0.600204570603277,0.6030958420446292,0.6156219611172827,0.5961479584563175,0.5976063441381108,0.6025710473162593,0.5966820798093239,0.6028905173719413,0.5970055473131802,0.622340376600992,0.5756865533191317,0.5730020410730864,0.5642949919868482,0.581067343114738,0.5837124864066164,0.6153689204841265,0.6001999640446878,0.5933751541939778,0.6463747281699201,0.6027741843896002,0.6281658803893887,0.6369999546043577,0.6118204318315056,0.5964322615990127
0.6161317439834288,0.6418256560962257,0.6364916223948406,0.5977491004782945,0.6096992092131482,0.6151235726675429,0.6199349441423884,0.6188864288009145,0.6035712191572667,0.6054762266058066,0.6126062233821518,0.5966343238956748,0.5937301748901535,0.6042694520793138,0.5919542878068048,0.6055545731482865,0.5923133591413694,0.6161509430816139,0.5761496834562112,0.563297559884833,0.5690645631199303,0.5751070828243745,0.5935186327480674,0.6155610251053877,0.6028244791464767,0.602389004060493,0.6543633808879653,0.601134639694007,0.6246998110798355,0.6461368815733491,0.6082210544695851,0.5993959635360462
0.6224175143068303,0.6487732430274546,0.6418310791591672,0.6060562159374775,0.6106941012302157,0.6055389512378276,0.6202098976050893,0.6077580764446927,0.6032755926813088,0.6021254551266269,0.609205020261501,0.5972049310931955,0.5819461247627994,0.6016815829783806,0.589847638977545,0.6023615351933825,0.5903761512787847,0.6159157201835136,0.5697242565168739,0.563603216353582,0.5611682098259728,0.5685317821194124,0.5865643502101455,0.6088270687157715,0.5971622892204571,0.6026507529764719,0.6525483094119198,0.6013530039370483,0.6295152047828404,0.6461368815733493,0.6188933102742777,0.5999415042670558
0.6283558622938838,0.646063267430738,0.636740534446445,0.606266068496877,0.6090142051321141,0.6086330790552439,0.623735055993643,0.6022894180615764,0.5901376858312779,0.5983944478848692,0.6050498052669914,0.5939003926921201,0.5798964965682791,0.5943426490860398,0.5934620012575725,0.5988450392926478,0.5934549892568546,0.6063137541081177,0.5657923565520102,0.5595371296640008,0.5620962638185302,0.5649916902377957,0.5933429732499921,0.6111313598341944,0.5971846951622728,0.6126151841640604,0.6490942134188956,0.5983253287462814,0.6267827867811802,0.6403692317472534,0.6221030214978079,0.6025746171982704
0.6223344600753677,0.6430798397958498,0.6306500879323619,0.6002854278739249,0.6175893003211478,0.6018840513331358,0.6101856267462519,0.6058534204691386,0.5928106670493708,0.5890641209372096,0.594455955547542,0.5939444141850045,0.5852595505583675,0.5972636447919248,0.5989438372449157,0.6117505497442317,0.6085843246567216,0.6159157201835136,0.5727274633926002,0.563330021389448,0.5636492359864519,0.5720893622402246,0.5968609690914438,0.6085244007653825,0.6030469949700544,0.6250098756190884,0.6410773663178424,0.600054890684061,0.6353100884405908,0.6344259983218209,0.6234905103156171,0.6058083696935463
0.6253676339452214,0.642307803776389,0.6247551454992697,0.608625284579674,0.627553520459631,0.5994054589212452,0.602834915595009,0.6001003415978796,0.5936545102889262,0.5859884797784949,0.5981326062658062,0.6004135123470463,0.5944992495317235,0.5974083809845631,0.6043881743102891,0.6185755806167635,0.6063789430219432,0.612586447204928,0.5658852993960819,0.5662645924373605,0.5640224465327273,0.5728668305371377,0.5896397785859218,0.6088168773227491,0.5996663186337569,0.6219486891548247,0.6377322442618379,0.597860050008092,0.6390840749527542,0.6249194947220037,0.6204084354969979,0.6029179862390518
0.6282396399125322,0.6388582257251472,0.6252226632978604,0.6122617651719924,0.6184822411579078,0.5929161829020049,0.6085183619849515,0.5969297454598965,0.5934721052217037,0.588177295951207,0.5946120182870697,0.602595887266995,0.594451475575843,0.5949622851025609,0.5998511455525839,0.6123234066651061,0.6021996672183766,0.6078360462988268,0.5755359511634462,0.570369626225565,0.5754479075693597,0.5836022230611724,0.5920866613075146,0.6047498965879285,0.5959438586051875,0.6116669256417004,0.6263062327356105,0.5972617831935031,0.6252433667817144,0.6189618052824587,0.6122011837031496,0.6096114171929711
0.6280373890535816,0.6405268703968297,0.6282832254393218,0.6153100683877286,0.612184753015397,0.5966820798093239,0.6092050202615013,0.5935693786008434,0.5903006719823432,0.5891771585699792,0.5801605348762885,0.6025061916328972,0.6067374593752897,0.5961002238654062,0.595442334355954,0.6096992092131482,0.6031464266968245,0.603381381816844,0.5682530154938292,0.5624623676730924,0.5738316635493333,0.5833016836452409,0.5920015667042744,0.5944224887836768,0.5926715410419935,0.6120072811819439,0.6284958751450047,0.5871466924727845,0.6201406308827926,0.6175914088661575,0.6123326506596681,0.6092292248689538
0.6268319470578333,0.6355014910148675,0.6281863652348937,0.6185234905777739,0.6120532602712279,0.6023615351933825,0.615339351504701,0.6000430760756056,0.5934821535480834,0.5958380210861709,0.5685563227647991,0.6114592469374445,0.6166088830206123,0.599532837123403,0.5991017867748906,0.6126062233821518,0.6080484222478036,0.5939003926921201,0.5677551261259235,0.5670356593699759,0.5717567993151805,0.5868461530568528,0.585348387233478,0.5980620342992409,0.5876417475820576,0.5972939194408219,0.6231916872623094,0.5881100141711827,0.6201891603945516,0.6240296408739194,0.6118389328338141,0.6058926324896833
0.6354857186139268,0.6271358934961382,0.6280131770848262,0.602742423052561,0.6028370636589283,0.5972759955526267,0.6127883195075948,0.5968384450695425,0.5832498341652881,0.593225412316816,0.5653312249992009,0.6020813991724552,0.6147115816606049,0.5900385618147073,0.5836022230611724,0.6027714504534858,0.5988698080626853,0.5869920162891695,0.5614874243838831,0.5527024951826656,0.572565525193744,0.570061827663996,0.5824426483736468,0.5930494820095907,0.5876794844251734,0.5957488042329809,0.6121644379526212,0.5892996397668415,0.6105939151344465,0.6208539156162636,0.601613313024608,0.6027714504534858
0.6383851227185707,0.6151475722328228,0.633044235818262,0.6100181532973531,0.603357590960608,0.6003767282642788,0.6095271543968342,0.6065984765014962,0.5700736440832417,0.6020035318871062,0.5766323997703768,0.5935193788248991,0.6056426163729988,0.5835186235544365,0.5896351290125155,0.5966109940271548,0.5869342174636526,0.5736942010505144,0.5552888915513835,0.5557793467516166,0.5683472596591587,0.5685701913976231,0.5821555115594618,0.5883613080892487,0.5890594039632852,0.5966738557489352,0.6233800118178278,0.58907969611773,0.6152727628277616,0.6273591549293736,0.5998483063801762,0.6035331541470987
0.6450762084671796,0.6092211818655147,0.6268063825455688,0.6100785213384852,0.6025746171982704,0.5899158697702748,0.6087847884977913,0.6092727804461069,0.5695167830363937,0.6017533727157658,0.5703696262255651,0.5961712883248375,0.6084351027995796,0.5868883888254767,0.5865709674235539,0.6037325081898255,0.5886749767127457,0.5836396607998359,0.5583582108080762,0.5563290985872735,0.5661167601384929,0.5793901191303281,0.5723084088228807,0.5957082527540001,0.5889461878237277,0.5964199730227071,0.6190385697414534,0.5873119674923551,0.6216447538333852,0.6206751471214423,0.6020813991724552,0.6060408836805466
0.6404251369337567,0.6058083696935463,0.6303045532867737,0.6193167394912178,0.5969560434920677,0.5963327676259669,0.6087847884977913,0.6096227452678947,0.576429780561403,0.6084405321530633,0.5757754585464909,0.6016167272950186,0.6156191337796602,0.6024672738671537,0.5957506842324273,0.5969774800508078,0.5786140458332514,0.5805872472920158,0.5576437689697814,0.5596389471931974,0.566351890425764,0.5793617577511747,0.5731923121987031,0.5995713594193207,0.5854142880328073,0.5902218400842545,0.6170601851799671,0.5786106866616834,0.6242032629279671,0.6243323920176704,0.5992032830629195,0.6025222693962284
0.6427054557210335,0.6122990170324557,0.6328058756090219,0.6155168920679084,0.5980353322334768,0.5991292916849784,0.6177602626578681,0.6152860688224487,0.579971158639492,0.6022063777067505,0.5683278720802646,0.6021384984868972,0.6166101499893109,0.6054549507014783,0.595442334355954,0.5967733801996778,0.582548324386782,0.583714953216792,0.5617284110074744,0.5596589738276424,0.5735335733452653,0.5884313453483765,0.5730276577175281,0.6054762266058066,0.5838313174011857,0.5992459251713343,0.6167406852138512,0.5783498501896794,0.62739067965779,0.627010965090901,0.5993484848226768,0.612395524367766
0.6454848530629714,0.6058083696935463,0.6330255862297121,0.6182878810576351,0.5951907112333054,0.6028370636589283,0.6312327150172314,0.6204543701714408,0.5805843715342807,0.6114113526171597,0.5796929761985239,0.6083380341013571,0.6136944550416112,0.6091207574653643,0.5961712883248375,0.5905692846814741,0.5752333694969538,0.5839450382326107,0.5628617879060482,0.5557278003542085,0.5698522407068513,0.5882754221979198,0.5684920405188831,0.6079116053343158,0.5782266317753512,0.5888603019323987,0.6185993957456027,0.5828981615641262,0.6303304295358363,0.628696361296035,0.6053759906251764,0.6098765418131544
0.6401196499773952,0.5986686516116168,0.6413996116984928,0.6057777087623071,0.590556041913554,0.5993484848226768,0.6307831548169213,0.6243598986706108,0.583043023699268,0.6119062218926268,0.5733075303051262,0.5992630156299432,0.6072466492262556,0.6060641542113976,0.5870781794877805,0.5804026908673735,0.5722013747588718,0.5737246332444053,0.566307682975655,0.552347124017911,0.5737688969014478,0.5850309438199562,0.5711392320740618,0.6126518229764534,0.5773415636808993,0.5961479584563175,0.6157809380979159,0.5800025290046337,0.6330747611469821,0.6273328988759518,0.6023080814803695,0.6160061945430475
0.6356525156022866,0.5993244096629295,0.637304824784926,0.6151235726675428,0.5957933218425367,0.6161461433532347,0.6307570907385214,0.6281196266437333,0.5858455212925584,0.6043520795498165,0.5766544579125886,0.5952469301594879,0.6001653314990392,0.6119694393050544,0.5866552302196907,0.5858284490741488,0.5730930106392546,0.5738342498231745,0.5641610082953965,0.5514741257816451,0.5726009441850922,0.5836973603716912,0.5775123903461977,0.610568469041373,0.5851341583641569,0.5964667098890589,0.6276644370716861,0.5881446752021428,0.6444808884309174,0.6377344133231333,0.6089998686436553,0.6067569000131021
0.6338186071799052,0.5977491004782945,0.6435100680531318,0.6207932120127938,0.5954900689468653,0.6159245614578065,0.627426489294644,0.6223741253298269,0.5929019674397248,0.6085877763650727,0.5905670741159469,0.6000528575210137,0.5938192767882191,0.6211058601405164,0.6020813991724552,0.6035569450033347,0.5820213336990788,0.5801836108301762,0.5720527778584183,0.5592354997302861,0.5786414377915519,0.5907153980299362,0.5845854064321818,0.6233207362621235,0.5964825187073418,0.5969572654426228,0.6367366784204547,0.6050430153083869,0.6506240357555962,0.6464869114470541,0.6120452204871959,0.6094650138100924
0.642042251511622,0.6096471032922454,0.6484448585780275,0.6271358934961382,0.6025061916328973,0.6093259343351249,0.624510768092665,0.6192686346268284,0.5951093650852951,0.6051041751870703,0.6099338905012163,0.5972380953363698,0.5924140210627472,0.6251482389046502,0.6141484868915377,0.6161934367921342,0.5840259359996849,0.5894064693322375,0.5798308635941997,0.5659765997864359,0.5762100161908038,0.5901522768762147,0.5867591154450204,0.624633955320806,0.5942461414419038,0.6094650138100924,0.6398022377417508,0.6126151841640604,0.6458674883313089,0.6433456952317047,0.6222621432422227,0.6160741437338404
0.6288419750580402,0.6126111817824382,0.6524925880744018,0.6359183210188987,0.6050498052669916,0.6152969688074709,0.6283558622938838,0.6252453815489676,0.6002414577591072,0.6055545731482865,0.6128794259522041,0.600204570603277,0.6054702065333347,0.6336527924073877,0.6257030234069096,0.6220306821941686,0.590535384792341,0.5911312621320823,0.5896516332904711,0.5748602340373612,0.5864956285201708,0.5974161919662023,0.5820479866435068,0.6238326809989035,0.590609460532469,0.6126238356044748,0.6397735976605153,0.6188944402439569,0.6458478587486546,0.6452800608920622,0.6193468679855975,0.6126211393216682
0.6288419750580402,0.6216023435284665,0.6479953715636624,0.6303534189569533,0.5957175199892529,0.6091207574653643,0.6282746424519353,0.6250388652262859,0.6028906504616275,0.5948221755398536,0.6092211818655147,0.6021138548750857,0.6082258909801888,0.6433456952317047,0.6330004611387059,0.6275967262835316,0.5983754567570126,0.5970763390672001,0.5875597954676639,0.567717041670805,0.5826159666475974,0.5992219029967356,0.5790887374446908,0.6210343864539818,0.594455955547542,0.6093962932639091,0.6401056357657907,0.6152092650415281,0.6399436880251498,0.642727570439609,0.616107744418149,0.6131216948179706
0.6303339768155961,0.6370831364129077,0.6592683609790136,0.6296415210988082,0.5962806465243697,0.6188706325420433,0.631222511993562,0.6185438262218101,0.6051770841932724,0.5921323407372423,0.6125844925169429,0.5985045134513836,0.6095492766062293,0.6331269474011656,0.6291153515656412,0.6182063048586135,0.5986791289033672,0.5884812686205395,0.5930015898865331,0.5790613535933733,0.586520868788597,0.5976724178562097,0.5820955093726726,0.6217037073168297,0.5987324667611987,0.606619487488945,0.6372926480214991,0.6210140010748472,0.6366413475330714,0.6405692491232292,0.6163086395081406,0.6220844913402882
0.630430535292845,0.6366830249691173,0.6568652750064033,0.6209907805014158,0.5973720333368331,0.6187970428501762,0.624507209366272,0.6190569363988628,0.601045706116681,0.5925171429493106,0.6065031034678423,0.5864809783729732,0.6034046705668552,0.6159833419780252,0.6201279045657451,0.6241786257429438,0.5947889748073296,0.5981533818676016,0.5972617831935031,0.5749683788206735,0.5832260322201587,0.6053331516578802,0.5778699528140614,0.6218634482156093,0.6020010530340626,0.6025370983798732,0.6341333049046795,0.6217867615482923,0.6273193785823539,0.6425758171109834,0.6152969688074709,0.6182551319333351
0.6328619596374808,0.6310927019677052,0.650136047460433,0.6244103044743231,0.5999530142882966,0.6191820380612079,0.6183310525239206,0.612989532195945,0.6142589742268677,0.5965069428174303,0.6096114171929711,0.5926028143322433,0.612448272417984,0.6171004530650336,0.6148351652823956,0.621848985410409,0.5887693310941013,0.5917732927377529,0.5972617831935031,0.578724031353472,0.580415071572587,0.6031035993768292,0.5803550776960439,0.6162942401383349,0.605869197003691,0.5969572654426228,0.6369512068520234,0.6216997666187228,0.6234450524733683,0.6468894557394336,0.6161406296199246,0.6070776809591703
0.6319802809935243,0.6399150479439143,0.6532211501154204,0.6213668375985875,0.5951343113660182,0.6159884469267081,0.6091395102017257,0.6035569450033347,0.6066873832683914,0.5968056077129058,0.6090950162198998,0.5914876998293557,0.6217914165837145,0.6169378678786875,0.6188274370160788,0.6246146287904295,0.5910535195387938,0.5837319160611802,0.5902294846518693,0.5795740945941573,0.5765702109567151,0.5964322615990127,0.5803166840353936,0.6099482269896751,0.6035802337533459,0.6026428370536445,0.6330781889553817,0.6191820380612079,0.6135900785760949,0.6443587457974265,0.6088911655275572,0.6075042798994328
0.6296875590472444,0.6343529885468475,0.6450316696266292,0.622340376600992,0.6015746882952396,0.6096944304444152,0.6092297704339102,0.6027714504534857,0.592784475385171,0.5938796554182509,0.6094775695431224,0.5949251041366257,0.612970726342558,0.611950871804472,0.6213524910847972,0.6217674778703985,0.5887268730693253,0.5756829101948423,0.580724984375457,0.5730207082416267,0.5643660158377685,0.5856619399506949,0.5707069100614593,0.60274661050275,0.6003577371364222,0.5997538217834875,0.6358305727428578,0.6188174441834473,0.6024603991310761,0.6531311805570345,0.6097809509420941,0.6053824619336482
0.6302785476266396,0.6339144267668203,0.6513275120679438,0.6163086395081406,0.6018819861156071,0.5970709888301032,0.6020081162013146,0.5994142587636856,0.5852145579680701,0.5983942904728581,0.599568349563402,0.5965771648517257,0.6127169297972983,0.6066671973217634,0.61345155983274,0.6083623921257079,0.5814695861138616,0.5725550590421169,0.5772005896710133,0.5679967888910454,0.5625978656590224,0.5751013935191335,0.5664137665455341,0.6069365358428929,0.5965206175635054,0.6032178001651987,0.6278619339510838,0.6150806498225679,0.593709469854958,0.6569372142018133,0.6028244791464767,0.6084144980466107
0.6293732274473992,0.6399241460768949,0.6455824508223409,0.6098765418131544,0.6049189053556677,0.5970485658329768,0.6010455504707193,0.6017084881466453,0.5913864479057597,0.5863622741703703,0.5864882269627368,0.5835843840884758,0.6037087173335896,0.5935525573246935,0.6021105779950886,0.5957175199892529,0.5662983891940533,0.5638442317148579,0.566829768672292,0.5551026972264848,0.5552951921891275,0.5650007072928906,0.562685422442669,0.5957933218425367,0.5819360019979369,0.6065088735938197,0.6156424415082898,0.6093962932639091,0.5973672959429805,0.6506540465859842,0.6093259343351249,0.6075472942869427
0.6189267829049926,0.6305421217287046,0.640193335512778,0.6035331541470987,0.6017604358830176,0.6031035993768292,0.6044071613221951,0.6003320039239447,0.5820222517854549,0.5769211768510156,0.5697823657286113,0.5730138992154207,0.6035183634881937,0.5930879108204467,0.5875568169631556,0.590106792607437,0.5557878422911118,0.5614827873591518,0.5633532073457282,0.5473098599998297,0.5628293264014332,0.5621837697816062,0.5634913172859342,0.5892790936792164,0.5783013435925799,0.6004609910604157,0.6216946980188894,0.6025370983798732,0.6063275402813516,0.6508608666908953,0.6000443146786505,0.603309736004787
0.6222234598991184,0.6306231229529777,0.6313057247922047,0.5936545102889262,0.598156705636645,0.6058142859472032,0.59067683507574,0.5975394699501068,0.580209277754827,0.5702438770894178,0.570061827663996,0.5662785490263064,0.5971467949460159,0.5844828757608548,0.5817091584091477,0.5900548962508575,0.5630749300543799,0.5702951106936914,0.5626674243606292,0.5549557564635139,0.5599459730598344,0.5577856273971055,0.5600152234540877,0.5848209758033177,0.5755882776631253,0.5905670741159469,0.6211249759729298,0.5990550023341722,0.6067323620140113,0.6485988195768727,0.5987272692184005,0.6071208655199014
0.6137190360336647,0.6296928068868277,0.6310308976689761,0.5935660770311398,0.6007991158373513,0.6085918306466169,0.5941807699142432,0.5948113978044562,0.5970188677285061,0.5739742731132538,0.559472329735751,0.563430094728094,0.5996378321207011,0.572891951774964,0.5636399416220135,0.5896537596026389,0.5625790132206664,0.577006624680097,0.5596759684383474,0.5658295350305499,0.5600570381197382,0.5603953318933839,0.563511166375363,0.5841557575929682,0.5798554700424603,0.5874817010549662,0.6118593474960368,0.6055423623823973,0.6131236440003517,0.6403252616333612,0.6044175361912373,0.6115503512117288
0.6051281443812453,0.6243323920176704,0.6215349571201099,0.5986642178199496,0.6019173597913421,0.6061720477344549,0.5875918268249076,0.6023396430424857,0.6033428003017028,0.5771784494194009,0.5701155599556338,0.5690174188049383,0.5949446965092478,0.5845792817209324,0.5772014002542172,0.5959103918846664,0.5694512825393923,0.5837441212634874,0.5663894178744491,0.5625978656590224,0.5669980834198638,0.5636238102244918,0.5652509024867564,0.5774153713000213,0.5772158637056747,0.5869865884072984,0.6154888309898796,0.5962392588466713,0.6036754088753833,0.637029371837596,0.6052197279535872,0.5997678904423066
0.5902218400842545,0.6273247937152897,0.6150871566469329,0.5983160571140891,0.5996778286549976,0.604544036507993,0.5917583391273344,0.5972759955526267,0.599843535196701,0.569516264229506,0.5738273194811505,0.5679558977575062,0.6012359907887481,0.5816415161483324,0.5881446752021429,0.589875364816072,0.576429780561403,0.576584241100524,0.5620368775232802,0.5717596564675733,0.5669144343573939,0.5607710208658053,0.5795116943562107,0.5854142880328073,0.5799527489291301,0.5863166687931308,0.6251804452832073,0.5982042909041745,0.6183077403750372,0.6305273494384876,0.5974409396464087,0.5962140723130843
0.5916905235981775,0.6326751759924013,0.6192982802498053,0.5876816573876661,0.596466709889059,0.6015786622848506,0.5920677522191141,0.6065851981160364,0.5925189261772553,0.573811702857791,0.580724984375457,0.5621264456593298,0.6048988353418964,0.5801589638929587,0.5917836673164679,0.5990937552420532,0.5868883888254767,0.5874103200660747,0.5682530154938292,0.5697406753587921,0.5704068812924786,0.5608975528149037,0.5769692103938233,0.5866031342744336,0.5761356533124024,0.5854772081567964,0.6208933574111596,0.5989794165175899,0.6213524910847973,0.6290466944776182,0.6009025775123259,0.606222615995759
0.588711356632176,0.6212032093316989,0.6237931813285104,0.5873439951794992,0.5968068469635431,0.601450178704607,0.6004135123470463,0.6127695522111677,0.5894271419058544,0.5735335733452653,0.5804870926476109,0.5586464841604681,0.5956371882945688,0.5803030684205652,0.5833494566120963,0.5965982432077843,0.5699574828043821,0.5838510889353111,0.5708606168289222,0.57754450641222,0.5797834489674366,0.5718199541652291,0.5804185025946604,0.5978689864491402,0.5799084251968774,0.5873122303572647,0.6278619339510838,0.586179402615657,0.6266670298808055,0.6298810720767218,0.6009161730769533,0.6123901234770651
0.5966971293425158,0.6225998807730055,0.6293639753539397,0.5976063441381108,0.5894360269816292,0.6065498335987219,0.6030000423329674,0.6162942401383349,0.5893379007349164,0.5758702911489327,0.5768416387959544,0.5562540123152111,0.6014720708555038,0.5872193972289127,0.5839507113821194,0.6028184002401352,0.5770521627468216,0.5934097622461298,0.5851789018974337,0.584955563510248,0.5955945464218305,0.5823218731150104,0.5894300550782995,0.6050498052669914,0.5831378524409694,0.5839187854171762,0.6252806549494235,0.5852817366299228,0.6321921239690688,0.6237803928873188,0.5959851513636243,0.6146047421126745
0.5920069353504142,0.6141937628484425,0.6218187891329451,0.5976808249214365,0.5970709888301033,0.6171821183410321,0.606266068496877,0.6186911343339043,0.5934846740304991,0.5756865533191317,0.5837770007911512,0.5537774083450657,0.6081492947657141,0.5841010247186686,0.590106792607437,0.6099942585423482,0.5887693778103084,0.603042236978708,0.5937472908550027,0.5909407405142071,0.6060408836805466,0.602610381351014,0.60016681429926,0.6065829345256267,0.5867781110559951,0.5861207069258573,0.6310712688598197,0.586214499281653,0.6330985690261635,0.6237457020031058,0.5994728194234745,0.6136714003561555
0.5903286086684402,0.6199747341240821,0.6236236904801686,0.6023919908445278,0.6026428370536445,0.6140283734338619,0.6098030731514891,0.6160061945430475,0.5880844993607577,0.5892790936792164,0.5901376858312779,0.5732403234026151,0.6207630402754203,0.5933302667634823,0.599799060975754,0.6154594649623768,0.6058024193922178,0.6085918306466169,0.5967436820952071,0.5974446299609105,0.6129419904842934,0.6092805792969902,0.6032035260112667,0.6114173577967063,0.5988038533310991,0.5931575249345834,0.6326710158582444,0.5887147600323626,0.636740534446445,0.6315195561134005,0.5996053942874008,0.6058149983929632
0.5956352062513676,0.6204396411915631,0.6206828207003657,0.5993769724081894,0.594645185531316,0.6135900785760949,0.5967985936368432,0.6099338905012163,0.598932041064853,0.5922187198719179,0.6002710583275394,0.5804876248452076,0.6140177503783363,0.5868804307322391,0.5988017500017261,0.612126811446127,0.6097809509420941,0.6120114766059461,0.5885039710684995,0.5957743720895606,0.6095797308803849,0.6085918306466169,0.6031797351550308,0.6093570432422438,0.6078685909468059,0.5966109940271549,0.6343072046488595,0.5899299825940177,0.6393681683914588,0.6314028170998711,0.6025152062289765,0.597805545765718
0.5985655550412001,0.6272704108063226,0.6237931813285104,0.6026817548193879,0.59579003548955,0.6010862257652871,0.5970008099193278,0.6037515403351039,0.609144962072817,0.5954991864562617,0.6034570183688973,0.5835505495193797,0.6217557287314678,0.5898026367950815,0.6019756901031658,0.6155889138632805,0.6068427362866765,0.6053672645609719,0.5931995910074871,0.5915935227690033,0.6118389328338141,0.6084340991888146,0.6030279628247759,0.6184753857133845,0.6147967663473098,0.5997678904423067,0.642463568756242,0.589875364816072,0.6488413740235949,0.6321913916049543,0.6046316417144523,0.5903437394914159
0.6085081926477675,0.6241102806376204,0.6178945868573636,0.6025675540310185,0.5898784023757035,0.5951343113660182,0.5899158697702748,0.5971894325561253,0.5931797780300565,0.5892177570606025,0.6131332224974639,0.5772205403633364,0.6191350017623785,0.5838004853027371,0.5987563692542334,0.60264368980922,0.6033660458374871,0.5960673865087696,0.593034489479654,0.5833018701708315,0.6183491875798153,0.6055334489771267,0.6035183634881937,0.6182551319333351,0.6124486856275325,0.601155656097729,0.6526438550256487,0.5784441235564518,0.640193335512778,0.6375000894865667,0.5886491663717205,0.5838660168627123
0.6058940170781407,0.6267618526522353,0.6224408813221,0.6092680016773739,0.5898872901667791,0.5931499059736701,0.5884931548189295,0.5903006719823432,0.5836022230611724,0.5892576763931543,0.6031464266968245,0.563330021389448,0.612949241123835,0.5696119103690117,0.5903075826814638,0.5902058576499406,0.5904915948195053,0.5829828299101253,0.5821963970722991,0.5740233829970629,0.603042236978708,0.5948845358107812,0.5969882084936136,0.6089673853202549,0.6121758407255976,0.5992060308031699,0.6536082522499513,0.5788949794166052,0.6428685245023267,0.6450992932891212,0.5853631780220604,0.5881888828447034
0.6159836471983288,0.622340376600992,0.6320996583696044,0.6093522644735107,0.5914178900988499,0.5875918268249076,0.5856376455504071,0.5922093416831927,0.5797928223543749,0.6055790606541975,0.6032814551824065,0.5600292733443998,0.6094650138100924,0.5687016274760279,0.5831511361532289,0.5863180691800252,0.5874103200660747,0.5788927905018157,0.5795709967767523,0.5766812317997202,0.6097188103553522,0.5944816609384104,0.5899299825940177,0.5966201115365513,0.6157809380979159,0.6096227452678947,0.6537814426531853,0.5868384299781699,0.6338525498124942,0.6452725398344367,0.5877507183048261,0.5905289383140345
0.6063656909436852,0.6151815153045761,0.6233608997910374,0.6178598851046763,0.5960534869990542,0.5913455834006902,0.5845227873064462,0.5823218731150103,0.5792580554739932,0.611873014900867,0.6064764125410188,0.566351890425764,0.6098335274256447,0.5801929842171147,0.5856807677054106,0.5797365803133857,0.5806687423344679,0.5801648637124428,0.5766544579125886,0.5769925945362883,0.6035183634881937,0.6027149541854506,0.5899299825940177,0.6035712191572667,0.6218682690883028,0.6099482269896751,0.6543404329237146,0.5937962828665411,0.6340749365512723,0.6426683037815998,0.5833259457782928,0.5869539880502929
0.5994018000971629,0.6236837564674768,0.6118485113309264,0.6181401296867585,0.5968123350210417,0.5910625846778486,0.5828373130250378,0.5933908531577294,0.5858455212925583,0.6093933067469857,0.6002949232591239,0.5663076829756549,0.6048627596666732,0.580352869620581,0.5895643708977342,0.5799527077578411,0.5902273583397016,0.5935211896006446,0.5770113013377588,0.5732535012825258,0.5906306213000879,0.5959103918846665,0.5957099657303253,0.5972617831935031,0.6251901083600284,0.6055580251201389,0.6544748095494586,0.6104280266387265,0.6338317042068286,0.6483737049654854,0.5844568718687742,0.5813380377021102
0.5999415042670558,0.6333896058328997,0.6138040046152755,0.6092375649094803,0.6043639394547953,0.5957005063066974,0.5854142880328073,0.5903075826814638,0.5849226205680707,0.6080817638807261,0.6023919908445279,0.5659673060048341,0.5985698536593488,0.5806839939810888,0.5895219128729581,0.5771036153792933,0.5904915948195053,0.5901822719038786,0.5621852796365179,0.5759859824973581,0.5871252549716665,0.5865208687885971,0.5986321906795683,0.5902273583397016,0.6250486580766292,0.6199372840314468,0.6601981583044408,0.6196577206541924,0.6309811901686904,0.6485026636386974,0.5919947424441409,0.5814695861138616
0.6053347763224074,0.6485303790684469,0.6161909724408874,0.6118041477569887,0.6087286475601047,0.5880829172273649,0.5905652914860038,0.5933707008672185,0.5893130695589356,0.6076433593744004,0.6051900495241903,0.5720893622402246,0.5895474714122498,0.5837496184748361,0.590106792607437,0.5767794499822927,0.5804150715725872,0.58608520805072,0.5560020496161728,0.5628293264014332,0.5837018455079807,0.5655261292805868,0.588526498909703,0.5972759955526268,0.6249124443731741,0.6180740019465163,0.6564095661333778,0.6259459899309343,0.6389855209071892,0.6456217923265685,0.6034528000836126,0.5810692483129617
0.6136100448653212,0.6371414048877566,0.6182431655852059,0.6133594777830892,0.6015029697663217,0.5946712757951809,0.5868702935244866,0.5972380953363698,0.5865643502101454,0.6041471367137465,0.6119541162129115,0.5644121772499231,0.5885238371952003,0.5871097806501434,0.5805872472920158,0.5704115380493491,0.5635614821318589,0.5710261516482701,0.5454349480010627,0.5552551023248075,0.5668679587444667,0.5512222268030946,0.5781335622752991,0.580724984375457,0.6127186043213495,0.6090189839008471,0.6566174853146038,0.6291967332186349,0.638986288196108,0.6390294396822311,0.601027534692915,0.5957743720895605
0.6148828009599046,0.6401838113499622,0.6228598375376941,0.6182251743405702,0.6091007256297929,0.5920567546138518,0.6040475425679989,0.5995898219501763,0.5869495481241724,0.6090552475270169,0.6059964845479642,0.5695503519169036,0.59403228100961,0.5931156675244305,0.5870156383928972,0.573389319278218,0.5634362659749014,0.5713914715177726,0.5471762523046003,0.5615799688948614,0.5701134489178304,0.5453776700003976,0.5759130490584518,0.5903997370248468,0.6082053763884299,0.6103373404650081,0.6458233210301484,0.631794959387375,0.6352720589555444,0.6446576495066547,0.593371195794623,0.5930849539419668
0.6248394082954064,0.637229387410081,0.6232984440290017,0.6193981812379005,0.6114688254345567,0.5991083238484833,0.6112634183801573,0.6023010183131177,0.5817893731433976,0.6131661828868501,0.6050385797016596,0.5778940072404453,0.5894935191417476,0.593144030980608,0.5798615565428266,0.5735895755299124,0.5553243675001054,0.5756865533191317,0.5485577010206182,0.5533053652643829,0.5628617879060482,0.547982394859962,0.5823227912013862,0.5769925945362882,0.6071208655199014,0.6135335041583948,0.6457447948030776,0.6279166724871208,0.6323185590699503,0.6394741741891542,0.595422313920665,0.6029280361903385
0.6269558380844591,0.6389315111959877,0.6211777129621956,0.6259356687697785,0.6198820795811398,0.6110909646860215,0.6116572793177558,0.6025675540310185,0.5915992232078237,0.6261922350209589,0.6064133765549259,0.5898762994061468,0.5988794391476815,0.6063275402813516,0.592831157396707,0.5866031342744336,0.5619510208425514,0.5777281524865692,0.5509177495877648,0.5566709705021571,0.5597145123174236,0.5375265723661408,0.575867798991361,0.5864162912399391,0.6116426329848215,0.6209907805014158,0.6424311248708299,0.6455533518181428,0.6427774578196775,0.6455225672155326,0.6072334179431012,0.6055423623823973
0.6317980747676832,0.6370097037679128,0.6147982117246804,0.6208944595097466,0.6236837564674768,0.6051248035141008,0.6086943286983231,0.6056144549135053,0.5867887663786685,0.6291470111169143,0.6063316988663457,0.6042192292448544,0.5998845301684875,0.6188214304689836,0.5904090624228002,0.6063137541081177,0.5804624861993503,0.584936749255019,0.5649084640860161,0.577435512967649,0.5669516128359334,0.5410440322469858,0.5881321628474165,0.5965206175635054,0.6057586348799957,0.6300358516540225,0.639342248068571,0.645744187221356,0.6467496190464775,0.6429566713304702,0.6163886753814126,0.6053759906251764
0.628452819139004,0.6352324851245615,0.6108665395033415,0.6185042490038405,0.624638282368139,0.6062279178345433,0.6125345229623349,0.6022186288773186,0.5938531137946506,0.6100448639076413,0.5990024548516993,0.6100115809134482,0.5967733801996778,0.6246224747973618,0.5919447481047779,0.621935272548602,0.5961582927207041,0.6003320039239449,0.5752814264533013,0.5895219128729581,0.5662798012956798,0.5456773080789595,0.5853322823086485,0.5997678904423066,0.6067323620140113,0.628696361296035,0.6336628010239915,0.6419722111651968,0.6472025237669501,0.642874032907023,0.6227517615867021,0.6113312512936451
0.63520085165157,0.6417883985215164,0.6203761368126718,0.62539662468271,0.6250451490195443,0.6026615004724376,0.6148351652823956,0.6015596627205596,0.5935392520529913,0.6071208655199014,0.5831378524409694,0.5933090145324238,0.5927949758179881,0.6162942401383348,0.589958327795051,0.6193083818629098,0.5873161778088287,0.5915975428380243,0.5639669188555053,0.5791870669243093,0.5723838610476375,0.5339490961808371,0.5790415996542915,0.5933302667634823,0.5937963752339436,0.629200751958728,0.6366586754846695,0.6351009902391928,0.6483540309721554,0.6453998736873012,0.6214722687392699,0.6046093059116032
0.6393795144039094,0.6385505040014449,0.6268063825455689,0.6344259983218209,0.6205231513944038,0.6093120304677723,0.6210343864539818,0.5954916477691251,0.5895735255829826,0.6114848410446302,0.5900149348127786,0.5995256043122358,0.602610381351014,0.6159245614578065,0.5869120684945249,0.6153721034350437,0.5872463149195926,0.596057581992668,0.5715136500403447,0.5860889224215642,0.5899935596322436,0.5456534370781471,0.5797619196139144,0.5961570759657139,0.5969882084936136,0.6275971014345113,0.6399150479439143,0.6263734590011356,0.6479513516211167,0.6358208584283802,0.6220603860411786,0.6045765247465577
0.6345717993735605,0.6265112747959704,0.6228678089092629,0.6371219061737531,0.6198754211059034,0.6123093068836439,0.6213524910847973,0.5949928691539736,0.5870532966892941,0.6055103395088982,0.5872099835257113,0.6017827271563692,0.6189152909759206,0.6188933102742779,0.5873538361052255,0.6118294217966064,0.586675702167711,0.5992630156299431,0.5856147198308099,0.590630621300088,0.5868400752064065,0.5582909395256225,0.5738342498231745,0.5965964236794179,0.5970709888301033,0.614849142184015,0.6399883568007048,0.6223199972701674,0.6541347101925864,0.6362379295014057,0.6280131770848262,0.6019173597913421
0.6323772144210232,0.6241747985444439,0.6298975367601086,0.6276631013676786,0.6087130814346845,0.6119636947100238,0.6125481295466948,0.58942426997663,0.5733243343196878,0.5957922008754706,0.5737246332444053,0.5891487093450143,0.6223982306289364,0.6097313660883822,0.584177162653891,0.6037325081898254,0.5840775402070827,0.5893542575447873,0.5882754221979198,0.5945470721224124,0.5759151856210274,0.5609962874336543,0.5765468082261781,0.5830439031436699,0.5881321628474165,0.6149939617144125,0.6367827978164705,0.6055541632458514,0.6481770207530413,0.642042251511622,0.6159836471983288,0.60120868479072
0.6239018944298262,0.623455698482831,0.6210287179426729,0.6206230445795186,0.6071800255939782,0.6028370636589283,0.6151326586421437,0.5955424253202334,0.573892658136059,0.5999320088818569,0.5671076999986331,0.5913097875751961,0.6129419904842934,0.6055389512378275,0.5938876756242973,0.6064764125410188,0.5872126079104565,0.5959773253690528,0.5953777790324933,0.5977609567890553,0.5821183070125858,0.5672637536689908,0.5795776551496763,0.5895643708977342,0.5881321628474165,0.626444326054699,0.6362623135142034,0.5929431890893,0.6455910077239583,0.6389668146930696,0.6161461433532347,0.5952148833135662
0.6219038786916143,0.6236209447818605,0.6151815153045761,0.6110772244335467,0.6062056648655426,0.6065698658591053,0.6157532240286077,0.600019737625825,0.5736180804555729,0.5889461878237275,0.5663054148128369,0.5820096978250794,0.6064554124226708,0.5985366856120652,0.5874158002556369,0.5999588132794688,0.5873538361052255,0.5916876436331662,0.599168236025379,0.5979800784654723,0.5800000387292493,0.5686798079763925,0.5869800531790473,0.592772722722515,0.582123482562498,0.6268087462600814,0.6401839993312114,0.5852145579680701,0.6370183037463497,0.6296584408775643,0.6248658149484868,0.60300417196854
0.6035210293494176,0.628843412291913,0.6283413354918865,0.6198426120939426,0.6103460552010744,0.605644181443561,0.615407456142801,0.6098765418131544,0.5807156109885185,0.5926238659582566,0.5592421915755923,0.583940121073531,0.6122464331755462,0.5985919667633348,0.5935548878421181,0.5996568232485577,0.5869188578129811,0.5918213569643833,0.5937534913478423,0.5982738762495893,0.5803874702008025,0.5750721874277236,0.583677378344343,0.6004609910604156,0.5768206343693786,0.617932555533749,0.6269721524813083,0.5852448173351057,0.6330985690261635,0.6328691215306327,0.624545759349884,0.5938531137946506
0.5988893171603363,0.6239514419842144,0.6341973293520773,0.6136536176160705,0.6071890989880708,0.5855421377491004,0.6229566155794439,0.6161406296199246,0.5770113013377588,0.5872099835257113,0.5527443724770021,0.5795210670425524,0.6080484222478036,0.5933302667634823,0.5869685629090112,0.5920961156752916,0.5833768389284115,0.5914312103011837,0.593134111926462,0.6024323881949721,0.5863299459514348,0.5860889224215642,0.593500469736499,0.5931999924880286,0.5758687249214216,0.6127695522111677,0.6247658719241719,0.565550652839246,0.6309506978512651,0.6277844503404849,0.6222969831319836,0.5965304220796069
0.5977984644079289,0.6232526286433999,0.6369160460938177,0.6207401721182272,0.6099961441882201,0.592400264520355,0.6268994983041783,0.6252076451744503,0.5903997370248468,0.5830955766854626,0.5562182555544415,0.568662210291,0.6144357315833461,0.5831378524409694,0.5834190011076282,0.5746873198479298,0.5692184891432372,0.5928266527470918,0.5829626973511031,0.5870799711266822,0.5895474714122498,0.589875364816072,0.5854425294907242,0.593663028058866,0.5834875451416323,0.6067323620140113,0.6216313904836848,0.5625790132206664,0.6309414588339628,0.63628667725374,0.618894440243957,0.5915256202486859
0.6047975821991692,0.629962073300995,0.6338136388581144,0.6240326314673188,0.6154589352311597,0.5980402864681951,0.6221657098786479,0.6217037073168297,0.5872691023249427,0.582110444979535,0.5588537254130572,0.565977341681494,0.6139688937159039,0.5806153677966878,0.5799084251968774,0.5615191010167555,0.5548252052008913,0.5812310369868404,0.5767527335685951,0.5751553632572327,0.5870216850732942,0.5830430236992681,0.5865798913163075,0.5997678904423066,0.5822533474164513,0.6068427362866765,0.623626165806513,0.5652946685381759,0.6368001028731386,0.6421607023652967,0.6189946425742616,0.5829618134760417
0.6021147076306613,0.6217037073168297,0.6254586128038929,0.6168687919757115,0.6130676329987624,0.597269521207103,0.6242590613405806,0.6197249986749991,0.5933784557636812,0.5787180963394144,0.5622963724129392,0.5744642318342484,0.6055978343650182,0.5764987932714426,0.5830385819679729,0.5577787619728392,0.5511767440455869,0.5782220499776015,0.5866974659883145,0.5717616238850137,0.5834894762858351,0.5924824289805767,0.5893470554201651,0.6035331541470987,0.586425032751199,0.6063981791822497,0.6204543701714408,0.5668333926222812,0.6319584927825668,0.6394949621649818,0.6191542433363119,0.597150556870982
0.6055334489771267,0.6186589343140778,0.6229196531370204,0.6144357315833461,0.6204802781360188,0.5995539249926708,0.6086549374823531,0.6045097471350844,0.6001285774747873,0.5731843110296085,0.5521444148408,0.5725606895935526,0.6051071746374116,0.57356157494684,0.5771036153792933,0.5480556903940418,0.5405303350596345,0.5597684848290587,0.586584401777357,0.5574392380773473,0.5729830731731256,0.5855094830014895,0.5888329548485343,0.6000043181443541,0.574500138964564,0.6092645499690227,0.6119259980698505,0.571748911864978,0.6262396152080832,0.6455861003776374,0.621848985410409,0.6016793963092865
0.6147587099131013,0.6267482551704359,0.6263413745891494,0.6169084695189182,0.6258760747101886,0.6091207574653643,0.6057589527080313,0.6052075990375619,0.6113310209788065,0.5864775716400635,0.5655355150920451,0.5732047879650364,0.6014262261429272,0.5731956968759999,0.5806059944097492,0.5524171694543295,0.527636094463885,0.5489306913225319,0.5723084088228807,0.5453776700003976,0.5719919128497521,0.5898026367950815,0.5967436820952071,0.6057427739443983,0.5795210670425524,0.6150806498225679,0.6068645835991765,0.5795303241782682,0.6205231513944038,0.6447611985954123,0.6150467688866224,0.6016706850398178
0.6156513271447854,0.6239808212431618,0.612375675852559,0.6293605877744549,0.6312575723155974,0.6125844925169427,0.6011433509634759,0.6030438740661376,0.6307105221706311,0.5895310675582065,0.5750462707229886,0.5902273583397016,0.6063291379803669,0.590224725720919,0.5833391213839043,0.5620040437924224,0.529009408540135,0.5575520220789286,0.5800938293949877,0.5518059530487212,0.5863928378597807,0.5988703260324797,0.5936606789911973,0.611506945074825,0.5795303241782682,0.6124437272272458,0.6106922731219616,0.5868923938423612,0.6242086555368684,0.6367366784204547,0.611695450540258,0.6050441647670964
0.6281658803893887,0.6213320306968259,0.6222958919710577,0.6260374281508445,0.6389772280973719,0.6222969831319836,0.5975839441710539,0.5925421029785763,0.6253676339452214,0.5930873030096355,0.5774413963866943,0.5939382136921648,0.6156996923525231,0.585949175866434,0.5792399135875331,0.5695817107109796,0.5324089126311481,0.5686798079763925,0.5903286086684402,0.5628849738623284,0.5957885844486843,0.601086225765287,0.5988017500017261,0.6217096238424539,0.5812693232970171,0.6029244663083274,0.6047623133416702,0.5904985055186258,0.6235526834656097,0.6391186783807709,0.6120114766059462,0.5957005063066974
0.6213179363962866,0.6154594649623768,0.6283908830462747,0.629962073300995,0.6361208632308045,0.6185286381789985,0.5925032355108654,0.5939382136921648,0.6306737944552985,0.5957506842324273,0.582110444979535,0.6037515403351039,0.6188024446572096,0.5859991677672863,0.5791739327314177,0.5692228318548577,0.5320211595795997,0.5691671926075315,0.5900028669550849,0.5552551023248075,0.5881511480200948,0.6051281443812453,0.5889461878237277,0.6153292674859138,0.5753757743766793,0.5896537596026389,0.5889717463630194,0.5902273583397016,0.6235774418952715,0.6370085545827945,0.5966159928561353,0.5937175505279222
0.6370246278851496,0.6053212709198265,0.628051915855579,0.6242752621627858,0.6298774718544868,0.612294333001435,0.5948356464705429,0.5804185025946604,0.624136720967275,0.5895219128729581,0.5856147198308099,0.5937103016620613,0.6184572296561897,0.5870532966892941,0.5699491819201365,0.5727824043854634,0.5357609101924092,0.5666727306446295,0.5920982357407681,0.5575438913465115,0.5902712715474991,0.6017604358830176,0.5880379150449014,0.6121394722497456,0.5773820102573141,0.5957005063066974,0.5989780485512362,0.5866552302196908,0.6276015684876591,0.6425115642297173,0.5905340528442814,0.6014745497085474
0.6337837001716777,0.6083168781409564,0.6275922592303838,0.6268559300999568,0.6304650669056968,0.6203979651841349,0.5890667535559923,0.5769619725941727,0.6247851984545484,0.5896351290125155,0.5884840538755837,0.5905906598620089,0.6245319677959338,0.5899913490667164,0.565142671454736,0.5830385819679729,0.5440349877164773,0.5665833511681747,0.5994303546270932,0.5407571797519122,0.5872062773601537,0.5983738502263324,0.5914150562798763,0.6153244677575345,0.5688430965094806,0.5893542575447873,0.5871240515303878,0.590590659862009,0.6212367628093907,0.6389168546861116,0.5904915948195053,0.5981326062658062
0.6219457489266977,0.6126258233526888,0.6236877103515425,0.6235975497591763,0.6250688847879179,0.624734918787981,0.5883519380941215,0.5635985793288507,0.6151564578693185,0.5831378524409694,0.5815202770036026,0.5968969081032597,0.6218248801112995,0.5899299825940177,0.5647039821467246,0.590033802883757,0.5550334123079669,0.563330021389448,0.5961132067194699,0.5479388354256801,0.5886491663717205,0.6024710601544085,0.5829077674251506,0.6096944304444152,0.5660309192250114,0.5871778019345888,0.5815138078789671,0.5937534913478423,0.6179738321068431,0.633390338197014,0.5852606415580794,0.6021575306321758
0.6126111817824382,0.6065336457814398,0.6127380168804615,0.6082747284466052,0.6192420972961536,0.618136328261749,0.5856859852855474,0.5771784494194009,0.6152524681381404,0.5792303735478629,0.5824158224123097,0.5885140085217409,0.6220614772021043,0.588526498909703,0.5610756859382992,0.5861084975412333,0.5517137929764727,0.5597685904064117,0.5933484477717456,0.5432912847976548,0.5900548962508574,0.6025710473162593,0.5823735466568031,0.5989794165175899,0.5575745360075447,0.5838145756636003,0.5787271097295928,0.5868923938423612,0.6170420501240724,0.6238881905905204,0.567071686708071,0.60264368980922
0.6088669609201045,0.6066480992178745,0.6163530922347324,0.616954622896992,0.6160061945430475,0.6135735814455545,0.5883519380941215,0.5829626973511031,0.6072733617842075,0.5749536985118693,0.5887693778103084,0.579480849150318,0.6183915595254474,0.5939801681094861,0.5616527319275152,0.5883290719603255,0.5626535131199176,0.5629130480089519,0.589958327795051,0.5552551023248075,0.5931995910074871,0.5903997370248468,0.5861103239421364,0.5928972738136045,0.5603467970045869,0.5837195405235598,0.5820252892165533,0.5714323789759985,0.6242816916146361,0.6239551149022758,0.5536529178339787,0.5884931548189295
0.6034998456888926,0.6065088735938197,0.6194740378755722,0.6201729295671187,0.6053786000593607,0.6115808524149026,0.6016556108753631,0.5936913925736611,0.6100804069843568,0.5727397708283064,0.5915655450133023,0.5774176881685974,0.6097643567520933,0.5919213084499207,0.5724790716653869,0.5914083003706615,0.5695886257413617,0.5693720832413366,0.5829077674251507,0.5626674243606292,0.5939382136921648,0.5863928378597807,0.572672787806694,0.5895973921693997,0.5648034364625463,0.5738646565344844,0.5883094117326692,0.5795709967767523,0.624734918787981,0.6237713980769265,0.5548021687755761,0.5928990515915555
0.5992147930841601,0.5991551689937942,0.6184248515115814,0.6258470064549928,0.5995641198138285,0.5938156639368257,0.6105580068408849,0.6004668276215325,0.6060562159374775,0.5652218730310692,0.5859107487856919,0.5798715361926838,0.6060641542113976,0.5920626280305925,0.5725906006180885,0.5913240375745247,0.5799996227425436,0.5794214445957441,0.591994742444141,0.5652044319028261,0.5997037787284225,0.5838145756636003,0.5691415916670731,0.5832938389270274,0.5622963724129392,0.5704068812924786,0.5889461878237275,0.5692768091863007,0.6307673224215147,0.6308013310661044,0.5548936021244953,0.6066179085775766
0.5969297454598965,0.6049623821134815,0.6228084272162498,0.6096793608179998,0.6024672738671537,0.5913941195331059,0.6206670073592914,0.6099608046092913,0.592500074207488,0.5708979538822562,0.589847638977545,0.5761244246466051,0.6032035260112666,0.5894271419058544,0.575445415411788,0.6004769685074741,0.5831942164802191,0.5826359997703664,0.582330666649328,0.5626720613853605,0.5901492506322131,0.5771036153792933,0.5692228318548576,0.5838510889353111,0.5616364433093725,0.5704792428043343,0.5783672807479782,0.5804595033088903,0.6298784818844064,0.6396364075655115,0.5524144562779582,0.6100181532973531
0.5955813693372192,0.6110573091210117,0.6193065312729087,0.6066531965791528,0.5930086681703248,0.5962317571841314,0.614849142184015,0.6219457489266979,0.5984474244831123,0.5690734104414996,0.583325654666967,0.5731490230122612,0.591423680068285,0.5869865884072984,0.5697031664305556,0.5953834067354523,0.5831942164802191,0.5755359511634462,0.575249364438505,0.5555670070494898,0.5841010247186686,0.5832703544154414,0.5689616236438786,0.5803874702008026,0.5686261659734209,0.5739742731132538,0.5847460776492085,0.5900290859098323,0.6347709814854272,0.6386884036671001,0.5577394825596584,0.612913253525161
0.598029431027268,0.6120072811819439,0.6126518229764534,0.6083305281114618,0.5903075826814638,0.5961586868991233,0.6092805792969902,0.6130757496800671,0.5934549892568546,0.5769692103938233,0.5805621086461585,0.569516264229506,0.5922093416831927,0.5899227804693954,0.5695192087483425,0.5978452195851921,0.5866552302196908,0.5707164935747111,0.5702404686987258,0.5661124900940419,0.5936621909574884,0.5871466924727845,0.5784300525862559,0.5856769325423705,0.5800938293949877,0.5805281191734297,0.6047747253891772,0.5911028976172873,0.6470846929192542,0.6385563369952759,0.5687949212327854,0.6119806923262181
0.6007377707180548,0.6150702272675443,0.6001260022490946,0.6101650247336993,0.5951886615635066,0.5988749476139508,0.6058428976761326,0.6115778883074093,0.593800770245312,0.580724984375457,0.5807308677945023,0.5735335733452653,0.5836022230611724,0.5873096059725196,0.5739113253045993,0.5960669923303502,0.5904182811768637,0.5834190011076282,0.5752361763862105,0.5700059433768645,0.5956940403948764,0.5842006471654769,0.5830119771787268,0.5888779570309979,0.5834431855620078,0.5801619467834189,0.6113837124257281,0.5910650766172426,0.6519692360554181,0.6391186783807709,0.5655394852613611,0.6045198726269577
0.6060565886987457,0.605476004641369,0.6040732605657926,0.6107449596905457,0.5924678313215693,0.6044009615600668,0.6024919174789651,0.6178507722117454,0.5900364355025396,0.5807964863175934,0.5805843715342807,0.5872099835257114,0.5765689670658627,0.5939665782069601,0.5804624861993503,0.5997678904423066,0.5972807329464792,0.5961712883248376,0.5742935925589655,0.5939003926921201,0.5959438586051875,0.5874009063628736,0.5723191903413269,0.5894700165163785,0.5905692846814741,0.5839027624771039,0.6155416381620894,0.5935091305876469,0.6509073254784999,0.6437643566664495,0.5617524185003538,0.605476004641369
0.6197229578367249,0.6021996672183766,0.613196074782636,0.6017604358830176,0.5895451803819495,0.6025152062289765,0.6092536651889151,0.6219832438433353,0.5900028669550849,0.5804624861993503,0.5874158002556369,0.579755847595652,0.575600451727865,0.6003862236494778,0.5868923938423612,0.6002198778651412,0.5936967527871352,0.6000102422406259,0.5723997092132346,0.5932941929675444,0.5929712486508216,0.5835890987326435,0.5868461530568528,0.5986993844274601,0.5968349824855611,0.58421473752634,0.6188081954421454,0.6019862240504178,0.6553682639243379,0.6451249655172183,0.5654205199949602,0.6086232194648284
0.6168057367572056,0.6088790158946102,0.6164832608603701,0.6148351652823956,0.5967436820952071,0.5998903613661077,0.6066767098602653,0.6065336457814398,0.5964403609398904,0.5828981615641262,0.5807308677945023,0.583677378344343,0.5724137933488719,0.5935211896006446,0.5791799038647207,0.5994728194234745,0.5899299825940177,0.5964068941760249,0.5745333580110517,0.5929903519819095,0.5933784557636812,0.5870156383928972,0.5929936535516129,0.6091007256297929,0.5968952971698502,0.580724984375457,0.6157473374136073,0.5951093650852951,0.650349176874528,0.6512634109832747,0.5730828714257405,0.6111190454769969
0.6204315014294123,0.6207932120127938,0.6169076818576926,0.6064133765549259,0.5938531137946506,0.593368689135774,0.5971704828031492,0.6031672371152121,0.5927365554366497,0.5867781110559951,0.5841010247186686,0.5863166687931308,0.5846971748669986,0.5971704828031492,0.5763033706232287,0.5971136307028415,0.5900548962508575,0.5972049310931955,0.5747329796776598,0.590224725720919,0.5901822719038786,0.5903006719823432,0.5836022230611724,0.6184556284040252,0.5907957337962249,0.5702230654965996,0.6055545731482865,0.6000102422406259,0.6421608865109176,0.6487732430274546,0.588894291467148,0.6160782163384195
0.6333896058328997,0.6201406308827926,0.616277192645447,0.596255236446308,0.5957918066970512,0.6022105651569393,0.5964403609398904,0.6030469949700544,0.5901874390071498,0.5964512113519889,0.5838191629703681,0.5899913490667165,0.5899935596322436,0.5972535896108111,0.574925215164116,0.5966159928561353,0.5899467629941157,0.5971622892204571,0.5797018211665395,0.5858079581253017,0.5936252070588212,0.5968716093127169,0.5939854872953603,0.6216023435284665,0.5872691023249427,0.5806312453476942,0.5993145530181421,0.5880073991010213,0.6454143225271322,0.6516484347994301,0.5895310675582065,0.6125395728083379
0.6349542803414903,0.622110395014296,0.6108952753616061,0.5827431877895782,0.593154449840923,0.6085843246567215,0.5954690794228473,0.5964322615990127,0.5933908531577294,0.5956703525377431,0.5870216850732943,0.5926526319535932,0.5865798913163077,0.6032755926813088,0.5751553632572327,0.5985919667633348,0.5854231377129854,0.5919698445823363,0.5827160307100799,0.5767059416560515,0.5869685629090112,0.599401800097163,0.5907957337962249,0.6220306821941686,0.584044660679419,0.5772158637056747,0.5969095095289738,0.5829124641544274,0.6454143225271322,0.6458233210301484,0.5959773253690528,0.6078153373678863
0.6351819232724383,0.6220814042768075,0.6169173024587654,0.5805165313893068,0.588613640094132,0.6090950162198997,0.5924678313215693,0.5965425117423429,0.60016681429926,0.5953475713816185,0.5865058141429961,0.5934721052217037,0.5916179086481705,0.5999588132794688,0.572840408981223,0.60016681429926,0.593154449840923,0.5935693786008434,0.5906472427858941,0.5854425294907242,0.5934097622461298,0.6050485992407914,0.5938876756242973,0.6096800939559565,0.5863622741703703,0.580724984375457,0.609778693240552,0.5751438359413403,0.6409784055475013,0.6362964264172952,0.6017533727157658,0.6007411565234174
0.6361803288286388,0.6221246121601056,0.6211644235057515,0.5885199947974876,0.5983459654353921,0.6026615004724376,0.6016706850398177,0.5968384450695425,0.6063137541081177,0.5958727728230185,0.5893542575447873,0.5992005060006027,0.5906929890970473,0.5989363396830018,0.5722233735921629,0.5972049310931955,0.589847638977545,0.5902294846518693,0.5879190913340206,0.5827950372695311,0.5899913490667164,0.5954097372521812,0.5842006471654769,0.6123756758525591,0.5759373444607121,0.5773876884449786,0.6004135123470463,0.5621685703442507,0.6361208632308045,0.6393923584151732,0.5957922008754705,0.6006467981866448
0.6381458067632876,0.6262046039462286,0.6172139759685972,0.5965854482670007,0.608210940215256,0.612184753015397,0.614359839708876,0.6049659314083273,0.6121394722497456,0.6017720361345588,0.5954094969993171,0.6034998456888926,0.5977448940710305,0.6020319519448805,0.5762320743330157,0.5973720333368331,0.5904915948195053,0.5934159680332436,0.5991438953670347,0.5802152059339479,0.5936054523967813,0.5977694163911392,0.5801870854292761,0.614686646029109,0.5865748928165166,0.5800025290046337,0.590224725720919,0.5589833139358,0.6297033914426508,0.6441921456723307,0.5962806465243697,0.6055580251201389
0.638646208711424,0.6328717088010358,0.6264961814592639,0.5925660411061003,0.6080817638807261,0.6221386193999477,0.6210721114116812,0.6065460581559468,0.6155699522977068,0.6093933067469857,0.601881986115607,0.609010753423763,0.6064175732034658,0.6069603236270622,0.5830990785332494,0.5927949758179882,0.5872126079104565,0.5823439503615875,0.5961651753065914,0.5763597280402851,0.5858259836235891,0.6019173597913421,0.5806839939810888,0.6267495908744435,0.578855111375465,0.5820222517854547,0.5834894762858353,0.5656205511477495,0.6234961960547003,0.6373052294112203,0.6095797308803849,0.6093379279850518
0.6341113005970466,0.6393855501784672,0.6259356687697785,0.598953565159302,0.6155995691479946,0.6222187497732145,0.6228327012011174,0.5950169207117995,0.6155699522977068,0.608885601700731,0.6023010183131177,0.6028138181231442,0.6029470136399765,0.6016808255718991,0.583889638148575,0.5821093202718876,0.5768636969381663,0.5666561661075756,0.5901492506322131,0.5632048052324906,0.58626416777776,0.599532837123403,0.5835505495193797,0.6236354335468347,0.5785765488464777,0.5892101044577616,0.5937197560298385,0.5738210362723233,0.6283131186750012,0.6322351044062763,0.6156513271447854,0.6092536651889151
0.6305911972903292,0.6442462986841745,0.6264334305636732,0.607853160347247,0.6208406503636271,0.6216892445116293,0.6260685835955091,0.5918921062723388,0.6170069118053191,0.6159884469267081,0.5993135676505121,0.6082210544695851,0.6063275718353838,0.6014747844481367,0.5807156109885185,0.583043023699268,0.5768416387959544,0.5658542326717804,0.5963719469147236,0.5634872824081691,0.5890594039632852,0.5989878299966443,0.5751383597181114,0.6260621484881934,0.5748076536461479,0.5897390597568556,0.6031797351550306,0.5704631102469565,0.638076783561971,0.6289941605830776,0.6283908830462747,0.6003755272311785
0.633878113692439,0.6410101394987314,0.6321913916049543,0.6005476638435,0.6222445987694672,0.636582850617182,0.6289301139593789,0.6088770160100883,0.6186068715377676,0.6250098756190884,0.6075716523112935,0.6190676523492349,0.6087286475601047,0.6035802337533459,0.5831987009800577,0.5805157453498795,0.5841010247186686,0.5669870594711905,0.5959690720423528,0.5669144343573937,0.589958327795051,0.5962140723130844,0.5683278720802646,0.6202098976050893,0.5824862768124226,0.6016706850398178,0.6092112172648326,0.5841010247186686,0.6363752663137765,0.6400183972068967,0.6400518852293791,0.60264368980922
0.6354857186139268,0.6443289463067938,0.6360062029161937,0.6113176207069082,0.6329580036764476,0.6449285392669416,0.6301032446598499,0.6093259343351249,0.6221030214978079,0.624585638052941,0.6000273628519077,0.6221657098786478,0.599568349563402,0.6003623587178932,0.5859774719583021,0.587382078608158,0.5873096059725196,0.5715044134988126,0.5983763892788131,0.5726089482388121,0.5937197560298385,0.6003280431543127,0.5843900559673048,0.6113017360383903,0.5849246032670106,0.6188190793877709,0.6189283580075055,0.5867887663786685,0.6374595914075877,0.6391865137996632,0.6342209060473355,0.6060737752901239
0.6294239043924865,0.6542496856226803,0.6359797143934767,0.6182751717845434,0.6357818191852808,0.6428641869312146,0.624507209366272,0.6093120304677723,0.6180727646482568,0.6153300345578626,0.5998483063801762,0.6157473374136073,0.6001343764659596,0.6004193435446666,0.582644489777519,0.5871629132680634,0.5871629132680634,0.5730020410730865,0.5921506792040035,0.5724847283831945,0.5895735255829826,0.5933484477717456,0.578892156235803,0.6073788046565999,0.5950442502263018,0.6220266373123435,0.6282396399125322,0.5952921063450984,0.6360190806227497,0.6377689354804099,0.6401056357657907,0.6098030731514891
0.6271200666966578,0.650953034536458,0.6385405709019009,0.6218524990936783,0.646769988211673,0.6428055923985974,0.6114173577967063,0.6147631656630013,0.6221627246990572,0.6063943026726145,0.5856989821690208,0.6096944304444152,0.6004193435446666,0.5874103200660749,0.5870532966892941,0.5824862768124226,0.5867404527595982,0.5727928020475088,0.5776816567064006,0.5720108029018345,0.5826118153159869,0.5800938293949877,0.5765420092949936,0.604237626113382,0.6061802267893718,0.6222958919710578,0.6365161100594632,0.6003755272311785,0.6306783326910913,0.6412193606581251,0.6432114972945491,0.6004193435446666
0.6357584303547198,0.6457135123578657,0.642088253805212,0.6204315014294123,0.6556475547618982,0.6398469065173057,0.6151815153045761,0.6151235726675429,0.6128506900939396,0.6093140332300472,0.5821481625240421,0.6063656909436852,0.5903075826814638,0.5842194342556166,0.5833494566120964,0.5761496834562112,0.5725892372594433,0.5644403942631305,0.5685889817321683,0.566307682975655,0.5791455631374888,0.5727755301467837,0.5774127613871824,0.6138638246665296,0.6064229133150054,0.6222621432422227,0.6423371836990227,0.6035712191572667,0.635832904996526,0.6439940813424012,0.6344454534146797,0.593368689135774
0.6357012428674575,0.644645597592211,0.6468737888287577,0.6238349039066148,0.6532278126945112,0.6421237506056149,0.6079429941525273,0.6115802671611605,0.6067609726564022,0.6063981791822497,0.5846655672045266,0.6003280431543127,0.599843535196701,0.5939949416631375,0.5912697677294738,0.5888023523657668,0.5824426483736468,0.5606144003843804,0.5641421038588326,0.569143632556802,0.5824188464285174,0.5821555115594618,0.5794803221155035,0.6144978756802351,0.6090385850430512,0.6185438262218101,0.6506240357555962,0.6021138548750857,0.6366453618525497,0.6400963538423097,0.6310503099093524,0.5987345982193382
0.6245072093662721,0.649476386434805,0.6512932678049829,0.6144319035928681,0.6483036341224953,0.6304071910981548,0.6025046722817246,0.6073702263158154,0.5905340528442814,0.5959773253690528,0.582515444859118,0.5905670741159469,0.5887147600323626,0.5795776551496763,0.5912796610273442,0.591544427800328,0.5859397621632326,0.5687008918990847,0.565317980649445,0.5771036153792933,0.5790236778025584,0.5752233739964016,0.5847460776492085,0.6114514192378205,0.606222615995759,0.6108952753616061,0.6487353620555701,0.6065088735938197,0.6341786531083705,0.6415140979331552,0.6252743711561651,0.5958355654465002
0.6119694393050544,0.6368555264199659,0.6513972484353198,0.6128725823037315,0.6454440457266005,0.6252743711561651,0.5957005063066974,0.6109860616357937,0.5874534585520338,0.5932941929675444,0.5818897852873274,0.5871466924727845,0.5847011076843258,0.5724410345049684,0.5841584818152309,0.5883284086661494,0.5852145579680702,0.575347598743689,0.5683276344064027,0.579548771938598,0.5891087169296794,0.5793709063994832,0.5869491524222137,0.600152479967822,0.6154888309898796,0.6131173262244176,0.6486463472171532,0.6066519757275095,0.6345618114049708,0.6466802833139665,0.609650089809169,0.599843535196701
0.6155699522977068,0.6331461316652192,0.6455383271414206,0.6035331541470987,0.6429566713304702,0.6162942401383348,0.5947390839635807,0.6191843624526325,0.5799964781737305,0.5968068469635431,0.5823870306885778,0.5766544579125886,0.5781330813468053,0.568728617575177,0.5895474714122498,0.5846465208286438,0.5894700165163786,0.5763375692006004,0.571649342825701,0.5830990785332494,0.5960673865087693,0.5899935596322436,0.5904199017996634,0.6093379279850518,0.6145809247924052,0.6094782930935464,0.646718024450046,0.6015038331227958,0.6272871366298807,0.6500399392758903,0.6058542462874965,0.5994543025458625
0.6126151841640604,0.6301688973829652,0.6396905054479896,0.6059869477878845,0.6339874095632717,0.6190195419063019,0.5839314494608547,0.6266474245930062,0.581838650158229,0.5902273583397016,0.579286175978665,0.5749252151641162,0.5812876677964197,0.5666781808374132,0.5962603369969232,0.5861957011544554,0.5853981915178834,0.5763768127941745,0.5727975171141821,0.5797401519893719,0.5936913925736611,0.5833439594007477,0.5893309900357959,0.59967529114291,0.616107744418149,0.6061656016672916,0.6452640265530593,0.6029244663083274,0.6136862841033222,0.651594199824951,0.5894178345830131,0.602650752976472
0.6129419904842934,0.6307230977073353,0.6325752330126544,0.5974698971535144,0.6274227621713934,0.6068793134715725,0.5867776400718491,0.6211503447704504,0.5675741720085556,0.587509942512883,0.5859709252643538,0.5625251684992104,0.5753790386375477,0.5719919128497521,0.5999480631788924,0.5917069871813129,0.5850976521019517,0.5769619725941727,0.5716340369473943,0.5797401519893719,0.5936621909574884,0.5833391213839043,0.5858926919055847,0.6003755272311785,0.6063943026726145,0.5972545316767229,0.6482074423744767,0.59327738874542,0.602174480599511,0.6459359288397346,0.5724492139693642,0.59711016811886
0.6032178001651987,0.6275131939379437,0.6174549616415325,0.5902235964637621,0.6184040077991387,0.5939382136921648,0.5785961169176428,0.6174712340359856,0.5629502110421511,0.5771784494194009,0.5903761512787847,0.5617391428273862,0.5801810326669138,0.571871240463783,0.5997294881791615,0.5920298427080181,0.5869188578129811,0.5798715361926838,0.5704558282958463,0.579698980602714,0.593663028058866,0.5800652412656345,0.5704422708140026,0.6087130814346844,0.6126439200223249,0.5843838620938009,0.6480154112836048,0.5959438586051875,0.6089287636776215,0.6422449651614336,0.5725519002061095,0.5934159680332436
0.6089673853202549,0.6252076451744503,0.608335560425986,0.5919947424441411,0.6155416381620893,0.5838191629703681,0.5752371903737653,0.6159018682928966,0.5644064862262864,0.5834003234399975,0.5906048109590627,0.5691592283011503,0.5739072105327058,0.5747425970366292,0.6018572521148638,0.5925591512461291,0.5866031342744336,0.5789393710502807,0.5689807906999688,0.5861842399146173,0.5939003926921201,0.5800371197293173,0.5714017272620674,0.6046777464200289,0.6119062218926268,0.5839925683652863,0.6486347316760389,0.5853860455298748,0.61345155983274,0.6407410738974344,0.5658893521304953,0.5868906163550643
0.6052522543339645,0.6282832254393218,0.6126111817824382,0.5942787674029262,0.6028370636589283,0.5735596578758703,0.5708000442291356,0.6117048210294074,0.5572221601559015,0.5865798913163077,0.6062072563450874,0.5697814570141834,0.5774157304586643,0.581838650158229,0.6036652987258267,0.5931621714879838,0.5904915948195053,0.5804930359651539,0.5804238511951991,0.5963408072228363,0.5999247784113889,0.58640279773407,0.5810083510175775,0.6215927071405805,0.6036789315314074,0.5923795446562093,0.6446576495066546,0.593144030980608,0.6141050972726351,0.6388495357279835,0.5623422404796775,0.591994742444141
0.6022894180615764,0.6301762544348232,0.6117527208552962,0.5968556078197697,0.5935660770311398,0.5804595033088903,0.5721802369545528,0.6122518230537725,0.579192852937608,0.5858259836235891,0.612913253525161,0.5747469657303561,0.5872062773601537,0.5837195405235598,0.6087619891930273,0.5964998741322333,0.6035802337533459,0.5853276221790275,0.5844534557664381,0.6029893813096349,0.6033428003017028,0.6005048127374003,0.5739813343643777,0.6237042700590885,0.6005521575802775,0.5851641614554114,0.6263722904326382,0.5934097622461298,0.6080817638807261,0.6337297904963264,0.5656250312646081,0.6065880648421856
0.5895219128729581,0.6328305006868872,0.6024919174789652,0.6028756883882965,0.593034489479654,0.5759404444306336,0.5758549966015521,0.6188214304689836,0.5890688798681599,0.5856036775664266,0.6159157201835136,0.5822960195191074,0.5893309900357959,0.5824607149492179,0.6117717752520647,0.5971704828031492,0.6037087173335896,0.6013169133688716,0.5949119499444963,0.6099177902217814,0.6028756883882965,0.5972535896108111,0.5738831161818051,0.622560776786579,0.6055135715688814,0.5913010758716588,0.6255777715256492,0.6059049728037351,0.6097343526053058,0.6307519886071635,0.5719168929236621,0.6092035299837427
0.6119455980403877,0.6389760477235484,0.6121394722497456,0.6092733578515743,0.5966159928561353,0.5802058325470096,0.5615570476365017,0.6223982306289364,0.6063656909436852,0.5877441922258466,0.6122469825358253,0.5864054221188151,0.6064229133150054,0.5968349824855611,0.6145809247924052,0.6004609910604157,0.6067323620140113,0.6044088943496021,0.5930086681703248,0.6060766747008008,0.6065889397414166,0.6037515403351039,0.5777797364389388,0.6230204334117742,0.6023902419677266,0.5979998528224576,0.6285318563079552,0.618809047478141,0.6062362714450298,0.637968845904831,0.5817206183449871,0.6044739237134582
0.6180778202367991,0.647821733301571,0.6088658431242513,0.6147967663473098,0.5951721706805302,0.5828324750081947,0.5640870329444685,0.6283908830462746,0.6098652137382308,0.5897383942494121,0.6051780162013595,0.5828428102363864,0.6162366398887463,0.5961712883248376,0.6220266373123436,0.6031904826509964,0.6100181532973531,0.6021138548750857,0.591790166091938,0.606222615995759,0.612586447204928,0.6002710583275394,0.5786330059218362,0.627714261536254,0.6021641485747962,0.5992389082637478,0.6291736005084175,0.6189715436330469,0.6053212709198263,0.6300707129880622,0.591640801666473,0.6012598940325398
0.6220989541454885,0.6513817470424229,0.6068123730465358,0.6193688490814321,0.6019756901031657,0.5777661803792505,0.564144143422756,0.6311657117426784,0.6096992092131482,0.5894360269816292,0.613806397560998,0.5939854872953603,0.6251550006518828,0.6085488162591072,0.6277745681544011,0.6098335274256447,0.6095430796028978,0.6021721129307243,0.5912796610273442,0.605640220532881,0.6091849884259296,0.600204570603277,0.5836022230611724,0.6266270765942898,0.5983199304580131,0.5958727728230185,0.6237514032801211,0.6173815388571493,0.6123453405233406,0.627847992966488,0.5895643708977342,0.6016815829783807
0.6252647080793441,0.653586716503537,0.6112634183801573,0.616277192645447,0.6123720268074291,0.5820096978250794,0.5759251703959724,0.6338136388581144,0.599592327255816,0.6026428370536445,0.6244643051499563,0.5968056077129059,0.6253289778700656,0.6152969688074709,0.630328545071164,0.6151619716026286,0.6185755806167635,0.6077310745717496,0.5957922008754705,0.6190195419063019,0.6116580576138781,0.6028370636589283,0.5902058576499406,0.6295075309250058,0.5992815916159914,0.6032035260112665,0.6149939617144126,0.6274110276565065,0.6249721917886627,0.634706241003199,0.5993959635360462,0.6121468107287379
0.6342070932054399,0.6556485287449818,0.6207691766770926,0.6268026554223183,0.6122857762630781,0.5891087169296793,0.569812783009325,0.6364950965358983,0.6091963165008534,0.6015029697663217,0.6247682515882612,0.5994668905156816,0.6285119476317539,0.6249607616410392,0.6363903315519759,0.6241303028223019,0.6241102806376204,0.6139688937159037,0.6049627249036713,0.6249906514291489,0.6170326465792798,0.6093933067469857,0.5999247784113889,0.6354857186139268,0.6056644787934861,0.6061802267893718,0.6088469290845331,0.6400564982273134,0.6403252616333612,0.6397973523033719,0.608338034101357,0.6149315484329074
0.6429470426819963,0.6455252212966757,0.6321893484182733,0.6242355824593661,0.6143551797540949,0.5995898219501763,0.579449565100416,0.645016130544362,0.6145857805471009,0.6051780162013595,0.6275131939379437,0.6032714052311199,0.6220266373123435,0.6275131939379437,0.6398655171159303,0.6269334137105557,0.6241139036700563,0.6143778732358494,0.6087947530984734,0.6237196089723966,0.6178649108894575,0.6154888309898796,0.6093522644735107,0.6331956602946684,0.6046938994330124,0.6172045462789782,0.6097643567520933,0.6372196382465258,0.63991043494598,0.6487240570504809,0.6089998686436553,0.617466205461935
0.6427509331728823,0.6477463718287125,0.6393959986049828,0.6265846736974156,0.6065477684838765,0.6092805792969902,0.582110444979535,0.650304805807006,0.6073588415491269,0.5975048261349793,0.633199292364101,0.5929045923967575,0.6215349571201098,0.6233454300265601,0.6451707306624701,0.6264926177228918,0.6217229871921544,0.6209912230260355,0.6021527726408291,0.6132444163763284,0.608563512773841,0.6158193370330015,0.6144930759518556,0.6398215423270861,0.6055610670484165,0.6149403897072004,0.6037087173335896,0.6459310214934139,0.6458233210301484,0.6518601651343926,0.6021384984868972,0.6244008325260961
0.6430743845822621,0.6504613286289259,0.6303019011664741,0.6297455354370327,0.6163681258992489,0.6083355604259859,0.5857398865046418,0.650969598740134,0.618744434408474,0.605266374046407,0.6273906796577899,0.5937197560298385,0.6278824187965888,0.6254244938043105,0.6421543230488114,0.6309506978512652,0.6171408093434744,0.6184753857133843,0.6058534204691386,0.6152445640338139,0.6116568789945875,0.6210824304664074,0.6076046429750045,0.6311453501980023,0.6104550267939147,0.6078010908322026,0.5939949416631374,0.6487830798254093,0.6513672135808798,0.6514852753308908,0.5913436771948222,0.6212537973380566
0.6427760459866063,0.6470508953252337,0.6252076451744503,0.641788454966362,0.6162824281727879,0.6071800255939783,0.5802659931456525,0.6482315581250248,0.6124529971851628,0.6002701336587924,0.6221627246990573,0.589847638977545,0.6303965079666992,0.6238510257269293,0.6367730486529153,0.6249808848815999,0.6124812318919685,0.6164543986853639,0.6057301363347772,0.6123169217266413,0.6087149497627709,0.609650089809169,0.6103002248716072,0.6306737944552983,0.6185438262218101,0.6176736325937926,0.6065412541301759,0.6486347316760388,0.6556485287449817,0.6541047054191811,0.6044453119845288,0.6074207777451711
0.6544902035659664,0.6486205674761145,0.6254941845718555,0.6368059955919819,0.6171868297534397,0.6037475936955803,0.57818761706621,0.6485795650454208,0.6013550691545773,0.5972260440912105,0.6159157201835136,0.5872126079104565,0.620334078339156,0.6183421883416845,0.630644675140222,0.611964315291221,0.6047713845220328,0.6027529411957221,0.6025325140656649,0.5967801920608226,0.6078923805554722,0.6152431459774738,0.6128347166118361,0.6331915001605114,0.6153244677575345,0.6142254355295317,0.6092805792969902,0.6484133024544121,0.6580676260571963,0.6562158881513438,0.6076008905341934,0.6085706746862162
0.6485026636386974,0.6441419768912746,0.6159781334650186,0.6364500971509094,0.6174518117181179,0.6084097192778777,0.5784077896981339,0.6447312873514033,0.5963754094987052,0.6012598940325399,0.612375675852559,0.5865531970075325,0.6063041040306226,0.6179091385236717,0.6311642745088057,0.6076008905341934,0.5968609690914437,0.6004985525143562,0.5926230468816193,0.5955904514282169,0.5973801539410266,0.6117105187459613,0.6083953827894188,0.627271519037651,0.6097070080640314,0.6094650138100924,0.6030279628247759,0.6279055149259641,0.6607825939027909,0.648289711871966,0.601450178704607,0.610956549322091
0.6402082395155994,0.640852587512923,0.6065851981160364,0.6290616587002082,0.6166642903444385,0.5986791289033673,0.5782138839705117,0.6425290586001381,0.5963327676259668,0.5977417434095732,0.6115179787068049,0.5873122303572648,0.5985033220390326,0.6169606561076195,0.6252076451744503,0.6057427739443983,0.5994303546270932,0.5974159973990711,0.5908781471168945,0.5971029966036597,0.5884963602072419,0.6085734398766139,0.6017888762110986,0.6306737944552983,0.6122617651719924,0.6082424432302966,0.5964684964619081,0.6203449252895683,0.6653056859295904,0.6538124024742394,0.6021527726408291,0.6170164346078868
0.6369355448078212,0.640882662162299,0.6068793134715725,0.6257973271929679,0.6069962872622973,0.602667480665456,0.5816650006599183,0.6397973523033719,0.5999415042670558,0.5949453400675483,0.5947518477427289,0.5867365053080341,0.5952148833135662,0.6065088736757697,0.6158193370330015,0.6018279687006154,0.5968861796604538,0.5972288155280502,0.5955904514282169,0.5996452253830246,0.5882738400645271,0.599799060975754,0.5959438586051875,0.6283171235231312,0.612184753015397,0.6089759738886504,0.5986672377171087,0.6197249986749991,0.6641774283892344,0.65357564135277,0.6114592469374445,0.6157620653029006
0.631281246572684,0.6449943420887875,0.5968384450695425,0.6159457423196759,0.6041855394269008,0.5931999924880286,0.5686303039234035,0.633740629083141,0.6031000294948181,0.5785425449227606,0.5855094830014895,0.5796553004077091,0.5851076670409251,0.6058982121036333,0.6126881939390336,0.5972088487252198,0.5935193788248991,0.5986321906795682,0.5950973611731526,0.5992005060006027,0.5881936060448709,0.603357590960608,0.5960656215895374,0.6222187497732145,0.6182636874854189,0.6023396430424857,0.6050385797016596,0.6090731450369842,0.6524602006122115,0.6494612414272051,0.6059678739055733,0.6096471032922454
0.6338574135376704,0.6483572425033828,0.5901492506322131,0.6187925874334784,0.6116352843493313,0.5959690720423528,0.5737708514479475,0.6249607616410392,0.6057301363347772,0.5816086366206685,0.5780484393293756,0.5859209344085171,0.5899505050578622,0.6000528575210137,0.6060408836805466,0.5857317890586519,0.5800000387292493,0.5990732991893779,0.5842804393885354,0.5864847793305489,0.5918245394711243,0.5933908531577294,0.5919322854931776,0.625233234010652,0.6090385850430512,0.5995472066697886,0.6153292674859138,0.5998790233043039,0.643454530204561,0.6497619706680894,0.6099942585423482,0.6030000423329673
0.6303336714564538,0.6603891682278882,0.590106792607437,0.6286667367167149,0.6171004530650337,0.5929425285087709,0.566563156372949,0.6220266373123435,0.6090950162198997,0.5852771377386267,0.5787921723642643,0.5838510889353111,0.5949366569123784,0.5966109940271548,0.6078160144632553,0.5824426483736468,0.5807156109885185,0.5887693310941013,0.5831987009800577,0.5865466503135842,0.5900149348127786,0.5892362190686922,0.5872534901081444,0.6224957476655995,0.6051575601703291,0.5939382136921649,0.6113215122156141,0.6043166852905089,0.6490689126907918,0.6503193200528199,0.6185676339237238,0.5959103918846665
0.6155168920679085,0.6604726547484006,0.5969095095289738,0.6316657993654254,0.6241227371087718,0.5998589900923801,0.5604293193315039,0.6156424415082898,0.6155699522977068,0.5772883110663384,0.5701156379855449,0.5899158697702748,0.6037117945414346,0.5905670741159469,0.6050385797016596,0.5843838620938009,0.5939382136921648,0.5937756553697979,0.598932041064853,0.593663028058866,0.6001867955314025,0.5911560246678847,0.5914236800682852,0.6193757312760535,0.6107449596905457,0.5869865884072984,0.6078727760087231,0.5943591399690162,0.644751378558149,0.642911315800969,0.6217819406755988,0.5904985055186258
0.6181645115003936,0.660640469386525,0.6002949232591239,0.6272085531209503,0.620355327111476,0.604912360316259,0.5568653378343016,0.614435731583346,0.6083168781409564,0.5701041513652971,0.5679441731094659,0.5923934678151485,0.5993529650843654,0.5805843715342807,0.6093933067469857,0.5808579961156466,0.5972380953363697,0.5967958031968044,0.5958475862894315,0.5906048109590627,0.5970055473131802,0.5861860521102924,0.5943564018304882,0.616107744418149,0.6084647367605158,0.5893470554201651,0.6223487889098478,0.6019756901031658,0.6352379460524528,0.6452196905212267,0.6314860872410235,0.5900364355025396
0.6212537973380566,0.6580324903830794,0.592334064176565,0.6213524910847973,0.6160087666462563,0.6074207777451711,0.5545327125920947,0.6122110742422637,0.6029470136399765,0.5636980640137882,0.5623277245609412,0.5840441849009819,0.5859052533237427,0.5798397744361802,0.6060766747008008,0.5745923797163199,0.5831889368699037,0.5982614999787663,0.5931999924880286,0.5792399135875331,0.5936305524433453,0.5865647459121042,0.5945795812264077,0.6097188103553522,0.5939884400050055,0.5835512980159686,0.6188747614903544,0.5981025194703627,0.6289301139593789,0.6469342643025736,0.6279356934742273,0.5881191688564312
0.6181710015040459,0.6516484347994301,0.5980767087098859,0.6272079117956312,0.6148822614661963,0.6126258233526888,0.5623422404796775,0.6032814551824065,0.6034046705668552,0.5678079645178872,0.5691671926075315,0.5841985639977599,0.5917671797195068,0.5782561374937343,0.6060562159374776,0.5847379026963315,0.592879264207624,0.604237626113382,0.5891469778977544,0.5813320037825193,0.5937963752339435,0.5790088327670702,0.5920724458452344,0.5998203095077497,0.5981578142790822,0.5804595033088903,0.6145757318055414,0.5919698445823364,0.6262396152080834,0.6501615087300587,0.6252163908114791,0.5852231599840022
0.6152969688074709,0.6489590064722361,0.6029244663083274,0.618645867282493,0.6135328178761289,0.6058828524529618,0.5753907624002466,0.6057872455223866,0.6063314015707765,0.5587233918856994,0.5798964965682791,0.5918078475696035,0.5893243026698811,0.5702404686987258,0.6058982121036331,0.5859380656529182,0.5950442502263018,0.5990038549448442,0.5916983215094539,0.5817893731433975,0.5906048109590627,0.5691961192426975,0.5937103016620613,0.6035712191572667,0.5944375383168686,0.5865918544264298,0.6221560500735202,0.5998772943345231,0.6358208584283802,0.6544430656891694,0.6249906777319432,0.5919104224607543
0.6239808212431618,0.6518601651343926,0.6088995055680837,0.6217433725712889,0.6140255382308303,0.6156708177797152,0.5785829333386867,0.6087095473758107,0.6099482269896751,0.5632672246296949,0.5874103200660749,0.5984738325581908,0.59649752363706,0.5765576035843266,0.6062550770485597,0.5919698445823364,0.5982034845826399,0.6041906175159251,0.5986993844274601,0.5773820102573141,0.5935010626364837,0.5810807908409775,0.5998903613661077,0.5965964236794179,0.5982265360317448,0.5863395066811431,0.6297354583147166,0.6056746899118944,0.6358805250337355,0.6566788983865436,0.6253289778700655,0.583578753660963
0.6254586128038929,0.6545396116233572,0.6195313077752838,0.631369603106718,0.619678579850598,0.621848985410409,0.573660429604852,0.6151475722328228,0.6129112988371759,0.5636516664091887,0.5929045923967575,0.5996679720102103,0.5982108954199675,0.5789393710502807,0.6058428976761324,0.5864619165333014,0.5926526319535932,0.6072031972257601,0.587402367300587,0.5769100314530178,0.5872907782178041,0.5910604329358989,0.6087947530984733,0.590224725720919,0.5986490358596313,0.5877253506958134,0.6358695732665643,0.6078954982204543,0.6419823003222159,0.6631649590219826,0.6221037750181819,0.5946178766223873
0.6345554305731063,0.6460684410649234,0.6240968860877912,0.6400863311804553,0.619678579850598,0.6281319823055793,0.5790802814179123,0.611384364620455,0.6117217717671247,0.5711280338624227,0.5930563432540618,0.5992693184285439,0.6085488162591072,0.5714323789759985,0.5997322652414782,0.5794929455062351,0.5861555730251193,0.6084524385638604,0.5872487311771942,0.571223139950421,0.5840775402070827,0.597041790564142,0.6060641542113977,0.5963327676259669,0.5948221755398536,0.5975001054241752,0.6356820231108288,0.6021875836961155,0.6480884210585781,0.6692338939512515,0.6247948615313695,0.5864412465645883
0.6265557755188538,0.6428739797159144,0.6331956602946682,0.6425800934925101,0.6167714058754399,0.6222439432374169,0.5766544579125886,0.6140860555169382,0.6061625109743752,0.5685189751066003,0.5963327676259669,0.5949843626460402,0.6079364706989772,0.5738875182624058,0.6031904826509964,0.5881446752021429,0.5917836673164677,0.6092348482658371,0.5971341441906459,0.5833466156881099,0.5735153942188276,0.6032928621348115,0.6056786831010058,0.5854573725869976,0.6102541626749248,0.5988794391476815,0.6296307587963605,0.6018755821831208,0.6508790326990651,0.6652633805221893,0.6161317439834288,0.6021138548750857
0.6260069698452146,0.6251558977281783,0.6325382427121183,0.6363572540943669,0.6082496396102457,0.6193167394912177,0.5864009315892675,0.6172603453819996,0.5994663493991408,0.5755180608510606,0.6028244791464767,0.5923765309312155,0.6059964845479641,0.5794491494917897,0.6002664367460683,0.5925189261772553,0.5925024232751565,0.6130924603643368,0.599074375732026,0.5848209758033177,0.5737650340876761,0.6057932279629479,0.6098873359476259,0.5854978139646916,0.6104848961310955,0.6016815829783805,0.62837696259109,0.601567288583873,0.6501386446006527,0.6661503084898031,0.6094650138100924,0.6120114766059462
0.6450762084671796,0.625077664369409,0.6368001028731386,0.6311933938238821,0.6082658169240492,0.6131236440003517,0.5937963752339436,0.6127631682635103,0.599523875342455,0.5881390349831321,0.5972601734497512,0.588717421746865,0.596375409498705,0.5895451803819495,0.5960673865087693,0.5906306213000879,0.582330666649328,0.607192550696422,0.5896351290125155,0.5869046573450565,0.5691671926075315,0.6084340991888146,0.5964796927431227,0.587782002409384,0.6056397402824578,0.6082950197138473,0.6334236134375116,0.608454912602691,0.648029333534134,0.6745879238909074,0.6127281828184618,0.6088911655275572
0.6437576731743709,0.627746793255076,0.6424311248708299,0.6306500879323619,0.6081326850439405,0.6129419904842934,0.6001203078071403,0.6141662696316226,0.60631218063068,0.595202119534418,0.6064527305365425,0.5959756919399963,0.5966343238956748,0.5997420761489806,0.5930022031121212,0.6003280431543127,0.5900548962508575,0.6077260422572253,0.5928248825116509,0.5873593900137782,0.576167573768597,0.6018840513331358,0.5955221157927867,0.5855088863107393,0.6128992681212785,0.6152524681381404,0.6216509285021701,0.6009424224171837,0.6595466871580444,0.6751032660780991,0.6099608046092914,0.6085716169032476
0.6432868033254272,0.6310615629305159,0.6473605959172739,0.6334185405638967,0.6162332679431689,0.6079880692795694,0.5999758305588415,0.6171863833135364,0.6061720477344549,0.5993885566273378,0.6115179787068049,0.6035569450033347,0.605798589656825,0.6018819861156071,0.605266374046407,0.6024672738671537,0.5964403609398904,0.5999320088818568,0.5918409851028237,0.5931156675244305,0.5803963244548537,0.6037881042801373,0.5916989715019002,0.598389275021493,0.6227538189924942,0.6200634886849492,0.6209644806850759,0.6024433531895286,0.6573110794581922,0.6760272172622962,0.6099482269896751,0.6159781334650187
0.6465065854403842,0.6308540596163094,0.6528627449045911,0.6212365204628483,0.615087156646933,0.6088995055680837,0.5969142469228264,0.6175407822888305,0.6091963165008534,0.5996972182039377,0.6091395102017257,0.5961651753065914,0.6032755926813088,0.5941477951474252,0.6073995274298225,0.5933743915001578,0.5817217123695233,0.5903431300071192,0.5993135676505122,0.593154449840923,0.590378361844312,0.6068536214551628,0.6046907457750285,0.6048739379335502,0.6059527376957552,0.6274223237863213,0.6265778322303995,0.5876056877022033,0.6532646135848271,0.6759567707587641,0.612821953134807,0.6187408460290018
0.6472763331211371,0.6333263599112889,0.6509646692885004,0.626656042955519,0.6121331544738117,0.615123572667543,0.5901822719038786,0.6181866914249093,0.6085409565532135,0.5980230837384012,0.6013172660477497,0.5956940403948765,0.6098030731514891,0.5994779652208697,0.6093140332300472,0.594422980780724,0.5751383597181114,0.5968952971698502,0.6054005679938972,0.590224725720919,0.5946792018233925,0.6094653353070755,0.6051284275632333,0.6093745540106241,0.6152828888774479,0.6258010998674273,0.6272617175918391,0.5942621294568069,0.6467403844888412,0.6703615654593793,0.6208406503636271,0.612448272417984
0.6479795978727352,0.6398655171159304,0.6501864697478578,0.6291405878607959,0.6151795595226647,0.6161317439834288,0.593368689135774,0.6160309406372283,0.6054055337159633,0.601439644757355,0.5963860663417222,0.5907343071183365,0.6065606753371556,0.6009133339045455,0.6155848412587014,0.5936847595765876,0.5753211730581343,0.5968871035871582,0.5969180583761998,0.5932283570028235,0.5921856080940533,0.603263403068765,0.5996059178135839,0.6088790158946101,0.6062073812862798,0.6239877029057816,0.6264125188570517,0.587590024447991,0.639406412009285,0.6680149350868614,0.6186349989622256,0.6182183630455276
