Fp1,AF3,F7,F3,FC1,FC5,T7,C3,CP1,CP5,P7,P3,Pz,PO3,O1,Oz,O2,PO4,P4,P8,CP6,CP2,C4,T8,FC6,FC2,F4,F8,AF4,Fp2,Fz,Cz
1.2144265100691165,1.2281627416141978,1.2430923161612357,1.2046189782158059,1.1687530040511247,1.1763761563056194,1.2065980378902708,1.1738591292545169,1.1385393325657462,1.165434787909105,1.1464157844175977,1.1563843818941963,1.1208464309948842,1.1357515396485027,1.150892332634896,1.151626874151513,1.1384326800282654,1.1327510599274535,1.1162471504884242,1.1059010342723659,1.1142945188500983,1.1133605401640434,1.1051200644332908,1.1465423318016232,1.1293561726268444,1.1101058655566942,1.1328977649830598,1.1331357164375646,1.1683822473103995,1.2172597653108677,1.138843708948266,1.175416009490764
1.2146991588575888,1.227308200393372,1.2329274070172636,1.2252843055219471,1.175753481686784,1.190345811183503,1.2055328724200547,1.1886891908356212,1.1685529008718594,1.1756482655223321,1.1451434440525614,1.158704026592624,1.143568772974549,1.1449731443174567,1.1412643907177777,1.1461616875692253,1.1364273740814257,1.1413345693726284,1.127411389980641,1.110932659321569,1.1305837860127177,1.1377292591415746,1.110539458960327,1.14338696278352,1.1235935400364032,1.1108081715725358,1.1376387240870471,1.1311020832095173,1.1635158112876964,1.1956859030103673,1.1443869198798886,1.1880820950758781
1.2475363537534498,1.2221176017174364,1.2271156588610592,1.196931027892593,1.1675638363816176,1.182479683543918,1.2187931712386064,1.1982750560859303,1.1689330750336187,1.1894391203023826,1.1762074598063006,1.182799523986345,1.1555058798918099,1.170247035560313,1.1740115219050442,1.1725049612096436,1.1558575100454644,1.1497706318390097,1.1376524930690743,1.1187653374334834,1.1323873336716332,1.1427107186247354,1.1270921434387995,1.151407883515405,1.1366443187837787,1.1348764634582056,1.152206916292882,1.1523338890515833,1.1706196642563058,1.2056441474379216,1.1646805167666823,1.2004304128937866
1.2570564742591108,1.213952688688396,1.2176637985164696,1.1985992713524891,1.1551387230596288,1.2018205066677108,1.2161565840361979,1.209863307128795,1.1723138638446873,1.173913558966072,1.174505304544068,1.1779841844185213,1.1746318292348,1.1740336735543189,1.1780941135682412,1.1753682891125217,1.1613347691031815,1.1662256596466753,1.153229163598339,1.1323869310311236,1.1539742486789442,1.168879686028099,1.1460938028374477,1.169517484974848,1.1350730104489526,1.1468434093206001,1.1467518315573417,1.150901269669207,1.1669789699074498,1.198341295975262,1.1568268558457724,1.2057331868724595
1.2629703911046593,1.2234161443124496,1.2356646686688693,1.2033013721779806,1.1750587239348127,1.216464738904415,1.24822563858483,1.1868684337478437,1.1809635201715498,1.2020789589947607,1.1772904379973135,1.1845178672068322,1.1702628918957092,1.1712049334225383,1.1794798835465998,1.1709957414430734,1.1546879441862055,1.151893664504031,1.1435005938933924,1.1311969391540242,1.1599558690980192,1.1421961626128028,1.1432374226283128,1.18369376786938,1.1352206003766538,1.1496375023955148,1.1605761768877678,1.1532459367002112,1.1743703715575076,1.1931705617835853,1.1663370356679188,1.1964606085928042
1.2578379866958942,1.2063113756018036,1.23945467823176,1.208828380066742,1.1667465459014519,1.2071002280491476,1.2240026264673511,1.184329279706782,1.166828748229487,1.1820734920192648,1.1771538462363589,1.1768298027699853,1.1740410576977773,1.1589118415558632,1.1643369437488988,1.157090356341384,1.143571321005472,1.144524204568162,1.1369349071020318,1.1372401801069874,1.1517880293630118,1.146597842585457,1.155568184461108,1.1927733120805766,1.1448695417105503,1.1724444248748762,1.1697821219656408,1.1666559376581278,1.1877637860379637,1.1977045249454357,1.1813926544752953,1.2075359852615155
1.262880917675826,1.2080509846848684,1.2266418106844632,1.2090160440437776,1.1677802332950094,1.1954437595700607,1.215520586898553,1.1573932363720507,1.166315862290346,1.1645713316613395,1.1593911487949857,1.1675076408762022,1.1528939259703472,1.158927214834363,1.1677038788784708,1.158921980786413,1.1435833166571845,1.1340025090811148,1.1266148673812832,1.1343751301607798,1.1478437914411086,1.1303284605716795,1.1469392314297353,1.186784991685949,1.1388996258475845,1.159625071359354,1.1726495560297079,1.1606090353374154,1.1850684418513626,1.2145447653842714,1.1738816979965805,1.17386266392659
1.2575662294095635,1.2274098219713079,1.2184331588600747,1.1977232999134304,1.1667839107766316,1.1920493806853718,1.1981640143296024,1.1566051093784473,1.1723396060142643,1.1692516946537892,1.1611278391581352,1.169741680529998,1.1713646034319818,1.1597118859833309,1.1686299968512464,1.1536797794453446,1.1457272402547423,1.1486686171378013,1.1264239682018242,1.1359458627716617,1.1605841161518091,1.1407794027270535,1.1564515201330885,1.196669325891784,1.1448120115936995,1.1718085485352976,1.180916202316348,1.1650465710104074,1.1868186316268128,1.2057825876471242,1.1661012510196598,1.1599804504520643
1.2682046825087177,1.2442014521901146,1.2338119029120425,1.204650662836013,1.1698712179355906,1.180252418367535,1.2038733779114836,1.1510307899016057,1.1676328572693062,1.1505368074890945,1.1598152519679101,1.1754028308344626,1.1702226931836082,1.1624543250129336,1.1739368100911882,1.1630657693286786,1.1545805076758482,1.149153255433626,1.1285926543585407,1.1426837302450188,1.1642237825635624,1.1392696744096928,1.1453529412571792,1.1844085499662833,1.1440536049866499,1.1745156286199974,1.1895579746389247,1.15550107275703,1.2063848885804394,1.217225302746184,1.1728453138420225,1.1488783366383188
1.2519125378059266,1.2586304793996421,1.2338374553121414,1.2046263838517963,1.1878803048067683,1.1879301328757994,1.1945327166070194,1.1506916154264641,1.187069751052577,1.175087090503781,1.1720079267199268,1.1875530574003594,1.1728072967597545,1.1772790665001673,1.1774969502020762,1.1711447672281885,1.1558899056047731,1.1429859281269736,1.1353219059329818,1.1452337255834435,1.166327563283632,1.1446398907313344,1.1560900726734147,1.1984190863922093,1.1469354092855726,1.1748251179574494,1.1679053451866803,1.1554915208404728,1.2120644711227369,1.2030258789921797,1.1759511052581753,1.1605119967133348
1.2503418148449355,1.2686004995765674,1.2424374257726856,1.229470134287348,1.1829947750880858,1.1964988645035075,1.2066274511758064,1.144233133436978,1.1817798530730752,1.1687942943983474,1.173339572138357,1.1803089277652863,1.1558358869961578,1.1707830630399307,1.1869855330635795,1.1732005058353523,1.1668694919175788,1.1522659922988403,1.1447092722191294,1.166017533794206,1.1692798293429705,1.1437328267329878,1.1539298562105897,1.2023486134934738,1.1549272412515197,1.1677358648228373,1.1744768010464712,1.1584958829582694,1.2240043733588335,1.2051033893143464,1.1665287855297901,1.1596392286680222
1.225892262934946,1.2574906471985827,1.236116575648123,1.224044741812515,1.1739345247542252,1.1872434950904343,1.193905377166529,1.1437893007082007,1.1759591490739116,1.1734970404163745,1.1760931927481755,1.1720057798407633,1.1700673567028186,1.174671977795981,1.1892261369350026,1.1748205456403347,1.1534044932239238,1.1392356482051418,1.1195300889846809,1.1442828049491103,1.1401665669368135,1.1267904638706878,1.1426828539034688,1.1944863868161935,1.1473385999917851,1.1681221608673351,1.1647942987303845,1.1624506512089867,1.2175098831288005,1.2134873552812522,1.1582425718164244,1.1737403398394697
1.2006455533976474,1.2743755878126566,1.250521799010367,1.2374577511217764,1.1900157461836056,1.1851320085742885,1.1864996801024623,1.1582407307491667,1.1814195748730032,1.1712597633461852,1.164727111258452,1.1685625678571263,1.1627879710017415,1.173188800452827,1.1773447605599534,1.171497324927364,1.146902132655043,1.1444734268862258,1.1289188368697478,1.1301544257751666,1.1374794428913153,1.1298585363404945,1.1347500817022145,1.190883201248305,1.1423845846096647,1.1658437918614255,1.1654797785239508,1.145840003523476,1.23492399841957,1.2271621130177537,1.1681964078338813,1.1795953387704663
1.1910574778328813,1.2785078624036263,1.2584801088778848,1.261920164919663,1.2036578733592704,1.1975809231929162,1.1684087196549722,1.1472865172615159,1.1828810089314827,1.160604117903539,1.1439623197816966,1.161308904091307,1.1545918121900414,1.149809688370238,1.164623568427672,1.1510188818580804,1.1346598486836008,1.1351830555855487,1.126578872892024,1.1241515160144464,1.1447718702080598,1.1245784394092246,1.1447250851895678,1.1912688664258337,1.157386521468649,1.180390095877253,1.1830019250244792,1.1523683579743962,1.2426128682354018,1.217293219755006,1.1878468816103533,1.155516580596873
1.2145127284658555,1.286159850225541,1.2602007390984593,1.2323875485057165,1.1898497287099545,1.2174135601566651,1.1926606413612573,1.185420801932944,1.167901040056049,1.181965835106514,1.1700404746995163,1.157991145425448,1.1554377068410973,1.1638983881145877,1.1922536134727808,1.1684234551783992,1.1459188094167148,1.1415758357605243,1.1270575942043268,1.1243145099149912,1.141947260405364,1.1233630051481047,1.1433534572806017,1.197510382614716,1.1539533059055211,1.1871970006543804,1.1839553282725566,1.1623863498073617,1.2432655423222982,1.2101143638026495,1.1751841812588801,1.1812395814699277
1.210086816873306,1.2815476885646346,1.2539490611156814,1.235508288323141,1.1945182782665498,1.2107310853729039,1.1808423580668326,1.2061048365703642,1.195363119288763,1.1832718622967082,1.1675505173930434,1.1739646935386105,1.1649220340863444,1.1701396354430245,1.1932360575683711,1.1823628178825116,1.162864903648649,1.1666364765987844,1.140161436782367,1.123618311075892,1.1359870950070297,1.13412679933654,1.1354015633546413,1.1760624844093357,1.150555052278638,1.186542811285531,1.1914221580287403,1.1592813567306464,1.249583766781786,1.207812711855329,1.1921893064157625,1.178845730351087
1.2106845594070486,1.2866018481057633,1.2615856581722096,1.2465632016480552,1.2121781931562077,1.2105652775471687,1.1849419311762799,1.208977565847984,1.1898463652908227,1.1887647471907752,1.1718658889104154,1.1743369606659744,1.1814881440510174,1.1787207285237489,1.20444677747922,1.1990949554861439,1.185357905441255,1.1868126256160765,1.1624110376443257,1.14025091230819,1.1352935561633462,1.144132445223004,1.1366138970900106,1.1896164862586145,1.1510761408569308,1.183552366434868,1.1892375334230239,1.1527238497257728,1.2622292205863483,1.2050969634809074,1.1983282039696652,1.1865742991115276
1.219151832805117,1.2705454160212237,1.2835534722417863,1.2264060132421877,1.196530500565115,1.2012933664296839,1.2009485797713404,1.2023849616684061,1.179149694734726,1.1952567918825756,1.1773127328852986,1.1785501049119618,1.1727131255970262,1.1756669215218607,1.2012257314481458,1.194551727836325,1.1787754621595614,1.1766303609504067,1.1473584842960807,1.1355422050112032,1.1233017848356273,1.1185092906232266,1.1319651428616941,1.1809480313982614,1.1459535722259608,1.1784271543968186,1.2190755201332684,1.1586052710478825,1.25529838849734,1.2257281046025026,1.1932698486373048,1.20231603602159
1.223427738839715,1.2915428223799041,1.290334100553432,1.223281126517395,1.2015527947072187,1.2119318349869952,1.1897719728812353,1.1815873767361822,1.1791701182238743,1.192614455309537,1.1712380016166808,1.1850444209607998,1.1735531110560762,1.174542706744729,1.1983358256525118,1.199766281010577,1.1972874411773127,1.1960723189930997,1.1765557223059386,1.1574608596296343,1.1523269370644278,1.140549929574809,1.1453549690123748,1.2111812736802847,1.1614292626669365,1.182571167613055,1.2273812160328528,1.193334088198073,1.2795683284551433,1.2309039947201312,1.206808620458713,1.1808330890364693
1.245172628456358,1.2896340864311067,1.297663894770888,1.2378873676594064,1.1931818575298976,1.2021464130568555,1.199598549716918,1.1902505293574321,1.1817519768379903,1.193766890458878,1.184953513465264,1.1795780340045854,1.1791790274243563,1.1824343247949096,1.2115913720674432,1.1983056874501217,1.1928371614227158,1.19448663687383,1.1649979920780482,1.1411500238389076,1.1428667242583028,1.1348169811351225,1.1409541878383143,1.1882565465936221,1.1568762674635573,1.1730292402966822,1.2235932898744315,1.1836337191976738,1.2695940005719941,1.2224853197219905,1.1954700520640622,1.181979929809996
1.234341643314837,1.2929094325338348,1.2931424705528063,1.2305008472923074,1.1877744612818293,1.212611379042076,1.2082808242416072,1.1861581776948218,1.171220475995612,1.1938330655198337,1.1948600548652448,1.192330887341193,1.1586593875865432,1.189087843108932,1.2096946388376317,1.2221536077569999,1.2189039709334395,1.2001241111195573,1.1676517764955667,1.1548686003292385,1.1442839567067327,1.1460555230246585,1.1419353303957724,1.1996352729509456,1.1793934579169862,1.1798826954901749,1.238941620823763,1.2067548234994432,1.2696561791568957,1.2343863548991476,1.2175662833853365,1.189590646715296
1.2332934870805883,1.281944058135935,1.2739358185017506,1.2133808678415825,1.1839800264338427,1.2001934078300542,1.2034162601649139,1.1636836375447388,1.181369914261536,1.1801942860835346,1.1724830058852627,1.1815567552527857,1.1555109915738222,1.18276961586759,1.189891230228584,1.2091227693006963,1.2140939161100412,1.2039096044749529,1.1569572468483296,1.1598384766178118,1.1538159639442314,1.1255964995868621,1.1471988365856076,1.2018478613638952,1.1594008140023249,1.1872646313233086,1.2525611272306825,1.1677319853192163,1.23058996604921,1.2151927567333682,1.1931254560865032,1.182334375173633
1.2197665139717688,1.2788175176830314,1.2618138114045898,1.2144581305777369,1.184962676511383,1.190607145572408,1.2122069107298947,1.1639353004113515,1.1816863736150127,1.1916024604140125,1.17076448846877,1.1832457299426513,1.1764277545466353,1.189063751562388,1.1884882156084486,1.219488892984079,1.2253236302047161,1.2164812375421024,1.1776530282990936,1.1823152463318942,1.1513458998831667,1.1577397341263655,1.1460105326626178,1.1997074097130611,1.151135115149705,1.1646609766893103,1.276792408809861,1.149638538768652,1.2106457257224479,1.215086084884032,1.1888185865472043,1.18601675259816
1.2246624885733943,1.254343468604591,1.2414538661610175,1.2058439191272519,1.1773643576275206,1.177961604916211,1.1980673093649572,1.148404008915413,1.183638918611779,1.1703385865068343,1.1608146097705085,1.1816590501811555,1.1640026951891864,1.1835001084557166,1.1876839439440674,1.2187588492765806,1.2223966066564635,1.2028684313813878,1.1618575502935484,1.1751083864206078,1.1445959849916867,1.1361416270654094,1.1351374326723362,1.1920840224196692,1.1632323012889785,1.1503467609637446,1.2811325799596704,1.1635574318322246,1.2191104794962058,1.2337075673287272,1.1721743570515053,1.174180337042497
1.244151061396952,1.2372163094890183,1.2552920195896682,1.1940692115884186,1.171776708003237,1.191484241025694,1.2208833352117838,1.15099848375595,1.1872003525113315,1.166379916899343,1.149171304757637,1.1818644449303553,1.1761084460957987,1.17692869201811,1.175471024627281,1.2075873797623435,1.215896180061674,1.1993645021126633,1.163863422378461,1.170470711110844,1.1446437999206944,1.1483748955351274,1.1257931593638864,1.1922703863465185,1.165430747610489,1.1411939294559335,1.2740650402555764,1.169588225535901,1.212163006593151,1.2564390242774481,1.1813213330566983,1.1980993132824391
1.2253355409384206,1.240148360173933,1.2440038322851217,1.193742321356961,1.168696653046577,1.1838266903965702,1.2074098177818962,1.154398559145288,1.1879212355605193,1.1645593595913672,1.1476021520578046,1.1719425237715937,1.1664533974182563,1.1609792929233922,1.165248891564882,1.1983935758257342,1.1997896249841682,1.181126084836682,1.1589289354250334,1.1683240522912515,1.1473620086201772,1.1414899732066546,1.1409576879747392,1.189130573456501,1.1618856861660853,1.1391308541542737,1.2726237106823561,1.1661458834990577,1.2051775708878665,1.2574642359541033,1.175795095852763,1.1774012276153258
1.2132587392322474,1.2375852866331958,1.2466360171118356,1.2037403764248957,1.1852662371920673,1.2093572054203445,1.2002708168526983,1.158824782179446,1.1754759444976624,1.154462801137389,1.1261665763868398,1.15159746127884,1.1552629210761822,1.1598626170272723,1.166773604700063,1.1956214627012842,1.186403742381869,1.1675461455805602,1.1315388908683486,1.1523882911563768,1.142260977655153,1.1261942820735389,1.1425972204068848,1.2050286730574722,1.162385855006406,1.1323947981136757,1.260365531037509,1.1590770886505337,1.2143535067002087,1.263222334009848,1.170821742324626,1.174791160338243
1.2291081258710888,1.2186112667531057,1.23764559252578,1.2056800437908075,1.1748584576618142,1.2411291041478374,1.2200611003250466,1.175024283863621,1.1711149554844766,1.1495416253141373,1.1328920809550291,1.1500183066621001,1.161975366566864,1.1485002137180638,1.157807267282916,1.1737550983848772,1.1620720369502633,1.1508124184054982,1.124065434662197,1.1406752693365922,1.1313890417903232,1.1352323118935135,1.1512864771611486,1.2059783831701834,1.1720448643216206,1.1594401698305163,1.2795183631792941,1.1737359070941777,1.2187449149736718,1.2770372432041663,1.1722048804057505,1.1672272587335746
1.22244358235866,1.1979062496761925,1.2378923833728956,1.2100236603421215,1.1804286906173929,1.2320844787226768,1.2160177973344435,1.153662737917762,1.174210547123498,1.152906437050257,1.1272392114006746,1.1500291907776565,1.168035222956659,1.1517738726343685,1.1603153998902414,1.1729516168815233,1.158513728041688,1.1463894683066822,1.124942617599407,1.1424604376365433,1.1405602509508075,1.1237627851531873,1.1401923055897907,1.2074007446618387,1.1703140996178458,1.1459847513248365,1.278748860364317,1.1678391468118585,1.2312715028646726,1.2544101127564913,1.1748975683319525,1.1605408642349757
1.2119210080223874,1.2023549153449482,1.2170377669194017,1.2109435188247728,1.1866227458137752,1.2529219340204354,1.20729034306812,1.1799056405303348,1.1992188073994285,1.1572444925002392,1.1168985711538637,1.1550451266843933,1.1891862309101247,1.151869146810442,1.1492351576157935,1.165256751366615,1.1479689299665898,1.1374489321796846,1.1169656171318612,1.1280241586848743,1.1313582442040617,1.1246937841481377,1.137511465683722,1.1869431081749353,1.162913609519361,1.1467415456435035,1.2734518692617316,1.1642676741741071,1.2196548780328431,1.262988629060057,1.19022836753819,1.1749755602141736
1.2509923506621936,1.1783590066323135,1.2365545336814145,1.2019311608602508,1.1644826997429392,1.2688726969580373,1.2125111738764505,1.1929887536638415,1.1848312095515563,1.2015776305517063,1.1440862378913048,1.162430141876381,1.181492451075,1.1591404997966024,1.161408069927364,1.1639542615320437,1.147495158195681,1.1424257069452997,1.1340220932208016,1.138089300014487,1.1407338470828359,1.1351308442017063,1.1487351989940189,1.2126931881411782,1.18379957599323,1.151953138123182,1.272438304327654,1.189535850707204,1.2360220419408898,1.2717555763703559,1.1653619261605346,1.1781636907560835
1.2442886617237003,1.1793517438115333,1.234879245758047,1.221151768576908,1.1685475509089753,1.2713812416493127,1.206403902690007,1.2111616994314167,1.1753731972489287,1.1990972541393912,1.1474716502087938,1.1590612376782734,1.1656244421514714,1.1487977720400417,1.1524039284941132,1.1475813488173021,1.134508361381986,1.128085224073622,1.1236593604703158,1.129558285964938,1.1396468081734683,1.134108002805957,1.144633802208543,1.2068406364363498,1.1586215536521605,1.1538926106855334,1.2593999900251442,1.171890676499897,1.2277196205759922,1.2628328363104602,1.1613260741469864,1.1820509732670854
1.249138566232788,1.199721046951657,1.2647120687071962,1.2331731863344813,1.1892126627302297,1.3040662354036716,1.2266710456954049,1.2274858537021318,1.1698956543817827,1.2065629865483471,1.1489578634188868,1.1514383508545836,1.1673931836066136,1.1409817299034077,1.144267408341821,1.1376790279135556,1.1280656881966475,1.1181309423804007,1.1163020725936943,1.1273616950548897,1.1347626071921582,1.125771970577149,1.1454937801671687,1.2054506687418356,1.161461690393997,1.1681510171931948,1.2768426523389957,1.178448438502426,1.241084480950492,1.253877479760529,1.1768248794594782,1.1740457569940659
1.2271130657754983,1.2014123835683834,1.241311017276608,1.2398712631991402,1.1724135022867752,1.2843742499671658,1.2015682111298056,1.2099766031233286,1.178134166180214,1.1920081970885896,1.1482528502605163,1.1515128815200575,1.168982914502972,1.1435909807258215,1.1433729217851487,1.1382913592399628,1.1330585665869866,1.1194172443487072,1.1167551882308446,1.126432021281934,1.133856303862794,1.1330083985292219,1.1526359213367658,1.1983484327124405,1.1503272353193557,1.1783319436006372,1.2861576059595934,1.174992282616566,1.2484851970231612,1.2681140398495556,1.1704146174052616,1.166314227439177
1.2245028451174076,1.2060362561462974,1.2378847815849567,1.2264290131537652,1.1793330176073842,1.30388327799694,1.192110377097249,1.2113158535387314,1.1946986110548912,1.197698340188438,1.1519058729904534,1.1489032379845703,1.1679164606492145,1.144249267705535,1.1482288588124039,1.1295610396936926,1.1177647433493665,1.1160561912998146,1.1103334733430945,1.108644022728928,1.128649477166579,1.1412045526625099,1.1563142771756156,1.1956968355145634,1.1472247412872583,1.18224489391299,1.2912389088587464,1.174314625862119,1.249716953175986,1.2623611821646692,1.1734342320615445,1.172340610752431
1.2153879987251133,1.198564990146192,1.2310899780375768,1.2284761677892173,1.179761240255577,1.3021334641040156,1.2001445653361547,1.2042904949359312,1.2070581725739007,1.2092341136155866,1.1734613846080795,1.177249712174963,1.1821373477084796,1.1739294605307011,1.1713747863788382,1.1550030586371287,1.1386590297205375,1.142982414741006,1.131626305546071,1.1235203617055765,1.1411361541304195,1.1544515504432975,1.1527006636974428,1.2225559673262019,1.1509698321556707,1.186340325257682,1.290403280037144,1.1756545151114393,1.2347082399064184,1.2561013483817365,1.1700640178264172,1.1650248159351966
1.2088606340339711,1.2105177598080723,1.2334118643288072,1.2492165451633237,1.1803005590940345,1.3077731322429176,1.2061729851066745,1.212973927240816,1.198705703384227,1.1832440305593315,1.16512739096824,1.1540313374796156,1.1825757376428145,1.1453092710644128,1.1438602815234489,1.1409311540438918,1.1301923634830118,1.1353102574526674,1.1342212117021118,1.1284223413344547,1.149442183833779,1.152666378168004,1.143702212992989,1.2299809886391904,1.1531588699927366,1.1843447887798713,1.3098577474704287,1.1799212546113267,1.2466868042934363,1.2577072191166419,1.176125196194272,1.1642125865517974
1.2135518041953561,1.2093996917608634,1.2343421771217247,1.2281975485584764,1.1609188657250444,1.2993075820803313,1.1949317456372726,1.2172974181735823,1.1990170429219524,1.1593268971723703,1.1502246729488532,1.1428887795502367,1.1660288710357087,1.133626005326428,1.1392784720303955,1.1330521067938712,1.134472215558301,1.1418309531774458,1.1460738186247803,1.1415425756056339,1.1610678896373692,1.1631060515006038,1.1500017391922108,1.2251080155789735,1.1534797336152736,1.1752738198481145,1.3130014396593428,1.1824350104318602,1.2475676357866627,1.262261751638374,1.1683492857381133,1.1600396644429367
1.2003434007152949,1.1992976855270001,1.2084370496212242,1.2268928397577765,1.164098013079423,1.2947992188777944,1.19750754126854,1.2159908056669337,1.1867757857679002,1.1615203537875682,1.1544611664494089,1.1321816792965855,1.1606879792608464,1.1301536968621453,1.1432749106364155,1.139310630584324,1.137063486206825,1.1426459348201408,1.1488537085662343,1.148557696987868,1.1636425597509477,1.162922307370145,1.1603503463611258,1.228612943454591,1.1392425310312817,1.1746704635100136,1.3144374215553933,1.1678792450813726,1.221957020971768,1.2615081553197838,1.1482407781289228,1.1615760862173528
1.1955349876472776,1.2037144331502898,1.2168826188901933,1.2256356632330279,1.1620837918649929,1.291836749740169,1.2050476292815429,1.2352756351133076,1.2002767624171273,1.160386176796856,1.1660449002227986,1.1358894680336458,1.1487829940420267,1.1375134334479629,1.1496617962751758,1.1414082616858912,1.137460482774451,1.155025009111398,1.161409900143551,1.1446460333593573,1.1723891768977466,1.1677746523247046,1.1584723987380057,1.2317656316047176,1.1531669577797992,1.1666290093438747,1.3120210931948726,1.1729802537286476,1.2215340007147852,1.2744517287917743,1.145514434531458,1.1465059220296725
1.169634022541816,1.2039985492103469,1.2136713311823843,1.2153467052275915,1.1632593643213975,1.2734623406779795,1.17217020943818,1.2173330910103461,1.1813269349845532,1.1294436564069137,1.1472339403793093,1.1279553326326435,1.1472386101339354,1.1307731333512816,1.1423683247662448,1.1359778826176237,1.137759333704046,1.1467100847542286,1.151203111799888,1.1435820732359707,1.1849145447945197,1.1637651992050106,1.1606769566498811,1.2394591262303905,1.1564575142505078,1.1757381712236632,1.312116585909666,1.175935628800329,1.2210964448274195,1.2635755637935855,1.1475832983659853,1.1346261826608208
1.1745104558969415,1.19100612496549,1.2013822685988902,1.1981621149105446,1.1636772939045048,1.2587428460204797,1.174444011114717,1.2273242153591712,1.1792577458570155,1.137254630278466,1.157825046339839,1.133399972958079,1.1444469744991135,1.144780871863046,1.1669042610488212,1.1422663269099225,1.1370938277965776,1.1418070263040583,1.1314328579169395,1.1206636183874512,1.1681863947934918,1.1656067806788415,1.158326901514472,1.2209932082917083,1.1445844880815685,1.1696006817198121,1.2968804145688293,1.1693144661538697,1.2114028836207429,1.2698060403751232,1.1359849138808409,1.134630525190093
1.1848744251843506,1.2072943691884621,1.2268708974720028,1.1895019696718678,1.1589089474301157,1.2494945405138094,1.1762127017896968,1.206650944101662,1.1788062663502874,1.110612134377133,1.1389548537889131,1.120328477070342,1.1512678975308592,1.1291274721192321,1.1498306817985449,1.1372273614277657,1.1390656089035078,1.1505411472029323,1.1340727267879938,1.125207073773904,1.1813915655062799,1.1530076681513097,1.1410970599436314,1.2344328166159744,1.142750661719074,1.156299702645984,1.2951793886154976,1.1677297879708985,1.192445644249864,1.272361688775054,1.144699342726276,1.1209012450192635
1.1688749400864133,1.1872520221438077,1.2132045259476492,1.1831130680501678,1.1434881229641547,1.2312354557147918,1.1694680195634417,1.1913334712030292,1.1548599462328553,1.1034661359701372,1.1330801496946572,1.1091383337775265,1.1615295750208594,1.1194955796492274,1.1447320185897683,1.132316713991365,1.127674480766833,1.1373569252738314,1.1207344115644822,1.1121797755096134,1.1486562836504233,1.136775158898954,1.1164280177576802,1.2171050111317194,1.1250883884713356,1.139094436214581,1.2420578544504381,1.1392243528957178,1.166724487588339,1.234216678303393,1.1203145611381868,1.1168188300886348
1.1694216976123106,1.1889127619933348,1.1972341053197952,1.2010551989408764,1.1527818815677504,1.202072601555568,1.1790223396570758,1.1928169109159141,1.1597295453161143,1.0997925574897438,1.1453799387674477,1.1129226244003945,1.177007580669175,1.1244081534003845,1.1546645458251077,1.1488233453593621,1.1555754681664272,1.1581428784750092,1.144068814726897,1.1459001594369198,1.168848973864411,1.155487494691295,1.132979958571467,1.2215925054222467,1.1353768989222641,1.1461651445542096,1.2324158689629998,1.1425808067455028,1.1730328670930965,1.2236089851688028,1.1311705654353215,1.1387070876391274
1.182879501468344,1.195664083677091,1.2167592447814666,1.1866470852959432,1.1507670041245721,1.1767323196264652,1.1682863155867076,1.1797732765065196,1.1406531650547702,1.1096884420256825,1.1206332693748957,1.1005662834003433,1.1512641876522196,1.1096106568645767,1.13036699728273,1.1172073557331006,1.1203889446661812,1.12329131436759,1.116929545921708,1.1162194109443497,1.139268409997659,1.1272865708500768,1.1224433019753015,1.1666606465032847,1.1162188421557333,1.147014287452324,1.2051059778297908,1.145707645755052,1.1694089922312059,1.2399912857881366,1.1317106156599974,1.1311037064071034
1.1717338504683656,1.2107110963256078,1.2266154599789063,1.1811604552956858,1.1411037775124526,1.1852876581482303,1.1743178102879066,1.1705395449764588,1.1447539918364575,1.1114590863008473,1.124527762652512,1.10293969724711,1.1530316991592415,1.1198357742352945,1.145192967071689,1.1266328710866842,1.1272011139703177,1.1250206879414533,1.1110739169184545,1.104162384481356,1.127021686507949,1.1238899792075197,1.1054588201533795,1.1424515616338067,1.101253533282659,1.1315012508683713,1.185539255278776,1.1153068527131174,1.1490996143317207,1.2121070454266332,1.1161064163829437,1.131501432348087
1.1739100902841308,1.2146800449485937,1.2167881215997538,1.1736184727644312,1.1358365413598663,1.1720202307464753,1.1675807334713786,1.1679492145813588,1.1425219793263544,1.1207566776613909,1.1304898864305972,1.1214409474071279,1.1371202635290873,1.1291943630803016,1.1511445284638033,1.1329670988769789,1.1298847205924707,1.1198569457654004,1.1032169391399254,1.1016456603377203,1.1247703447815454,1.1134701996407816,1.108962995563866,1.146097014241243,1.1037391242074337,1.1439952239647624,1.17250754722053,1.111505607578191,1.1525300491169532,1.2076968182183914,1.1267131540471065,1.1407609630614433
1.1716960037521018,1.2228192641571547,1.2549984119056412,1.1905286537756559,1.1453765776527196,1.168506959613269,1.1529915241575024,1.1680228973867006,1.1449159045652761,1.1163679916104225,1.1310859202018575,1.1206254547863062,1.1443901005168764,1.1362212580599065,1.160613530438112,1.1368542888081699,1.1363164967250532,1.1223065890045651,1.0911847850830183,1.1006352490613107,1.108802610527888,1.110630058954733,1.094856456343312,1.132130461274576,1.1052368912360717,1.1496775257529812,1.18822739265519,1.1171288907921058,1.1616426907092674,1.1995188585582954,1.1349871493670334,1.1513734788244077
1.1698387585070198,1.2415514269245558,1.2523507811847814,1.1832789379264639,1.1495511650670822,1.1755630108057544,1.1595264972101338,1.176758796421273,1.1602634286535773,1.1336407654249243,1.1432745561396633,1.138024835771849,1.1534220718868808,1.143599857497406,1.1703280523520532,1.140713556147417,1.133560546104111,1.1204802917525396,1.0873944902109183,1.0861388422976377,1.0979719965331285,1.1087558164293791,1.0970606728641652,1.1235736757802885,1.092938789904824,1.1469325800816255,1.1859718388524079,1.1041641516977982,1.1442861509113904,1.1783571763035847,1.1320974693011436,1.1408167294479188
1.178537219825481,1.2534200743252075,1.2406781383970937,1.1985543430833814,1.1634383734788611,1.1837897878745856,1.173671177013703,1.1852243166610947,1.1444270134084424,1.1444058256855936,1.1430838656543472,1.1301517644069703,1.164362342361014,1.1350467581684718,1.145906192920826,1.136359356901224,1.1313051325345684,1.1253727529089643,1.0945534879981913,1.0857951694282468,1.105015296375739,1.1259231222750707,1.1165522652475013,1.1367414404885752,1.1111726391369043,1.1545050117271256,1.1971359354005273,1.120310703116862,1.1495523796482645,1.197275487351278,1.1554231783473392,1.1667665394340916
1.1811772665366527,1.2379792870417137,1.2420340552023044,1.2048891257628331,1.156855323594128,1.1932355644091939,1.182158660172911,1.1836854746002223,1.1402782870808599,1.136282353138761,1.147494916418046,1.1241757204256744,1.1631714272530396,1.139553315139344,1.146956028313756,1.1461947558839918,1.1351170534450223,1.1312261617826458,1.098893088118041,1.0985400075098362,1.1066196184614143,1.119130049353924,1.1006736765954361,1.1405030836730838,1.1074933598790477,1.1359810899677827,1.2034878071171726,1.125122413590483,1.1507953305421257,1.2127551867716653,1.1486372812261283,1.1626164895256343
1.1939069654833474,1.2516346519095782,1.2554720797438244,1.2118547844134446,1.1895156980429102,1.1740395322973505,1.1864846871596106,1.2065914114713627,1.1540017814460464,1.1545116981127976,1.1554404143471155,1.1408030509283122,1.1608449468581983,1.1437060939702626,1.1500509197059068,1.1457277605542233,1.1347291811684836,1.116495744918058,1.0969368479023658,1.1055817502325584,1.1059109351611982,1.1317044891401282,1.1019530041686296,1.1421415769721999,1.1062749320401293,1.1502792693268005,1.2079553752662213,1.130565001778746,1.1708220646330516,1.2280484778045309,1.1602600472283942,1.1802345017699165
1.2109290557322359,1.2698497020368276,1.28101535743449,1.2140888654233524,1.1719874244005244,1.199944563407631,1.2281169147958122,1.196460048415373,1.1496579733599228,1.1704512576655295,1.166072438520951,1.1507944452854542,1.1295136429181603,1.1486678011420535,1.1524604372551932,1.1371912701844773,1.121324501865515,1.1200112157327324,1.0864590366227842,1.0924819463055446,1.1053343342066477,1.1191683271837602,1.1012981755219877,1.1389716715428528,1.1030727504361642,1.1313855944232436,1.2107660077536693,1.1343778890760998,1.1659366415743755,1.2494358748887449,1.1458532926131804,1.1623189764233874
1.2202585180313976,1.2821006953119982,1.2822385389862556,1.2002627747034622,1.1788878310835567,1.2051637538326934,1.2157256030660908,1.2065513281344045,1.1586299124285924,1.1887839266679558,1.1846254343900555,1.157680779154968,1.1446502707092954,1.1587236318590544,1.1609242218656792,1.1471316311639603,1.1298364316128413,1.1303534221137745,1.091318392021732,1.0888604093726535,1.1038532369523308,1.1255877068833184,1.1052804575736073,1.1413142103883602,1.1082383457943488,1.1386071787377476,1.2301212467527491,1.1476904513133568,1.179180107362662,1.2582779493344562,1.148493427837625,1.1706466641048308
1.2242650267055697,1.2646536760598563,1.2681538860415336,1.1924663841268648,1.187088131424143,1.1852991074221095,1.2118996988512503,1.1985830273950453,1.1482246037761252,1.1853938991180766,1.1758004912367876,1.1552535929004448,1.1443903530034336,1.163736128514762,1.164947710978827,1.1650589504892086,1.1524705502679737,1.1487848065322326,1.100566617145652,1.095035139563928,1.0903235583097446,1.1233114763192447,1.1020615386846129,1.130106746292023,1.122741907961042,1.1414437405479694,1.2370928596524537,1.155880833745956,1.1834853682435333,1.259883728725961,1.1661551117665783,1.1654840086939324
1.226730259712071,1.2547509992637547,1.2683441503332857,1.1875256420017248,1.1916823608338445,1.1849348669592783,1.2054172191578565,1.1794983001303856,1.1512124050377408,1.177762613662977,1.1716718058029407,1.1507501548246053,1.1294396705897645,1.1522710259936968,1.1546046142694877,1.1422212363751103,1.127152288330089,1.1309741210317565,1.089207374296403,1.0811382759356587,1.0908303588966202,1.1157456137021624,1.1123558695195905,1.1388773240859775,1.111914450642727,1.1424782651211542,1.2629745372197183,1.1563946543869195,1.201119361305209,1.2526311270703674,1.1663038903898963,1.1632910239385097
1.2074818563262837,1.2572164440651463,1.2629354317695987,1.2041982711071781,1.1780347607606223,1.1860385019996782,1.1954411180500744,1.1873020962232006,1.1415429197816798,1.1682362737620775,1.165356708237956,1.134790746869349,1.1258448604853246,1.1429087966815663,1.1398050266925428,1.1378208816180282,1.1277418398905816,1.1429103816976525,1.0955235060697168,1.0914530680062675,1.1008147939120876,1.1129294807148107,1.1148410898264312,1.1358854243917509,1.1182440272605596,1.1306316046496734,1.2489136386786615,1.154340332405362,1.1958889497691965,1.231336077382391,1.1564531662429627,1.151857123347427
1.1976039888941892,1.248544731691894,1.2509019529468344,1.1795921299949184,1.1583538399976017,1.1737595323671672,1.1955797882228199,1.185192864818666,1.1407726630573287,1.1794783803930806,1.1748275178822623,1.1479292135983994,1.1332035521383044,1.1598659574876484,1.142277751739296,1.1460729902443145,1.1292636300466075,1.1532150889124908,1.1088916751142568,1.0890860002272547,1.1095830627576804,1.1303842384054759,1.125732527322259,1.1587489437594785,1.1379714540374388,1.1364896659525436,1.2377655658676356,1.1664320359638851,1.2265714969076111,1.237715136035671,1.1716689443223534,1.1534923551513616
1.1964872254119474,1.2336237533103278,1.2650837455833244,1.1695475800671826,1.15220810625927,1.1717359394481477,1.1977992518466818,1.1658152607656713,1.1424821892726156,1.1801214440215366,1.1629331554253253,1.148475331250061,1.1330645590819142,1.1589746334918796,1.1421819966656044,1.1517195437025456,1.1247067847141121,1.1487811574647668,1.1032189094100266,1.0989549474285791,1.124997680164862,1.1145769471205795,1.1271792071852917,1.1715936566908702,1.1490643595704157,1.1369036675698543,1.2464992765735834,1.1735273732843425,1.208780715896358,1.2574601224394484,1.1674648324420678,1.1639143815713893
1.205464298519455,1.2510473972365594,1.2696214089990265,1.1684668203704425,1.1554946378975315,1.1635202462591545,1.188034323997582,1.1596863150681245,1.1523319065322832,1.1672276444145198,1.14975219333224,1.1517064935248598,1.1212524441629728,1.1535109467269415,1.1395682425435651,1.1538689707585306,1.1311350941445608,1.1478632033465193,1.1024538031656088,1.0991255855541775,1.1132112308138737,1.1072090198359308,1.1238507084006952,1.159732122447528,1.1449551039915153,1.1296967147772978,1.2540577481890494,1.1767787573554127,1.2245338315741783,1.2559437689135096,1.1803462514266905,1.1570932272512546
1.2144014818647948,1.2439891539215204,1.2697902992526964,1.1781667762422896,1.1545098472864646,1.160675710177806,1.192548558368647,1.1536667886350411,1.1333124867948843,1.162191694172023,1.1495988553908916,1.1449049650322995,1.1114812740300575,1.1590983946080624,1.1484250651878172,1.1572790051068556,1.134268924817148,1.1409814073208315,1.0869453629469643,1.0875914694745203,1.0936762124732191,1.0950913868191898,1.1171243505791466,1.1437794906827277,1.1384263039765257,1.145600030946747,1.2401743190723395,1.162736515227518,1.2232095140757853,1.2426722239493924,1.1777685449168807,1.1596261034395114
1.2014278209469267,1.2510258603090174,1.2618821926787698,1.1730008905308877,1.1592940559766836,1.1786136696554985,1.1945034285018072,1.1763416444584047,1.1307954769098667,1.1692959011893855,1.1568132096521697,1.1432537034415124,1.1162616856072454,1.1536315311944934,1.148449445270419,1.1586651928553495,1.130591381921699,1.1306015534534273,1.0997785354961083,1.0797234860761626,1.1046412957699678,1.1077837625545761,1.1471735386238273,1.1633828881667525,1.1599368158450443,1.1609787785296268,1.2369485583502369,1.156476125252403,1.2183549606078619,1.227025117395028,1.1810514524310591,1.1748831406738494
1.2064327338748548,1.231251550719901,1.2460829576741823,1.1784830673177105,1.1898398065765052,1.1633048442794447,1.1668754895979105,1.1630254559455484,1.1462177585092808,1.1603602488580107,1.156432980282981,1.1473513125548354,1.1342529116687619,1.1617234089399704,1.1617075877361014,1.1784417342665852,1.1581229321677724,1.1572016090279604,1.1089946502510115,1.107648062451777,1.1096529999499054,1.1108094567224391,1.1280123420761756,1.1533671293441468,1.1728997661023104,1.1620348820792243,1.2410548267232444,1.1603366403832582,1.2204673241627129,1.2084605874238448,1.1901089484438503,1.179312938368104
1.1884731420078165,1.240946462257043,1.2253658154626335,1.183412374379081,1.1660143154919445,1.1503767733297217,1.1552260416653892,1.144363818040618,1.14582509340381,1.140382293008589,1.1487522263904815,1.144164173441179,1.1370392284931228,1.1605405744410435,1.162270883815298,1.1700349237705077,1.149917949002545,1.1482827528446147,1.109779482001995,1.1032789742230102,1.1172301326798904,1.1183408450802879,1.1226837256989686,1.1645808228801955,1.1571030642818743,1.1436324499968868,1.2042085048800253,1.1493438732731671,1.213862839650511,1.2047253605042627,1.1674715394625559,1.1625639990705208
1.183026259172305,1.228089005518794,1.2265819230139625,1.1691593944064005,1.1507579597113213,1.1459441905524705,1.1567320555939649,1.1584793230754584,1.1559253338473439,1.1511730855976483,1.1457525016978323,1.149816576580827,1.1500693681828045,1.1611303285428147,1.1563480448308363,1.1703824486684309,1.1555215087841082,1.1573805737106793,1.1189165161835553,1.1058964761862133,1.1246941011112659,1.1292117376845163,1.1289280535767945,1.1632826486817556,1.13809630478514,1.1445976155139403,1.1957764271254399,1.1331781369697265,1.2104778788627826,1.1962945797430498,1.1637885610295327,1.1637435719821774
1.2020909774988184,1.2421049114452387,1.237568646344793,1.1881468890539384,1.172778177024607,1.171657051928686,1.1825889787655999,1.1537135874784172,1.1591182389622683,1.1545479849067062,1.1526534246360234,1.1476145468709327,1.1667557911350537,1.167620963227701,1.1701314363805047,1.1714082613180514,1.1547886650028498,1.143118010562561,1.1150137290360878,1.1125578676008474,1.126210619425832,1.1184986936714787,1.1222863360082418,1.1647024530201031,1.1487324022479841,1.144571937366315,1.189635429077589,1.1398730970804547,1.194365619359225,1.2061709536230218,1.175765711513561,1.1537563179921608
1.208948430541959,1.2071071631263097,1.2120001371185636,1.1568938147490877,1.150924074276725,1.1457572778359488,1.1673407003708902,1.1387971670792967,1.1560189536285768,1.1376593661814078,1.1191670987429567,1.1348090221150635,1.1644338524408822,1.143760651152886,1.1456728361257567,1.149034806175203,1.1317281438669038,1.1364866186552522,1.1107769032099326,1.0941315947282244,1.1140980269876406,1.1289191653782664,1.1147914611889322,1.1500782461371617,1.1420447100646505,1.1436275365901285,1.2016013129866092,1.1386626609692985,1.194754427629134,1.2100791152416492,1.1563315851981875,1.1542040752938194
1.2142393332954455,1.1998411919573795,1.2252343873119838,1.1664769524359306,1.1468157743300682,1.1477670137168212,1.174459307521913,1.1431993133916594,1.1239654125223753,1.139214306804965,1.1129026202314234,1.1232379708967022,1.1369451283040886,1.1213268251719606,1.1281094713291477,1.1256434191593108,1.1167164903834408,1.108191687988925,1.093702069304276,1.0932585097065106,1.1117642291255554,1.1053880009263009,1.1185116037056204,1.1715733015019982,1.1530969148813923,1.1328882671613052,1.2090644524738283,1.1510778825450012,1.2013540751771643,1.230441180525291,1.1503247900937816,1.141374213970852
1.2039836477295498,1.1880783746026118,1.192333531270644,1.1624728571814997,1.142228946592111,1.1393507767425148,1.166618249221609,1.1511358689713296,1.1185819577325116,1.1498276865534656,1.1124652298282038,1.120740575973185,1.1428457287381077,1.1285663553836986,1.128552767219411,1.1296465788721641,1.119264456226714,1.115904724636058,1.0970395331494744,1.0895649366284845,1.1089958584397088,1.1104942991646385,1.1187228411734367,1.1646565611132254,1.1373228986274313,1.1253411644754288,1.1880093088650479,1.1399480188277227,1.2028252656191702,1.2069647613858023,1.13913834872956,1.1325445356471284
1.1976177181666596,1.1834199125065163,1.1965798873145908,1.1542527782902405,1.1352195401766823,1.1444078463412235,1.1610249102887598,1.146675066457666,1.128331112390565,1.137462062339892,1.1141084523273965,1.1346831028777742,1.1514599731212523,1.1411100800010219,1.1421766905842097,1.1327921272503871,1.1185571729639372,1.1154053064471414,1.1004562393291875,1.087893102555144,1.1105785496307314,1.1258788188132993,1.1247942872665087,1.167072597284257,1.1360541066049605,1.131902435250026,1.1996787177243085,1.1292414224221368,1.1955909244984144,1.2089891535853328,1.138178770549526,1.1362433263846596
1.2070076514598889,1.203813890255859,1.2002256028545177,1.1665657850544573,1.1435208657943885,1.1624978373463306,1.1705322720422662,1.1583074197310117,1.1513935585077606,1.1355845440626195,1.1060036940383648,1.1244388148522781,1.1732188224233369,1.135342247440707,1.128119445365467,1.12886748787906,1.1198169708597137,1.1235671166711398,1.097979191837556,1.0887598945103314,1.1143454422897796,1.1321595231594708,1.11206581125987,1.1847717890517313,1.131027499424416,1.1298988987601164,1.1911290667363503,1.1290262390268948,1.1995717791471137,1.2310282758680948,1.1498398888214532,1.1450742718838594
1.2020991129126972,1.1957986039528141,1.1821991689923188,1.166470801037742,1.1328738201895883,1.1658446180707593,1.1759874429619872,1.165869626830156,1.1460534945329823,1.1406012197009403,1.1040727074460341,1.1366213661973803,1.1682530813333454,1.1409036039199398,1.127763993802983,1.1247650948004182,1.11266603483776,1.1223856414211524,1.102415361947958,1.081916896385958,1.1057108187027735,1.1418563867839373,1.1101089524207683,1.1620665127723455,1.1164476369508964,1.1282272618220857,1.1750569904048551,1.1315927023817804,1.221158957085086,1.2442559686461228,1.1428752132209157,1.1465134910497912
1.219680674137626,1.1737737332870435,1.20027418237985,1.1564495444714291,1.125357920475969,1.1675736031753061,1.1971463317711177,1.1672128449808359,1.1214455272532255,1.1614695891516305,1.1126892621364088,1.133367681250475,1.136896700621641,1.1441087924210438,1.1253518919482601,1.1264525245037285,1.1136582308383176,1.1187163853428186,1.101184221965378,1.0873164849191201,1.1233856149986425,1.124776303406619,1.116730413465353,1.1771654326618808,1.1289702326613764,1.1238671379850378,1.1760215886558056,1.1457462399584282,1.2312660881738986,1.2423692003871654,1.1390478254185326,1.1491086408037812
1.2302576319187841,1.1955537499380058,1.2113494080813765,1.1896966375035858,1.1515014084323634,1.1866138259560954,1.1959947673836506,1.170826010469051,1.1490266580697688,1.1308935038827428,1.0930933396804865,1.1286185021034352,1.1407681892565795,1.1342387150682236,1.1175011606648757,1.1142015596035089,1.109108339125917,1.1115440911206456,1.0955863744285066,1.0752224987555135,1.1073414863465734,1.1218915306281187,1.1112613065833132,1.1737396255615749,1.1516833958412351,1.1341205582368326,1.2047226000846443,1.1576472190937603,1.2563768903803332,1.2754392031712556,1.1684680124887368,1.1581320972528613
1.2152516882841975,1.1681055711744703,1.2188061025179435,1.1877049075158435,1.136768578116749,1.1776389913540481,1.1926412219206808,1.1646338208701879,1.1404666972111626,1.1519644021509967,1.1250451349474462,1.1317121799007597,1.1437898177603096,1.1412070455150884,1.131772429910585,1.133027619345936,1.1179203441456866,1.1109323779327667,1.0949018482663078,1.0836102736819802,1.113989709083065,1.125351830820878,1.1335086172842548,1.1843988402020924,1.1474319112802194,1.1535437109458875,1.2237975197344522,1.1580791046611079,1.2499291455659187,1.295764970980456,1.167893578793123,1.1589859993489418
1.2229230992367226,1.1847540171284336,1.2304728262911984,1.197575344942393,1.1574556506270952,1.1840501748134185,1.1903060717903373,1.1560615198904425,1.152498209100221,1.1632874416667256,1.1475433795796743,1.156373891273204,1.1535574750140376,1.1712039758255328,1.1663395307346318,1.158358403249458,1.1363779972811976,1.1208654679471353,1.103975645120845,1.0956192748153768,1.111083985095018,1.1276784673729865,1.13411166252976,1.1971703830370468,1.154926175171495,1.1365363350019604,1.2221013951343866,1.1679595073278994,1.24870642387792,1.3021524749786477,1.1648007366618978,1.1527635483523628
1.2113179657842101,1.195381120755952,1.2418746379404557,1.2258076375402744,1.1747340457852824,1.1950800781867785,1.182667887236105,1.1687464360901734,1.1389451261046897,1.1420617117475806,1.1465311892907568,1.145020220991382,1.1644259198059894,1.1582827415280275,1.1661118681772717,1.1668041559742361,1.1650320425499001,1.1544680167664767,1.146943261432226,1.1268394267056507,1.1417060501054548,1.1685629117040857,1.141535691544254,1.2008511525876082,1.1482209952087343,1.153359776466396,1.2225435634386566,1.174078928608314,1.2477488261106797,1.3078113255692916,1.1812651864069115,1.1417456313358696
1.2436441234569675,1.20099355311378,1.2474615424322735,1.2093220630024053,1.1723803068285739,1.1740341456790861,1.1776118475357722,1.1684645716929645,1.1685838946616431,1.130451328447189,1.1514323805530762,1.1503858030850427,1.171691869735658,1.1709473354174846,1.171873993145358,1.1761825111475273,1.1691576950658997,1.1506675635063683,1.124226441702626,1.1205892099044046,1.1257785441641968,1.1557812416136153,1.1230931538691316,1.1910929567760418,1.1420468099684749,1.148068157938935,1.22103192830301,1.1737166475529703,1.2542818988324484,1.3102879975685453,1.1831743572622,1.1559586292128214
1.2514423075540777,1.2333696868520383,1.2661265441310103,1.206214415110079,1.161456301134367,1.1786249083896723,1.1882550494997308,1.169141882905407,1.1567938705854857,1.146724826570501,1.1685343127753078,1.159243582505305,1.17128356461246,1.1733995987428243,1.1751359667177266,1.168995622414744,1.1557566950534959,1.1419087886685337,1.1278108775867428,1.1094715218624724,1.1369848985373718,1.1642357744569474,1.1242570620475498,1.1861517982716445,1.1361833290481131,1.1446440546185224,1.2110902456739656,1.1618315890309974,1.247541664173601,1.2935256548646434,1.1763033757222678,1.1508258767400508
1.2497998373852537,1.2380949849317793,1.2555611998349578,1.2168198765153395,1.162168943199371,1.1794568213557348,1.1764844775408307,1.168514176126298,1.159881561936344,1.1330024962721208,1.1422055945904814,1.1482548600478764,1.1794569113037816,1.1583656635872215,1.1583560556423993,1.1699903390633943,1.1587800814306388,1.145381932287128,1.1277409152124687,1.1111702964343568,1.1398598782012999,1.1672346958110293,1.132697669684564,1.180764909223313,1.1445947647856678,1.157363350341373,1.221516469194052,1.180740657972834,1.2591183642027854,1.2834257437455594,1.185562011604159,1.1624531229403419
1.2429094826219662,1.2192215934687365,1.2523414106127735,1.2007813305392976,1.1718903760232646,1.1808605303671276,1.1834565195870232,1.1657218446744397,1.1604380623307957,1.1318228960414134,1.142122764530176,1.1386845644036827,1.1827411076994707,1.1475441981125305,1.1547086717237618,1.1640922435143446,1.149582037146261,1.131820236878089,1.1384230892430256,1.1261566436838053,1.141045177081341,1.1714390731275641,1.1567894601205497,1.1840773410745389,1.1749826028529442,1.1603886157815442,1.225800017089047,1.1803905807003836,1.2321346681080212,1.2713754429033246,1.1845954363130793,1.149682673155601
1.24270563617226,1.2149907438476177,1.2517588222216436,1.2018099919382528,1.1684774433876175,1.1776248438367798,1.173911040789023,1.1592164881580964,1.1522452986495784,1.1319288167054218,1.1380863717972158,1.134566930259275,1.1796769762727066,1.1471730369732662,1.1535375508148087,1.1736207152694573,1.1500597360133409,1.1358035456526874,1.1310076055212113,1.1200706873204789,1.131591421182568,1.160959674930148,1.129995033518209,1.1593171076924833,1.1381980962696372,1.1470348191014754,1.2093046730506145,1.1554031397759352,1.2095454197566915,1.2596416418420504,1.1732891185736078,1.1398623098710954
1.2551311403431407,1.2310159265775766,1.259478482747158,1.2098220942056912,1.1731418975563273,1.1732737651769498,1.1653526682251512,1.1540093610799,1.1378441668939714,1.12097114323577,1.1331561767963765,1.1258961809021433,1.1679412378932068,1.143499087000414,1.1471371366790126,1.1578571753365048,1.1331829882030293,1.119177548078218,1.1150139454534485,1.0943249862906494,1.1020387733718142,1.1414836300665197,1.1162980704938759,1.131546236109897,1.1214268704980754,1.1388201663226538,1.2047956872932275,1.1505128107283433,1.202826107609024,1.2820087138592229,1.1724118651329891,1.1245999723297624
1.2576432759472036,1.2108735482362845,1.2202529340117219,1.17438359303314,1.1745053987671763,1.1548445497251447,1.1707864978012812,1.151724224461299,1.139893536069277,1.1343425002877467,1.1124402104762394,1.1260403961230074,1.1525236096401326,1.123817408319238,1.1263708540732014,1.14278975883649,1.1185067075231407,1.1009008350523304,1.092281882795711,1.0851528495348057,1.0862442196432174,1.116864446982504,1.1146855619590317,1.1372103372657782,1.1173455034958815,1.1542274086794133,1.2029353377975347,1.1358809825483493,1.1861747930009396,1.2659377661182871,1.1668619093796389,1.1396692889090483
1.2615520527631243,1.2220776402454374,1.2121361376511655,1.172811011724224,1.1647650427974143,1.1562945283476092,1.1479044298833836,1.1523260633308137,1.1255697522302404,1.1012181773549294,1.093455134912083,1.1116594623163896,1.129085204657296,1.106763624045835,1.1090258017130812,1.1160306370762185,1.0906165292622183,1.0834747128569835,1.0786423640536298,1.0640321321787678,1.0809487482220037,1.097748786025924,1.108946414803665,1.1258455842715822,1.1136034877557497,1.1371704640151334,1.1893840749577789,1.132848163593935,1.1814404186219167,1.2557663422866823,1.1524910407749953,1.1302297637003436
1.2216839119949,1.2015651593835623,1.197565911042847,1.1677139040492077,1.1570407716216204,1.1621076085223494,1.1458646317254517,1.1506360767107273,1.1324056078168843,1.1207951647077083,1.1022122818612807,1.1202233564578552,1.135280122950961,1.1208073131024312,1.1156113762029787,1.109740298664491,1.0828062103111649,1.087739430334253,1.0828762019124543,1.0655065077099057,1.0883898800481866,1.1060357572438726,1.1181361671124315,1.1241150018055757,1.1153541403669467,1.1437288167170896,1.2016198178497832,1.1443312563335977,1.18240452619882,1.2541136101343824,1.1595880259866116,1.1512232111796166
1.21684165930313,1.1963635786693314,1.1988287715191615,1.1738083960501935,1.1517901159685031,1.1572872830603007,1.1411886918335,1.1485553281278045,1.1091859437341107,1.0989097440228062,1.090417541518165,1.0902866631588337,1.1284949397583364,1.1050600219944682,1.10005252805018,1.1092713263117595,1.0835290772636332,1.0844002372115664,1.0818261218513958,1.0711944364371804,1.0928604289196497,1.1041033209006261,1.116437499466067,1.1245294784784128,1.113681249945236,1.1404218636575982,1.2059513439762917,1.148656091968608,1.1939841712460235,1.2435925975802646,1.1386146875458392,1.1489877804387472
1.1911175775587362,1.203207010340486,1.1789500737925138,1.1688571443331406,1.156205593902045,1.1576318248745427,1.1398188843113963,1.133422475438154,1.1132196608185816,1.1071599217322194,1.0850880821217688,1.0860540162481973,1.1156668573557176,1.0908238949206779,1.091686102135878,1.0983206498390978,1.0767205379030602,1.0826737181610615,1.0793580928178212,1.0737692310421176,1.0958178257832898,1.095229717007142,1.1135447855838827,1.1288004304130101,1.116645096410546,1.1299068208689482,1.176793569469772,1.1443001765200718,1.1748103745664553,1.2349183428745838,1.1311479721468507,1.1359170029492078
1.1691155712111796,1.1839499176548465,1.1779645275902637,1.168738504658868,1.154487804550628,1.1650483639946358,1.1350835766908596,1.1478890291532102,1.123302840791649,1.1023770972643714,1.0826290497351083,1.0872825212448325,1.1258945833944494,1.0959592869840682,1.0969324105304845,1.1021454156758816,1.081692385327307,1.0873255922184646,1.0765072148438493,1.068947860864453,1.0782599101800872,1.0926831670651063,1.0993583680672276,1.1131503153228834,1.1024997736709528,1.112193974017942,1.1657159461045612,1.1299752027686565,1.1562820918226944,1.231697517030623,1.1274889012275846,1.1233500653843096
1.166515824810899,1.1868402702862049,1.1578993598663951,1.1614911045390257,1.1554322707128537,1.1594257361131801,1.1250466725519677,1.1399138220530918,1.1256883496997405,1.1055254071832845,1.0887314593084552,1.0912170180168197,1.1213333204267615,1.1003850122808498,1.1045124501068386,1.1138049848754195,1.0956779116888034,1.1041932466483797,1.08754710708336,1.0767311986162067,1.077924474446754,1.0934401803210385,1.0998892763429777,1.1258584833082916,1.1090971907801297,1.1171381080332077,1.182405681002273,1.133328560860112,1.1676547845900256,1.2384380458811237,1.1306242779213376,1.1189035415778574
1.1571845131945457,1.1740124187631844,1.1567737814721204,1.1561755918661354,1.14769511599812,1.1501367485057885,1.1294151468254232,1.1673927069428935,1.1126575224134525,1.1113979504961626,1.1041552185875994,1.1081199805298008,1.125832446156529,1.104481036144075,1.1204561959929693,1.129201829959126,1.109623429245359,1.1228623649419625,1.0941844018507718,1.0870533874808346,1.0886479112674883,1.0986015847810633,1.1093159776731816,1.130254163327703,1.1204292349554315,1.109870736249973,1.1857754409106078,1.1438990420807285,1.1934675263370835,1.2257659169429456,1.1282954858767744,1.1420557106122748
1.1492099178050286,1.168371939789024,1.1576676024573724,1.1638153820399468,1.1585498043175428,1.1454910694595548,1.1335651666649706,1.1859541915683585,1.1203204472963828,1.106924799354258,1.0945617177628362,1.0829073136966056,1.1311130819934794,1.0937987224789878,1.09717041153625,1.114136210912641,1.1078138686673016,1.1247105721175683,1.1099067475386213,1.1065589236229472,1.1091253812744013,1.1157584567588614,1.124456355844423,1.14498022964909,1.1303560040623546,1.1253191602659856,1.1805189347522433,1.1479817038210904,1.191083163599679,1.235103611193226,1.1301516456585894,1.1491917181444906
1.1530150388127605,1.1765804616353222,1.1710988631879213,1.16702762647405,1.1371268647202968,1.1539420531013738,1.140674812066087,1.1825194750489711,1.1146690452783088,1.1164180884869008,1.1051147862617619,1.0894168264497777,1.1312940569634269,1.1070263407193888,1.1103969928840338,1.1188823126266765,1.10023886361585,1.1172574638189527,1.1012820963301326,1.0954908403091683,1.1084234366883172,1.115759548220817,1.1177738789835747,1.132712936473487,1.1152111331008765,1.10856859940928,1.1704620066528313,1.1304692220189907,1.1928538898885868,1.2192909322147278,1.1171048878645449,1.1527375156837103
1.1336335995696425,1.1757390145831053,1.1799517158452373,1.171901322428782,1.1547348450995454,1.1652593599725092,1.1436885767927698,1.1773643527458273,1.1202168029851705,1.104860411381802,1.1023308009613946,1.086010503999277,1.157316710934984,1.1033211487199146,1.1154919999554944,1.1393215378157504,1.1285135164066689,1.1507722038314285,1.1258032318488236,1.1241280149538082,1.1179342342996599,1.1293031272751965,1.120142855503075,1.138759711862358,1.122356836900836,1.1210629815464708,1.184107774323797,1.1313142284561448,1.193082462245941,1.2074808797931695,1.1220952043813883,1.1459571905264214
1.1469909319424587,1.1743331048707453,1.2069176638478822,1.1871786858986524,1.1589408118266293,1.1926585564460712,1.1803676986226177,1.2000425141723081,1.134839489673382,1.125565427163048,1.1212967277103805,1.0995462772272402,1.181100857141957,1.1203162233899262,1.1335494797197452,1.1596202032915823,1.1425218120894916,1.1580892964669045,1.134602927612364,1.132817177994358,1.1350248797486218,1.147594201489785,1.1284672349335754,1.1550184330601991,1.1338785223743604,1.1220362686967105,1.1969075097619555,1.145936714511489,1.1923022443698241,1.250482691515024,1.1220758520107386,1.1560781235398505
1.1428744754584286,1.180249429694967,1.1808900933889854,1.1734568359756972,1.1683048774412101,1.1549871000883647,1.148135019196568,1.189768520889033,1.157182655054726,1.1344980358652836,1.1413748496764273,1.1362984419274238,1.1918447585319485,1.1404481017367663,1.1548448079543034,1.1931158890689022,1.1801703396731476,1.183779702106864,1.1515145817576373,1.1411755814604687,1.1365057774559684,1.1633904875529892,1.137962480827808,1.1514160069039223,1.1340290255602354,1.1535912914697966,1.2112153579671443,1.1382003619285848,1.213995098789468,1.2581955493831851,1.1413896459912434,1.1594534617196361
1.176960668287088,1.1835760982062404,1.1827936852408796,1.167521100765179,1.1554790242365158,1.1540992071916996,1.1541448522886795,1.1775136765828436,1.137605406463895,1.1331601337553034,1.1332922229910332,1.1203403556491587,1.174983757689258,1.139116526697162,1.1546987063277405,1.1960030235833945,1.1830068764239143,1.1806721134519114,1.1469946769702477,1.150619580274376,1.1380101766746087,1.1390077419683886,1.1312512442295233,1.1547444755392653,1.1439190694885537,1.1454689485895708,1.2375561047130736,1.1523296039828244,1.2226136665996203,1.2579833940534788,1.1405800867771863,1.140825012660064
1.155077465837241,1.195679248058228,1.1724261978102417,1.1700207465586425,1.1467381826438732,1.1435621421330144,1.134022079344475,1.1710191632924638,1.1423181658456616,1.1150605573865588,1.12653622920477,1.1215910444168182,1.167498573812044,1.1380976595740975,1.144706145111011,1.1743430067921334,1.1530593942891818,1.1577513919911695,1.1314482489072304,1.1263703778009742,1.134649764948088,1.1304881739525126,1.12194052839634,1.1551294490569597,1.1472545000790317,1.1389388355044632,1.248389469284074,1.1480125054728554,1.2285360211263965,1.2555503855590375,1.1400428166989671,1.130949262782805
1.144080280040942,1.181962761793042,1.1778286046850666,1.166942691685363,1.1413056843311276,1.126841416151764,1.1274937324349505,1.158519077889675,1.1322182473408953,1.1210020814775186,1.1230196039729634,1.1100211222318952,1.1632344445081426,1.1193899302681105,1.1227004766667146,1.15499472533127,1.140847036741663,1.1501052767498845,1.1305415685852007,1.1129939976964958,1.1397834129187483,1.140231972513037,1.1360831518866898,1.1400998618440175,1.1353663561030976,1.140666347538943,1.2387583148668717,1.1387843216717028,1.2243368226342315,1.2451891281096468,1.1271683950920461,1.1324811138039625
1.1466689299232884,1.1866295415026857,1.1811300115012822,1.1583605090198226,1.1371919527818508,1.1114049638076244,1.1244656056264235,1.1508122288125011,1.111574298878704,1.1184357837649845,1.1230939545767522,1.1012890198819898,1.1447268100058279,1.1078832423517182,1.1278779854650463,1.145724390886711,1.1271878790531926,1.1283488255968999,1.119530535464406,1.1251261990765995,1.1551071289577324,1.131649639437547,1.154020761944278,1.1491141264540496,1.1744660668308258,1.1638680938043693,1.240777698591275,1.1561126937860755,1.2170134041114533,1.2493925624442166,1.1397215710945656,1.135175016819533
1.1441753781382238,1.1845079747480913,1.1834050563015377,1.1710997979018603,1.1560934670190919,1.1193841082116038,1.1225647699423602,1.1296045777911379,1.1255204842194035,1.134328197582011,1.1320116642457305,1.1174769566466687,1.1296240828487392,1.120302000229264,1.1246881472475438,1.1340890619961428,1.1072587332297719,1.1095313805817357,1.10074786151846,1.1020163350810035,1.139690874505338,1.1113303054211876,1.1362063546458023,1.1503210038431713,1.1480128929596098,1.1546956384649276,1.2275594422260825,1.1374796305668036,1.196548041643998,1.2327368337171682,1.1437162359968471,1.1312546582427778
1.1530129847127775,1.2004950235816767,1.1697548493756644,1.1754865420568554,1.1462095175872824,1.1222709845565793,1.1183144165660213,1.1316354316523334,1.1373211931267602,1.1482103554021663,1.1353967037181412,1.1156474530748064,1.1362108636737125,1.1267245618396984,1.1438925534430258,1.1446905867111612,1.117316949889065,1.1233957701082566,1.0967741662125685,1.0968167303017742,1.1273391060305442,1.1092276708763844,1.1323837425146641,1.1469548226035267,1.1559547424273378,1.1683747450074287,1.2597261650913183,1.15829216672177,1.2084709113033247,1.262662922481332,1.1523144548432294,1.1285579636399834
1.1395472708970198,1.2178467198862306,1.1530788046016653,1.1660673107403392,1.1523922536313973,1.1296323152072851,1.1232509561907096,1.1344782953519825,1.1380484644792561,1.1475069138479352,1.1366102985550934,1.1266004022221865,1.1349777919300141,1.1361521256492173,1.1489333929037113,1.1412286368244526,1.1163203252719252,1.1225726053864526,1.0994791972749107,1.1056373763709129,1.122330119203125,1.1028593620426572,1.1188470238653867,1.1494489513826625,1.1499755691854339,1.1489287836442155,1.2621091723815319,1.1685098109783727,1.206530922937476,1.264091431633461,1.1478354661710226,1.119923942149539
1.1411955049740714,1.2156668639305672,1.1548827536442743,1.15832671555702,1.1406227182438564,1.135622588991571,1.1272057913916933,1.1407037001611011,1.1241754739180252,1.1548924023975131,1.1375688632157224,1.1257945333839885,1.121229982179244,1.1355234687150417,1.145500259788032,1.1285609434445136,1.0977650972375381,1.1059586275077893,1.0845677066294765,1.087043634319728,1.1207019054269278,1.0933478079996475,1.1167111605264801,1.1454080537936735,1.1463806894726378,1.1447173490087832,1.2644030497861416,1.1580594748111688,1.2227094504706368,1.2600946429833315,1.1427113712420722,1.117725523750749
1.1449382081967867,1.2226949657528277,1.1646090114872045,1.1558581806572346,1.1465423141740128,1.1393254533502204,1.1290578475477773,1.1402417040116566,1.131808384394156,1.1659741688980123,1.140647588268985,1.128998079733536,1.1179633130248914,1.1363189631881492,1.1446089213847306,1.1152468382014868,1.0930683865666115,1.1121164265031476,1.089198439830707,1.0910035787865127,1.113077471256027,1.0923100210137355,1.1185662546384527,1.1262628002358368,1.1440298889280496,1.1436497221401996,1.2706503018063975,1.1724384418423845,1.2202971333036716,1.2557504318834716,1.1395950405603792,1.1226474374927842
1.1579297229325811,1.2281451299916073,1.1802111632593926,1.180459987296659,1.1469229904822333,1.1512799450286537,1.1532017599100803,1.16266522157259,1.129189437687578,1.1764558446124629,1.1552099547948467,1.1318982415894772,1.119347639106015,1.1414020398865667,1.1517496493406367,1.1216060184499477,1.090136009276013,1.1067501974214673,1.0837598854463208,1.0807416279550635,1.106477102961838,1.0809643533325863,1.1055512035188395,1.1412454634177447,1.1560749948347944,1.1609228996850107,1.2679978413737485,1.1701486024993635,1.2120013811645063,1.2656014087118885,1.1585141150263074,1.1309170926987573
1.1817166546988915,1.220879093190077,1.1797110757700295,1.1877014012400768,1.162547108267582,1.1562486465377322,1.1504712555656087,1.1784845696027044,1.1315468444586148,1.1781746959109165,1.1391545398756016,1.123971880866352,1.1140871629428948,1.1271812354163957,1.142647003911786,1.1175297704415648,1.0838343700268631,1.091891393379668,1.0654017664921391,1.0696143153401587,1.0988655202688695,1.071405513932727,1.0956416618108098,1.1315222315510758,1.137192997921181,1.1567261907725217,1.2473129061139412,1.1673610744816292,1.2270819262193229,1.2663103587165108,1.1557045026230741,1.1380180569977982
1.192038037226083,1.2349470887255802,1.2064154735921913,1.207793976798089,1.1857109155310148,1.191726185268527,1.1641171103335097,1.1748045400409468,1.1372735544616013,1.171378213201371,1.149046786200905,1.1390831624057243,1.1204669022708627,1.1485899655937637,1.1620879434483757,1.1274902572455707,1.0939300842216262,1.0973331185900264,1.0704445920854215,1.080512210410891,1.0888056288147634,1.0741312672978853,1.0978313947042364,1.1374564024021734,1.1508916248124759,1.1638365100472239,1.2617885595168146,1.1690139258452699,1.2344035732146383,1.25995832219127,1.1633266159503308,1.1462350380342183
1.216048384217157,1.221126361859354,1.173610337996914,1.1867333697119509,1.1848416770190033,1.1659082776695293,1.1584920541988188,1.168323122571049,1.147234334655068,1.1710566084398268,1.146166643060052,1.1624465666506192,1.1325293249294022,1.1759896597438468,1.170763929031543,1.160318940417185,1.127453985111816,1.1206985109018828,1.0842349921071321,1.0947111217598378,1.0966137219544696,1.076127941954083,1.1051789072149811,1.1521172087014862,1.1522915714636652,1.1811003141248648,1.2603080926819052,1.1863757747427022,1.2451312526761569,1.2670736320183118,1.1793856487599623,1.1545545192955198
1.211962988448267,1.2236631595198386,1.1798756644311554,1.2057894045243291,1.1804125521396134,1.1701938597148236,1.1665647217147233,1.173545707036926,1.1486550141622731,1.16685550470422,1.157370888784034,1.1644555269272778,1.1439007472876144,1.1790470639883894,1.1766986355923725,1.155888895727651,1.1336538357572579,1.117365598477367,1.089820550567849,1.1127255223331294,1.1136827942027534,1.0814883751318967,1.1149137017475543,1.170352492017938,1.155358048807427,1.1850736688596615,1.2751120807928562,1.1947573446224793,1.2695225611309646,1.2712214278515173,1.1780212448649385,1.149669808339361
1.2341972869799742,1.215430898220307,1.1982464745015755,1.2094666999085408,1.18917848332748,1.1757838575499906,1.1584897362576294,1.1913741168592211,1.1601258695886187,1.162941536468934,1.1328438063768151,1.1437967933563817,1.1405211361559044,1.151685271854225,1.156131277442449,1.154182759167569,1.1310553405400106,1.1258071683367767,1.1079496466319356,1.108060596264764,1.109565604018848,1.1081722557333578,1.121826293057921,1.143133563942203,1.1434957631122609,1.195640247544986,1.2712820514438323,1.182105043111902,1.2573625293726578,1.2717052790586865,1.1734638626578102,1.189590618359975
1.243972926193028,1.2274690002037376,1.225547080179425,1.2225498060515207,1.1944448648671855,1.1755956507625152,1.1465174861069871,1.166389994308675,1.1451006142519402,1.1415322861591248,1.1277427267070184,1.1435171076128603,1.1198926725798644,1.1433948407007053,1.1475225647862721,1.133242678513866,1.105929952220577,1.090525887635283,1.0776377069889485,1.0920769903113492,1.1086630906014476,1.0738767558450422,1.099245795993173,1.1529038146495556,1.160078342277606,1.1833260254739204,1.2735212623632386,1.179198799674271,1.2595535436393235,1.2469458466244274,1.184978311727958,1.1465303051023465
1.2341104428537217,1.196682108547374,1.221216935078516,1.2184373173947718,1.1917046641888298,1.1742672393329159,1.1581972467282715,1.1727518994209818,1.1445174950338393,1.1353268925929558,1.122543312194851,1.1382356456336986,1.1382889863999257,1.1372973627709828,1.145213578922751,1.1510159086038785,1.1377763870422084,1.114239987923714,1.085327629818754,1.1157376396381722,1.1060793044508295,1.0821446036311422,1.0935311437687079,1.1474662261367083,1.1471259833992624,1.1655646896756613,1.2463746971360394,1.155274122487818,1.2571709619251765,1.238370675865653,1.1841647799285264,1.1305797751206164
1.2233587185359442,1.1999632030095224,1.2370021609690236,1.2065332056667006,1.1778514946477114,1.160915540922538,1.1409566475179636,1.1607277638065832,1.144472314293582,1.1242849400036616,1.0921958418414184,1.1142559394804794,1.1311749577033092,1.1172420994880827,1.1187529024917677,1.1272652486717825,1.1182331636450902,1.1075045933095866,1.1005299478325319,1.10466834002336,1.1161071524092834,1.094546230295004,1.108807734280136,1.1414185219680266,1.1373752117831406,1.1567341509975035,1.2374725815459122,1.1569728916371407,1.2593826829473465,1.2315705480242873,1.1722957032199515,1.110817154541505
1.2072251090816308,1.202103600705582,1.2242939900737837,1.196179554058918,1.17698002998236,1.1595859212233286,1.1462808859972,1.1460362273709135,1.1204588770634607,1.1094411629827385,1.0987148197852856,1.1007585280788792,1.1308388238218392,1.1200957484367817,1.1346821220442231,1.135812915278746,1.119182258367237,1.1089799140433265,1.1010989148062749,1.0987102797941137,1.1049631693237911,1.096151488039251,1.093716826748839,1.1276373210261235,1.1272734412156824,1.1561415162031177,1.2087193190049004,1.1244490220409846,1.232841900769547,1.2287169719239628,1.156349197731257,1.1067336264149108
1.2021366113241023,1.205671843830071,1.2137242161651163,1.1947153439403888,1.1859043739508464,1.1688264584973798,1.1212631573648348,1.135503743308088,1.1222220665147602,1.0892076431808697,1.0829299230184621,1.0865247498255521,1.1293990433253196,1.0998913851335341,1.1127349518791885,1.121853276444597,1.1157024811583074,1.1096298663949067,1.1064709106731916,1.1074521728539504,1.109975412562654,1.098897685998443,1.0960161309997014,1.1220059522153254,1.112490013894188,1.1624639509760222,1.220441526955266,1.1191837389348558,1.2279221058775962,1.2063815259694197,1.1522888623949101,1.111834991304983
1.1687559532554075,1.1945144245704213,1.2029109924022225,1.1800146363020627,1.1761901789670441,1.1614507856676364,1.1309804402356283,1.147937806247238,1.1161445744677834,1.100231957579861,1.075531550980197,1.0776560955173766,1.1211515665242826,1.0840101151363142,1.1063690063343639,1.1124227289967101,1.106651693700117,1.108584055620507,1.0948371165721806,1.1018822342000183,1.11177119737591,1.1049283384349744,1.0952880971198151,1.1292064097825565,1.11243501741275,1.1378796232731039,1.1903959699042987,1.105042928484852,1.2130349650220358,1.20280827544034,1.1414431805797387,1.1097680429979304
1.164214827881273,1.199803505827352,1.2183744874459645,1.1672890881135245,1.1696111860137135,1.1291651045288214,1.1399251633111291,1.1421755445507016,1.1407846505790917,1.097677363274295,1.0720882278931356,1.087901140108681,1.1217274521884684,1.090848197143979,1.0986087236962994,1.114348978451416,1.1095754399098101,1.1145736908557278,1.1139975881378108,1.102188621491045,1.1198447164340255,1.1162797052641273,1.1130804614836631,1.1347671060212505,1.1114404212846063,1.1379794643049221,1.178924821159,1.0951949453837497,1.2040703966437423,1.205666398555962,1.141010757154425,1.1298043950106946
1.165336985513188,1.2155046019014872,1.2172441337091409,1.1931421209727082,1.1669697720979808,1.14441196137006,1.1581684889513137,1.161164403204454,1.155668323205482,1.1106387551819672,1.08639724862372,1.0866644944929404,1.138379839268503,1.0947955586477858,1.1071448569962399,1.109295745069077,1.1049776436941692,1.1158359724868512,1.1149908595161917,1.09568460619835,1.1208284720250024,1.1258941696979705,1.1077747939624694,1.1265049542500212,1.1068458750452084,1.1209959564489054,1.1821939152642238,1.0935215746394054,1.2178893562966764,1.2046897776106935,1.1421124654011319,1.114029165969545
1.1624055429432427,1.2004739622479057,1.2043779645328552,1.1899525763111842,1.170433937859319,1.142257833764191,1.1365417254105008,1.1737952296172829,1.1433910003146268,1.100338541874173,1.071439043847488,1.0660291701024336,1.1339385247259848,1.0829805474751883,1.097607379149235,1.107123655999916,1.103498922392095,1.1118024196076683,1.1138352205976585,1.0906235448111776,1.1231680156476749,1.121727129372322,1.1092738865068592,1.1360138049417132,1.1090819969786125,1.1232266737724936,1.1792349434983354,1.097560050210046,1.2038642623204068,1.21330112849581,1.1385475052612388,1.115092026534127
1.15040166165677,1.193561800549413,1.183307435578932,1.1756703236719508,1.1522225647235673,1.142624322282959,1.1420729540517807,1.1663726196548896,1.1318589777957293,1.0930718613229395,1.069782989191603,1.0708134684463968,1.1421684706712554,1.0783686719756873,1.0877380303700857,1.091362286631386,1.0912530313307744,1.1027765801926908,1.112221313846634,1.0904687371674429,1.1204056003152125,1.1232954071464913,1.1107660636092034,1.1413769568035868,1.111769094392802,1.1191891460357402,1.1788281837061962,1.0936995088602741,1.1874694346388714,1.2205773744568456,1.1417790086482826,1.1277035215487516
1.1539168810784395,1.215331076206582,1.1698807557884887,1.1908645374638855,1.1801505414705071,1.1323183178981644,1.1319315011897513,1.1453047544325075,1.158570737528359,1.0872975055042848,1.068637882944466,1.0794745214325614,1.1355032292209577,1.0862932373863283,1.0981820531528605,1.0986771179128083,1.0900685059139814,1.0953442126369963,1.1056961893727115,1.0808516566648245,1.109896785264134,1.1186088324778645,1.1154738035461274,1.1346900581306056,1.103283002275446,1.145643666923736,1.1895021696520922,1.093985298280361,1.190657533091535,1.2249210066825043,1.154641993470572,1.1412071248307627
1.1513504518546382,1.2203930182658327,1.1699996663215673,1.1805339524645213,1.1621784308401792,1.1333746890408496,1.1335460521501666,1.1569507906178869,1.1494991855712502,1.1022067774745972,1.0858633158566122,1.0852882028495374,1.131099494518965,1.0912885521013804,1.0972496955864723,1.0956211803013032,1.0822043841388997,1.0857973565511256,1.0997438258212435,1.0800714044730744,1.1102622011788976,1.114025795492383,1.1125807103414982,1.1309954395065038,1.0957417393302304,1.1348236176966855,1.171839534930362,1.0936536726294608,1.1750211521866742,1.2253009046692076,1.13523225160252,1.1417135550795063
1.1658734207336738,1.2251290685518206,1.152445400794125,1.203416927068938,1.1825050324879947,1.1315642231720688,1.1281072039072617,1.1596653467620648,1.1556792633052382,1.1023951553875349,1.0919500934867665,1.0950007281540628,1.1298121597348902,1.1007449252862591,1.0919016727559574,1.0999693648707385,1.088188235915366,1.093163516005925,1.1067411481982488,1.0861859970704049,1.1328819075688754,1.133055862586049,1.1463730644093308,1.1589739727788462,1.1226820465359804,1.1704958282559854,1.2002861458504481,1.1135710638883494,1.2086693765024819,1.23197615965903,1.1578307916408563,1.1572692328968166
1.182638816577142,1.2176882025833962,1.166283602469248,1.2263415530495845,1.1856478501744845,1.1416841142891765,1.1442106133722147,1.1511604325723162,1.1775606638600988,1.1149439732920483,1.1075044442197437,1.1069630928028498,1.1480162039322903,1.1141140900589155,1.1077515971186094,1.1148983081039934,1.0964491613644147,1.1023015361251562,1.1159332089711604,1.091716558323754,1.1336826221517968,1.1376432937336831,1.133201170979946,1.1637078893570416,1.1064950744153443,1.1345575447219916,1.1842948910947355,1.117719522397272,1.1888154792125327,1.2311712325941317,1.1313660513267187,1.1313830742475142
1.1872365386206059,1.2079091619560371,1.172752720953958,1.213239388002454,1.190831868434097,1.1530256200877564,1.1464727797843108,1.153666110154726,1.164051433109904,1.1085201789327568,1.0910508722636354,1.1022742623653747,1.141888291905886,1.1031088094798085,1.0928457747598705,1.101515807629082,1.0798658167249193,1.0884012677685528,1.1039056603716764,1.0852777526903943,1.1350987353676014,1.1353957716815268,1.1367550272441183,1.162242938453149,1.1183546483290734,1.1341331539996051,1.1711508932246804,1.1334934753282884,1.185161801696177,1.2247441988011378,1.134875907150877,1.1336959678477783
1.2035436252354064,1.2267257980778354,1.1985310500925095,1.2170959417223464,1.1851312127467482,1.142575240757409,1.1368783581018584,1.146808433275456,1.1741263473542993,1.1197681204838175,1.104447486451264,1.1082713177336068,1.148912807228173,1.1094133359663159,1.0922129870404114,1.1060228697849726,1.0880030887433136,1.0995075614374328,1.1122896474818527,1.0957994446577901,1.1320293164505872,1.1339213600869238,1.1326685841017672,1.1577939054186643,1.114949727355135,1.1338991149570632,1.1641647180607542,1.1228465525324736,1.1976765459846779,1.2334761522465723,1.1263840534017966,1.1435067083934012
1.2105016943772515,1.2176910653272974,1.2137483640531428,1.2258597395991184,1.1857940872270605,1.1492812172551619,1.136490568970417,1.1692207643396917,1.1556646383087419,1.119087755405992,1.1060264649973601,1.1000158931797024,1.166090923716642,1.11638206124025,1.1063705276767064,1.111618687843882,1.0912327300296532,1.1064860287711276,1.1237770382353303,1.095963222528343,1.1367048937053246,1.1430662914016887,1.1338685733382161,1.155706487578813,1.109020866047614,1.13683129859217,1.167948269320939,1.1223127992776305,1.1851795293049145,1.2303486336671432,1.133143681897813,1.1433988719843955
1.2042627558846444,1.219258611633362,1.2237191065668405,1.223818606297995,1.198357297735245,1.159977418384565,1.1536548534884832,1.1314578921864045,1.1750851431630538,1.1246831221032145,1.115037320393743,1.1274515854002096,1.1728505447503557,1.136749668339308,1.115747996440546,1.1232686055019603,1.0976042140525912,1.1130448011591056,1.1258515923624663,1.0990668463799393,1.142302384955019,1.1488928012009305,1.1312449849517265,1.1625624759146722,1.1171244454502436,1.1292011887732842,1.1676752936603667,1.1271137536655453,1.1845095020978065,1.2280868526610096,1.1338675398464697,1.144165728274281
1.1833347355444697,1.2102466743127536,1.1881123837556602,1.1985342619468144,1.1556556010796366,1.1518824517278958,1.142417481667009,1.1260772374066672,1.14280870648833,1.1084945077570676,1.1084949896986476,1.1044792029971755,1.1513809583388128,1.111764312248902,1.1021113611750073,1.1178322613552416,1.1007057705997518,1.1142818787557687,1.1230627518603231,1.0960347494338265,1.1390587574242,1.1406010735012568,1.1335172538530622,1.1571301780809713,1.1125754928557658,1.12401232670044,1.1728147953754604,1.1301978369319268,1.1792439804488466,1.2122808677864785,1.1185726991531362,1.1310398717197816
1.1693371064595488,1.1930196034153082,1.1874564348867689,1.1799900101545162,1.1466709511875768,1.1458834802845361,1.1223926746425446,1.1434941284116282,1.1214714153037952,1.1156894483692037,1.10169344794117,1.0904336154063523,1.1392808492657185,1.1013578396532193,1.0953427909962463,1.1121441068831583,1.0909929389511557,1.0984751246921998,1.1019403024130883,1.0800130091310558,1.1141007222418884,1.117677005942039,1.1076171848094911,1.1170366048010403,1.096488852689686,1.108678500452727,1.1459042583246528,1.1014169183001905,1.164437096152542,1.2012460261606004,1.097433705179957,1.1295339902410027
1.1529870331410648,1.1795566754352302,1.1970412615084685,1.1954851135845244,1.153882065938636,1.160369422124848,1.1252238062786335,1.1492648247472763,1.132570662179834,1.1094200212856684,1.1061128574969106,1.0978761203145964,1.1321643241470425,1.1082071731615974,1.1040714401990441,1.1166986138184234,1.1060539951090715,1.1151308571551952,1.1095343611624668,1.0864846584266887,1.1107657268757314,1.1142331749425465,1.098765734322479,1.1148979160813608,1.0954840604011447,1.098236420170808,1.158602484019674,1.0863997790248978,1.1675088709715211,1.194714462636656,1.106519773787435,1.115703270294579
1.1559361463594278,1.1650719438167694,1.2060614428672727,1.1982563829186668,1.1511861551375266,1.1400758942803877,1.1438189829402052,1.1531013241925747,1.1306489583127282,1.1192136277279037,1.1042670878251561,1.096465602558275,1.1210790844172376,1.1110878791577143,1.106222140458589,1.1205836224467378,1.103531113999274,1.117259205424681,1.105827705790309,1.0878682550017287,1.1086296291811275,1.1096287003139134,1.0870139831088077,1.1050183190448217,1.09506315681088,1.0936865766263506,1.159095736895869,1.0857333383407548,1.1732272708354956,1.2096532168353902,1.1067341303369584,1.1285113954172792
1.1659300599075133,1.1811965886408151,1.2125547686333265,1.1840737702723485,1.151940371287767,1.1592599481540387,1.153894161396706,1.1619637194311763,1.1211129137636155,1.1142731068469294,1.1050210765615531,1.0867199244366166,1.124315059039218,1.097458305693431,1.1045327299289311,1.1166685224183048,1.1057649021607114,1.1139056856324248,1.1043387558654956,1.0888198185342697,1.116147290138436,1.1116061674046933,1.097809988646038,1.1034632237288622,1.0977028142445573,1.0961890083854227,1.1490423113748502,1.0944422793290982,1.1687782940558165,1.2099846282586055,1.1046503725838634,1.1452116630101123
1.16209916791418,1.1790901629244483,1.210213889557644,1.1799273480995267,1.1337201312844287,1.1457696418479322,1.1460278114541778,1.16713788707571,1.130433316942397,1.108903772755989,1.1005512844323606,1.0951753246077622,1.1230760288258537,1.1089106182823663,1.1071155963728632,1.120163798748993,1.1084572545133917,1.1148612774006341,1.1024886619543426,1.0908392894967647,1.1081299165804583,1.1056307191600572,1.0981165610107575,1.1092632210325868,1.101505370344125,1.1026593512555836,1.145644844426313,1.1093095079392112,1.180400678427496,1.2307600849263283,1.102460566033085,1.1483100770713972
1.1620361386021996,1.182896042225095,1.2133966089986332,1.1806737340544962,1.137566579746425,1.1518854024553031,1.1426042915930863,1.1637276095876752,1.1217596712292568,1.1181322888139964,1.0978753369788803,1.0974760773635714,1.1298163486888115,1.108548354671927,1.1048750201730062,1.121983325028856,1.1195433227880316,1.1213540768970631,1.1139832646837913,1.109899873399896,1.124448671026425,1.1250085446590408,1.1231827129394625,1.1175764206063994,1.1122381631439395,1.1287644698479715,1.1716222743337532,1.11232980489549,1.2171666310907598,1.2327395474316396,1.1250796233913762,1.1587349167356629
1.1636131018891467,1.1849608230375581,1.191772902008803,1.1848707308562016,1.1275922911362448,1.167339573522882,1.1553145846102129,1.1744948439579443,1.1247991717405168,1.1317019891052609,1.1113791444164196,1.1077928898789782,1.1159398008697996,1.1074625443028712,1.1052997097355972,1.122142398031273,1.1156753957053442,1.1136511750570683,1.1033961400392882,1.1129587006783181,1.1203609208271728,1.1186001521819127,1.118698057859576,1.1275245461519106,1.1223161364139722,1.123529809145352,1.1911633279518659,1.1215416671453693,1.239183804382821,1.2447405498873518,1.120777677271092,1.159262922825909
1.1643704076991008,1.1668669349754461,1.1705797755339582,1.168679238919466,1.1271824056922712,1.1476297591945064,1.1390744647362596,1.170260943423755,1.1221149172958176,1.1274501261916536,1.1050931846482839,1.1015459167708292,1.0987208050632113,1.1051260705912676,1.118516551192604,1.1223438931966987,1.1211444796514791,1.120459895227933,1.106793314159916,1.1216602220241338,1.1305224431634642,1.1174686719538183,1.1198413451128628,1.1277236523256307,1.1173662420633639,1.1104319078811666,1.1939690368830076,1.1078060056867671,1.2422234585421543,1.247061467903503,1.1022704988695338,1.1575396751581084
1.1733740217634716,1.1737232110061273,1.1926535917717414,1.1787059192381864,1.1379803923256273,1.1719674503127535,1.1583888309223644,1.160353562048267,1.1360667783814338,1.1469626443560914,1.1339437976587443,1.11723796763025,1.1125629925130407,1.1237679432529324,1.141939831530383,1.1464429796469526,1.1395092005905856,1.1358050162043025,1.1146128324362374,1.1386173508450526,1.1421238790745105,1.1150996244670655,1.126495754084006,1.148067010387709,1.1321067388202746,1.1301058309118683,1.2040018573125588,1.1321785907144797,1.2369620482155406,1.2517537063012154,1.1188554332367924,1.159427456031112
1.1937696403399198,1.1807691262767415,1.2082948850244606,1.1863603703831758,1.1401404984759693,1.180138107421794,1.171377060609697,1.1382483723328338,1.1401210948099416,1.1421181102587628,1.122130813771015,1.1278188254388317,1.1057748866366686,1.1278882784365292,1.1370429144068324,1.1347619911537978,1.1281570505371532,1.1253394719248537,1.1044356042590093,1.1208190004691019,1.1411463933096542,1.1176819374168556,1.131824811659604,1.1517075063480127,1.1449503597515134,1.123235956657038,1.2104974494798288,1.149974055999709,1.2431754274447377,1.2659016810537462,1.1265793237787942,1.152363278941987
1.1819222973067942,1.1690415156791922,1.2039161344482725,1.1855002148023595,1.115879112421791,1.1533358754272216,1.1548886615792666,1.1504170899554185,1.1319760040613376,1.1331647437230552,1.1153391219287436,1.123711006868856,1.116212533085668,1.122978214642231,1.136092726288558,1.1354317704863628,1.1284242385380898,1.135204427851223,1.1212664973102588,1.1279205497595077,1.1516017808920487,1.1356240047086634,1.132434337984485,1.160397121863605,1.1237552289088326,1.1097173098290865,1.1905943444716258,1.1317459580063944,1.2250007929182836,1.269124108399814,1.1099645787622594,1.148897862365017
1.176642672364476,1.1772407404800684,1.194386954651101,1.165120948775954,1.1265742623257464,1.152365202422883,1.1590136038544339,1.1440334762595548,1.1385822689038552,1.1375087176722454,1.123228595423545,1.1320633331747232,1.1272357097121153,1.1222522573817733,1.1368630861169051,1.1383994465878533,1.116039574456904,1.116111435967904,1.101568764120085,1.1215103419836931,1.143664342784361,1.1295593172361371,1.1263363454141964,1.1684287415979386,1.122720952610514,1.1182198648003259,1.1781508563871799,1.140716625872794,1.2271395429409844,1.2578102685955614,1.1167879532320288,1.1430332887508359
1.1795930140890865,1.1774477931010119,1.1907812739889707,1.1455061523072723,1.1156032176033004,1.1499976257481719,1.1693501908123463,1.1466345390265904,1.1221966534969416,1.13201361442013,1.117131304026484,1.120925298644762,1.117970691900989,1.1080588411273726,1.124032329575338,1.130931458470208,1.1158124749423097,1.115668917719771,1.0995008511162498,1.1245376393639603,1.1452824125025263,1.129813204014116,1.125250860414602,1.1722243469108917,1.1240822317372083,1.1164455088829344,1.1883190406039799,1.142933522022745,1.232665157978549,1.251852413737665,1.1115528631337137,1.1453094348249226
1.1883211850398776,1.1745498069833122,1.1932291710828806,1.155292345523068,1.1180441429047203,1.1532919074986352,1.1698159008802433,1.1391546934695198,1.1456158470068083,1.1366634439885193,1.1173424175540314,1.1333624635430775,1.1344918624635794,1.1212178077757642,1.120536780701754,1.1381756961044458,1.1244387916018623,1.126716064977852,1.119746002044442,1.1303871040640847,1.142984101754315,1.1566829668100846,1.1304841005532569,1.1629958392443693,1.1269626825467292,1.127038542390691,1.1887392675325932,1.1285709055326463,1.2214908488000065,1.2509979679748442,1.1190572361850213,1.14618036214844
1.1822320770768575,1.1775177955268916,1.1933249064907157,1.154742286597892,1.1300720156386237,1.154682174394906,1.1761088974727332,1.1423149361381972,1.1576092986755908,1.1399462892686973,1.1196200175000706,1.1353829570020262,1.1428920544879497,1.1224941612684058,1.117667706422738,1.1376912497315528,1.1297864208079833,1.13029860511853,1.1194664266967849,1.1274659390431139,1.1379499748964592,1.1455530900532354,1.1141585725131473,1.1483593210487992,1.1148514890062449,1.107662165857597,1.1725375226219759,1.1201315601670299,1.219772970373953,1.2310200084804312,1.1122418571424708,1.1445389467689218
1.2025554531817315,1.2024749526092475,1.2020838684173845,1.170674524988343,1.1286648069034944,1.1741324986936827,1.1918682285143998,1.1416543203315812,1.1483462146950816,1.1496752131241814,1.1294731827494733,1.1344355966141828,1.1234075328403947,1.1206375321292201,1.124897947032352,1.1304344057913198,1.1159943132718095,1.1158460200068716,1.1063933973181197,1.1129294572200061,1.1261539446307385,1.1358349633209353,1.105118845732901,1.1528421806726656,1.1068983189124229,1.1075123794443011,1.165923503357134,1.1179174176813063,1.19845542305007,1.2568460559940167,1.1200028506300634,1.132846210928067
1.200138170429106,1.1883066314317055,1.2060098844209293,1.1740817737900533,1.1236353390600287,1.1803475633953386,1.2057149069827073,1.1675981925786276,1.1617504119256155,1.1621507836733402,1.1482126553243275,1.1485209049624074,1.1507527187732227,1.137480632857755,1.1352531710761022,1.141666905319588,1.123159991845383,1.1242172775110053,1.1212045070477057,1.1140149055968176,1.1326219629832164,1.1545320793851843,1.107513688176603,1.1560423346061095,1.1018522879741692,1.1134005275158718,1.1554235101343744,1.1098401703675629,1.1895639688730935,1.2375645972411287,1.1178832447551892,1.1441013572685172
1.1979888623091075,1.2116210692851004,1.2214159194035545,1.183253322433558,1.139582951857771,1.1769195422363679,1.2101145579597776,1.1568053996254875,1.1642977402495063,1.1681505198481017,1.159786835351889,1.1669860889588757,1.146638326151161,1.1434837820319423,1.1401894666817087,1.1374736051128584,1.1131795870154508,1.1126761518634454,1.1104793678285803,1.1053015328882203,1.1174163052452184,1.1410707643083018,1.1133593409905824,1.1635428211856873,1.1070058843879584,1.1291811427864733,1.1620063584725637,1.130993627845695,1.2026661384008517,1.2259414850967998,1.1338847529191944,1.1459395288391887
1.2110517145794715,1.2278587661284417,1.2333849285299043,1.2329738374605306,1.1535014735834506,1.2047932229525673,1.2078363625813822,1.1719466913870178,1.1872579358206634,1.1640523299115195,1.1453800555423546,1.1583692273716948,1.1546843362138424,1.1385961621739833,1.1346786114636374,1.1393514697888918,1.1218344862813634,1.1195502215097486,1.1147973481136957,1.124763377294001,1.1309390091777483,1.1298152403680368,1.0962736673265605,1.173716662393691,1.1078443043017916,1.1188889469769214,1.1865065891981663,1.1441717616710636,1.2245131226786068,1.2279603277087794,1.1578946724849484,1.1488843916404476
1.2105262871099767,1.2436904532187458,1.2501499845264912,1.2104497013423465,1.1591878440024597,1.2042279126526312,1.2435500831983197,1.1680566835466097,1.1698729412357738,1.1849958054192928,1.1803401959805218,1.1854460218137397,1.1458095324053903,1.158907990297528,1.1442103907234094,1.1401206675203288,1.1217754781349987,1.1177408202046715,1.107680400414343,1.1158630781947272,1.1262919521953123,1.1224017924117589,1.1005643222015375,1.176240183660028,1.11758206435642,1.1515066532623293,1.2051710237594784,1.1517781750385228,1.2494238794085906,1.2441338846201901,1.1836233963618037,1.1356114528806185
1.2211835065072343,1.2467632583745785,1.235651160531281,1.21218332648229,1.1899232881105875,1.2444585817336258,1.2310132300160626,1.1703983816864296,1.1777500757764954,1.1963005766937982,1.1707051618896873,1.1830728182069736,1.158155665124274,1.1586522897067957,1.1470765171095136,1.1473598187914764,1.1356092800875095,1.127021280903006,1.1240938108723293,1.1317767222038873,1.1333056588133523,1.1289508721166794,1.1097845485027749,1.161710527054902,1.1162627369141842,1.17980219782244,1.219556606847224,1.149677384975676,1.2558196608425674,1.255876502768278,1.1847778648803533,1.1543290956832875
1.2232758162770818,1.2812729439822639,1.2545565300659371,1.2343471806465554,1.1972379974372562,1.231550223520713,1.2112926057543174,1.155012262353183,1.1761673468304708,1.1835377056163612,1.1596147664199608,1.1705586246048392,1.1569406014853856,1.1577527214969239,1.1372729118594216,1.1377861030359164,1.129324332316778,1.1221523274965555,1.119191888024728,1.1275253244759904,1.126867763054966,1.1263735151423369,1.106802138583998,1.1533091184089217,1.1277844673487103,1.1756800695805194,1.2263717963770504,1.1362271723857194,1.2576624761331874,1.244263623106588,1.2077066500924378,1.1433031699374054
1.222458651867327,1.2489832225589994,1.2418114949211256,1.2261414717908157,1.2045808961921314,1.2385648899138444,1.192876453889408,1.15919689372582,1.162626203011324,1.1680096906312356,1.1522936263450638,1.163754073062348,1.1518272779117715,1.1465391481134308,1.145473178136455,1.131949727887361,1.1241579881472414,1.1192996491392018,1.1216707725909627,1.1213201942725521,1.1247348565284512,1.134146535822375,1.113045062107905,1.1472144671035809,1.1241830020021775,1.1838064558598123,1.2593624370884378,1.1484601897707696,1.2514563178041758,1.2354697916734096,1.2135859011068229,1.1454885079613029
1.226475733990774,1.2316878825388702,1.234916271156972,1.2050611337749202,1.2079385525008146,1.2032128941451166,1.1767016170269218,1.1459321234943132,1.1460433109282306,1.1561389260740023,1.129305056919479,1.1575024041678623,1.1352137283343822,1.1378742498928298,1.1293139122546894,1.1271759564598265,1.1202399275168506,1.1112830564300469,1.0993078701777812,1.1187533920424442,1.1208468576473556,1.1016538446043553,1.104897736229759,1.1606041751835512,1.1379557582162105,1.1728173061522327,1.26550593006287,1.163254094813013,1.2424390829556247,1.2553860803363335,1.2127646049772556,1.130381599966513
1.2211494275658552,1.2322592724833807,1.2510465830532314,1.20920055667336,1.2147052514076773,1.2016605004897225,1.165934889871764,1.1557681737137098,1.1367464591128742,1.156040641326365,1.134622627572277,1.1474931510296191,1.1308320091272432,1.1339672549501998,1.1379250393932874,1.133039802408822,1.1265937187972148,1.108573644834396,1.097715727668027,1.1306391309494475,1.1288996898146235,1.0976337533393887,1.109434498141459,1.1719533749335491,1.1507234644669289,1.1867553852645099,1.2777589235467652,1.1759096356246506,1.2441245660770595,1.2519950646841491,1.2194925800595915,1.1492296231849737
1.199114608500024,1.2420877881900678,1.2426677400558739,1.2037760996135753,1.219494752961175,1.2045668166255066,1.1600793245667878,1.1569057656993689,1.1269744073838182,1.1483738321160368,1.1308483442530457,1.1405880331212854,1.1353098963236588,1.1319885168374533,1.1348935941332832,1.1288803051666376,1.1225018746342197,1.104858195078996,1.090655104595541,1.1233710203920972,1.1261231360010755,1.093768493575435,1.1234619763843852,1.1630074614426646,1.142859984156504,1.1872056394788575,1.2647810044196757,1.1753392773302407,1.245586803175008,1.2646514451542912,1.2073245954692073,1.1583317915008218
1.1930324075123833,1.2028770572019334,1.2474479545461332,1.1791582172295823,1.204013589647378,1.1824723053614867,1.1380387148567728,1.158429827722979,1.1065047501661363,1.133333478928079,1.115374975468815,1.1146984609481734,1.126642569841369,1.111877936850762,1.12370888247277,1.131095897314804,1.127362382359916,1.1090732969288717,1.1064342783002192,1.1401879859169728,1.1419850945990775,1.1065379633448975,1.1332323217666016,1.1650145379209678,1.158823055640669,1.1738175895829555,1.260994659610961,1.167252282490576,1.2290270972019706,1.260738735119262,1.1844333312162172,1.158803546910002
1.1894533852018243,1.1887377162331867,1.218757886708332,1.1617968694430463,1.2100136351613278,1.190270757296487,1.1443978615900483,1.15593036582107,1.1164295580301415,1.1504691631608734,1.1303638606027748,1.1273961500383585,1.1384151205880981,1.1212103977595995,1.1392070717381846,1.132461381164505,1.1225712215263155,1.1128961394211863,1.1071373127596573,1.1290357843645749,1.1463427600043214,1.1089542976896487,1.139706809719656,1.167461815571975,1.1366697169589066,1.1784868625732459,1.2603933167178965,1.1466229273980775,1.223898127338712,1.289344440309195,1.1733357562464208,1.1622959671351767
1.1692248756983261,1.1705153040225003,1.1953249391599914,1.1386116500283623,1.172298916799543,1.1756622118669837,1.1301366811967792,1.1594331253963746,1.1087639575752948,1.131461208296282,1.1182519882213686,1.1081920140722377,1.1371191534558827,1.1107210859234324,1.1185183226517736,1.1284160092574687,1.1224761009948498,1.112323742891395,1.1122865630117367,1.1269431263936367,1.1514615506007995,1.1218609269677196,1.1493834420161162,1.1686426831582362,1.1426410849186335,1.161262320817238,1.2357039124052112,1.139039181379232,1.196264777466889,1.2683417900272287,1.1426746347372685,1.154277153388956
1.1691278034006811,1.1803246253483999,1.199403482250147,1.1299697313404966,1.1675471766312508,1.1696957963430938,1.1357691588046086,1.180253245696224,1.1142771920799635,1.1445872728044002,1.1268626923634135,1.098040230393059,1.1467210699537878,1.1072272521829292,1.1350346918929712,1.133274544120982,1.1248644383970905,1.1260233543323326,1.118608989644884,1.1174621412503607,1.1493858104368557,1.13793656997878,1.1497753693057724,1.1585651962979466,1.1398983868126786,1.1554325101262315,1.236799697778164,1.1389171280926627,1.1869636434767183,1.2478388395988247,1.1224043105740726,1.1831187186263836
1.1667096902082286,1.161781740398302,1.1707298041745382,1.117629339801279,1.1581154091327106,1.1403679502487087,1.1372812213698162,1.165017683392416,1.1122366210679073,1.1518260687230215,1.1429559711275719,1.1203146221354146,1.121602959349486,1.1334796408677008,1.1480432046039684,1.139154226154288,1.1245790540991591,1.1083024107632224,1.1118198578419707,1.1181633598307867,1.1554616249185248,1.103928642727096,1.140312942276134,1.1690584573803406,1.1323294526433372,1.1473383208479984,1.2260483117406373,1.1350756213821387,1.1934407087906094,1.2525726272287214,1.1287113599420042,1.1657242727705228
1.1585588857944948,1.1800525331166571,1.1473009635656708,1.1268164319416518,1.1586115978254181,1.1172915959864211,1.1017735276450047,1.133726668254397,1.0834985568971045,1.1241713433193266,1.1183034939932106,1.094490973754102,1.1127163846945471,1.105164646812642,1.1283317373949715,1.1212014191468207,1.1135671201515633,1.0963500016727397,1.1060610568923945,1.1121448383876265,1.1399248143722978,1.0937993938052906,1.1215709541502543,1.1651429016024721,1.1315706606788616,1.1241525693974428,1.2147691121220787,1.1461211917461227,1.2035319936760924,1.2528154484095522,1.1143483864511172,1.1381305034683842
1.1516179474076527,1.1759557567330177,1.1435488570637142,1.1281952258490597,1.1422901176993074,1.1073476727797664,1.1029053388011538,1.1331948681979396,1.0987889181124042,1.1276084736952543,1.1445162280489118,1.1173042059638174,1.117858133440206,1.132665093265092,1.156434214693698,1.1414692377839561,1.1275638875211556,1.1106901664488722,1.1180498545531476,1.1250337396738312,1.1557428698427958,1.1040088774026842,1.1340153409241849,1.172398721769495,1.1323387931602822,1.129364469064215,1.1827160070616398,1.1337611958195133,1.2057305142624846,1.2548172445062402,1.1042014520612,1.1464770261671027
1.1566165415925487,1.1858490166347917,1.1443253408620195,1.1304468428780445,1.142752838182164,1.116279963911424,1.1181771207432258,1.1329542280180422,1.0970224579980017,1.119723384144656,1.1405311466959156,1.1103647574889495,1.1226990059903519,1.1252164498998598,1.1505852902988958,1.135212623330998,1.1231025457896655,1.1081294567227802,1.1189505436903888,1.1201982140630349,1.1506726372042282,1.1099503066178735,1.133694961242148,1.1705854590607614,1.120255957901284,1.1262001634019867,1.1731851624533671,1.1232174617913517,1.1985233367350459,1.2555518468942373,1.110206121172883,1.1434905356966096
1.1418293973589135,1.1887385469913803,1.1259695984011555,1.1328719885351906,1.1427654818919766,1.1174811610237427,1.1039718975767905,1.13558564186543,1.1113996894407028,1.1343996251851105,1.139667514067641,1.1153703267539075,1.130462680093723,1.1284043201856868,1.1500976742314033,1.1460325947700787,1.1413461587439038,1.1261688629468178,1.1353043074836808,1.1310811233915268,1.1732706553884948,1.1186375037743832,1.1395474073183318,1.173550543789631,1.1382626219907477,1.1435436811527215,1.1738759951295232,1.1336919689031018,1.2018203723803913,1.2494530165348872,1.1152308223544534,1.1476347370562545
1.1617122587019084,1.1973001927547158,1.1273666719390127,1.1398300474412058,1.1430875178147222,1.1147481812264786,1.1029136735139327,1.1445366779388602,1.1289370716264555,1.135750242440866,1.1472045531501736,1.124109328396179,1.1324973209932494,1.1428823103793033,1.1603469896704628,1.1436399522739322,1.1323966945842108,1.1300177544786358,1.1384562737981216,1.133778037854718,1.1633872134465728,1.1242613546636568,1.1307594780369963,1.1778664509857972,1.1328762055785573,1.135416093977916,1.1930100985381,1.1583936881330048,1.1995099711461432,1.2514787844552773,1.1227378131353614,1.1547574915139907
1.182490663732358,1.2369291612262672,1.1489761315039786,1.15673425311173,1.149690114698553,1.1232141043385555,1.1101305338125935,1.1532916345865896,1.1333374602278188,1.125241584246161,1.1388950105500466,1.1327169871898304,1.141465531377123,1.1577750476414812,1.1679204277520094,1.1512581308357999,1.139709362858672,1.1323980039316595,1.1283633660341288,1.126571375323567,1.1520762651738283,1.1135869550211788,1.1300803794940162,1.1751778123763157,1.1417196310545839,1.1433012052119849,1.1945540444197043,1.1626804170652398,1.2011323700690026,1.249915683479203,1.1401639277301125,1.1404744129157596
1.1853121890900973,1.246866963407556,1.139687804818379,1.1667089317433843,1.1647170055891791,1.123741315748061,1.1085664514135305,1.1659032035368684,1.1367533215278567,1.1239074080539375,1.1512738442823773,1.154125423043101,1.1560473834892133,1.1757292586227337,1.1869390319318607,1.1709208659203187,1.1654177745303418,1.1552299727327933,1.1480782894736496,1.150029600860063,1.1768769906030556,1.1254213959376904,1.1393911843421942,1.1816636828965439,1.1521858115453774,1.1527333112180833,1.1895995745630428,1.183295748319899,1.2053148026773222,1.2441724349413952,1.146003419826312,1.1325425143431571
1.1883742560697526,1.246932913832512,1.1483145535119461,1.176524317183162,1.1655941359237358,1.1329478454255941,1.1141185195010959,1.1659939197776834,1.1299103757766102,1.130434258241495,1.1463576361414414,1.1476702643103203,1.1567284498089596,1.1742082381313392,1.1878069004230163,1.1718333628436302,1.1561098219135362,1.140407354458788,1.1381862837707468,1.1437622088762607,1.1611148129580036,1.1285610113621787,1.1409640003677906,1.1802867817643616,1.1468072637990931,1.1572156386617054,1.1800144142600633,1.1596235697040354,1.2193837391500655,1.2494767648001321,1.1529728215569521,1.1369711300429748
1.208646418150716,1.2710558358208068,1.1687839685574721,1.2174285153626256,1.1876473063805377,1.1657788563027296,1.1176535008176696,1.186120892007353,1.1474138980728832,1.1432349748910715,1.1598417642699308,1.1606297992991708,1.1754124172535065,1.1938329453306278,1.2226415877864023,1.2153079001905505,1.1934474409864748,1.171174191279077,1.1795482423640933,1.1925184340497061,1.201702526218545,1.1575879919225884,1.1741143883716965,1.219978223956588,1.1696656633699,1.173284970690876,1.1789934645956708,1.1894144206246156,1.2604881028499244,1.2639239869785592,1.1774298273376074,1.1430065290124911
1.2135500178570993,1.2623150008086919,1.2004852473841647,1.2104414389897995,1.1877338613488715,1.18795511429952,1.142248994730222,1.2132675202115262,1.1758213704176714,1.1568632563819503,1.190528414208046,1.19985813776843,1.1907596529660285,1.2206448847706144,1.2307083761917266,1.2185188988300566,1.195299935637046,1.1862340233710977,1.1894887637646068,1.1868456216422756,1.190410093507435,1.1747979047159214,1.1774481033002526,1.2070865221210438,1.1535489860992745,1.1723626952828525,1.18151709758387,1.177939504460488,1.2564376973520441,1.280653859617451,1.1719298515535959,1.153356474182376
1.235149892600918,1.2430033277559367,1.2012061523152664,1.2017792084610037,1.1784092667317763,1.1889825960990075,1.153690774014578,1.2290818032400914,1.1556156107316942,1.1547998534470725,1.1824525352371107,1.1872092661865825,1.165746837075638,1.210962707143751,1.2151621626027433,1.2086781950280985,1.1876296268776518,1.174416450598883,1.1758992645702273,1.1823123919938092,1.1789162040328842,1.160808295700801,1.185910508866216,1.216404578168835,1.1784112857566678,1.1946371489064298,1.180265385393165,1.2018147724088537,1.2507742572395995,1.2712821255960738,1.1646235380802672,1.1563254796250826
1.2358474336212046,1.2423269141244986,1.2044206156392026,1.2008385759136249,1.1624561302009886,1.2065998684588461,1.1707541547852753,1.25186490596788,1.1399610494363333,1.1772434827715448,1.1741450146936099,1.1500452188107582,1.1755576970230661,1.1805513536235281,1.1988226838766871,1.193499469115824,1.175655326440468,1.1732140094372363,1.187377023372634,1.1823639133036823,1.1937567162169647,1.186320269451994,1.1782594107906657,1.217875072531709,1.163042111017301,1.1733214297748848,1.1585431532804458,1.1967506502265934,1.2618502309293909,1.2631162996469205,1.1472365484786864,1.171717819679613
1.241750424640745,1.2561950504217076,1.2090795545703221,1.21673878973432,1.170911703175386,1.1922713466538362,1.1754683191497288,1.2275821867843344,1.1383510838534372,1.1619462309399058,1.1696782694812136,1.15586346391071,1.1597916901711336,1.172078775700365,1.1802691766068327,1.1699172354546823,1.1556802467895488,1.1546358342964353,1.1672002989251924,1.1583926402446574,1.184308050281639,1.156629198531343,1.1828396379728627,1.2249584129102318,1.1808766138505147,1.1844552997472795,1.1983725440382664,1.2063724264912827,1.2567187887495241,1.2696792568065387,1.1540485303269075,1.1545492281482606
1.2755098584223232,1.2516669415403443,1.2070068572484554,1.2092000604280297,1.1813542517594573,1.1869996099799431,1.1594024189122611,1.2162115658795096,1.126571694605143,1.1475657588698172,1.1482754108913624,1.1260489090732408,1.1480798515158452,1.1581405857495803,1.1733114629578427,1.1641153699174893,1.1520172609380297,1.1534855522852734,1.1783493107833936,1.1533243694054012,1.1870364373465214,1.1703103303564821,1.198307006450061,1.2197518828144622,1.1717321607948044,1.196733600654366,1.2036330315291233,1.1953409364299057,1.2544324633016162,1.2777657408923513,1.169314338398819,1.1607978143125017
1.2491585954271265,1.2502152862606861,1.1901438270494848,1.2157999438053626,1.1796468157362474,1.201728155119368,1.153776258323635,1.217738563581847,1.1333710065396523,1.1492805694857737,1.1438621773581965,1.1406690133613004,1.1533576109095567,1.16185286053822,1.1683371789845565,1.1539144231605012,1.1446847446074233,1.14759547113843,1.1615714914094215,1.1491058728778702,1.1646534961250468,1.176352446663112,1.1822076546172107,1.2179413963058767,1.1697715556719719,1.180055937976307,1.204195357860378,1.1792173541207578,1.2575306652085938,1.2575272518225131,1.1622384546553917,1.1587316776632777
1.2531385543028024,1.2244037031973631,1.179927043495445,1.2015060811398952,1.1581726537844839,1.174421798377381,1.1465469826489625,1.2001114432051656,1.108231572597971,1.1695223793904024,1.1621603016962385,1.1419264076597015,1.1169352171732787,1.1558845559804165,1.1762242148391036,1.162490053140226,1.1496985700671367,1.1470716236413991,1.1489366883903627,1.1608923658338086,1.142943228946587,1.1539623001332802,1.1631604109608777,1.2014291084833406,1.150768551857192,1.1671338262122777,1.1841309109009623,1.1661556033272336,1.2506506652976017,1.2679387116579357,1.1383040210585182,1.17925120935051
1.2240367999719175,1.2392306218086575,1.1892207793349758,1.2204206335209737,1.1814775519590808,1.1950985129517284,1.1573031426958038,1.1991435123349208,1.1261016603133442,1.1683451777249296,1.1268122802776759,1.1279548417016587,1.1289192571600037,1.1383266927352436,1.148834463698435,1.1380373582142693,1.1283885487615561,1.1380265496255966,1.1526928280294566,1.1519931036164928,1.1515833685466648,1.158004105708391,1.1577148557318782,1.195722722110518,1.1525625001796869,1.1725767429256473,1.198885444311691,1.1474761007680463,1.2537676316419384,1.256873292058438,1.1648773833629855,1.1679416557123252
1.2167610587858635,1.2298694835802297,1.1559999341070875,1.1904545387344712,1.1596734519891325,1.1457653972279893,1.1165684418132906,1.172695616985224,1.1069866383537015,1.139583518831137,1.110775799029283,1.1058876625621268,1.1184347656062106,1.1206590307486952,1.1199431958843278,1.1251692887757339,1.1320447651269496,1.1265911507179602,1.1441573032636858,1.139283252021933,1.1375085223858976,1.1400415086785323,1.155957049531054,1.1802838778895302,1.1452966121630614,1.1619608556632717,1.1873601086665138,1.138149172412146,1.2390316789976021,1.2693124648518201,1.138726222133288,1.168162574686606
1.2069386449576016,1.234858646903972,1.1543821228427502,1.1889592353749021,1.16510003775703,1.1464148644836092,1.1133889531378098,1.15999009291566,1.1271951530071382,1.1355047901036637,1.1026354625005512,1.1044968236360178,1.1378605844134337,1.1142616291590557,1.1147677552345925,1.1116455737000173,1.1261480403834248,1.1279226623395222,1.1409756631850119,1.1347151665211297,1.1456543970272692,1.150215222013057,1.1628755871278114,1.1769949417286176,1.1585302001621551,1.1753510658042206,1.2095422155715716,1.158301347362277,1.2360494175106462,1.2594428634121295,1.1661096498195243,1.1704353396904934
1.2019060382672055,1.2526527103059781,1.1624682199008705,1.2005042027908752,1.1849253321971782,1.125316530695714,1.113228183483087,1.1520312336446208,1.1353364669771124,1.1467139160012685,1.1099483613789367,1.1164854240253215,1.133926019902571,1.1245356221399694,1.1329933700207147,1.1195373802926503,1.1299410558489735,1.140252804600459,1.1393404942429237,1.1347442333835915,1.14088982622745,1.1578078960130478,1.1593880018508913,1.1721051079902334,1.150493599791643,1.1679866027908055,1.201568581317415,1.1509897470101114,1.2271120961421997,1.26171467945284,1.1819764604216279,1.170025681787212
1.1881762096915387,1.2807512809364199,1.159120844354079,1.2156437029015708,1.204825280994031,1.146730466020743,1.0932724510092842,1.1471813177662658,1.1373997446959427,1.1474892772515184,1.1056802423270646,1.118897740507643,1.1172876168572117,1.117445778409896,1.1189744525392655,1.1173319912259494,1.1280439044144985,1.135342435514741,1.1276948819996657,1.1237440749467142,1.135643017761372,1.1297030475163072,1.1427814758352706,1.1626730940964587,1.1522043006099014,1.1544198621682162,1.1996270753644669,1.1368935245949885,1.2227130886645479,1.2506621249956829,1.189407375630554,1.1609412503551482
1.189152090183379,1.276545005039374,1.160184701281357,1.2011496180346304,1.2000132348093475,1.1404992489730683,1.0888161059645294,1.1282810106907237,1.1401788037756044,1.1358340077877813,1.1041199589982014,1.1312835611608294,1.1417064390191543,1.1173085070359507,1.134147515763577,1.1354554193147812,1.1517018719642529,1.1604702582586952,1.1473246462476328,1.1443751465933518,1.1488828212208535,1.1427271349418235,1.1617034060821256,1.1652291989337173,1.1494170576732088,1.1638983056224488,1.1972465703055295,1.1396770317887654,1.2006192018381503,1.266945675095659,1.1926736205465596,1.1498832667837313
1.1603834486959255,1.275680431742396,1.1510554747267612,1.217718806433888,1.2085448748453804,1.1508749107149105,1.0833745931916519,1.1360367146138377,1.139292480551126,1.1249105060706752,1.1191763779443078,1.1465034773688656,1.128130143138003,1.1396761030283027,1.1593667214983217,1.1431963128812364,1.1486122722857368,1.1578869554057605,1.1361044000824392,1.1355543958184884,1.1379180637617028,1.131162262207033,1.16430956968212,1.1567313625049147,1.1456374096933488,1.1676895996380692,1.2000987568755883,1.1345247053246286,1.2189203285906112,1.260406721696257,1.2155220884295428,1.1508147919958205
1.144170848004037,1.2705158421632843,1.166835587016934,1.215296847568451,1.176128685392366,1.1496229390905612,1.0814692082452868,1.134533220166789,1.1359618889759249,1.1173972917531574,1.1051556749889848,1.1342806446292102,1.1310557287676604,1.123987992349639,1.1436358631675605,1.1373304264067399,1.144324318116593,1.1481644870788437,1.1252358492480445,1.1260809166257089,1.1313817987419297,1.1266553439722442,1.1443750452550023,1.1531670168433812,1.1522484356079488,1.143195860170104,1.1839109214196284,1.1366569626236094,1.2027810540156056,1.284180889473717,1.1825764869792745,1.1380366597029254
1.1585174309016888,1.2825505195447533,1.1854872400348362,1.2194891010723892,1.1915635515109595,1.152046618497333,1.0823743351537258,1.1348162286375776,1.1499208891650925,1.10896592505314,1.1165470924855336,1.1442993568061353,1.1294913360635574,1.1355327526487065,1.1558157372295934,1.149542298841292,1.1569958912946956,1.1589389240847106,1.1334590780100389,1.1347724637638537,1.138624260532211,1.1252167724091495,1.1499318075716733,1.1619507831178084,1.1552555575679162,1.1553297433910659,1.2034596554478663,1.1457417170998458,1.2262076968052822,1.3012737814969935,1.1949902864360666,1.1486006054653857
1.173374707225366,1.290768966445377,1.2040345772230476,1.2112846943236488,1.1836885471526895,1.164330780452969,1.0941387470896269,1.1297915382375576,1.1542972373056375,1.102962210944439,1.120752679788878,1.1438780253837535,1.1413564317916147,1.1352562500851302,1.1582906388020453,1.1554430345824915,1.160009354733587,1.1517134085131564,1.1229057900949255,1.1227908624713978,1.1260444386316109,1.120094197508989,1.150296187888763,1.1469384229386341,1.145522436131561,1.1567904122552402,1.202228066942604,1.1467839802853173,1.2288852149310816,1.291996853911639,1.2009902578545393,1.1461986827639425
1.193065628889166,1.2865113909134234,1.218664210140857,1.2216789939648904,1.185533019137683,1.1847194628633109,1.1133552989568107,1.169994485510229,1.1761786877100624,1.1181586566558148,1.135230931960648,1.1551347015523352,1.1304684785324364,1.139735012181843,1.1540089531522495,1.1440018224737856,1.1418736451293021,1.149407984942947,1.115614558036017,1.1079252583926549,1.1268334094012145,1.1257667253969623,1.147172730675376,1.155593412573261,1.1496985632751893,1.1467561485871016,1.2052732240997697,1.152230357680965,1.2452528283487923,1.307397220470329,1.1934938898732461,1.156651580070277
1.2124717817516757,1.2821059355341349,1.2321920936354973,1.2465870962219754,1.1898992461556923,1.2035750144838344,1.1223568883178066,1.154124617990447,1.1703718145413526,1.1253044852166814,1.1436685761504324,1.1602193791007616,1.144692668750937,1.1382059633289199,1.1583114869847286,1.1411469626853852,1.1392901595144975,1.1536920870778409,1.1157321709294743,1.0993834252682155,1.1231412167692616,1.139109563276612,1.1455622218568027,1.1557798115020708,1.142982515907332,1.1587100289641288,1.210665922803382,1.1615737681689347,1.263410627163646,1.3128376737456373,1.1933881889426865,1.156831433488183
1.2007798174612996,1.2875884959161172,1.2268121023873453,1.2457328731869401,1.1923727281320815,1.1869736139818527,1.1226303951907026,1.143954872588368,1.1647106640048697,1.1113729124849299,1.1400365581543834,1.1556859110710926,1.1438842928482122,1.1430885257154595,1.1479124245435601,1.1518059005215713,1.1547587606162195,1.1632098936142836,1.1243424047895358,1.1058645925510133,1.1288093713881149,1.1349807318641305,1.1581106769774676,1.1589475694407372,1.1706755375283222,1.1604997198729887,1.2220305438864583,1.1728962986860483,1.2718401042089658,1.3250149870593788,1.186279286241354,1.1517673576586205
1.2048806882609029,1.2584402205012066,1.217052336774345,1.2406190229237812,1.1871942128531163,1.1930750360281892,1.1261558462294854,1.1533005790557491,1.1869973045902291,1.1191464602062144,1.1431449251908385,1.1512366027578413,1.1672109826076735,1.1418450543712189,1.1524191244280104,1.1600771749580818,1.159833605783095,1.1777395881647867,1.1405986109899802,1.1216184199465484,1.14959232550873,1.1522998365271122,1.1632246803128454,1.1761330979629148,1.1812262105006783,1.17039966328746,1.2123171694220152,1.193144382568696,1.2690789190656413,1.345350079159817,1.1859357887673905,1.1551076015199429
1.2141907408425947,1.2466731462725156,1.2258454425258596,1.2384073836057101,1.1670022007939869,1.1847860255110603,1.136400806817088,1.1695191732962884,1.1609661746096207,1.143527621358407,1.1423262011966355,1.1460769570854277,1.1554203443136486,1.1429991330965465,1.1438142681131453,1.1397632372366917,1.1359450574346774,1.1479772723385342,1.1169195337198419,1.1020732135222542,1.1250520373596113,1.1373025091039684,1.1403089667100061,1.1696174804115274,1.1628547816915724,1.1463053637855212,1.2062112197130905,1.1688701673855213,1.2781859871989363,1.3348740952056517,1.1709183310672457,1.1491355004885444
1.228881259614488,1.2275847914814257,1.2307108987752797,1.2240519634450862,1.1675112819693896,1.1818151324957928,1.1353953703740587,1.164452158568955,1.1616425770068313,1.1379624622346556,1.1508492944837845,1.1437830228624062,1.1563247212080883,1.1590301651135473,1.146669230455858,1.1550075348220517,1.136534729295831,1.1537826088484415,1.120013334792873,1.1077951621941473,1.137686239026695,1.1433178573586953,1.1400178028872074,1.172658486644249,1.186127725950039,1.147170947012455,1.2035866785386558,1.162162077359078,1.2737631789318677,1.3216470301317025,1.1694200227863816,1.170167841080063
1.231261786608051,1.2404176222900176,1.2370294809193578,1.2392748526575283,1.1788672360780268,1.1894579151344418,1.1415119459222833,1.1749134858392658,1.1758018317877632,1.1464704102715804,1.171967424917954,1.1676716219133976,1.1489341668676747,1.1737969702062436,1.173243964401063,1.1650597721670322,1.1473458898815643,1.1534364995610498,1.1180307640569724,1.1135782796679068,1.131494775682063,1.133950795529803,1.1310888454777526,1.163993007620461,1.1840064345441876,1.1626382841738434,1.2075503079584842,1.165035636917163,1.288313622488245,1.3254730404557653,1.1797677778977902,1.1692474772776311
1.2497320661369224,1.244552461546056,1.22995167211358,1.2328121257728766,1.179155151622533,1.1775573007832794,1.1257320230669732,1.1687197581924618,1.1951080519570165,1.1581392776786201,1.1533176179691753,1.1567092696671084,1.1570441629110197,1.162532572274006,1.1648970933698866,1.1457167745969785,1.1286575772370218,1.1402148734553688,1.1216283288389042,1.108204809557587,1.1220974327313813,1.1460864074329993,1.1327686050264396,1.1521984409077743,1.1708925884077674,1.1710310015726626,1.2018703888446107,1.1434123229312956,1.2754658717907044,1.3117568863414095,1.1761838832012077,1.17807804754795
1.2324978439971481,1.2668867112808702,1.225919767218195,1.2606367648397225,1.1909576368227475,1.1911319508327414,1.1422895776076711,1.1878469767863507,1.1978697795429378,1.16770115295462,1.1542179112231696,1.1686812466672027,1.178676733953811,1.177163977354276,1.1745591212257145,1.1556581626491487,1.129402783212136,1.1549120426260047,1.1422349262347953,1.118778824749299,1.1380915812674588,1.1651993864701127,1.1353228853896193,1.153541388252656,1.1590537066397586,1.1654353899423666,1.210252194186943,1.1431502231924897,1.2640933331318533,1.302625150258968,1.196612112317972,1.164690960216582
1.2446032803844715,1.2625871432926492,1.225720879339196,1.2584760926051852,1.2038621006132315,1.1821390672467715,1.1440673448333696,1.1956215889823392,1.1728987933814343,1.1683930503978124,1.1510376192793284,1.1647324224331435,1.1562710338332416,1.154299686059679,1.1636110559277217,1.1435898419747121,1.120454924669831,1.139229442182971,1.1271689537385294,1.1201263149682665,1.1318317397166369,1.1345387491401882,1.1360891929234502,1.1596162401497285,1.1695278362589885,1.1812793880283718,1.2261868614245943,1.1512274039366357,1.2666677427372917,1.2984487881981102,1.2008605013349654,1.1668810898738455
1.228989530089684,1.2398759662474184,1.2397864940661951,1.2414720507565555,1.1792401298803878,1.1853749123216963,1.1579005400244522,1.2001729591240589,1.1701954570186113,1.1832699161736788,1.156426174702034,1.1615324012633397,1.1575247956004595,1.1581442219888336,1.1675988076682504,1.1508151952995949,1.1293888688246017,1.1265598974606794,1.1226133577382105,1.122612454127679,1.1368947764247501,1.1350004110391472,1.1247820493640455,1.1678075305552094,1.1577779056503843,1.1590594509399241,1.2009993390919922,1.1334234681502915,1.219997729327755,1.2742937307937048,1.1672493018234684,1.1754751405650359
