Fp1,AF3,F7,F3,FC1,FC5,T7,C3,CP1,CP5,P7,P3,Pz,PO3,O1,Oz,O2,PO4,P4,P8,CP6,CP2,C4,T8,FC6,FC2,F4,F8,AF4,Fp2,Fz,Cz
0.5768908267138645,0.621879709088417,0.5834144383476642,0.5137436299217049,0.48831611035055617,0.500796809719461,0.544024237756179,0.5214698791553223,0.5312852813091968,0.502897052803775,0.5117400140457261,0.5317141117133461,0.5249605065240616,0.5268363508922222,0.5318421591276492,0.5505628372720136,0.4911672362967378,0.4708651663276536,0.4725471977981961,0.4532670277100778,0.511961119884393,0.46915761382927484,0.5175864849647887,0.5425743220805709,0.530468391738035,0.5007152801114572,0.5995185926231099,0.49141428241464613,0.5871029709750132,0.5260930958967791,0.5112057796344731,0.5165270289238494
0.5571311303370531,0.5823536890852741,0.5734186016351989,0.6005678604550712,0.5224421656665487,0.49851393983205367,0.511690369702508,0.545683997791639,0.5595139601261601,0.5446735906168816,0.5070666534390446,0.5446208125216195,0.5635052265437154,0.47359818712060553,0.4232296507303851,0.49259857776628113,0.5077132652000673,0.53068126770941,0.5251981166701662,0.5020767293110163,0.502331149634999,0.4605478671929451,0.47466671325786014,0.5442595218509454,0.5255813721005943,0.5304511791500801,0.6403179957317878,0.5081239625318209,0.5846455360012581,0.5203773833386075,0.5535261064028018,0.5157501030063356
0.5688006558312827,0.60302241667954,0.6046417989676752,0.6175519882344307,0.4582850380370584,0.4541541651545135,0.4681719744167656,0.5519938243289363,0.5630671615554433,0.5009901799300778,0.4888904001120262,0.5141474918105842,0.513202258820502,0.46682566046938917,0.4105289228582695,0.4498000469422705,0.48458615673028327,0.5062177822964843,0.4831846645451981,0.47768034339648424,0.4552324334819618,0.5025287514513628,0.48963736485482323,0.4958454386299109,0.4908797491956963,0.5390876709018708,0.5968311331100404,0.5374568545470941,0.5602458960012678,0.5643432360434993,0.5467881155101885,0.4935095430409078
0.5304362080439443,0.5989710245722777,0.5686402773757442,0.5061674885756448,0.4004515997279637,0.43631861926041454,0.5122088865100197,0.48027204772481513,0.5135748775393758,0.4620599391010948,0.48149735203794536,0.5297655838669123,0.5194199062533249,0.5252458177270495,0.4978861973307492,0.4984146310785155,0.47494966817704454,0.49235347630251014,0.4912109721921251,0.4792816021590325,0.49166759338885685,0.49365059306520775,0.5717649273078657,0.5124715915175156,0.48880307973148523,0.4802370027401314,0.5878200711724791,0.5355070941088593,0.6209783766082443,0.5620016165397607,0.5122763216352921,0.5505330733611035
0.5038142015281868,0.5813838490815793,0.561477833783201,0.45896559657777963,0.39070613844858765,0.4604201520989032,0.47827779200453996,0.5070693099232422,0.49108401155750525,0.4303464798987321,0.47033371672191304,0.5181785980712496,0.4906229164484712,0.49264296101119487,0.47609356388314,0.44855485488312896,0.4603821916696647,0.4901492790207078,0.5117332259828619,0.4476416665199504,0.4674807298655323,0.45113014880586355,0.5443206426306433,0.46387822725700945,0.45991132155533043,0.5006312060737557,0.5608385017929376,0.4978460905166382,0.6168154027848018,0.4943064350322497,0.48723915725072797,0.5547659872400605
0.4856451466932321,0.6070627472387894,0.453474327294525,0.5000101668409309,0.4831665157595199,0.4542999560283578,0.37124402337406964,0.5064811092122066,0.4932517339532755,0.38248759591049136,0.3954051845729164,0.4917647630053834,0.5133589555916646,0.4637141620281773,0.4405676271937217,0.4603334131345284,0.43403632068068954,0.472631751652005,0.492923532358134,0.39567955768544605,0.4281046762746952,0.49903666098944904,0.5339290935173037,0.43920246965130383,0.4533794501340218,0.5314999179821345,0.5953965252162604,0.4509694748514812,0.5999163255032951,0.4882153267925103,0.4831153121268671,0.5591392570710322
0.45299808979401784,0.6013189916849396,0.43036265972989163,0.5111791263914831,0.5188752423925188,0.5159367929738163,0.343027715958086,0.5113248748996756,0.47540934597828377,0.4490018609371708,0.47004450480011606,0.5096410385188502,0.5412747589424742,0.5215480191151929,0.49584170582397746,0.5063357370048007,0.45092853154085333,0.48918146476817614,0.5019034175066865,0.41238280659890303,0.4578234046262086,0.49781670587274396,0.5155047766882973,0.41494959046611224,0.45276903550268144,0.5639596982645614,0.6366827949506372,0.45989127981123995,0.587883334630069,0.4423389852835858,0.5042516430738928,0.5319549849405097
0.48957114375200267,0.5812328457035851,0.5120253839578947,0.49918596498977047,0.49833413587196157,0.5223294482474753,0.47729505611395606,0.5240481054090514,0.555070325563748,0.5248018696891709,0.5143934854637837,0.5257322030243978,0.48805483329961286,0.5202454749613822,0.5425623258473881,0.5351653315046692,0.47121426931959104,0.4864099491663579,0.5134472867455343,0.5195438544871785,0.5169084951702513,0.5156965540005872,0.571579027501622,0.5110300182480512,0.5273205861191773,0.5081043335197231,0.6426433519070652,0.5150867028563682,0.5952405095788325,0.4916131135785905,0.5086254028563882,0.4946503474058054
0.49775986808956063,0.5833298836836179,0.47083023737180907,0.4731526871314679,0.5057984313230913,0.4739512541273694,0.5197338324288621,0.5317265241942731,0.5492265207464012,0.4614099170846138,0.49524576850765567,0.5107010054095455,0.5317474453591855,0.5107435859465099,0.4894985389638107,0.5346703797441757,0.4553858389451935,0.5075054215039533,0.4728767949462428,0.5278730769934734,0.5350864090368477,0.4880412535622833,0.49655407152525155,0.5837485861528388,0.5603976765916692,0.5221728787236041,0.6022386301323102,0.5039922938135579,0.6042918939606092,0.5310775658646671,0.5265158395090779,0.4818245703654043
0.5035636608204725,0.6159061002164982,0.462655800525147,0.502833752247492,0.4819438790113242,0.5003297238381461,0.5479290679380567,0.5420975020277562,0.49509051262045045,0.4784355657468986,0.48257325434874343,0.5372430371938136,0.5646864253843826,0.46201876496638605,0.5197526016163639,0.5503461035317987,0.47450814136684005,0.5371664323962131,0.4857459393689672,0.5353511659357915,0.5191938734365074,0.522321990335403,0.5399654930565683,0.587971268927011,0.5613682954426688,0.5584374057533231,0.6093237500465029,0.5692709388519998,0.626758346800691,0.5727904895716922,0.5296374652880649,0.4983051727050625
0.5182442273968424,0.6459334430796801,0.47372621993288444,0.5550125090617459,0.556933840698208,0.48167446094129746,0.5342130939105912,0.5454142087529228,0.5395535663559752,0.5379240560925496,0.47181720655404785,0.5539851993817657,0.543392634468617,0.533706502584783,0.5470003853053484,0.5689028219738685,0.5205519976179667,0.5711140546227957,0.4840875627379667,0.5971890175805092,0.5542194156746173,0.5908025003118356,0.5946163860555783,0.5238117717399247,0.5610830346065785,0.570745907471028,0.6224673914002916,0.6118633222565836,0.6476382005595666,0.5489428885314469,0.5902540770075788,0.5401524497343534
0.3998402284907163,0.5731295071021456,0.3143806690789932,0.42741004685873035,0.5079799572993173,0.45175679760100534,0.5207496218519784,0.549206099004562,0.5476106913192588,0.5336241382655361,0.4570273412893118,0.5600881916919445,0.5004111316316944,0.5581492109559293,0.5474029390935271,0.5583334624765256,0.5203340151825656,0.5600446963700486,0.5496575825188007,0.5826342157389912,0.5427260494145412,0.5850750286333349,0.5114796727612232,0.49585084994510636,0.46816370232372845,0.47572053847716156,0.59417211356335,0.560590332245099,0.6113094025845244,0.4744579795951158,0.4812726238648202,0.5645687450642713
0.4607673907436151,0.5740906748365991,0.41558725466867313,0.4611474515292505,0.49072169261188786,0.4614663913813211,0.5403456723701024,0.5109463894203854,0.40351208286898876,0.478680189531603,0.4386296356271163,0.5219318345051175,0.4681473713117015,0.4652619968803551,0.4594715420083001,0.4702117674502542,0.50845154614896,0.48082429388645226,0.5129797419004348,0.48725000137951274,0.5150945736855667,0.517474334201938,0.41768390964493024,0.49846506305481386,0.4786751118549309,0.5099712879600752,0.5751087496780644,0.4895598876022977,0.5741478757948059,0.5226424056049878,0.41225881316283475,0.47301657293869265
0.3611879875217074,0.4814721476400319,0.22283593621921619,0.34834279496026993,0.44499757919406,0.32032627672034925,0.41420006666045295,0.4373894811017997,0.4172221260990362,0.395288895047712,0.4437874831264695,0.5091077311225742,0.4422994205097359,0.49342206251595633,0.44552527653324897,0.45173010780317907,0.4668026166163986,0.4799895676136329,0.559241657359489,0.49117141408089304,0.4524401345574141,0.475925438063184,0.3218184412451435,0.5335590139366044,0.44974977234123786,0.3690436935320189,0.6060581668325723,0.42712660488934373,0.5107389461201014,0.569971514763639,0.41997693384549184,0.32496401379966183
0.5129871738360053,0.60233411991665,0.4596845788648923,0.5289540929484233,0.4692161401844537,0.3729343585662617,0.44995108877832296,0.3834048862525316,0.5459266981997326,0.3394939045745696,0.45434578856659685,0.5076223262093498,0.5227767408444989,0.5412724827731341,0.46769313323875833,0.46613713478214736,0.4555787144399809,0.5377832702037602,0.5782960841766461,0.5233282033289064,0.5079539675911864,0.557017495875351,0.42422974486065995,0.5557347355127534,0.5331060212365801,0.4546008561183455,0.624443604514835,0.547542002043868,0.5958400658080278,0.5189062166991701,0.440915676979324,0.4923758156458543
0.48926559712036094,0.5596545543869403,0.4852672695992115,0.4935841164080409,0.5176985030537526,0.4684379728483654,0.5173683610897108,0.4734157700166721,0.5419025047895991,0.5503647904428112,0.5252252662840389,0.5618070339451129,0.534919773168679,0.5418538132819856,0.5041741432703168,0.5320278314165937,0.473040614190805,0.5227396770671128,0.5606208468159668,0.5158044352487879,0.49987134876252587,0.5305786306582501,0.5353806775841599,0.5505952572422211,0.5648555335177299,0.5340364771885889,0.6022208827408096,0.5736934649414804,0.5620142006289679,0.4995763550053951,0.5351650071585683,0.569272107882159
0.4255396388709133,0.6007920440654761,0.4004190694434033,0.3910977107613256,0.5186309040537038,0.4770759669793383,0.4720314862830363,0.5649564845819016,0.5880580721503584,0.5356190393317268,0.5290056683229649,0.5333171623020043,0.5228315638793316,0.5643480919301015,0.5167979019395692,0.5550697976599406,0.4861387352576911,0.5184706948976003,0.5394409451844475,0.5466161657606504,0.5299691276723844,0.5428402441669672,0.5628272764800555,0.5397723169572907,0.5198539578399356,0.5429762555388754,0.586118116642407,0.560976584830017,0.5801416995268402,0.5012296105611141,0.5180667850225502,0.5606825236639318
0.5019904116774627,0.6081991793945022,0.44484476113284027,0.43400101519389844,0.3875081070853046,0.5198020534765398,0.44635693037609037,0.5588574548529955,0.5252486141071737,0.5581459043028252,0.4994957833775133,0.5677690140765747,0.5345913270555991,0.5523497272104654,0.5359155237436901,0.541270355311228,0.4974053663647118,0.5233565552445958,0.536122044758861,0.5336438431165607,0.5280442358784657,0.5253238688346379,0.49147663805229935,0.5181074618304027,0.5196403231540686,0.5381150551048814,0.5853423836221342,0.532379130215376,0.5897078325205835,0.5422493498413514,0.4721816189473154,0.5182202452519584
0.5785493220571468,0.616720502715629,0.5427698997516824,0.5307829021952981,0.3949833787157772,0.5555488971943334,0.5455494940218567,0.52236201167289,0.5063894023313233,0.5786305260004269,0.5632357656259505,0.5378729536631953,0.5667108390704538,0.5416755959713404,0.4955326914026869,0.5273376511289838,0.5397505438282422,0.5172101128307838,0.5110303949349256,0.5214064311394909,0.552836320867942,0.5363822910221906,0.5100110645475151,0.5523706742893473,0.5425865829176185,0.5440412789295378,0.5487832721886803,0.5667925502607943,0.6233514186244034,0.55863202002529,0.5018247427268421,0.5014576893987163
0.5184870504813827,0.5776314206632447,0.5271991564112279,0.5198593939535566,0.47385927370300635,0.49127750953315874,0.5222474491691781,0.5211337078910919,0.5441576342208673,0.5320791463620828,0.4983701519351295,0.5233220672537702,0.5541061321244531,0.4993433026432469,0.46116212686785707,0.47524179585054405,0.5485184108041902,0.5347713173623446,0.4618636656997278,0.433724269704564,0.45674109531929385,0.46818918199778026,0.47080419584328553,0.4774455240561215,0.5235547214722956,0.5123722885702241,0.5429659241659939,0.5125446657188474,0.6039550096420055,0.5113205507743612,0.48259640472742804,0.4440216322350677
0.5070604704769367,0.5518161489151268,0.5241874259536987,0.5419849228297273,0.44856443567572674,0.4375947526590509,0.4540136286797131,0.4941040703259381,0.5474511529363688,0.4555551541247891,0.41405989609757266,0.47242206376780277,0.47885490490329785,0.44515998875397417,0.3961048232171604,0.4186245454629272,0.4966347283706282,0.457026083201471,0.4222852618123649,0.359650126862533,0.42904763059445694,0.4994124256913202,0.4379824609894634,0.4062477338573656,0.45434606543845757,0.48765483056204395,0.5444604732131276,0.4833588840834241,0.5081521503058284,0.4723030094264569,0.39066970274687285,0.45831015550304427
0.49250673816470114,0.531766464719206,0.45529596717155274,0.5187196946414684,0.4371800353445998,0.3677149984044192,0.48054460418658607,0.4618533437188152,0.5396893371963052,0.4441033512154382,0.37413442585469175,0.46933196236724367,0.44018378735813735,0.4354398904876301,0.4188301264210092,0.3946571501068582,0.4513254931122793,0.4472938130469707,0.446169430432056,0.3891428965234709,0.4378004887511007,0.5319520077823305,0.48974174249395896,0.41424428754736364,0.4379144835602899,0.4404649368781929,0.5759590440856982,0.45544683868845937,0.4696150000730822,0.5041099636890091,0.48667440480807833,0.5060110968437147
0.527643755237586,0.5462926078105672,0.45233460546522564,0.536059170521222,0.4146144808680849,0.4180368618956106,0.5509200809678688,0.45276270023780757,0.5070898408510426,0.5024165344961362,0.412785554874194,0.44972269466430387,0.44559213423403077,0.40613431779652687,0.4313445560959851,0.44494734677393266,0.4382351526457341,0.4250610283445621,0.41564661035200134,0.39763756492105173,0.4626540800926248,0.5049392585693799,0.4744579795951158,0.4436020461872192,0.4363814531674152,0.47161852059154613,0.6196101150214103,0.47817502546265156,0.5853474268253651,0.5283919474838898,0.5093951788922069,0.5233481487648811
0.5665941833168849,0.6053701904956214,0.5649394205701469,0.5565128721550181,0.4645791829134182,0.48021318809137337,0.3895832684268103,0.5086040177425651,0.5495759758465938,0.5136752084339099,0.4930198937185534,0.5186893602262053,0.5655274569851321,0.4887262859035762,0.49563271080415067,0.48561676604601295,0.4496474523515341,0.5076129213900933,0.4494917285898949,0.4429242001148388,0.47989060460451105,0.49834636520286385,0.260559878677226,0.48883204342525166,0.502670253287337,0.5225359307979276,0.6484194942374619,0.5036128950637693,0.6159669373185992,0.5685680849056933,0.5213639593401383,0.541153345090713
0.5485711450567412,0.5834583952108221,0.5498255229982651,0.560304235513387,0.5183633478974173,0.5482495526787974,0.22831410740869434,0.4899622863844477,0.5219598944525624,0.4540463949922416,0.42536202329511935,0.46089491304749525,0.5123477253824396,0.4369348864847508,0.42183911505401583,0.45758900461772795,0.4143456764803436,0.4270883673022159,0.44851732335626554,0.3790454818062267,0.3934958532450911,0.48218764557846155,0.10726453146516322,0.4851997399926207,0.5558014953634969,0.4369175540135272,0.6263232639639015,0.42413559762121156,0.574972267728527,0.5495840754251266,0.09400449991210699,0.4727670975482415
0.4621972588040955,0.6568329024536028,0.5272288143607065,0.6096405236112276,0.5239753360440916,0.5281737259882067,0.15721346935780403,0.488728715985069,0.4977244226527823,0.46539164961701823,0.4490639921624808,0.43904984138336495,0.4319430798667191,0.4756130972629088,0.4924446658312255,0.499375875219538,0.5026752503710307,0.4739525257373454,0.48783610554129186,0.4392738972492417,0.474137415399391,0.4964718923524364,0.12918517087867257,0.5423902410025633,0.5156688202863604,0.543086485984212,0.6092597214179886,0.49372749053304127,0.6056597264368295,0.5005702546215685,0.056554954287200004,0.47856052002709926
0.4748356576108258,0.6259042239259037,0.5627210590364234,0.5924232475982449,0.24818050614136403,0.5192318803157571,0.14479875737671474,0.5435619713680494,0.48077613511982487,0.5278014956344755,0.4781985907357316,0.4522497666712412,0.39767907939178393,0.49446826964772655,0.525078561503061,0.5365398715328863,0.5136555395086789,0.5138320300829016,0.5285077730383797,0.4921026098768187,0.5468418916148807,0.531979309809306,0.3335552211131264,0.5388318690956023,0.525313006887579,0.558073344742849,0.5983494355760345,0.5169459830665605,0.5765073287948517,0.5298373659711445,0.06460110016662271,0.49005369141621985
0.4829802135108146,0.5840513274442144,0.49841711712216075,0.44667986199904647,0.12552801108780887,0.4524034745025275,0.31739676029822084,0.22017461688866308,0.31356092614694203,0.3588619842247301,0.43454659299856446,0.3453204018358065,0.3583580596294684,0.441908405258857,0.4718245920302437,0.45405383625651435,0.4220337692910879,0.43433555987992845,0.4092679501929204,0.4006640648172986,0.4079647622357029,0.32993938993276645,0.4159682870898606,0.471987481768778,0.4103101267320797,0.3175946809729785,0.5994111664291795,0.42314301625626805,0.5428060291493548,0.4493575989247435,0.18625856975329425,0.17170671599240298
0.4159342689174368,0.6005139700295213,0.5208213520426564,0.3779722547287616,0.10671480147915482,0.44056378186096334,0.5356030683889885,0.15395147559508232,0.2665720865369933,0.3134981103589127,0.41299866792087464,0.333759532608566,0.3525338117163755,0.42530294402934893,0.47257102475098134,0.4620550480432934,0.40504900490856866,0.42645538400000016,0.3898499881875827,0.43927887657320625,0.39378009011848686,0.2823598465063138,0.22474285377780687,0.4783160584520261,0.41526521302915503,0.24919109739379047,0.5980630277668105,0.48316911331046225,0.6062893544343408,0.45156056677650797,0.18913707989494669,0.12136229767631211
0.45720536398270734,0.642862958387635,0.5657466693357047,0.5435497457249916,0.06327471000483838,0.5567292214293776,0.5008357492323784,0.5283507163213713,0.4639613147897729,0.46317663513107593,0.4742239533255582,0.4797160701813405,0.4881159974617783,0.46076670410337217,0.4807876586324979,0.5275977620467093,0.4805411345485214,0.5110582901234851,0.5002938076954635,0.5139038081209758,0.5211999294819574,0.49592286360769244,0.25430453922908003,0.5371266063523792,0.5784950765680196,0.4577439111202848,0.6399040299543091,0.5803036461790467,0.6495815222858842,0.543651715398897,0.31092729414367776,0.1864286417452799
0.5265526956778833,0.6123945068704122,0.5751634083541667,0.5730783544476202,0.08692394019908721,0.5639354490799391,0.44860414618706423,0.591084524284386,0.5226164751772948,0.5045560107523953,0.5100622649502963,0.48704949651872415,0.47684877938990106,0.4938169276444756,0.45641686795143055,0.42219635726911436,0.5353857272971354,0.5137445277001969,0.5219250603313524,0.5433600345897969,0.5890833332790576,0.5298445657126516,0.47422870067630796,0.5927294266387548,0.5407132393517415,0.4529788303501666,0.6002280116978642,0.5678095023057318,0.6080487508052929,0.5334195564132662,0.3558580755622736,0.2980862139035419
0.5395953194446118,0.6148765147682747,0.58752695836904,0.5755349420140901,0.45331192760802685,0.5609190868747246,0.4339754469908949,0.5399889312763443,0.5070019616465132,0.5251466541189751,0.5443601752324644,0.48063091283598697,0.4954802446157689,0.5234473301653719,0.5031216965682777,0.4796976598060862,0.5009018782031829,0.5403669168590045,0.5506189846918965,0.5866103538584582,0.6177038087847662,0.5613864680265626,0.500124414634561,0.6170185430547139,0.5840770458440835,0.417834685293341,0.5929406080898488,0.6192384711347896,0.6129695765540356,0.5667316514961278,0.33597830556028696,0.531763196139167
0.5169353831079705,0.5502235633264705,0.5245109913681872,0.5576135742943078,0.34622165655963416,0.5807606742137363,0.15290321091628567,0.5167964851774082,0.5047362230429607,0.4968096115027268,0.559484113697297,0.5173026400410848,0.5512679580417831,0.5452303065448887,0.5353512842395686,0.5470559292986839,0.5143034661585657,0.5732687243492068,0.5851004711808424,0.5717736533793721,0.5987472056145395,0.521456871938335,0.33248164410067715,0.5195726727570021,0.6173856723811848,0.43784343024332434,0.6279066586915444,0.6302248390390243,0.62057648772511,0.5557205222440925,0.2383049862258349,0.5071657833680571
0.5025378746853392,0.5716206442382374,0.5766752765978789,0.5692589603049969,0.48795365647979333,0.5959494745193203,0.15964081294758287,0.5204253086410423,0.47004932368701474,0.5177476118819951,0.5315229913276517,0.5096424917087693,0.5570226617670612,0.5060887516757562,0.5359592506964759,0.5121300358084689,0.5003923774941201,0.5149408559110972,0.5708186435480365,0.556898612124776,0.5874396535340147,0.4671098916281522,0.39133961796618744,0.5528160776811422,0.6422846564293998,0.5264767753877593,0.6075617988629163,0.5549078518141362,0.6316376277159775,0.5062009931390158,0.20746121765232164,0.5581957787804758
0.6173183824567822,0.6088851390095233,0.6104004621600941,0.6448384680595762,0.48885180998051575,0.6099864469376763,0.5102819977672804,0.5403234177147461,0.5389225225562154,0.5618807945662748,0.5288051901266492,0.5264749939346457,0.5021132778132588,0.5028711192969321,0.5244874215586737,0.5203650167199824,0.401209782538026,0.46103648388679325,0.5923463764214357,0.5111979245893529,0.6233495074244852,0.5674375780198403,0.5324897061934718,0.6244263583747363,0.597285484798476,0.5967780151647549,0.6368432213616952,0.5651387828711292,0.6050863019871903,0.6045507659900936,0.3652129605587187,0.6038432065464365
0.5582344093697075,0.595575409139564,0.5876595274027424,0.6497668849297201,0.3834996411171212,0.5729555119893874,0.27945199800493936,0.5742495464835331,0.5705122736792755,0.6008790090728117,0.5306527401584015,0.5723751316891827,0.5331536727539509,0.5686076839344191,0.48579078926897357,0.5034455164683681,0.46004336544547847,0.48585270283461063,0.5638334238796262,0.48580560806025275,0.6291153267140218,0.5590421709271344,0.5326759698131349,0.6371684112230236,0.6168988763030883,0.604922211188357,0.6585444044097674,0.6252268503149933,0.642517089468506,0.5846797565986389,0.5937401655592506,0.5842701105558471
0.5867428234712209,0.6059819692495753,0.6283880306294218,0.6522934152973641,0.42342611894994797,0.5487154983393252,0.3513004772373997,0.5761502902884509,0.5260075977990597,0.5286754392586537,0.522384998830925,0.5298870647657012,0.5051431081747398,0.5356583109073799,0.5363249795152978,0.5170597700244178,0.47817862300263214,0.5305526395540628,0.4899082789034504,0.45389401803203255,0.6261704724747669,0.5553192202145024,0.599270272945068,0.6125711679833631,0.6676819995004495,0.5836418583533127,0.6237639128158395,0.6411922291701377,0.6548396715712439,0.5995756276786607,0.5835533828045538,0.5617254933592724
0.5825511319466726,0.602742293903042,0.6234768737504864,0.577467597251932,0.4838927414064026,0.4974900874933007,0.5412556032661546,0.5874690716786211,0.5175018526647346,0.48398134380554697,0.4633055669832661,0.45436738618544414,0.4965627078236636,0.49515028348219636,0.4870193222368341,0.4617717331402237,0.4781447868294354,0.46403883749070274,0.48769995627322865,0.4026877862014736,0.5920012084073686,0.5742326071090699,0.6313912265768877,0.6361340442912111,0.6142554323503174,0.6051913115474298,0.6222631997706447,0.5634294067899795,0.5461570558308924,0.569729790683752,0.4679941863518488,0.6065116122344439
0.5126388608901714,0.5778451663717193,0.49693258955220715,0.4840837925417448,0.45215720376068996,0.3306744847794556,0.5838474140811426,0.5749718442256496,0.4721615506324099,0.5093985810693026,0.47329054510181,0.47797863723790196,0.487221418093067,0.47031247775799656,0.4587233444382398,0.487145385150051,0.457918644987609,0.4548851745882819,0.49520758233934886,0.41489770504985385,0.5605915564304726,0.6039739825812729,0.5879792689088779,0.5262517563795456,0.5879590935601892,0.5597795639557038,0.6145731888326713,0.5495837840556337,0.5676228979863196,0.516492012065616,0.4639602247521175,0.5682482253128405
0.5193897640346239,0.57179037912509,0.4604138310781127,0.466106310070538,0.4172281754285262,0.3112801494481205,0.558334717910669,0.5166519114337916,0.47766820439569546,0.4806690608631387,0.49464534077156974,0.5407401803375139,0.520581018579443,0.5103398875859096,0.5129951465740131,0.5092351175274736,0.5159811316095066,0.5305183401509594,0.49102597820222726,0.487772822412553,0.4852210030206642,0.5459936030635265,0.526525244285973,0.5409706879531284,0.5559197377651388,0.5677044085786244,0.6185686201622449,0.5659433480611509,0.6086039010499001,0.5290697355866029,0.5569667797638457,0.5113932987467694
0.49153266317151356,0.5668406789321188,0.4743295191928581,0.4483829272089435,0.375354180298211,0.4991744337819218,0.5120025958371658,0.5108638201335208,0.4840510252225359,0.47629309089364635,0.4606606641299645,0.44945407013030625,0.5115979736788776,0.48476514957600986,0.4634563063548127,0.4518706221112839,0.45766839594037745,0.49707708566268244,0.4706224684998923,0.4931892229078846,0.44629415603327444,0.47497949199285494,0.5386646386515208,0.6126969726742664,0.5728328540005736,0.5576436238976195,0.6395188110316081,0.5411828073791954,0.6085897925318824,0.49267756138575663,0.5155510684398916,0.5061733884075376
0.49369830698600237,0.5801894409368378,0.4772658252875202,0.5664704147135258,0.5026244339552164,0.4786192750729777,0.5360341168898743,0.48647696462189216,0.44872391848013177,0.4834824921019728,0.4467527970298097,0.4293522580438975,0.47167886111375773,0.4652695190943269,0.44105390613856105,0.48850504785850973,0.4975653423298223,0.4658692329519829,0.45183372328856664,0.4005843024736827,0.4814422636147453,0.4691374138686803,0.5856926812583728,0.5736456361458613,0.6027052684735262,0.5903259596425164,0.643366678452003,0.5645838986597701,0.6045375932253317,0.5356060725127085,0.5437965099487189,0.4696111848283842
0.5361115913525458,0.5731552604520138,0.5346068010556525,0.5768729850231853,0.4727982281767514,0.4151639202847448,0.510141973044654,0.5279366000832171,0.43718706619072695,0.45028662938463837,0.4700915451981418,0.5062450950243584,0.42010079471057343,0.4792434515366583,0.4766549260157705,0.5107875423097511,0.43689863070967716,0.43046312075874066,0.4180026927003605,0.37276865160800865,0.4943389608760599,0.45366082645158073,0.6014881528868606,0.5585825520935442,0.56002461108794,0.5805549295957659,0.6490291080755082,0.5558448266289612,0.6185239658014371,0.5246918082977176,0.5270050361367036,0.4893905310511721
0.5297020585231518,0.6126020114940688,0.5163434902340159,0.5680741236381608,0.5296252283558527,0.46017397200552307,0.49991837990818,0.5199686917728362,0.44272203646392344,0.36701738259043476,0.4239981390714141,0.42319273255148376,0.4326728258383508,0.39646873994643705,0.3847366255657773,0.4256208292004703,0.40166571144041757,0.42207656263451576,0.41999469001100537,0.4181068116376514,0.5008990979234942,0.4183412754522078,0.5521347599871537,0.5579132090636494,0.5859117480544964,0.5064393364429991,0.6301370825051735,0.5629878980163797,0.6003195488653771,0.551608440241617,0.5096858369455369,0.5219122552549019
0.5134354922283707,0.6273230367897595,0.526948910439203,0.5219894334371031,0.5529703156107072,0.5284490307012082,0.46802459025089466,0.485848715612329,0.4830720435398954,0.4257335887771038,0.3786290971550678,0.40645766402091593,0.5001918226220338,0.4103367163230657,0.4000174186843225,0.403369278931381,0.4024788156757552,0.4254327136629407,0.4064531807413074,0.4145968122722056,0.48971244706373274,0.45562510128948813,0.5151776413475745,0.5564826261033857,0.6121166826427304,0.48973716190152317,0.5956893783818421,0.6401326315051868,0.6392514123548131,0.5999643417953086,0.55229624765973,0.5315900053760365
0.5195289717290136,0.6420189768350585,0.5069649017681384,0.5214861606359926,0.4891439519054721,0.5185299825411452,0.5160248097265862,0.5483557194413645,0.46793028689149396,0.48556210017766444,0.42172229325600924,0.4470122113448366,0.4558818803417867,0.42405337944886273,0.44353307392387464,0.39982514908352174,0.3984847642548203,0.4557803094766804,0.46554618589905583,0.45643155170019195,0.5006720940627511,0.5072912706280334,0.4767969201268113,0.5681064665972773,0.6089278016613469,0.5150009951764712,0.6050379763544359,0.6367919421075582,0.6339130572294301,0.5793914319317109,0.5456093451695158,0.5437492885218589
0.5286642224599105,0.6411447920104367,0.5206871005850305,0.5836409675224125,0.3403973464184147,0.5390145772142811,0.5251246598451913,0.5324443861006039,0.5296425929308551,0.4880531472961727,0.4614023065057568,0.4973119045992679,0.4761775834985284,0.4609221836674945,0.45520628444975697,0.42619317139872703,0.4211105406180866,0.4711957523780224,0.44248689838351396,0.4958491695764334,0.47076026334117466,0.4978384282391796,0.5072434823251384,0.5907480346797204,0.6397779342475006,0.5176598212201183,0.6120547614606353,0.595561686918485,0.6559930299384993,0.5697287784676828,0.5310214300461117,0.5744565521115568
0.5530236270550796,0.6160940997900698,0.5509524272019612,0.5489358426352449,0.4513001572723451,0.5777198585960209,0.4678841342500351,0.5822703606191345,0.565979588036038,0.4419006156023321,0.46134556650262093,0.4950369924771908,0.5368228615601759,0.49888300071234265,0.4359515172249725,0.47488425523139305,0.4735785624193933,0.5103919467697006,0.48442024058755756,0.4716243751434689,0.468830224988796,0.5117895954034763,0.5043865995640032,0.5749983135477351,0.6030618056874849,0.49919820220988226,0.5921439702710747,0.5851455276784796,0.6369432384923723,0.5637975085320963,0.5259731294872299,0.4975849588759315
0.5277486224307748,0.6221507599494874,0.5178511484137082,0.46492622909860837,0.5115944110419876,0.6072549978673307,0.49545936912950356,0.5241362539485773,0.4774857515265462,0.4869401387766339,0.4659129468752984,0.4506150728368783,0.49724952603105593,0.434916765540705,0.43555455940990595,0.47468289127945035,0.4575415586549031,0.46585149449922614,0.4801340080022757,0.4783335678726219,0.47188379406658704,0.4992163598377171,0.5303966835317783,0.5457384286586197,0.564834282454811,0.4787756153185725,0.5962854100642017,0.5964729301580793,0.636088226652645,0.49807921712492603,0.45898120339606696,0.519453160793432
0.48431205743411854,0.5650220660101851,0.5479774576648642,0.46771862387008034,0.5005009387202385,0.5393723699346316,0.5456455618740947,0.487791897354587,0.43450820492954645,0.5284170194367086,0.4711292995827234,0.4391258271487815,0.43912458345945704,0.44613573238339227,0.4457904275816485,0.4541375172624609,0.43460584299014215,0.42593300840007375,0.4402039703912509,0.4674631043577445,0.4920140015529592,0.46686404427429845,0.519471328286606,0.536229116928522,0.5572864134836049,0.5181802043569668,0.6387786590208954,0.5998136709274967,0.6096513740017905,0.4516553301908299,0.45314901417778397,0.518451369047321
0.5153054609358707,0.6060598532417938,0.5544456513577065,0.5236751683249488,0.511470187297955,0.5484719181787838,0.5120855048535737,0.4876677505528651,0.4315028737731028,0.5472256718188534,0.5120869988318746,0.49148980519534907,0.42114170590006805,0.4688584060222999,0.49093094510508445,0.463260270397026,0.426069608820429,0.4351744955525226,0.45107777337438365,0.4451679679756545,0.4664385630812393,0.451145933512333,0.5393082376292729,0.4898106886847012,0.5501576397186522,0.5621021218755959,0.54834402190946,0.5845457051589911,0.6300912766385117,0.46224162391024626,0.4692613845765593,0.5118550734690234
0.5735811191317012,0.6239466463165629,0.5558458777181724,0.5383426229491861,0.5427957744119417,0.552876519297519,0.503676216982237,0.5002015644314622,0.503540937000659,0.48465338264606983,0.4948102084440143,0.5254398257194912,0.4821565374507603,0.4905862104452003,0.5267658050113447,0.4997058772869932,0.48129297922047787,0.4503464328785879,0.4426406216529578,0.4424146551176878,0.4854937297867012,0.4351834134903576,0.4956582000294809,0.40219322141443087,0.5710033847721296,0.5785806159943961,0.5810904132948612,0.583510730118046,0.6477057197662603,0.46157815660590346,0.502497462722182,0.5494176037957623
0.5207305929526459,0.6009159563439117,0.5179081252772897,0.5474717806806239,0.4943295322404098,0.5187072794935816,0.4860294713635764,0.5170498779564447,0.5682905411290964,0.5450837942693398,0.542638303915197,0.5303039232287564,0.5276077871430508,0.5584765685124989,0.5312127082486668,0.569473195899035,0.5162004934419598,0.5290112421756236,0.5028562387723609,0.44358661237368985,0.5016841439748364,0.5214747265819908,0.5238467526154948,0.4503025349905469,0.5408253527059587,0.5454699896545194,0.6381861834431808,0.5493065984158614,0.6301732083912681,0.5178614435519227,0.18480367224554417,0.5544705846488189
0.5367170376987322,0.6085812747531485,0.48759236942850603,0.5673119009237773,0.4586510779444529,0.5012912647786891,0.5043403115701002,0.5667082702939802,0.5180265601386271,0.5647644375433917,0.5136254389407373,0.480066931820148,0.5307981335169883,0.4969795084880561,0.5205954153617958,0.5074982387775484,0.4517947047474548,0.5022904943786488,0.5251755357930794,0.45959241908380405,0.5133012555425139,0.5398041414328429,0.5150070386715051,0.5030990803086597,0.5500983809485325,0.5317119683180579,0.6313587938972557,0.5786472975695698,0.6175060227114987,0.5547178189598756,0.0894335932003196,0.5483715081066636
0.5807392585283889,0.5707960771787467,0.5519727686711622,0.5808989923866964,0.4357668074688946,0.5395271454784898,0.5066933864810801,0.5276077313485975,0.5108256237659907,0.4489538158832069,0.429456866787798,0.4371669888474184,0.5063777541090076,0.4290139545798963,0.4809198818122649,0.46672956479126776,0.4637452270573131,0.4414686738924652,0.4694942894940445,0.4697278052197144,0.469692359038451,0.45915279392527336,0.4894158881233393,0.50755642417078,0.5748192262563375,0.5374631882910653,0.6533523115793579,0.6099153955780252,0.5955319531349579,0.5750286943392657,0.1636213154874223,0.51287630560372
0.5777099343316908,0.5904196227890782,0.5997561966062765,0.5450896972793438,0.3912830195861004,0.5564836326221043,0.4695872228270599,0.4606676180528849,0.47211892448563963,0.40273709809359864,0.3914862440564655,0.4337891455413806,0.43698634241794254,0.3850307601762846,0.4338313032170983,0.4441874291589504,0.5326653212410473,0.46813006346775543,0.49335461348640536,0.4410672348032824,0.42460074628381606,0.45095222271857627,0.49980189008394243,0.4996214667932667,0.5620265168413767,0.5085543897491799,0.6447975773786216,0.5009068755171268,0.5856198168170288,0.5140468487209394,0.362977197980901,0.48560443080541216
0.5568588555719653,0.5965203448708736,0.5506189846918965,0.5488310238266058,0.4304025270818862,0.43675982467944463,0.4785985796163079,0.44787198399420297,0.4938260196147695,0.42112352003266446,0.3931956013135218,0.4703925577526153,0.4733915489176716,0.4148372479370276,0.4236110293573529,0.4539535388964491,0.5477782597709148,0.475013968035482,0.4981850921997605,0.483106573010294,0.4767986723785644,0.50401614339772,0.5170378667129026,0.543090909480942,0.5703240732848879,0.5085372932479785,0.6428731164298417,0.5513650354775108,0.6140138738812185,0.5236879168487276,0.5210431873654001,0.5161158181481399
0.5302641134141174,0.5739247900215139,0.49931251733935295,0.5541648916329011,0.5101368560890903,0.44349037696770777,0.48637469703386027,0.432804820740828,0.5115860800764022,0.429529521317961,0.4089414378275281,0.45476577285077685,0.45762336092351985,0.44047784386124184,0.43306575619027693,0.46740845305477247,0.4784117748242067,0.44123850250187346,0.4752776212340882,0.4921463976216167,0.47104375415448585,0.4945713219350477,0.524302567410497,0.5318033184076635,0.5502105135737205,0.5092185523072148,0.6619338025460643,0.5773109179122231,0.545114048329884,0.5469517077337344,0.5398632949233505,0.535191892223581
0.561545753696972,0.6299758403464992,0.532821172742788,0.5696975204702975,0.5328486967797067,0.5416285759502948,0.5185535571540766,0.4696595333542863,0.5343129889110872,0.42235774548251975,0.3986148278606974,0.44918015520377075,0.4591009836669239,0.44705451160242593,0.42915157526054476,0.42759906560638045,0.4140141761000004,0.4367176516122688,0.41157254580989266,0.4379983052666963,0.40633030975410767,0.4439374714205337,0.5041756546760101,0.4524700828876229,0.5506694222501946,0.4616553398542642,0.6232389345976704,0.4792772660310647,0.598634634984812,0.548163294203635,0.5526514432896273,0.5050344039492001
0.5823806676867184,0.5980025499655011,0.5837278209872492,0.5668723087532488,0.47549397417931705,0.49100359329649595,0.5623105231194332,0.4997785103311275,0.46909867130761046,0.5287280917187877,0.515383359685806,0.4703803480296219,0.508830669164323,0.45703719359619427,0.448387764825375,0.4249085339647098,0.469563324088009,0.46539642433717043,0.4678725108940423,0.48092668783218967,0.3615930418608989,0.48397474496019144,0.5372668154500262,0.42078522745373936,0.6026909247444622,0.5061541790800768,0.6278213906419046,0.5411728975879162,0.6448252908078738,0.5721226034343856,0.5404343155023145,0.5289083887256988
0.5298946414899398,0.5563509384268573,0.5876392918269131,0.5827741230785748,0.4972190049750845,0.5436077678962021,0.5390799975807294,0.5149498315390038,0.47077707171371586,0.4858064488588907,0.5064932026530677,0.46664526344946156,0.5031748300212113,0.49211863932550176,0.4914370229526029,0.5222524405243733,0.5616554066776658,0.5267447986111881,0.5263233161418295,0.5478650311207688,0.4848062157481645,0.5472291856591633,0.5151222151932133,0.444872268296936,0.5587539665663667,0.5379874189114419,0.6296849278105964,0.585958896379218,0.6466641355518936,0.5215639263342045,0.5341097446564593,0.5498049173711635
0.555483101248767,0.5663739734748284,0.5700078156650312,0.6108237143871181,0.476502875042089,0.589519017002746,0.5814962641033478,0.5143229283266251,0.5002845247659617,0.5098583887734027,0.48766607936580014,0.5378926428279341,0.4790168922212337,0.4887072107723775,0.5314407022233743,0.5010035227950067,0.4723821351341477,0.5236243127139802,0.5442692550464003,0.4426417815450746,0.5244898513415482,0.5260831972098399,0.4836077258774784,0.5149337420489207,0.526757359046418,0.4955146606106555,0.6201480608576699,0.5683377486277253,0.6295627381811306,0.5328710902121618,0.4939736891292907,0.5455878707970374
0.5956330813711663,0.6147297389751162,0.5769215350330152,0.6339807884044224,0.46057399613929684,0.6074960836090597,0.5745034507259319,0.5583601290452659,0.5260162142176453,0.5229689680657138,0.46566007129360754,0.5178806948792952,0.5359799071932614,0.5115396544996478,0.4892467568169821,0.45294416420361594,0.38142680233007503,0.4769854274297769,0.48724741782311637,0.4188035249894176,0.47756277572617223,0.5528757040055772,0.523217356061154,0.546623725115362,0.5322020308525955,0.5520958635216946,0.6226084792542724,0.5898416050347556,0.6061938166232688,0.5873019684694044,0.5187160132607348,0.5777065842399312
0.5658169736265837,0.639888605487441,0.5812828228731158,0.5663341594588623,0.47538496836058936,0.5774677480984335,0.6121993294083066,0.5346108177349131,0.4938345442386258,0.46316104837764976,0.4848582158533448,0.441785920452121,0.4458292104507071,0.43768491330910253,0.4797914122933725,0.47074948048299664,0.4203713597633813,0.438968615452975,0.48803098238764253,0.5005995863100354,0.5085650059778226,0.4612666315975649,0.5333586462797203,0.5252757359238398,0.5685252677579381,0.5540016917528051,0.6387685783125312,0.6060590840950392,0.6135388442807749,0.5499459815700195,0.5323617898718067,0.5226266842708749
0.5551580721180994,0.6070744438221144,0.614847744172337,0.592472571851,0.5289583718972877,0.5737569959606735,0.5899658678183479,0.5098356471970797,0.4974385429835313,0.4687293958886514,0.42785482952961307,0.40493837646575176,0.4483835328557957,0.43270471212684974,0.44674783940715507,0.47784334488231905,0.4798672844417076,0.4776674517570845,0.46538683542929604,0.49542490869786054,0.5395658147247222,0.44557032978512195,0.5148363813718425,0.49032485789130664,0.5584477340721483,0.5101997378408778,0.6082602489467611,0.5805030120371673,0.6121741639020276,0.5585395297378996,0.44094388412386293,0.4751403127104538
0.5702935074546018,0.6425863080801366,0.6141544519832919,0.5989876017519017,0.49591076528500394,0.5501198217538722,0.5717454379739725,0.4723204363011498,0.5545703519160562,0.44306604649051706,0.4294280018732428,0.39267351632095576,0.4799726122440281,0.4103963458136103,0.4491310414220751,0.5143042743022658,0.38552162582196386,0.41212764430548277,0.39509285090034585,0.4014557633350006,0.44291163722994925,0.46813455300404366,0.44226938834981705,0.39897203379527624,0.5343953071331485,0.488901646874375,0.5755227617648667,0.5139438800705755,0.5921405825248915,0.48550781578170077,0.4885363528027887,0.531853814084969
0.5449031924480772,0.6068528394372411,0.607752618797221,0.5964520610148578,0.43898419836680824,0.5897688261061101,0.5439434882183118,0.465972054548036,0.4775370514735843,0.43303712809264744,0.35513050510697586,0.41790804362076295,0.47207210747495043,0.370463430679873,0.4145799827824692,0.43661786434050615,0.34356729986137385,0.40527596492621215,0.3838971873341651,0.3656965855266875,0.3612304292938793,0.4356437299053324,0.4656299362282422,0.36411477300238704,0.5246874798956794,0.5065507076864739,0.6064582282063506,0.5111022585061621,0.6101474453526224,0.48292702118548736,0.5697209456915531,0.5263361387950468
0.5184916211844457,0.6123858239154869,0.5384714285231963,0.5622162916897382,0.4480521886406443,0.5751072211858227,0.5229380718325869,0.4819028327652117,0.4484813037769343,0.46458029567574494,0.41223708956791066,0.4465635472946374,0.4492756487677372,0.43062784126854103,0.4450696557728804,0.45700548027653115,0.41650356002439554,0.41767176502373315,0.41307665345725775,0.4349690572189525,0.4441658222561781,0.4296511283212489,0.5415020851362757,0.4075571125210111,0.5312156609279661,0.5243126420502188,0.6093489181893045,0.5845405514464147,0.6416595244292416,0.48246133403039493,0.5122091847690372,0.5129988934152071
0.5708518612023485,0.5856814009666567,0.5695927041466896,0.5339593256369808,0.4568035227411768,0.513083631737086,0.4901143164744968,0.5094986436569205,0.41298929205481333,0.46022543926410026,0.4112425730291381,0.42922346785314036,0.42813013518305804,0.3933865992091875,0.40293025250497627,0.45155902974027495,0.4085370254272584,0.42719509904535136,0.45550050131698216,0.44721285890999474,0.4900040657824396,0.41068305240129166,0.5020135888335396,0.45480361938669717,0.5435750727270143,0.4727819253351658,0.6302375895756854,0.5492815588654086,0.5792102021721057,0.5070515204981735,0.4522447866409795,0.4735170372614429
0.5138460721589662,0.6325115822168128,0.5532956886190421,0.4789216229288441,0.43853697291698884,0.47117915703272034,0.49933867406435284,0.49537831911480706,0.4331214494319164,0.4058998592200043,0.3783987175272294,0.338769559438013,0.4266356430406066,0.3635153190710237,0.36637162610391855,0.40813871836890725,0.40132532379583935,0.4158359555321412,0.453133575612779,0.42130591642384785,0.4303919751847083,0.46697659990734514,0.42787399466546255,0.4707772589666096,0.51834922322638,0.4813328695413786,0.6304012961253262,0.5029175138516534,0.5568407063709537,0.5290606029138482,0.44648372679551906,0.4697001851529809
0.46511025680279044,0.6068513671071093,0.535362735791689,0.5166978690498842,0.40495372993286793,0.5068333046003002,0.5697815879321185,0.5124382022246897,0.41737519805844764,0.41303588336230973,0.40101868015102976,0.32954315999852224,0.40916304926264324,0.3545905449710617,0.3997355656141485,0.4141625339562458,0.4816755777512416,0.4513165534834577,0.452518868270021,0.4067287523644195,0.39820620680362345,0.4490656256818628,0.3997860563229112,0.44933044438484,0.48279976891542126,0.4727780371290574,0.6375564512708038,0.5288051901266492,0.6174353588242489,0.46530425512514384,0.3859963547061479,0.47889257666298163
0.45627754364013234,0.5862054838501859,0.5222686453400808,0.514232782087605,0.5141302273346721,0.536378201852467,0.553027123711402,0.5013954357147509,0.506250942127739,0.4670783232810997,0.4170008882504274,0.42733001535657833,0.4300733904911576,0.4079525478266186,0.40207970080266936,0.44060575826007053,0.44800626842692004,0.43567951202025,0.3886939746061954,0.38813821339451743,0.39429944579157855,0.44009482065246375,0.4317652547150296,0.42651040578885907,0.5076822027100394,0.5542015171642842,0.664641687562019,0.5212585165049183,0.615897931126942,0.49294421195384214,0.4520157015099653,0.49011991198139093
0.40145159383704054,0.5699641033600951,0.4480018033057545,0.446814125411858,0.49753183964800524,0.41737564683640455,0.42062025728788616,0.4229604713715357,0.4545576949484527,0.4357358240879301,0.38593698340723986,0.4352906728716088,0.4487897403114006,0.46098865089855595,0.380718416616663,0.4267644361395556,0.4219185116114618,0.4272247200155159,0.4076304241401178,0.43129063574980336,0.4320078050736262,0.4628134374362919,0.4235528037763986,0.4200184838546366,0.4620498273094345,0.4639413345701897,0.6238730546765399,0.41743612338308184,0.5644740970864989,0.4633530788191777,0.45155621530843143,0.45451529247315314
0.487955604125376,0.6093414712517599,0.5081808398354684,0.5359754206073121,0.4330055750450115,0.4839574497257844,0.41245769360283624,0.47161578011885347,0.500937902759583,0.43105073736799165,0.37646682126313064,0.4146795085258755,0.47838756157193685,0.3765220661068855,0.29287732114370546,0.3819082139817202,0.4267234320244436,0.4134051586447786,0.42364934506089325,0.3917521746788947,0.4030175544387697,0.4974413935497251,0.47009948354727066,0.38962401384186646,0.4331908223411779,0.45097380958063543,0.6058108433750795,0.445025677050441,0.5918254912976806,0.49949810271207773,0.45550832175037426,0.47860399127213643
0.6190145057642747,0.6401913079828109,0.6330821915604531,0.578268795741156,0.37546308686178853,0.5540429166037575,0.5285803634571448,0.5689116046311843,0.5644939372130713,0.5479290679380567,0.5334880351109873,0.5399430223367179,0.5007945931181386,0.5196552034296699,0.4966312792448212,0.5551327319541826,0.48948095505427763,0.5434797987306135,0.5114841684061883,0.5748648937698769,0.5367731546930046,0.556687917864075,0.5103304516835778,0.49630699509760196,0.5486114155937228,0.5533964816565459,0.6208723894878845,0.6128395052229575,0.6325670892803336,0.599489132453926,0.5773153650348236,0.5115266144051107
0.6291984559596718,0.6553007348924865,0.6136830092056985,0.6154247877222473,0.5498872827609959,0.6210530057361677,0.5189493640512557,0.6086634829910482,0.6050984722017586,0.5805102974251196,0.5358878772280652,0.5447318868557796,0.5089876395557867,0.5083486505977072,0.49497766195422604,0.5229860912754765,0.4835901582221879,0.5195867906812334,0.5049605043135926,0.5801922571709542,0.5273407444379077,0.5055962143581142,0.5238130853386593,0.5077439572285826,0.5439595439984117,0.5321285901297886,0.6480615252670744,0.5700739025253986,0.632841049320529,0.6034811242120983,0.5899774408390279,0.50985710068786
0.6449640849095696,0.6454194117832106,0.6002481910246426,0.6058195480332077,0.5407394789844987,0.6297450949257031,0.5806375266080601,0.578694666422355,0.6055821703381813,0.5635504068827778,0.5550098862663124,0.5622640765847048,0.5598688243740197,0.5535272412806928,0.5565144154113352,0.5489881494181209,0.4340056708461689,0.5488938837130236,0.5008285431381708,0.5285417776032557,0.5395633503523588,0.508054295463661,0.5391800742418764,0.5140137456778043,0.565287350873821,0.569739381178796,0.6106226804067421,0.5249025882101426,0.6221268218201832,0.6048004670340531,0.5444622694256338,0.4631710930680617
0.5562573851292858,0.6432539052072936,0.6103124747953778,0.6122065583247611,0.46528968939008075,0.5587049912897688,0.5631282608125632,0.5199536012923002,0.4961805965341789,0.5223519834918636,0.4841203526737547,0.4912121482545745,0.48632795632715076,0.4349076715489702,0.4653441152179087,0.46301698288632603,0.4407140742781764,0.45810605300615925,0.4727264291266533,0.45582039723384915,0.48556075524543646,0.4808944842112118,0.5162386753452958,0.5215456679541094,0.5869238135714168,0.4904623857260929,0.5959894593070547,0.5595823705015445,0.5884625689494799,0.5849222218786863,0.529129978628004,0.4312241911346879
0.5666933363413944,0.6340483827181923,0.6051900279638771,0.619686771971025,0.454952826961303,0.5530288217637359,0.5522132986046515,0.4256236155538562,0.4584954064241845,0.43591465371044835,0.38877613738237277,0.4102199461897797,0.4105013487750517,0.4030876924267172,0.43311279264862845,0.4521062477742131,0.43356114834841447,0.3892006632872275,0.3728766082257751,0.40044244868874435,0.40478697778428424,0.43439058459086377,0.4652828956723502,0.45166307983495485,0.5346167893174973,0.512967461805163,0.6232075551407473,0.5196207552188179,0.571166605827945,0.5444029959895271,0.47978359983411906,0.46472820286903926
0.5588327025391018,0.6527914952111149,0.5406692919581199,0.6012206008944118,0.5162343239651109,0.5933466474539941,0.5444907201678367,0.42104983912486266,0.47268608693718067,0.4386065427553279,0.4421717544858001,0.4460933954396073,0.4379554441403681,0.4578009823635228,0.43981370973127754,0.4189506867976229,0.4536289943739456,0.42018791085276497,0.3830442782344227,0.3777069311534604,0.3997775139535874,0.4338179128273039,0.4278970252951102,0.39152007215115714,0.4614294696784055,0.513769399810004,0.6436061571990862,0.4779847879091586,0.628528815915605,0.51097624318865,0.46486993784923203,0.4719426683739359
0.5112626432997731,0.6152714354954167,0.496436886313891,0.5638739531924573,0.5111827028628039,0.4912849090703661,0.5045412354478391,0.4854362834884166,0.4499357905439109,0.46022401969046406,0.40417373720116107,0.39755844921919603,0.45583267895967594,0.4269785916181479,0.40600561495041926,0.36297756019649047,0.39060156413675506,0.3789823840468499,0.4253595642650347,0.3583676940909076,0.40821531610709916,0.4259619057264997,0.4132608678981127,0.3753311638945005,0.4507377816969449,0.5169009765960277,0.6485451934030732,0.43250979900765846,0.6118159576330998,0.4825373653929921,0.4628877541569141,0.48350876357109435
0.47338262110179885,0.5789057625695274,0.40271911095930873,0.4805555594632343,0.4377858021988421,0.49656876314112564,0.4954332177825613,0.4546033161784889,0.4139962985064122,0.42110942304322846,0.4175599177051355,0.3874893514903222,0.4345613338947187,0.42621563919904454,0.41549747434828155,0.4278184637956231,0.42864445972604187,0.4134729099704093,0.41740964514778456,0.3867207906164097,0.3884697582267753,0.41340989093404096,0.40036817839291633,0.33892544878812175,0.437200970029001,0.49225377149066296,0.5655505234552372,0.39043456943371174,0.6291651305537426,0.4297661391873674,0.48281674470412733,0.44151803945189405
0.4032973205694509,0.5181270221322279,0.29118206494875587,0.44882850564506643,0.454951289088998,0.47718257857056756,0.4029055981365129,0.3243711220213717,0.44726550415932825,0.40748735348893217,0.406979542850996,0.4242988603065625,0.44204976740812973,0.43600301547092873,0.46107039684391715,0.45617710064542316,0.43719345453866837,0.47638780062659924,0.4488218095784559,0.432358424983249,0.416476181599962,0.4410842277011219,0.3589470873205809,0.37446311037275365,0.37769656468139545,0.43982839732110923,0.5950452115671058,0.3250693187548604,0.6270129029325409,0.47015942195272636,0.4720312228349873,0.2843540563397335
0.47346807987806094,0.5862230369674695,0.422989767680733,0.5043518982364222,0.4915009904703724,0.4944164078108362,0.44454369938154303,0.357143347380418,0.44105273426516317,0.40900597932025246,0.3923941810452551,0.47472549455719454,0.4897755468407183,0.4561679620434181,0.4968809470094821,0.49857835805511236,0.4057099241301475,0.46979538990857245,0.45188228011670034,0.47452380384053244,0.4256271827753121,0.42721005369684284,0.4194178542462152,0.41146057779363443,0.36339674234237146,0.5015884970237884,0.6296012153351257,0.3300720851515395,0.601516857714021,0.4717909398198313,0.5251710531936973,0.32571101905022315
0.6060138359891473,0.5726738777942617,0.5845095386126152,0.5361839129493581,0.4864466461975397,0.6338369474109536,0.45054594413309473,0.5026165477333047,0.5031501474876511,0.4512352624322565,0.42585133265909264,0.48709274413707365,0.45803188401672806,0.4827106111606395,0.4811132402295548,0.4984897204851805,0.41908246179573566,0.47862271916906635,0.4565663887883004,0.4871700068217929,0.45211018431943684,0.49229097354916823,0.4992858661919205,0.4225065739630161,0.47323856049126073,0.5642593131500516,0.6061085930561713,0.4961096885997598,0.6140290643644534,0.5421114445866153,0.5157608858960057,0.5114430983147853
0.5693202310604843,0.6360081546432599,0.5791644924352557,0.6206003747191547,0.4986615813360023,0.5896666407811441,0.39677658791804576,0.5326753346838953,0.5429716870109431,0.4527418065980962,0.4520454664898774,0.5077331001136436,0.48370561005004103,0.4657030967613234,0.461634035896455,0.442497386537948,0.4772382164422214,0.470604009504589,0.4638122823597363,0.5046807821418209,0.5031506150244506,0.4752054196478519,0.48606184364590627,0.43360427478011077,0.5050407594859349,0.5269750430655695,0.6220546186904846,0.5357333637223706,0.6259317295989505,0.5339331987761402,0.48592524113699576,0.5394530175176071
0.5666670664488153,0.6453746398651663,0.5972161928757148,0.6406943854930233,0.5247644882869984,0.5688655260035143,0.4409928233005692,0.5407146006729311,0.529200699070985,0.4555349091074924,0.4264921777095786,0.4757782732733999,0.4411203271092045,0.45231276879718296,0.43085316794537576,0.4518295180475748,0.3943224682916964,0.4094889063993909,0.43430476244673344,0.4037920275773521,0.4498135414752265,0.4602440175849086,0.38715330446582663,0.4390375634218009,0.474741991478837,0.5334331506841743,0.6440387328721041,0.5458945664556291,0.611166063650411,0.5438749430147296,0.5348021026407445,0.5852616799121568
0.5085427182174855,0.6551601750142552,0.5606561001228739,0.5994405148859404,0.5424627087091732,0.5905433861517194,0.4556540401526617,0.5161135910808091,0.50462506543222,0.4784461515202928,0.44775491712247045,0.4232826484874183,0.4703265745093206,0.46407205142067054,0.4823925892411014,0.47643424202764967,0.44423919599072387,0.41965181770498644,0.4357788653678345,0.39601926321243974,0.43175233603569363,0.502301651151393,0.3915305729557535,0.44080522247397375,0.47102113255381123,0.5110615841257452,0.6068074473144036,0.46035299625995607,0.5473624920447365,0.5134000175554905,0.47408813725111054,0.5617548261841722
0.5181215977627618,0.6129872189729252,0.5465437063680699,0.5134646153914855,0.48261013463111524,0.49484233199117955,0.45681987029080057,0.49218608288869653,0.5886830202658104,0.5160210683045755,0.5262823930370646,0.5302747843422569,0.5002776431347823,0.5381347062735196,0.5089653940831457,0.48244325176043973,0.4612197666728567,0.4685355702158992,0.4334306958243609,0.4821884864866255,0.47192876126754335,0.45867550748838065,0.44317371900739466,0.4110027079751357,0.4767214221435564,0.5364091771677361,0.6065799287164048,0.4575252260188141,0.5924756181503992,0.5402633927940274,0.44048010194643217,0.5111750094330865
0.5421801122823593,0.6190392084062235,0.5110119649572501,0.5259139234171925,0.5215607920095489,0.47256929131075254,0.5022964626673088,0.5428968075497754,0.5447064154171745,0.5036325802500794,0.4135424486857203,0.5421107612630252,0.48808269646428426,0.5491274037092235,0.5021397547717762,0.47809125593138824,0.4784401378360129,0.48128020682248124,0.4857388709573453,0.4385829252488609,0.46892096578813536,0.47396089598493746,0.4703813215502722,0.4601031535633069,0.4670152556841748,0.5898238912757524,0.6312636960664266,0.5373694414263528,0.6240786403506241,0.5697229524646893,0.5400853530239679,0.5202868972674378
0.569459945496554,0.5970398703826022,0.5616353106682521,0.5824470440883517,0.5529274419631011,0.5730640523552685,0.5492006709069286,0.5282896518494173,0.5394731224470624,0.5192927413984249,0.44070315229795315,0.5241368962570183,0.5617338718620452,0.5060021650295278,0.506429657742681,0.5129919502841583,0.5092734456732149,0.5468367244016278,0.5106330753876159,0.4340302076797963,0.45951096025895394,0.5285043399347847,0.537993491621518,0.5321134113379401,0.5588439844497217,0.5891733816698018,0.6486129199483931,0.5567280181730885,0.598290114458369,0.5570078845144726,0.5322168137473082,0.5545149357795213
0.5214723386363963,0.583942400346665,0.5398697361251001,0.5753789657565022,0.47215466657948724,0.5544637930259947,0.45644329299255615,0.4670996469786032,0.5519135675733304,0.4545574995474307,0.40817224091482746,0.40304974858634374,0.49795762872912636,0.3558954479367227,0.3939300045119655,0.43750947659612655,0.43030850087111383,0.39012698983992405,0.45493302930861623,0.34826464654404266,0.40977451190143654,0.5326641776374781,0.4906776630602333,0.39582843246088356,0.4691977979138978,0.5721996085898364,0.6614961868843194,0.4875725701752033,0.5827069263006199,0.4618444151381551,0.5393084244790349,0.5262240802443369
0.5335845158396699,0.6463882733806771,0.559770349830041,0.4951948377814682,0.45372044247243354,0.5458073293097581,0.4587096226269767,0.48523175530817486,0.5095273964750506,0.4984822861527878,0.4209739188039776,0.4473441557742181,0.5057736904841976,0.40239318664653473,0.40207814466714853,0.4371886640540809,0.4413314534488721,0.4312289018436815,0.47638864308662865,0.38046380590274714,0.4682329911376492,0.5393804515916945,0.5001907611537477,0.4228460546569898,0.46977817551915785,0.4957962219473813,0.6596032698880403,0.49718887852214083,0.6266637206784197,0.4528577855575549,0.4514903231296247,0.5110661240076502
0.5678867329449693,0.6571699326462247,0.5623743164270528,0.4854400159538865,0.5277191581014865,0.5510654764461403,0.530615900885254,0.4632258502767925,0.4980051792081111,0.48969435676982626,0.45388115843968346,0.4617442540033534,0.4726551164109403,0.4642557004602784,0.4738207813966693,0.48193547210000237,0.47114443245177956,0.4356934361448715,0.46093595426314177,0.42867140014145605,0.43597446397547673,0.5103368743906957,0.5144810086653634,0.5043276192142349,0.507600854766976,0.5103307344397892,0.6582289471919386,0.5638876878859002,0.657693781620556,0.5511253766786754,0.4620354595965587,0.5488996267048617
0.5506202250268448,0.6677889284996961,0.5538823253853279,0.5799886030591742,0.4973227909673578,0.5276548612827437,0.4812013365834621,0.5104647920449678,0.475574051139537,0.46043904002409225,0.42151322262758933,0.3660265738487467,0.3541041398410137,0.3276005935112406,0.3248502362078902,0.34757362969238675,0.3363578757553765,0.33206537341022874,0.38433413194526117,0.3722730832234936,0.3662994222566183,0.4966594043119824,0.5128651449932345,0.5180338423893361,0.5339483027700431,0.5037250022164143,0.6587269566734659,0.6183330339062232,0.6177748898318581,0.5886749298353784,0.48292316714716826,0.520259040820866
0.5786433663719887,0.6459977986760698,0.5949850064636628,0.5993686291757314,0.48662580757854906,0.5839087710859513,0.5459199149436883,0.5427682173628114,0.5061181117715488,0.48353637289236184,0.45557495550568666,0.4417787691325644,0.39092385679244807,0.39986434670133786,0.429547154248692,0.43232241048690007,0.4415734702633037,0.4425160457801718,0.4274440148269396,0.43288903768851644,0.46591158550381695,0.45767260163180823,0.5338171404299084,0.5168041891383248,0.56303746401985,0.5506491951949155,0.6526595037560708,0.5981921774597627,0.6067189182521721,0.5977971699039651,0.5452597649676639,0.5600784296276904
0.591033138665692,0.6004104783286573,0.5699731404394123,0.5770996770126436,0.5078838271497842,0.5367398150023561,0.5817748758493992,0.5522956518268658,0.47461069798270655,0.4702031835750638,0.48420808276603483,0.5170711401037213,0.5050075143051335,0.49965903117823607,0.5052545787165352,0.5088236210953175,0.446735163824666,0.514308844513855,0.5036429889954261,0.47064640606362423,0.5299017708268045,0.5249693145853208,0.5324485610174146,0.4461885756073042,0.5400876083150216,0.5770014952108302,0.6191028580784492,0.5698359491157667,0.6526153673266022,0.5728363376930359,0.5717690129338799,0.5758550133173741
0.6212101726238779,0.6241543090729939,0.5648716651021352,0.6004068270160307,0.539699020589278,0.48544940627261607,0.4775262096969414,0.5422307644118756,0.43654607922340316,0.46955447548468837,0.47898470650991604,0.49661481698071086,0.5092185523072148,0.5220788538579313,0.4943041618467675,0.5361238237149071,0.4734298340219605,0.5107373975539258,0.5356341371123303,0.502673078911795,0.5500032659598596,0.5446266197516915,0.5206635122044386,0.520066348420806,0.5596501527870559,0.5256178131198662,0.626204584845716,0.5765958717456191,0.6471032420585385,0.576092396877047,0.5670294821111967,0.5515549498999993
0.5792428602091678,0.6308625278081123,0.6240423457968315,0.5673884681073867,0.4938088483945856,0.5620218260616159,0.3690255447743976,0.5290091321565938,0.46043333801736397,0.5124027334766835,0.51749652202813,0.4920716267926689,0.4773172449711404,0.5002846107681989,0.49793184398602847,0.47430183938088655,0.42833464905782653,0.4891705990955154,0.45668144263024674,0.45400231439373495,0.49022674266740174,0.4717929899121982,0.5092020585247415,0.5471293511969717,0.5541549494548941,0.5110645438483601,0.6068850677209691,0.6063195474843153,0.6347335551865635,0.5769229916728529,0.20881016730926028,0.5693410462506763
0.5549881682623451,0.6278488461528146,0.5912000855723019,0.591302130597323,0.46663415005453845,0.5413814291228379,0.3802975393412553,0.48160707776685063,0.46573689775771804,0.522883981933206,0.5126833642881299,0.4396951889759048,0.4082922805886986,0.44245277916673337,0.43646971712404076,0.45280365534314954,0.394264991028628,0.41467771987660795,0.39252592573696715,0.4341091898630591,0.4293096808602034,0.3893763718504211,0.4814895455347783,0.5350497763200477,0.5556510551460551,0.5258717174783456,0.596260020938021,0.5504244802400947,0.6568235747024103,0.5541101385427352,0.06484057957929182,0.5340747905740207
0.5331036691976166,0.6328570358378314,0.5381067004921505,0.588704517192348,0.45626093504696075,0.496992875589243,0.44451676338758483,0.4969821772176833,0.4699826100236562,0.5035722993528486,0.5118217389992681,0.4378215420475215,0.4176764891972777,0.44936783690859433,0.4562783932173539,0.4807467740104248,0.42311928219573536,0.4783613974001675,0.4677634402218012,0.4703401030039571,0.48599849617958124,0.45034407183944086,0.14160007666296223,0.5319642566049125,0.5728980524083683,0.5432735808534184,0.6297092818083807,0.5785287045065248,0.6303012968554185,0.5664735846650318,0.05511151972316833,0.46823406301702664
0.5151277336517974,0.6204350835817329,0.5337791614921158,0.5597661525699441,0.3409020196623091,0.5472690111673505,0.47859693824185384,0.48223085581529596,0.43433309210901655,0.505722526628258,0.5294099458783568,0.5158827802908976,0.5014626406496847,0.5418840207859635,0.49487253013287646,0.5297637464383569,0.44081088084701603,0.5271391992575145,0.5116093228656631,0.48461813600771425,0.5197444296284685,0.513823659768654,0.06946995064904443,0.5388609901965355,0.5761382621071296,0.5543107357057294,0.6301668989273878,0.5766188694113572,0.6366813571474853,0.564543096102469,0.21592330334072263,0.4568513133942302
0.37481104162401796,0.6012222970856166,0.4666469035492452,0.4479564701295684,0.13701512855411088,0.44919915012855904,0.46868803931758624,0.1744721786038116,0.1890298606774905,0.27391126697094287,0.40841061833792125,0.28063616593247454,0.32537931409883725,0.32459726246504833,0.3970531658297019,0.3959441300589188,0.3919915250714527,0.3697277802103565,0.32573014008931084,0.4006953500917631,0.331553737517089,0.3066779278432737,0.1043629484174535,0.47553583576761727,0.4320031913464036,0.31307268133982125,0.6381003176840333,0.46638329574867,0.5880729927494582,0.4176655970924951,0.26614730844970425,0.21428516831030167
0.44082478928673424,0.614685332857886,0.4989911661189879,0.491528693334566,0.03392978192156871,0.38319632496500466,0.47195843927430836,0.1579905216991547,0.20429778165243065,0.3376584543941746,0.46522518621747083,0.3544415467970516,0.33153128624658446,0.41014238511039075,0.4389878001468079,0.4345811903360342,0.4439694795789985,0.3907768424806813,0.32515975727531793,0.3946416549412571,0.3792407594941001,0.28310137915951633,0.2614816333289678,0.450388409843384,0.4152409637568272,0.29071622952140236,0.5915053610829472,0.4319131833738751,0.6523251860396901,0.391053475048586,0.20801375639624556,0.19150906023317127
0.5219540488655697,0.6512796555867274,0.5850807340827128,0.6064924614157676,0.03864532742115359,0.5138620422959216,0.5567112343994288,0.40187066247247777,0.4274497788645327,0.47836306115728555,0.44373409943844067,0.4632160855973172,0.44631282577024556,0.4712422386228784,0.4649069851483508,0.4631593048333071,0.46545196003101647,0.4649104212915388,0.4482437805782197,0.5010646673802648,0.5490322609202625,0.39693469470267395,0.4747532718465602,0.5087211653654392,0.5532068207469825,0.4479412744524761,0.5921149553283772,0.556005675711323,0.694659876688484,0.5343600628317984,0.3225494531735472,0.4547175854608623
0.4968860636066326,0.5273141248783303,0.549610338266744,0.5665481583320455,0.0501417991541702,0.5822098545190381,0.4968120906706633,0.4391386770383023,0.39169041360395457,0.5224163244402676,0.47454794405921313,0.5058830567799016,0.5000499573607592,0.4748244076936125,0.4811129056348482,0.5051837477810945,0.47455642514004226,0.5000319174837147,0.5004616389528008,0.5410892814058175,0.5956613245026208,0.49678558161584924,0.43008089096448715,0.6540651326766286,0.5739468520287351,0.36039836986900076,0.5362320256685585,0.6052949545345392,0.6265764944680913,0.5886772264456299,0.516078262155897,0.46579443429267325
0.32360492622279524,0.33763638110658667,0.26594351550502515,0.267690447786081,0.14221580422848423,0.39616073330297596,0.5028091569427344,0.36994392111923063,0.28701473842634806,0.43051756858042556,0.4457891958297177,0.41623916391364524,0.3798311051121286,0.4409663952559049,0.49226438330658323,0.4546196658848441,0.408248862911028,0.4432054360910115,0.4296342451423926,0.47712395216293163,0.4896163738370697,0.38557191750817343,0.19204654943839086,0.5111063142664601,0.4640488357583942,0.3151533615384395,0.48943087574256633,0.4734937880828776,0.5626570887032764,0.5416010758363947,0.19482223698392065,0.4494163316265026
0.28045887239212836,0.5134474820191893,0.18687631100931426,0.3830109807768341,0.21566784465488983,0.19938369948215914,0.37792039015814544,0.3074563915853,0.23398485404483926,0.4392372209012204,0.4835934034117058,0.4261405169234954,0.30025053668017926,0.41019238963887256,0.44625667465902774,0.4057942952540278,0.40751143009467367,0.3688155136737835,0.30658122720968073,0.36258158081909775,0.29297441093155346,0.31540983178176896,0.09730488856887415,0.3014030196588123,0.33689205190865507,0.2720343646709846,0.5874568223989224,0.16197284668675407,0.48949007770774855,0.4899989911775196,0.24166025524348295,0.30571872529269895
0.28525193759848916,0.41279934447739713,0.1634192774202692,0.3832732783153158,0.42747916235870775,0.17859910840238843,0.23234747295624777,0.2331794778419954,0.2586932525658095,0.39397270031750137,0.47795165619202773,0.4480381459763843,0.37384228414480214,0.4815982883223875,0.4596750488991449,0.42869195871798094,0.3990370151202123,0.36996061421947873,0.32030899988287026,0.33241651482904416,0.322635702078266,0.36683803884121846,0.28250271214900224,0.3279535344237757,0.38082585221333926,0.4553751216624312,0.559814089155625,0.17081093585614235,0.44088237545100634,0.5613418721454269,0.3325744664624089,0.34683536136687226
0.48823567483316294,0.5491872830528567,0.42047871627880495,0.5678266275261222,0.5570229842479626,0.4986822526190261,0.2907615060962194,0.4209782028936141,0.4399430390573538,0.4219995668383476,0.49673742286228106,0.39586913966932885,0.4861499096411893,0.4890758442010584,0.44459933851469974,0.4778941320081505,0.4277226412652073,0.4936841529108057,0.5314623733292979,0.4557269428890527,0.5410339875763307,0.5306161548488898,0.5602465506226066,0.5316532145681171,0.6067987665084523,0.529768886585793,0.645940775990149,0.5132978129113797,0.5643835828188816,0.5444568686418101,0.1853728634913568,0.4624668386204654
0.42450277778538253,0.5837096762223192,0.30333436576408046,0.5609085272307578,0.5517868219461919,0.42586921135187317,0.4400683175144621,0.5775774445707994,0.4901711709036901,0.5802366796783653,0.558916165334852,0.5058203391637703,0.4822554995991297,0.5213035598397651,0.47448253423533027,0.46349715230935573,0.45477772592172055,0.4624247918965905,0.42732221956462474,0.3697890149667366,0.38232548414693723,0.39538837344788746,0.4357921127548336,0.36451573316610775,0.38248801942351063,0.44825493601713334,0.6076036338917531,0.23722058879581873,0.5256555366369824,0.5667713292520018,0.13709402667506176,0.34848975289677303
0.49074326063298385,0.5223378693781132,0.40625572614908395,0.5527734759174062,0.5373854161245036,0.46625106075207395,0.5463371437515236,0.5339006066422489,0.5108960686253062,0.5615086524036755,0.5615830138542617,0.5438201459010293,0.49848172931477014,0.5405601343321691,0.5310064208649167,0.5416681560754918,0.5219617335899029,0.5313964343465679,0.4650786909134769,0.4975367236057249,0.4942714458834862,0.4657076654773632,0.5052043542575086,0.4875353914966006,0.5011291966846577,0.4781011388737708,0.6335162432946013,0.34755911053072286,0.6031087946847191,0.5517020385741426,0.2524767922928495,0.3760896618796143
0.5989898534818495,0.6602975115416585,0.5342553956875148,0.5666801292100916,0.5551192710704662,0.47962363893523735,0.5837275117496575,0.5207696921137182,0.5881143725897969,0.5552773863368244,0.5536600730342347,0.5377293411122337,0.5659322028491839,0.5434568669109797,0.5827786872149603,0.5757417171187327,0.4936119456489912,0.5091375946294173,0.4926031956909693,0.5218480896876299,0.5894524065421378,0.5520815794406689,0.5799970038664568,0.5769775149130418,0.611811945688171,0.5805786625263397,0.5950422555662338,0.48496839295103555,0.6398325408263459,0.5818468935143348,0.5812528727400852,0.5233669721171325
0.6183885354187286,0.6390081098859886,0.574343811020128,0.5920510636885765,0.45678022797915013,0.5567998149991473,0.5614997005334059,0.5374751091531316,0.5693040477187015,0.4840957955409996,0.5397102178565082,0.5088152054702827,0.5392479392524585,0.5626256704668411,0.5625964160735605,0.5365656859126932,0.4364116294684081,0.5247652808047376,0.48149667155767095,0.5525437840114439,0.6007552837723563,0.5483628559884889,0.5693769751231895,0.5358515109729675,0.6280560205577979,0.5807147583333448,0.5921665512064291,0.6005980996038079,0.6062241466950694,0.5968656553659886,0.5984194423972475,0.5541074852613966
0.6470560733596782,0.6264807932553375,0.641671178611946,0.5504677679849783,0.5104791434252836,0.5770927538041797,0.5351112926053645,0.49149554929175143,0.530176432484741,0.49628943597571695,0.5157423230997474,0.5072941752089808,0.5259517031782687,0.5692354229621885,0.5494519885337944,0.5582485969660019,0.47809867123664124,0.5712188994892691,0.5610970964353461,0.5558636789876601,0.6413514027341121,0.5776640425047262,0.6343879912660073,0.6110791358902566,0.6092945491459585,0.6118657216805298,0.6150123739074383,0.6550365507769033,0.6483606191736389,0.6053352271125378,0.6168686499619122,0.5838789057470183
0.6523114072851516,0.5837910184674099,0.631176817809826,0.550374080408304,0.5302698429417685,0.5906664132157213,0.5699909678666247,0.5571135041423644,0.5255509485204956,0.5361881591844988,0.5201191114709145,0.5253368920041036,0.47928695590659837,0.5765129855216223,0.5988305157706891,0.5700611825210615,0.5393447103583979,0.5722992870461564,0.5651096869843568,0.4950520043845319,0.5760906251389277,0.5306908606289327,0.6283063232920667,0.6072649847586111,0.5974593334760008,0.5712507286375764,0.596664667678797,0.637772888513498,0.6343634841951827,0.5563321920047063,0.5822084483350629,0.6053672624795856
0.6177534270080256,0.49750254268139055,0.5259593971199238,0.5729425561150209,0.4848362503061609,0.555360754406902,0.5800971016463591,0.5939644016675514,0.526274287278287,0.41338402925864104,0.5054997897463752,0.5291818785803671,0.5097055937814408,0.5101781650188663,0.583781034626141,0.5492305652900753,0.48590106316746007,0.5250577601829988,0.49528974301580153,0.4967800768452009,0.47999533298641206,0.4948700066388398,0.4823997214577098,0.483241257080037,0.5206779202090023,0.48397763617393746,0.5480964331035237,0.555094970283706,0.5633714257999735,0.5381251624763487,0.5537086507935712,0.5480026800146323
0.5513762110380064,0.5547067255890165,0.5059118085223172,0.5830985309939924,0.523748841174958,0.5352191146373795,0.5641507907528384,0.5098763066755522,0.49627155606634576,0.4594515284798902,0.49118847719168457,0.5035729026037259,0.5360553221418707,0.512264325072623,0.49991114220874067,0.5314648211737026,0.4746416174617598,0.4871503637990371,0.47601815294896255,0.45858738071007127,0.44596335080448773,0.45943169032033676,0.4409795099064552,0.4298869088644518,0.44484601715848476,0.4143956373745612,0.560976584830017,0.5030525448032567,0.5556505916693517,0.5406285082164031,0.45160976808917236,0.5425111742773758
0.5435876135316576,0.6241103926021144,0.5152602208338564,0.5703161634833526,0.5033231684398719,0.5067659726287715,0.5842265565638738,0.45962681607950734,0.4494157270034946,0.5125652150226692,0.4767826866412072,0.4845239403265483,0.5012436363158285,0.47762301164812315,0.4722603865073671,0.47372904980682806,0.4320684698610169,0.49155255365214023,0.43922593774225144,0.4103060276529509,0.34734146603156374,0.4291068711652049,0.4554560940366815,0.4341176419839075,0.43498702272225837,0.39747571807468557,0.5189065586894659,0.5519731780585674,0.5770123911272157,0.5838564010311793,0.4624412812988319,0.5184396126021619
0.4460060326869991,0.5899574225592956,0.47973191547069133,0.5422347648652602,0.4459100409743723,0.48347885631040693,0.5665934805270554,0.42817989076411833,0.4495062211625849,0.4652584882832395,0.46082925296969435,0.40258622477086314,0.5147634645741339,0.38987643234071695,0.42103428487240746,0.4379990889878672,0.43547742645672677,0.4697403905305753,0.46884822761517975,0.48393204225237846,0.44594064047594356,0.48297433891329206,0.42948265388676166,0.43628515754003383,0.40614524144051045,0.410633078266607,0.46657002740018366,0.5454772671073528,0.5449965737796562,0.5462650802075576,0.4452597093690185,0.4698065180196131
0.44816188733068674,0.5961472262569534,0.43263029899620925,0.5281861565902747,0.4521681147312617,0.43860405774887007,0.5445748191562044,0.46363696396002335,0.46211459637855495,0.4482415850185782,0.475997817247197,0.39283679173595765,0.4168235767468151,0.39176996658971025,0.4029867920936973,0.3484687294302004,0.39447324125581784,0.35233165713035114,0.3847086418014321,0.45493632926366284,0.4457189634647585,0.44817728946600055,0.5027918626870673,0.5063878918969732,0.44176202842031603,0.4589643290791692,0.5329625058725291,0.5120666357148772,0.5809351899530173,0.569949369789968,0.4867204620974735,0.4717283798381619
0.4898035492697762,0.6270374198134462,0.4576285888197429,0.5246267960853572,0.411269396728576,0.45332864074641055,0.5945444851217008,0.5375936148200284,0.49640738909400184,0.5478981083809824,0.5098075817121128,0.4353789633266725,0.42142156732200664,0.43453334076431216,0.45080464091971584,0.3791055982930433,0.5143306853961056,0.397288447670919,0.41866765392659605,0.4692683974732269,0.5081792959451645,0.493023103883855,0.5709795465857378,0.49917107077000833,0.4977648915277816,0.5091607225186916,0.6279299519569329,0.509809306135741,0.5996668274326965,0.5643191053286505,0.5369506024297459,0.5157587137101723
0.5361064117194543,0.6174353588242489,0.5479185920108645,0.598140510632861,0.5258056609733116,0.5579431551566087,0.5764253954827685,0.5338518054217378,0.5405726663641341,0.5374466923251877,0.5101228007313203,0.4784531844455755,0.5199222785052067,0.5092628416964095,0.5270356120999274,0.5234909800940559,0.5661795807944421,0.5346832017409959,0.5617857707037455,0.5255698122305413,0.5869924807318405,0.5665196342587777,0.60780438253707,0.5027856902328971,0.565127587383666,0.5320487538883751,0.6289323525143531,0.568021197822216,0.5865789352867193,0.5944029461266006,0.5857605668656194,0.5683269479382483
0.49726461969448404,0.651262167429201,0.5528707999015992,0.5867360941546165,0.5383132072315544,0.5507111306528037,0.5262115372092473,0.5274008079506253,0.5189032793786786,0.4867140807225463,0.46469277640059703,0.4230361123143765,0.5278711213668102,0.5185353847721547,0.5353206634627203,0.5462900280308395,0.4981664918185805,0.4970209416210613,0.5281909396659701,0.4444572284569674,0.4743149692266204,0.5284976687101268,0.4239571707979028,0.4090439965091305,0.390145659574651,0.5228480957534518,0.5453930874327176,0.4463139299010265,0.5543524332111822,0.5393911124936506,0.5138631435466698,0.5531922414744702
0.47488301002982913,0.5825971304811312,0.5073795981349367,0.5787721286909266,0.5405888435122258,0.512051865489235,0.4834642923852812,0.4736072367490342,0.47780867918142544,0.4698245942439146,0.4531488551943747,0.4458892875459817,0.4837508269805631,0.5139661654731357,0.4714731372250956,0.5294265437500529,0.43555889450401003,0.4792041322625981,0.4745688996773105,0.43510309086229493,0.41046398241234044,0.4572088964377547,0.4023813947742632,0.4030283409781399,0.31485643712873823,0.4710142407516591,0.44784501931324505,0.3679257609122307,0.509760641384435,0.46403548387229704,0.49944167745696744,0.5513487856115179
0.5484460943789643,0.5395977634023692,0.5649226220067597,0.5389170946898454,0.5154660033224929,0.5217018639101295,0.566294320751646,0.3988323592367699,0.45360464932043504,0.42763665196109485,0.44162387499368455,0.4402342353620374,0.41852058804849096,0.443963843009761,0.37662893627262956,0.46458563595208474,0.3970365585278053,0.3891280899231411,0.4789312878888548,0.43387559578507645,0.5110809724094706,0.503275365436529,0.5706737701310742,0.4310567011728776,0.4450563332422869,0.4906005877929903,0.5442590686497063,0.4958512220562908,0.5132431559424074,0.5203697656670623,0.4851172670557838,0.5032871711339821
0.5588857720859931,0.6075972860811337,0.545426057259256,0.5521053214776006,0.47300836974748894,0.554170054103134,0.5726677691834835,0.44225776362864505,0.45568274181495927,0.4872091309800756,0.4781966655173115,0.4550263787219096,0.47612153172274313,0.4496676940185098,0.47887969512801776,0.4696744653191295,0.4692310817843843,0.49047372815983903,0.5477272162701703,0.4602760179496278,0.5397407351143192,0.5554589205518276,0.550508032669979,0.46257265433741734,0.5173286178680607,0.524701053353903,0.5406447797181163,0.46127109247540343,0.47294978708327784,0.4738775555555411,0.5190404937988043,0.5329273962823904
0.5030840839246993,0.6023696102711456,0.5225834710913568,0.566574709589249,0.46739559683081033,0.5185650207793555,0.5617413430289442,0.5269093724966001,0.4817229452422126,0.5279112063537248,0.4652179681229256,0.4924559315918791,0.47053354044041373,0.4500833338910128,0.47027999860451064,0.45994921051805393,0.47547486533662653,0.434220858987979,0.45715463778827703,0.44860934692244825,0.45032185882494835,0.5192590178943657,0.4996981297398077,0.4701737117361532,0.5082104728253043,0.5075028725016877,0.5479142736547417,0.4658057093807391,0.5316766144461934,0.5167428007940793,0.4724556124930222,0.5205190265091785
0.442015698072711,0.6017891045592654,0.48294886720930325,0.48173238364615956,0.5092959417591753,0.4758599958270925,0.5159487876808794,0.5114780725107441,0.485622448670002,0.442419926728657,0.39558445791238994,0.4135494828038024,0.44675525353980866,0.40968945154193387,0.4207889748119809,0.41285184562833044,0.4345087758786838,0.39353727542024214,0.41376766919811175,0.43042445746071606,0.4414954390339699,0.47941862818033737,0.4792304384905024,0.46122753236110864,0.48110940682389997,0.5123363181774943,0.5317375135164563,0.47788028434482394,0.5629325405614165,0.46227291204266024,0.4895782323703652,0.5031511150007767
0.40126431369287835,0.5880991649046621,0.46827181029913106,0.48924906033872134,0.4825108985981297,0.4063593731055149,0.5126971276869189,0.5226655086058446,0.4407602615605307,0.4159545367355117,0.37350493824175146,0.40072133438800384,0.3962433018026243,0.40225965609977116,0.4229110334480127,0.41532842463527947,0.42569134959462396,0.4025589168648621,0.4264018334607427,0.41161809310668135,0.40010521778791974,0.46921786280243233,0.40920228193582775,0.44823865499339344,0.4795645094822453,0.4817871913862917,0.48364288917218834,0.44216008452418776,0.5238159435556712,0.420063907529317,0.42236838405319777,0.49234050467876495
0.43195672355514075,0.5891875239185503,0.4732749715948937,0.4807588841586646,0.48288215012454383,0.3359828223053575,0.5412096507946486,0.5296922730413205,0.45997158927403053,0.45574892453437976,0.4481952400480487,0.4287771488410896,0.4063231090188012,0.4151201452531901,0.4220742774795,0.45314454416279215,0.44829160692462794,0.38341101654345294,0.3671989930757328,0.4031765103926888,0.37562750370029546,0.4229545309177914,0.37035936167573863,0.4419330682745088,0.39463655837779876,0.4825149631348436,0.4303634781331622,0.37551769016635267,0.500839577989338,0.4247718341504536,0.43736057817825164,0.5253295039232075
0.47558605234806484,0.6179188146898799,0.47580288147239946,0.5330948965554568,0.4372857507816341,0.4200260515190157,0.5282492258461654,0.47179322450796574,0.45631915260044953,0.46086154907582316,0.4380804906593262,0.43490411554519487,0.4255644509106297,0.4503091172005185,0.4948402941142374,0.45784635635687376,0.4419377887793196,0.4132283234521176,0.3826306961614049,0.4025214945393765,0.40968749298801266,0.43575522973475284,0.42097940142224044,0.45854573197225873,0.4085167984413865,0.5254726281993616,0.5248067792578047,0.46702563112583695,0.577319434583409,0.49843027731127293,0.47267785665108836,0.5160824090213864
0.5340746719956684,0.6630769267946484,0.5127604840922861,0.5628861834695325,0.47462333718127186,0.5003889378241143,0.5773386757645205,0.49587227233461495,0.5174250265993714,0.48365488936106116,0.46389555317292597,0.4500670165537635,0.46063722224418824,0.49714056414536767,0.4877094508031799,0.4867828802218018,0.4853003798959318,0.47093470736837567,0.44196371791265354,0.4083060191097682,0.4449654467183773,0.46479818897330744,0.4767852381143944,0.505684224265572,0.5025142507697966,0.5702193222488341,0.5791333290733457,0.5086613192583435,0.5758554466396999,0.5116210632882447,0.49446121464870746,0.49963112302794377
0.541450677898213,0.664383916311134,0.5358216096361705,0.5612588864190217,0.5414482730428636,0.5620985789636506,0.5875360304824354,0.5236343545013722,0.5444197785341591,0.5501635083998677,0.5095299053445314,0.5275892358532054,0.4739478091161634,0.5392819132984855,0.4982137908097018,0.4982588534701417,0.5443643580277658,0.5104466923480423,0.510978663518365,0.5117798223116725,0.5083120070256747,0.4673216225622007,0.5031254385103571,0.5516694164137874,0.5621041796514149,0.5279030840666263,0.5980952170562417,0.5463323122229006,0.5983298182832595,0.5468433857134155,0.42482960253559454,0.4926439963004975
0.4289282156519955,0.6402998329226364,0.39100522651733854,0.48813265499096126,0.43391739056924133,0.44140116196733176,0.5686457455718045,0.49791613600151774,0.5205344378929516,0.5292403257873223,0.5085228649217863,0.5565377931506708,0.46715083339181523,0.5390152608748894,0.5490286992815261,0.5123458492164437,0.5220586696961822,0.46496458673814084,0.4776297319263358,0.511467858765788,0.4681151365477656,0.4251345058745845,0.44423284943501873,0.4721182420024118,0.4746345310414047,0.5218499845762624,0.5946285562364996,0.49371534914518267,0.5305140733634882,0.5021774504240518,0.4597915646358868,0.5771924275308269
0.3056824994544212,0.5462610175241515,0.18887282028117638,0.2620580079672209,0.40526202118626403,0.20296731337823476,0.5027794022903613,0.3699771486229677,0.5305543803604882,0.45925196209546537,0.4957476252355237,0.5230986691674773,0.5075283430433079,0.5144786668459552,0.5186848817152205,0.536729348082379,0.4498079635178002,0.48447244036565223,0.45877126800708057,0.5299342197037548,0.4378586150350579,0.4390844100343684,0.3736951411816488,0.3927824429031475,0.3121099310211586,0.4002566313136186,0.46831990338383256,0.28617238500577463,0.47810391118842027,0.5249818430743822,0.5142075208498429,0.4612400311745721
0.29176618873082544,0.5343485644249832,0.15526465188297348,0.24890333609417417,0.4611657364598763,0.20634682300145774,0.4474524209375105,0.42594431156495344,0.4913247011032656,0.45748139144846584,0.4996523231678654,0.553541834818279,0.5188386878011322,0.5173485965408282,0.5109847834034427,0.5181483671180449,0.42254896598639186,0.4846576376328383,0.47287357077293896,0.5103740545553369,0.4760398205515716,0.41324406238074374,0.4409433464119053,0.3862310913400385,0.36134746880717455,0.3637466545408721,0.46510218096734324,0.26472723144718635,0.5310143794063746,0.5427365006041545,0.49696333141782645,0.3745951741723031
0.5094209882385667,0.6305370142437687,0.42761737345822576,0.475574051139537,0.4646720197824496,0.5445969969079284,0.5451712191464928,0.5296815801173783,0.509542182196617,0.5274970868954101,0.5606439951754757,0.552096098861572,0.5489945844172092,0.5472897232058094,0.550781901498226,0.5639354490799391,0.49163469877762045,0.5327239746494591,0.5139515260357503,0.5001342328971752,0.4948316369607791,0.5032007715168284,0.5212842383488501,0.44587002484359284,0.5299066319801132,0.47984661410016854,0.5502418021270874,0.45643155170019195,0.6338539144592613,0.5472911836671058,0.5667116784573267,0.4727372794725814
0.5306538595846881,0.6180458221848835,0.5652974269316884,0.5020228571492661,0.4752354357283136,0.5441474812247077,0.6164733842286473,0.4423849472680962,0.5046492344642726,0.5541514824490491,0.5583843631546466,0.5331780346766647,0.5236604979001174,0.533889437972685,0.562739163717691,0.563992016336402,0.5318565658500599,0.5498017185227488,0.49888994915358853,0.4841764993974706,0.48538047501055104,0.4745584576388156,0.4780203776507435,0.48989627335284747,0.5447637044548448,0.5095432806255723,0.5577110926398287,0.5101068532553722,0.642937505566853,0.5189722214645301,0.5450991549012497,0.43991715954830296
0.4683250998534131,0.5930790484955718,0.5155669190647525,0.454361141073682,0.45681108814678995,0.5376673791226914,0.5686839676415133,0.4815384986829678,0.4630992970740491,0.528296009527821,0.5034575659844643,0.4787171764591004,0.47206421105870305,0.49840458744585814,0.5275136873765941,0.5162901182380694,0.4930081316413229,0.5080891091575864,0.4399540334298193,0.4983701519351295,0.4443630560409972,0.46378827879593193,0.4856626352414087,0.46915914062467323,0.4892629835440245,0.5217317721349696,0.5039260015454949,0.46203242054012494,0.6224289181618478,0.4571926187422246,0.48265584295939074,0.45368908086562837
0.40542189009488966,0.555703533725462,0.46833101210983513,0.5051067946613982,0.4566880553324352,0.47967727406244937,0.5014846113728518,0.4860803495384293,0.47171311731853904,0.4287186318257107,0.3885973991678271,0.3984487663967626,0.49736890333106143,0.4185491813053597,0.3964768718471794,0.43343186595023125,0.44551871295796264,0.48161774977605987,0.4377544432005318,0.45869322716851824,0.4390614527311936,0.4553051799135892,0.4521198613417879,0.4453456435703358,0.469981726079632,0.4604841346646452,0.5353751148766506,0.41318475372870134,0.6251227913686231,0.4018191652401586,0.444651408317587,0.47069352233967326
0.40662622594061204,0.5480186063602415,0.45626441129233986,0.5274545163995794,0.5297994072517697,0.4140146554962498,0.5110948182991216,0.41034280605034174,0.4987325209011893,0.42747172083845325,0.3544075670189776,0.4099476876829882,0.48634672469926754,0.36403187019473693,0.3722981966851421,0.3939141775398967,0.3813868270128258,0.3905437408769008,0.3968987147054698,0.39021499015886646,0.41735989576031357,0.45849295081572544,0.43304792272330633,0.4431679345243296,0.4188074088248902,0.3715751628136716,0.5595185794393236,0.39391425955897347,0.5815856404147767,0.3834960963543363,0.43074451289730376,0.43538331468575836
0.4582799133586088,0.6170785421200286,0.49782666816814847,0.4679375373415278,0.4923693120024254,0.4563682020949894,0.5674058835530807,0.4757986635446434,0.4817983471878004,0.505877094232828,0.3867211012913159,0.3813559365264311,0.42748960213804515,0.3040572329658467,0.3349516916968068,0.3749947069903942,0.38199983706158996,0.38186026623027963,0.4132365757929658,0.41012475997512815,0.4089241222799551,0.4405838165504155,0.38812014792770655,0.44002668271448353,0.44875410316161085,0.40968223063299736,0.5768806544655871,0.4284985629115751,0.5895145271030561,0.4363052569099193,0.45452067210399033,0.5322574261828416
0.5094857124868933,0.601906091716947,0.5063026308850469,0.47393650119205916,0.44134486322247046,0.4728385460428129,0.5306008015349868,0.533853166305781,0.42799496818693417,0.5165914200348573,0.3977364307365063,0.3807101183228752,0.4119602595958204,0.31852146311273555,0.30590558205072355,0.38644962991533766,0.37914635067189145,0.35925801181074246,0.3580889230621498,0.3575845517331145,0.3818901412518077,0.4225603249531531,0.438955052451424,0.3930682551313358,0.4759373692805722,0.38025964776697974,0.5857216151233493,0.4181369698515555,0.54656944904428,0.45157596487355184,0.45801914764838225,0.5205314046623942
0.4543363917260287,0.5997520986917201,0.48601749607757283,0.4987439547620418,0.44124039836580714,0.4640583343235521,0.5011852079838166,0.5332702239798702,0.42299559447080703,0.46133091491731915,0.36922893217475267,0.42263932998919196,0.47121422677683167,0.4506345543693313,0.46406836798996304,0.4869387981386108,0.4857558350733615,0.4421864606943551,0.48649522273987744,0.402811737229877,0.45062605464063965,0.4992103742305657,0.4546433741869393,0.44920965707102145,0.4833950126092129,0.41584042152740686,0.4879065357000368,0.4690923164781382,0.5565632524550006,0.4461809962035759,0.41474498103756097,0.49517427572000283
0.4511744467834352,0.6062202095631912,0.5017999289646373,0.4839602947846112,0.3788514595900744,0.5016999713870747,0.5060217127324202,0.5176291175827408,0.4259741970245132,0.4973719947807815,0.46262352194811296,0.4765983041509837,0.42055843561139994,0.502956856555314,0.5060906367355545,0.4467195376292197,0.4695087554822338,0.383198307332413,0.416031532826899,0.42328479998212937,0.40791932870947295,0.4380763947649345,0.46501076676021313,0.45397352539239294,0.46615929103935927,0.44722959445138394,0.4578041226270572,0.45419350766252475,0.5815510695264183,0.4832357254175796,0.4126592230071953,0.5171031594633928
0.440299153483376,0.6210207149990846,0.5127924846602092,0.46361836455706373,0.4108895741588917,0.5014977097665619,0.5683140978449288,0.5602984284152049,0.43300283546056917,0.5128994527962627,0.4794369906602827,0.44603862455533094,0.4371625230564934,0.4757992591938431,0.46815078362326323,0.42893780149325555,0.45863863352206397,0.38100335880180614,0.37529390981238947,0.39011216223913003,0.37424160061898926,0.4515588225311162,0.4442580399122999,0.42427413374909123,0.45905906201531027,0.48565266984148914,0.4961919797360808,0.43321739988666425,0.55498748924826,0.4816870589913485,0.46229376102179415,0.503585447335663
0.40302386319304495,0.6217496452409923,0.41736406315916913,0.451084628409807,0.4472301150414297,0.4048962798789472,0.45960284709604593,0.4396446501497531,0.4053071551778091,0.4062166346818166,0.3667208446141229,0.4532269164301462,0.4185163238287957,0.46089437055500804,0.4383983777608553,0.45594034324029403,0.4461396322264236,0.4272581646614627,0.3792131571320776,0.43756750531292365,0.3609828322659622,0.3636066740383023,0.41958019276409086,0.44701217658113945,0.4300304677497713,0.40404414872164857,0.4945010282014038,0.4439658588899151,0.5258032268189486,0.4533749364915197,0.45267325206125913,0.45794651839189965
0.42501067624829864,0.6271136114892566,0.42070166618774113,0.44705469626019084,0.4518453971412137,0.36447068234444024,0.42337447596746774,0.3690726764282098,0.48381247755465084,0.3598292858013267,0.32107371594461365,0.43213621762050036,0.4307598601857221,0.46767585565127495,0.44976080936888113,0.4241534022824099,0.4812991880644891,0.42656461696088616,0.41085281680872826,0.4298764097878455,0.4055635187759602,0.4045180742823948,0.4134740911307764,0.4323923584999521,0.42302769674072627,0.40537196788549196,0.5076865913676655,0.481114104960663,0.5522907748974966,0.487245630497157,0.4356516416047793,0.4117309498067588
0.5032374279651893,0.5738185030040391,0.4592130955369422,0.46769779026159997,0.4871943599713771,0.4471691632844884,0.4537663742140276,0.43545058770112144,0.4978272236946161,0.384726307325556,0.3837722834969045,0.43679443550651315,0.4460262958434203,0.4227232499284497,0.407984561089638,0.38659404352152454,0.4392462836436676,0.39516645103248194,0.4116521351290479,0.4152997872862559,0.4191530506102851,0.4073476947429469,0.43350244280924555,0.4357593381704572,0.4617625830802907,0.46269675446471453,0.5314112634625857,0.4938256228180924,0.6026810913662591,0.5506450242927878,0.47561297683602194,0.4325712360193815
0.5436018584324186,0.6191389739572615,0.46942022297007224,0.5129573157148496,0.5106288701991974,0.45207176884477507,0.4795106446485921,0.48127260480420203,0.4732607756332429,0.42691722152259165,0.4080078967643185,0.46139597063577054,0.41376509172839315,0.41649876005334485,0.3965710600944035,0.39654090411115556,0.4017496945359403,0.38643572139497945,0.4010970449479817,0.42298944677273637,0.3748787487607645,0.3469272739364793,0.3992241525901043,0.4392079697512766,0.4200617106565655,0.49257050098654864,0.5283623449570161,0.4776587702140531,0.5649649234675728,0.5032963134608219,0.47815275316814926,0.4681072755887264
0.49695744853283014,0.5871733560819131,0.4493622977390351,0.5297499023012645,0.5111195746783053,0.47618858733052033,0.5253350599005009,0.510422153919888,0.5022743138265299,0.5237258779486894,0.4366602981861028,0.5220968764656166,0.4776026362745875,0.4826628636494695,0.47225943890974725,0.46936101565203747,0.4056015430630115,0.4669022627926561,0.5005033970836588,0.4463272490289655,0.4812624736889074,0.4313166381793112,0.48478815159391336,0.49492556152982364,0.4826740413401078,0.5198209458456065,0.5537220608862753,0.5125825788299572,0.5335771410553234,0.4636645303330121,0.47180309866852194,0.4747636445155582
0.4976284800072221,0.5969002325372336,0.48974680935500725,0.50685736459037,0.4927077303545266,0.4804596242189376,0.5420145924584141,0.5146751604092663,0.4762046339782846,0.5249592375075852,0.4734643360821105,0.5510727839134751,0.5017246793014631,0.49717782119070064,0.47194367327424475,0.5032317615498182,0.4251317902084197,0.46871975045031045,0.4659603314698559,0.4157325883958455,0.44277260729350143,0.480453846585476,0.47370583221922163,0.47943873273624704,0.47345751526746666,0.4972799425585469,0.5314490396600344,0.45993440821697296,0.549209866774306,0.3708462664535695,0.4612644338913234,0.4901691187210172
0.5152314880914579,0.6363694939135265,0.5565833941575794,0.5222374587171025,0.49547526619283944,0.5372370163940445,0.5679918567950112,0.48882456840769467,0.4651716821436726,0.5244653734544745,0.48362316412505135,0.49135768621766013,0.4614443758500657,0.4498660176189043,0.46420316136064266,0.40722961484354825,0.39990490473690793,0.4318651328323842,0.4234446394117576,0.3476779344937773,0.3998955406011718,0.43011928279032213,0.3925063379069693,0.4579329261479007,0.43393082247417203,0.47166803329165685,0.5638527928389325,0.5202116137900201,0.5670838680272504,0.43496970682531666,0.5108256237659907,0.4625363428760168
0.5506471179526623,0.6088793740885594,0.5675031527685885,0.5319311492269891,0.4881680415694222,0.5598788419945484,0.5867843654254851,0.5050616960850183,0.5092213001929713,0.4788572249428222,0.4428511359464961,0.4258598142527078,0.49417784920861085,0.44377685112198456,0.4428679305827635,0.4281166428494506,0.4174715076965287,0.42590463865218375,0.42302576930702795,0.40948312529081393,0.4469153118042665,0.40146454455515934,0.3823001912897127,0.4460426735727355,0.4620754866409236,0.49551345789902196,0.5362922302030512,0.48396334828044757,0.5968248155171811,0.5197901610120097,0.5218778359521289,0.4894406926555558
0.4736834862041361,0.613902667177863,0.4595414588387521,0.4582790742327163,0.4163758332143274,0.449900149049929,0.6033266123406933,0.4844677740862868,0.5059633096217061,0.4385963920777469,0.40452290477050357,0.40590991499517803,0.48732951729881285,0.39903137523620585,0.3926456839567484,0.4017017547747596,0.40398691123885355,0.3908037639935959,0.39443994584032327,0.40687881151469407,0.40307090937277973,0.476080101157209,0.4029479882399305,0.4011541877822257,0.5061417744535643,0.5352268344394437,0.4762556707381707,0.4647291025124657,0.5260584698579944,0.5037584565428983,0.4782127468898135,0.5143298079722828
0.43993216943763475,0.5889700402181227,0.4272651891608534,0.46824590537874805,0.3555127712871238,0.45762482537522226,0.5917980592596495,0.46111831536492165,0.5073749790632912,0.4589215677397143,0.43309029711431396,0.44771979218212266,0.4622532152505879,0.42973985053526004,0.4225540295327478,0.41786133638504414,0.39000182018524826,0.4143532238778959,0.43295695436507087,0.42140525057650435,0.4117788298123665,0.5195820225679071,0.41360359599274293,0.4522340829565256,0.4903769175469905,0.5124362542732226,0.4867974512179464,0.4426510829302712,0.5470258313150409,0.503350949349285,0.46508435495108613,0.5013639627319434
0.5000232232334103,0.6003209440334913,0.4803778184833733,0.5280528059344518,0.4384739608200876,0.4827875811758094,0.548862060611386,0.47531807930922815,0.5264939700032362,0.3831004393116301,0.4534638389025528,0.4140620751120854,0.5340340992236896,0.45754175079002485,0.39882185419378186,0.4291715874375332,0.3973999268463759,0.48010963524568084,0.5365708735178487,0.43405886969024776,0.48543982418543585,0.548128518382101,0.4850092698636057,0.5004049418736468,0.5209374382817107,0.5175085942756423,0.5594137064959152,0.4545447878674011,0.574968809851961,0.533152542743596,0.4666706072625958,0.5053394777292108
0.49382826479460784,0.6259224253036726,0.4909646479280217,0.5476313840446401,0.43216829180053756,0.46986400669181216,0.5385729106075555,0.42062253434323005,0.46459826665261783,0.41957313445534494,0.43566166495677233,0.35387164043651087,0.5030467158746635,0.4020726607528401,0.3911989752686038,0.3925039494622937,0.4347183534021979,0.43103160499123966,0.4380382247262852,0.4288046760803485,0.45605198171599615,0.5265008106612041,0.4412339498659371,0.47596765720663775,0.49747726094256367,0.5080284191449295,0.5632397633088143,0.4793853611707115,0.5710997461171043,0.46712664416101496,0.4833115960324349,0.4993381215882561
0.5447839423893502,0.6334122950589581,0.5541778120497242,0.5223682492951084,0.4101515654245549,0.5104925125037498,0.5600556681597488,0.44636812567952183,0.4541897832381713,0.4833588840834241,0.4187019191561682,0.40185220095239377,0.452169195408812,0.3957382102262922,0.36724389528796664,0.33876651448227013,0.41365784605185324,0.346899234500336,0.3730668499469481,0.381952269026963,0.40309948734403744,0.4723593429381946,0.4046510374961421,0.3903670337686346,0.4524313301380767,0.48224126992207267,0.5243920905051211,0.4400459173519364,0.5684703006838407,0.4479895323239092,0.4843424761753343,0.48007676673639543
0.49230806703056956,0.6225533620843413,0.5042839591103697,0.44658683727734394,0.3747415931021035,0.5157165657274597,0.5380828905656861,0.5470029486264282,0.5119949718934265,0.5158813719681326,0.41495269774535165,0.48596153629765143,0.4750280101588324,0.4546016901042577,0.42405686470868936,0.41780138641712505,0.3855824882779118,0.3990665038093252,0.41469677834082985,0.3449041872695611,0.42809329252833134,0.4231545850646482,0.45740578326100606,0.40288551262435557,0.5113529282635925,0.4944865360258183,0.5251123930969446,0.44206236767426277,0.5681584233704373,0.42413317517963833,0.461298345889725,0.49123635876950206
0.48678137337908417,0.5926248962935005,0.45851345527034365,0.48681251549447563,0.38697309698910504,0.5424963592106786,0.5778788991890687,0.5501804069998191,0.4899530321157351,0.5344527668650206,0.47059828584908064,0.5045666485032911,0.40966631001239256,0.512816034266595,0.5034183203509831,0.46726102851072465,0.4129876616462688,0.4500758152871371,0.40952251843813536,0.410814757855405,0.45344958011349273,0.3807453654699066,0.457465877729838,0.44243673745987794,0.49985589118010537,0.5108256237659907,0.5043683075216925,0.4552158181229688,0.5447187773379637,0.46516933739401595,0.4895845444916011,0.5217870488763785
0.4486135413281978,0.6002129499680049,0.43656802902861624,0.5254871165510713,0.46656424494382615,0.5168944757393701,0.5777651064411001,0.48114862809056536,0.4570108089632497,0.452847154324209,0.4480118782192362,0.46266210814969216,0.3949452986966066,0.445244399088287,0.45864759450028225,0.39674878330659574,0.39274173197543216,0.37632214030233946,0.3831221669765542,0.3381909422863446,0.3645803212108832,0.31580090809765676,0.39416227802570913,0.39243155726786716,0.4742849678534784,0.46435419781551746,0.4826043852407971,0.45155972758647733,0.5181349846893354,0.49917469769046263,0.44608752998847784,0.4422333230978046
0.43672482390141254,0.600052627745497,0.4392852205903744,0.4404742852900726,0.4693747643261531,0.45822023840394555,0.5512303592836513,0.4341016580177421,0.4452179921791261,0.4391609453294758,0.4153058278978128,0.4778637824890216,0.37930460782833525,0.43605116668953947,0.4180603018351545,0.4015080650703229,0.3693674554611958,0.34970265726002187,0.3719277758742789,0.3309183809384158,0.376306987290012,0.37840286441346116,0.3990026089407429,0.367370100507529,0.4236335573822094,0.43300840847368965,0.4387760565743126,0.338060657547545,0.5289387321730488,0.5073918390883975,0.4761132783548807,0.4127207732740458
0.47840765339221447,0.6269907978819712,0.5167586710790268,0.5192402692012732,0.4291172405140024,0.5112676482452699,0.5286291152704294,0.48948022018738324,0.5335269620141995,0.43778894650503736,0.3802956103149103,0.4709464940145014,0.4733421662283839,0.4709090163605481,0.4713384459066628,0.48624042180890803,0.4696915263384159,0.4630224050806455,0.50155019494786,0.3869900769519862,0.4570659098713262,0.46957655257898373,0.4507986494096855,0.35688882480790407,0.4395185777484373,0.45374186982357934,0.4580035564613836,0.35398133148250654,0.5542800552123848,0.48389197471368117,0.4988896230020008,0.4324791765194206
0.28553922442795826,0.5669738866429961,0.2486765022283856,0.39932014028087665,0.4502286914396161,0.3033106551482118,0.4562693145157402,0.36853040161632306,0.4749098799921074,0.35380306600200917,0.3982482219368723,0.4155323072258883,0.41893921270380885,0.39319221641956265,0.44322131465177905,0.42664310297683866,0.45331786494432313,0.4052183468484298,0.46767040090968903,0.4008261026017641,0.46734269225450975,0.43491093644083817,0.4536948912038116,0.38942100825615666,0.5256148208014018,0.4870764435543274,0.4823216697345023,0.4703446933690963,0.5916144463869725,0.4025368483290761,0.4941704317624076,0.5327798097670728
0.2912592843406786,0.5400638428809599,0.2432360641870382,0.41704665882958897,0.4822283270857675,0.3356834516676198,0.4771105175089533,0.38132001106374364,0.46253673974535264,0.42185394230151113,0.4187447489863351,0.42169613084414703,0.42866066571135314,0.43834124659775625,0.3868714379396226,0.42837468031989284,0.49048962336422475,0.42613395251727143,0.42252043000869094,0.3843391445063268,0.41048103451161105,0.4255265711865252,0.434414060268675,0.39135711484596414,0.4603913576880887,0.4883613832190216,0.4859802691357211,0.38439732855465114,0.577045933306157,0.3722795591225103,0.4903163771165463,0.4802344789701616
0.38733713616669213,0.5849860329297663,0.3502284560004579,0.4981396260820997,0.45620660901636945,0.36268844054667215,0.4774107232586302,0.4292353274420764,0.4639417953693843,0.435968562401579,0.42569787208248416,0.3937327778669102,0.4370179569249245,0.4769361415864684,0.40566480855815407,0.4859755748117877,0.4809113027670874,0.4642871270880272,0.4098829127057734,0.44253570650277574,0.4458044464861414,0.433529551143623,0.3304935889024435,0.3499606532646403,0.43170212254991,0.46424017908007253,0.45543824037167124,0.3332151744799327,0.5162409949554879,0.3993762640818398,0.43063327149808595,0.46714751970994844
0.3973134042004436,0.574749261079143,0.40446690479110087,0.49869141114900184,0.45928081580436386,0.36663144361405636,0.5025040213258033,0.47197019821777636,0.46256895615539484,0.4857202878955353,0.47656555919793103,0.4289811697754588,0.3878340343254925,0.4570113123347058,0.4268232761279798,0.47543806504727093,0.4758441276877397,0.447593610940351,0.4123980673022199,0.4601422038186559,0.47187172508333836,0.4241087036984405,0.46828922224428143,0.37213794709983183,0.527096701526867,0.5494968640840844,0.46758659332148167,0.4198904749260306,0.54217270513043,0.4727411070023246,0.454842797351664,0.5052115474921276
0.454904221943972,0.5725722156431375,0.46031092905071935,0.49978785023282774,0.4634737655519243,0.493708371660687,0.6005595574930527,0.47916476503686395,0.4453759347741637,0.521242833031515,0.5106249615801062,0.47056937550187683,0.3659529322386161,0.45139018664010583,0.45340708819899994,0.47714636581142716,0.4531829225266029,0.4415050445913613,0.4381868846701401,0.3989779890393509,0.4317664421122333,0.42320330143696394,0.4977673699322559,0.47601997743188124,0.5415733271811531,0.5078162220067612,0.5545159043787712,0.4695083679853028,0.5944110335922811,0.5280843809331925,0.5235544477382915,0.4783136342515794
0.4575916701917494,0.6189662006065244,0.4848443441066594,0.49350714738949436,0.41767624973242895,0.4646421733567316,0.5582824076192703,0.4425393662146021,0.48590279392197466,0.5221893824163059,0.4775950133954574,0.4860975427552112,0.43167913062045965,0.4898694315453104,0.48987816073528523,0.49759238196287686,0.4465872207206162,0.4316431831301216,0.4586535792559862,0.41938241015591277,0.4355780309655551,0.4608384988245639,0.4509344201009799,0.4474641110720669,0.5798658314106749,0.45525107798488385,0.5856444130499721,0.496507656887516,0.5819611724801161,0.5267949928945088,0.5017737902420788,0.4671601047070313
0.41770141862812105,0.6178702476166593,0.46472611930284374,0.45019480153350794,0.33521516543116175,0.42551503225887516,0.5328284719717727,0.4485049422847459,0.42833904745592993,0.44742027708723126,0.433302451919024,0.41179286741785714,0.4477200254139956,0.4089798809795009,0.4316193862374202,0.41824611084788016,0.43648486557537614,0.44500570408604495,0.43225798804287596,0.41550622308005736,0.44285264017978465,0.4259673244243447,0.4455970007202013,0.4428121346710299,0.5588196095494155,0.45989030325017055,0.5890651765624743,0.46860540368854764,0.588003473785938,0.4459927974318085,0.45656830047372426,0.42394790762443346
0.46672505054058583,0.6182215665358871,0.5331655804218938,0.467510571335842,0.4112904701305769,0.4865209300688399,0.542400859247488,0.4397174255470158,0.43009612727669383,0.4424035518215889,0.4190097930030539,0.421896631267517,0.42842589813038473,0.4100330081896597,0.41676811526245516,0.40770977796198826,0.43297300360509783,0.45000487947993517,0.4393557682579974,0.3964391155742372,0.43879063566352516,0.4556764579815051,0.49338236431546306,0.4495773871547319,0.562435579601309,0.4415258626034681,0.5402182479830094,0.47124553484312615,0.5506381715283244,0.4779966751553661,0.4734022551805426,0.5140028098286472
0.524207192461822,0.6364902058608076,0.5013784848745806,0.49286529838899795,0.4672346861210893,0.49831201050965784,0.5386244951287336,0.4620669371380508,0.4484007363477122,0.4718704759033574,0.4328318299539496,0.45155778345498415,0.5004652050489735,0.45797524028293307,0.47650323901759783,0.45737857129009407,0.4453759347741637,0.44265274074867755,0.48187074795259277,0.45119759095159334,0.4696181723044388,0.4390399123408995,0.521890689113373,0.4188695149585597,0.551494151461127,0.5609279518817305,0.567484199428382,0.48442573506796016,0.6065554804253017,0.5341058690826976,0.5630940523117476,0.4958203913557888
0.4605492255862194,0.6343066805370119,0.4766198574738656,0.5151862822085692,0.5078818952051767,0.528481000993564,0.5844166961580384,0.54749147333296,0.5215114603924585,0.4581414736104926,0.42367623977944746,0.4525371439978174,0.41831566252264396,0.4573902493024289,0.4574527234861742,0.48155491280225177,0.414224288198046,0.40747140762636186,0.39443697982009784,0.3187903428228536,0.4297910893971334,0.4238327267460542,0.5406872066127881,0.4435731121200503,0.5663436107271806,0.5370662643688677,0.5506581448306775,0.539327687167529,0.6443113615864786,0.5333349753024387,0.49925617208317297,0.5124382535502019
0.5032126203956014,0.6379344085019478,0.4748155323235346,0.5022828887632339,0.533103562371269,0.5222709677253199,0.5938971421991354,0.49135756653378604,0.47985950652340387,0.47625148018409863,0.4747095202831482,0.48458631445930095,0.4773799703622607,0.49240837614289973,0.49614492804467536,0.5195493657971654,0.410927246167285,0.49490508034668734,0.44229626147324685,0.5151569786696649,0.5088632997454,0.3985610109163074,0.5332070259621257,0.521896772780128,0.5381095827144591,0.5618549746216571,0.5988675430108223,0.5656412986340648,0.6126449050034279,0.5083865981666319,0.4820477845604786,0.5100823135236399
0.5422348211436825,0.642304968286793,0.5299756515175823,0.509028678089289,0.5120384801911999,0.5322203092302704,0.5923648285557612,0.4749445876679248,0.4825932583219182,0.4702357285852944,0.4954568266779787,0.5121220402824099,0.5150163056454422,0.5214318403810586,0.46455402447817085,0.49950555001845454,0.37406690536653997,0.4827944104565731,0.43746674023829146,0.47429467671988007,0.49470544045263515,0.4925532693724125,0.532535483341515,0.5050347070426212,0.6161000772007766,0.5622623656927962,0.5951107177147676,0.5478381588114387,0.6263323097027886,0.5269163509367093,0.5418170730046137,0.5343338665611331
0.5195433767935663,0.6362347664305104,0.5344419047814984,0.5206487532827037,0.5287580670456286,0.539356121053218,0.5939341365328408,0.48185784602886955,0.5551849406870969,0.5211942798720548,0.5119949718934265,0.534357150421681,0.5457618005478799,0.565030877881284,0.5231662823855844,0.4919646582303344,0.4662363956969717,0.5163999961540244,0.4547028276700459,0.5159074519603223,0.5180878833501664,0.5490060804935983,0.5623901198601923,0.5312256991232993,0.6196814691861687,0.5843806574715245,0.6073157447101643,0.5776640425047262,0.6079506076807291,0.5319791755353044,0.5576382533730218,0.5213697223811797
0.5674382416467579,0.6187342416036546,0.5125414284178548,0.5552043109595403,0.517980125828615,0.5973514459997832,0.5947635427476955,0.4961977033617115,0.5418704413130238,0.5727483449765752,0.5173904750164277,0.5385750739218729,0.5242391952345933,0.5305777791497789,0.5309521464467938,0.5272772286579958,0.4802618070837136,0.4865392145971453,0.4590005559014047,0.5010758138351118,0.47418564843874855,0.4774470698243549,0.5222090486153546,0.5179315968195499,0.5426678486785973,0.5007076312026093,0.6000750958550345,0.5622897220710596,0.571603022299551,0.5012669341744375,0.5303046369368257,0.5426739019517745
0.5559493068067237,0.6074829148778431,0.49963045458492683,0.5553356544733586,0.5127690228958016,0.5661981778894817,0.553053497420887,0.5401802494621736,0.5191897154237048,0.5925733838827232,0.5470963579583443,0.5736722792955095,0.48518169176274134,0.5576778028327439,0.5580917681200239,0.5315408383101737,0.5084601584406554,0.5290000746880883,0.4764860998945423,0.48441098711139513,0.4568179728849168,0.49258219893054755,0.4837327986748765,0.46488389353105025,0.5324098825769455,0.41770503763088423,0.5895981048082137,0.5378271526052513,0.5891553563048354,0.5308873519834282,0.4800940586351032,0.5650606765338373
0.5166179444704951,0.5960454610738454,0.507297293254243,0.5534513258831865,0.4875666318554507,0.552386564910453,0.5481139047859647,0.550974124213287,0.4846106043124576,0.5568313201805565,0.5032446223584557,0.5252408272924314,0.4896423043012169,0.5009203836759475,0.5369071565823308,0.5480857267198852,0.5111038044660181,0.5303163067105128,0.48050247235150306,0.500200740352875,0.4688720685698649,0.5002212329083581,0.4774845622683801,0.4429701753764374,0.5717055404985338,0.46636565933087304,0.6125118802764749,0.5057550661649013,0.575982765399628,0.4928017941442545,0.4390300136542923,0.5283428604214299
0.564865670418346,0.5931253495874891,0.5516732754298374,0.5880054174664979,0.4690554922637373,0.5139958038363754,0.5624294570997737,0.4946699494560755,0.4818487878595708,0.5066283458306506,0.46391099386142065,0.5083315559378964,0.507254263055061,0.48358658560380696,0.4823506026474592,0.5089641191331415,0.511649007921196,0.501533334614142,0.49685149855576927,0.4810666537817329,0.48175447974595076,0.49306890217673155,0.4943016541859168,0.4385835617174278,0.5418605311909865,0.5041169538690289,0.6252685003593008,0.5578246136200277,0.6127219964231723,0.5103515777746532,0.5332178079689042,0.5453324838741755
0.5788336280356998,0.5964820541678517,0.5441253255037882,0.5430056790906055,0.5466384695194894,0.5370759067451832,0.5485810585159143,0.507399237263554,0.5329316518222537,0.4869076045528459,0.46062989209653693,0.49984404463550536,0.5135235429473451,0.4990711650523781,0.4807993631829242,0.5065164629076071,0.5295295419347386,0.4857187728949023,0.47619012710323433,0.49080768154071214,0.4986569270359003,0.5447657475039321,0.5551281704659476,0.4694948528419852,0.5301607584834489,0.5319889806230613,0.6186728409355565,0.550064682345299,0.6131934052534025,0.541241333131986,0.5635616039190673,0.5738930329998592
0.49143072555704076,0.5831274545497327,0.4388474759291846,0.5045560107523953,0.5376252120713109,0.49168576807397163,0.5274179326683713,0.4529351071897923,0.5222061636146517,0.4947958082481714,0.5033790504370175,0.5307028343282062,0.51299636454129,0.5350659925333425,0.516939247513175,0.48745098535567055,0.4620486347403326,0.479301687745226,0.47609834609266105,0.3749878701707567,0.4054259147083279,0.502540746006648,0.4717995819285058,0.40815191196657075,0.5099993016035878,0.4898812359226207,0.6022219042491792,0.4858341687897646,0.6170436804775474,0.5420858770704079,0.539630297007049,0.49073322476031445
0.45651954207592205,0.581768537197906,0.35500474376888175,0.47282759320691786,0.41560781268268676,0.4080941430806202,0.5392441174233171,0.42797943794567156,0.45587934100623684,0.3863021353030134,0.38563495497210065,0.43733458153799504,0.45252503197177585,0.40334091273320755,0.4179530459162763,0.4266028637212131,0.4051767990388471,0.42402087007227196,0.43821985086089127,0.39058042237252155,0.39713914620591717,0.4407258025644551,0.41853585479817573,0.40002018850899634,0.4673188454665244,0.3967047100120089,0.5944745672406276,0.4372366963402275,0.6233665502061164,0.5163669245753484,0.4279055762703184,0.41445159435182655
0.42081824435002585,0.6220218279236802,0.41312875356198714,0.5044013731524942,0.43451240469306673,0.378213944915928,0.5442827290533261,0.4846850639046664,0.41750701872947904,0.43034101469022623,0.37172167905225323,0.40032216829902156,0.4179349433399346,0.37664838457371397,0.3987921088930246,0.3985258737460811,0.42262353873693626,0.4030159028751497,0.40676955064402603,0.4548254140510141,0.42509216977558384,0.38457628553520734,0.4558467991069636,0.49776450705080444,0.4729604547938104,0.43701998919178625,0.5967012822916931,0.5534197362097781,0.5838200502642457,0.5209437539315753,0.3865103651265785,0.42925762745579665
0.45206274119770934,0.655487038316472,0.5016842589319859,0.5156569466257367,0.5116981083157707,0.41986640435110373,0.5230355813235308,0.5488461744003039,0.45965562516994185,0.4761506170281602,0.4182464424728975,0.4012673745069497,0.4332748516015144,0.42172054575484175,0.4344464445653687,0.45391290207501694,0.4620354595965587,0.42087262182681273,0.439517722075748,0.47494976192250227,0.4858585084032154,0.43264392843230093,0.5370355021742087,0.509421833301831,0.5393278298527259,0.5331731757177249,0.5931422266465527,0.5703683973430977,0.6132208534509861,0.545803878960712,0.4778664445673859,0.5158942152212075
0.4844456502998192,0.6493327637797426,0.5022734870711675,0.48233279381677385,0.5145468932904605,0.47560356091808664,0.5577419478899958,0.5442247450972171,0.46026429581207784,0.471808606314058,0.4267881032258869,0.411912222240395,0.4358654191853264,0.4084081016406837,0.44063214476874113,0.45300965916003044,0.3650046354916622,0.4103209598347346,0.4198974119009161,0.4479688394343754,0.44423536987261697,0.45969696101552476,0.5042082387774808,0.49502329588815874,0.5776652066132987,0.5326648155031009,0.5856283141379518,0.5114034914503752,0.6196473995429477,0.5324841130238506,0.5273255200066101,0.54215700642581
0.4971525763004823,0.6097501098154189,0.5895146449601154,0.5350617658795395,0.49862110599681647,0.5925005082907175,0.5815224690212895,0.5073477914193999,0.479041476400555,0.4976815823727496,0.41284521540578695,0.4765678940578987,0.40846119754892796,0.4176373036048085,0.42654087161736187,0.41043229072126663,0.4193806967461377,0.41270746605772624,0.37111340047799984,0.43746910899126584,0.4406148109175687,0.4534189785731477,0.4857996772891435,0.46574603899309425,0.5490079609162928,0.48535154247357404,0.5946379620418482,0.47347734306739875,0.631258229092816,0.48789967294394926,0.5593815135991046,0.48815874585673086
0.46094069492813605,0.6352411829825039,0.5546424206683651,0.5565601973572855,0.5130616399642074,0.5572592201811954,0.5587869990799462,0.4814190123795691,0.5102867062073319,0.5317365414445675,0.4584423136350462,0.4745854107426465,0.5239467117286878,0.4622660512614465,0.45081666604805165,0.4745403824627822,0.4688424779167993,0.40808364108041073,0.3993964610340722,0.3938711529274711,0.4338922639076319,0.48070845939129275,0.4751081746765395,0.3998838605163811,0.48670396292374823,0.5300940426318678,0.6053890572160076,0.49328302781568917,0.5893749752741448,0.4952736897188554,0.5169319421977515,0.5112717038447606
0.501219189817459,0.6043935938959302,0.5105151973151644,0.5534277814193552,0.5404249939155498,0.4265120007588543,0.5404105622557986,0.5090197187525791,0.4878937006785061,0.520799869768211,0.41139904927140575,0.5084117334470903,0.47978002319811025,0.4578196205766302,0.38275714385325604,0.49455283621305723,0.4459164348043201,0.39622205590691945,0.4416934847190496,0.3617265407936104,0.3800708641962537,0.4450474507995135,0.38271605542591225,0.33590530409398067,0.40504887501162423,0.4900622893155087,0.5660729046783347,0.4441125545812026,0.6151772272817366,0.505748080026698,0.48304980553143173,0.5818972579832667
0.5507528191355171,0.6443665004123077,0.5340017783448018,0.553646954880743,0.5344701188932164,0.5054643389522359,0.5493738969364609,0.5087703730878698,0.4654588283453455,0.49369489210726203,0.4330006358099509,0.4759698385243063,0.4504910005769193,0.47028575648699183,0.41449859320583227,0.47195484937699733,0.4633690752897091,0.4272925111526858,0.46658068812118875,0.31526948165863694,0.3751191199875276,0.5259182158691756,0.4080116325009527,0.32145660755458266,0.372233946995239,0.4701359422986113,0.5498349874521427,0.34621019895081073,0.6073370401092941,0.4632147097206507,0.5734145200603591,0.5793722990679533
0.5707080518357968,0.6260730816476162,0.563245076949937,0.5368509834081129,0.4580304517494494,0.5651228053249071,0.5673333782622895,0.5016709591765377,0.4526660089200583,0.5213210779309406,0.48367148381519254,0.5003951320440067,0.4933841732784769,0.5120360649438286,0.4811796095410013,0.5110869787061534,0.45177989028928406,0.46579016701187836,0.4660238291053083,0.3809479802949389,0.47423067718184786,0.5550501490596899,0.5123883920892296,0.4101705733100504,0.5380177610536648,0.5438701440213874,0.5780707523087817,0.5243592225022817,0.6182973686095911,0.504541940612749,0.582418193088437,0.5721620499103915
0.6070725717887023,0.6367168885744784,0.6018442843549303,0.5736540300787266,0.5058168573865802,0.5457978725145941,0.5839068548173096,0.5358252896971718,0.5326916052930684,0.5667934472905832,0.5555483415352435,0.48171592194171087,0.5474443206478418,0.5362933199128669,0.5641559027745335,0.5570833099135449,0.5185107794636699,0.5710957224545194,0.517738768645602,0.4894889038377869,0.5645860109330214,0.5543609473936517,0.5736244755916143,0.5209260572439522,0.615756720948921,0.5640023257393412,0.6245317158062703,0.5891259935247889,0.630146940761835,0.5707688381610572,0.5594734898206326,0.5663356788254688
0.5173257563171376,0.6220943023638399,0.5458398588316136,0.5830036014615194,0.5468088177163882,0.477752403544413,0.5845336433423851,0.4842610311061167,0.5702006975588703,0.5179046622671195,0.4855766052927033,0.36258469190340176,0.5396695237530437,0.5170315452192044,0.5105577990747794,0.526285720220323,0.4285994764585023,0.508675493297473,0.5042090582738614,0.4822160450184132,0.45686418502205134,0.528611268693872,0.46461913689993045,0.4531539643009022,0.5528334203555582,0.5393885038737319,0.6528198045329214,0.5102537049628694,0.6147954447594343,0.5676123340996817,0.5291788694549338,0.548786644725678
