Fp1,AF3,F7,F3,FC1,FC5,T7,C3,CP1,CP5,P7,P3,Pz,PO3,O1,Oz,O2,PO4,P4,P8,CP6,CP2,C4,T8,FC6,FC2,F4,F8,AF4,Fp2,Fz,Cz
0.6276739168123465,0.6234289961294153,0.6107936877885858,0.6041048779340673,0.5770268163556681,0.6044211406327754,0.5932725428317732,0.5865071266713756,0.4089383739090511,0.48835078781153946,0.5101171868495853,0.43938466912113544,0.46859142640192625,0.4578067503456321,0.4604956031826445,0.4613253802445692,0.5002007608565979,0.5102157145566604,0.5273253814812486,0.608895470641604,0.5727497718358008,0.5669038592854763,0.5560912225047037,0.6093692095061272,0.5940842857237003,0.5689225772316385,0.6059527960139443,0.5944561952466096,0.6118252922537534,0.605268317829325,0.5964256949105827,0.5896627361111982
0.6160266324528135,0.6240495326679908,0.628112449493418,0.622800221773277,0.608818613006845,0.6213052252492315,0.6005664216075669,0.5821358883288213,0.532263588798814,0.5271001234273067,0.5554414777623827,0.5304555878999867,0.5023353312539998,0.5068233976328222,0.48115740830199655,0.5275301800967463,0.5008823616698143,0.4658382280877184,0.5058496837786428,0.6219616097389926,0.5967738717701471,0.5571868976531421,0.5520884559826115,0.604189507920516,0.5940152294344494,0.5664921186646193,0.6039938674308333,0.5931130355041078,0.5869239001284282,0.6260567656768546,0.596841183516348,0.5902818116028306
0.6271656918166304,0.5955712015852157,0.6134971922348489,0.6233665675656492,0.6089746235779551,0.602103343844051,0.6154887092825981,0.5657370967242246,0.5467948213828788,0.5604859372219564,0.5520339562847223,0.5443258134297676,0.5498072592608507,0.5313048166501446,0.5111172503954827,0.513466304286903,0.48019795254087955,0.4961094027023154,0.5581329230239144,0.6305599442915498,0.6310804621973302,0.5905295702472226,0.6081977798260326,0.6147594410894285,0.6202270172129852,0.6067237031432032,0.6145572194689879,0.6234317280995044,0.6233834684501984,0.6086271019798203,0.6248364177659668,0.5932648869376898
0.6120596920841906,0.6184198516292267,0.5999345849539893,0.5956928777951771,0.5435340876952511,0.5944945722791477,0.6318255736453667,0.5429697360057123,0.5820780933995113,0.6093373082497999,0.5358137879653041,0.5422805188556846,0.5598402282935654,0.5325384852526137,0.47833393805814683,0.5039323997332861,0.46365962096424823,0.49277717101114904,0.5593150171914756,0.6268772017477531,0.6086656741438222,0.5364760191521936,0.5666886076565232,0.601256909587573,0.5872398797641528,0.5783064573878518,0.6008792846253592,0.6052759793175523,0.6197936501313359,0.6159364395178701,0.5835175785534141,0.5215853569710953
0.6097016831982508,0.5869514021692321,0.6079467264080172,0.6191154491664523,0.4967625189475745,0.5882358054062973,0.6257203164783073,0.5635539045281394,0.5579074280321823,0.5945485978805212,0.5189681554553971,0.5227942236157891,0.5703806184745261,0.5034447689456344,0.46271204863314774,0.47587793099662934,0.4092033444826395,0.42468111700749045,0.5856279466931391,0.6250335790523676,0.5966673440032152,0.4829860002241916,0.5658197227867853,0.6265605306954339,0.587079685930422,0.5646726309174687,0.5979586378922047,0.5863968471138619,0.597685741315661,0.57689708380405,0.5858843198779482,0.5885443758987244
0.6069636710266091,0.5939696974894791,0.5915075556420148,0.6088764417742941,0.45508229354295426,0.5991398522683783,0.6238932191817255,0.4745280285384277,0.4463284135360231,0.5766894765933271,0.5085912724967697,0.413783257761824,0.3980979363358347,0.41415988337292675,0.39237579540266987,0.41542377953651877,0.3610501774438047,0.36253862174889584,0.5249580519386228,0.6154500250591233,0.6094143390722492,0.5574109231360357,0.6176620883758585,0.6192006383397064,0.6104792483381543,0.5715788685403146,0.6219589739586405,0.5464201934034567,0.5865591518303392,0.5679571207812459,0.522069115391781,0.6041828133840974
0.6105718699293261,0.6273582141806875,0.6221783743992629,0.6201762882110903,0.5458712290845877,0.6072032471733769,0.6157084403036892,0.5519771746787993,0.5064396748301883,0.6272995352988503,0.5856408191010993,0.5486948927598414,0.48574400396301204,0.5070802906554686,0.5183601110588572,0.5025573852707217,0.4157514164613168,0.3939866200748486,0.5185777913242777,0.6000951048865971,0.5906815788542286,0.487382865160873,0.5908320037710628,0.5752453274802337,0.5921900526535159,0.5502817885354878,0.6144928755926351,0.562148723569817,0.6050919655525023,0.6129251029867778,0.5766269127196159,0.549112222165143
0.6063921047102666,0.6084589150692652,0.5908916730795372,0.6193463095490095,0.5698016693918536,0.6142702794278316,0.6259057994134077,0.5330848063746507,0.5063314048511665,0.5694876398736913,0.5356524264341568,0.48478123403075224,0.5021963122932784,0.48770688382296157,0.4810271619790432,0.48056197107190074,0.4360423761404946,0.4180760989619175,0.5600871437449095,0.6234298677884651,0.6210623665274945,0.5861418092325682,0.6274745121750692,0.6122011128323351,0.6245315582654692,0.6206689579288017,0.6225884855122726,0.6057754743743242,0.5819392026664447,0.5992448610280062,0.6099464810390446,0.5567798977757726
0.5986485637259952,0.5950344089101771,0.6087497981111659,0.5938080762519395,0.571079870735396,0.6102213260559483,0.6312881705687295,0.49616859338695934,0.47481234057908234,0.5625516868468111,0.5171968778618252,0.49371765333667317,0.5399893417769553,0.4888460532524519,0.4649361553648284,0.47880118865046456,0.4675266186401279,0.4697662909660466,0.5743750376406624,0.6189290345045068,0.6074644364784019,0.5917876678030776,0.5704399903343591,0.6041295016735644,0.5642729785863457,0.5680081634347041,0.6024037155212251,0.5611606517671647,0.6081099976718433,0.5907751365599953,0.5951700774273182,0.527490208125003
0.5761971940283189,0.6091917687346997,0.5795660712244999,0.5926650684801161,0.5848391694393635,0.6091863296496366,0.635069612022543,0.49107870966847483,0.515770486716435,0.5151618076439165,0.48289001755218486,0.5051416335694048,0.5407832903302306,0.5140920725338092,0.43548598041705855,0.4712637676427345,0.4707451291620484,0.5009726015530701,0.5737814807930758,0.6222826322869622,0.5980433560630111,0.5641082060273418,0.5253667230307651,0.5652250803718962,0.5387649263266204,0.5425039521875806,0.5904982388169832,0.5378705297605816,0.5938222364521994,0.5945382636549426,0.5852878876741006,0.48898367994201913
0.5909418093870902,0.6296592017409677,0.5979134336913593,0.6151055246887516,0.5790516935219385,0.607688073994683,0.6272845028868037,0.5789166273847595,0.5563392145517475,0.6224625891550805,0.5946889472526004,0.54747901201273,0.5675381998718363,0.5534416801360412,0.46772322941041333,0.4958134301448513,0.4679941714458999,0.5065925022641774,0.6024878939189139,0.6190017641064752,0.6188955775422174,0.6078439893484823,0.5999226910096233,0.5948235226791205,0.6055846133340673,0.5923661526095277,0.5914050312735474,0.570164421991406,0.5683761843429701,0.5893966825927752,0.5998373205934255,0.41141285819918216
0.5564086115300191,0.5617012048042245,0.5502772246337417,0.5694939234466668,0.5739984499986664,0.6092151950070783,0.5849126266439204,0.54585755665955,0.5270821624044286,0.5985709500116461,0.5708652771633789,0.513918072790744,0.5369302921298826,0.4807164391576209,0.4955472362118278,0.49140536581254896,0.5137727285941711,0.5387380106544825,0.6079528515387247,0.5920833174431257,0.6134051320176076,0.6035415428573002,0.5927961647147448,0.5934665582198891,0.5988907485679914,0.5411805672603971,0.5668890153945013,0.5088877179882109,0.5451168606254292,0.5661946395160931,0.5214812158955504,0.5368425850252077
0.5937960281800209,0.5877721139669205,0.5707983215922438,0.5938561699415289,0.4540668725451391,0.6274052891650154,0.6077748057047756,0.5690431349148095,0.5229035955944378,0.5873248235755967,0.5760172218972275,0.5063109293559466,0.5135426232361013,0.4568181419132137,0.47909851084435134,0.4750147718899751,0.48810533445746407,0.49087408570603935,0.5502347474928798,0.5933178926192126,0.6143906486487903,0.5948422659125018,0.5875985524885795,0.5995927343411238,0.5769392264286793,0.5057423494958193,0.5642664286249522,0.4880122496905916,0.519474819320461,0.5594254439089706,0.5043582487717763,0.5448547163395485
0.6133085861138156,0.6274929886759304,0.589239841430891,0.6174817020183416,0.5152117496813299,0.6222980242869324,0.6126835434005918,0.5876610170774864,0.5768284179870848,0.593498648041532,0.6086952641892116,0.5743104734078763,0.5753399489937537,0.5506694345144739,0.5594938038163698,0.5868556420279966,0.5321852003471501,0.5254902168282728,0.574033934469064,0.601468777554175,0.6036388949798036,0.5842714619943427,0.5813464009005488,0.5982816084807269,0.5984071279237118,0.6022667462278514,0.623246103249329,0.6176461742558478,0.6074228045817774,0.6206232910982228,0.620842450981012,0.49841119281134355
0.6141586781751913,0.622349177763006,0.5840751832929801,0.6194428933015119,0.5424316002305901,0.6129097638790697,0.6109730609464857,0.5479594629999767,0.5717606943398728,0.5683587313145302,0.6017365401747369,0.5403393563007853,0.5238088140101431,0.49609671349918777,0.48708842187803353,0.4820190427649895,0.47782113112383556,0.4564778141752443,0.5596235134511519,0.6220112185160908,0.6175075256555161,0.5587383043101944,0.5528832824062397,0.6031974738774014,0.5677642718747439,0.5733740915957932,0.6170053149294447,0.6073113262167403,0.6168793269958146,0.6173835445330123,0.5946633259718729,0.5267083783242247
0.5834003215154109,0.5368117326705542,0.4867475390506042,0.6139356418703676,0.5640747219501794,0.6224873618576566,0.6111031694107969,0.5084165147254698,0.5882463677836703,0.5749835217979987,0.5375861710712339,0.5627389866655087,0.57893445723344,0.561564704259862,0.5676288238459712,0.5783502837383858,0.5750959067047734,0.5756149487756225,0.59746455756334,0.6169002490561911,0.6125718738010167,0.5652726557073661,0.42664777128774956,0.5197297027946104,0.5124337366898748,0.5309710895696423,0.59638404334112,0.4952515077114597,0.5695085105756922,0.5901503562550298,0.4984766408426372,0.5695561738686279
0.603056617283747,0.5865995823633012,0.5538938420330013,0.5950824749089971,0.5240899907789873,0.6140463360910982,0.6188659539305569,0.5526755813038925,0.4565085220208378,0.5746607067479926,0.5543881051356224,0.5420295230594534,0.4288329015324071,0.4745244358844958,0.5172520513681034,0.5147919754186429,0.5332615392617407,0.4634405610427052,0.5284266572275911,0.611930284930571,0.6038634863649782,0.5448346155393968,0.5187702891129622,0.5921119173277044,0.5862246741732261,0.543135273877164,0.5982774514513872,0.544039812697126,0.5911197201332573,0.5855320627310874,0.568021767249134,0.5453542697932322
0.608959536135162,0.5885463662217219,0.5640010939143676,0.6209662542776629,0.564744446433995,0.613726047813076,0.6303451977210413,0.6001428027899083,0.5521091135043851,0.6149115929791711,0.6152982135853194,0.5721869511287324,0.5632064762120084,0.588307902673157,0.5510222427274005,0.5330077169726467,0.5077990295190964,0.45491693721055865,0.5734056597712777,0.6222734921671139,0.5986836987043482,0.5586393981643389,0.5528145378135692,0.5985410176283019,0.5586783567235719,0.541019157770759,0.598939920607014,0.5500816039888419,0.5883905143406096,0.5787078378955683,0.5492988953899695,0.4886021412026638
0.6106599531342897,0.6227022488291596,0.5715937854384608,0.6189475318008266,0.5375693775374893,0.6244754626007124,0.6158252427815548,0.5849707718157005,0.5399119264266714,0.5871503741785506,0.5614567418508695,0.5257380735583688,0.5549150608918565,0.5244115076899044,0.5210619897853241,0.5467973136596398,0.5272722644547813,0.5218845741094594,0.5896613827226389,0.6166451544176184,0.6015971597681355,0.5515183229906532,0.5175199557335383,0.5711967580463613,0.5766887397733488,0.5470486140611912,0.604824970548981,0.5565283839425573,0.5560872028222896,0.616549991616947,0.599152417381757,0.5027175833988385
0.6145629136464417,0.6217547021745484,0.615418836664302,0.5990031510404233,0.5131451393828838,0.6286509903360049,0.6178858424761541,0.6050864107218906,0.4725782638286362,0.6163430408954216,0.5658884632565272,0.46339789750316956,0.452732052734655,0.4685747893765133,0.45358698559333954,0.4920298364927892,0.435327846878367,0.4834939012140931,0.5439586136651577,0.6188254859787864,0.6234273191607793,0.5925057834905947,0.5993117118780322,0.617114450510797,0.6048962168263174,0.5891661641236868,0.5954202398134113,0.5934930595596184,0.6088613111636181,0.5813377296646433,0.5396649477777165,0.5733127601372415
0.6135122848118565,0.6035674080451631,0.6233230199335605,0.621555034519647,0.5768359598523776,0.602155298047491,0.6043023504165572,0.5298214273126167,0.4802871142314462,0.5177263577442621,0.46834553730397205,0.4328754967785119,0.4815495146035833,0.4054138519548166,0.3668072443696552,0.37255677126231124,0.40503773083414757,0.44834620508039696,0.5912378911122205,0.6122054969390068,0.6298536489899564,0.5749574050149869,0.6085143159147813,0.6106512335733886,0.5873281768856866,0.5905319377385059,0.6047351355725058,0.5812347803910571,0.6041934372499801,0.5983240315874131,0.5725129452435318,0.6085955652519788
0.6117243870797803,0.6252513313888903,0.6286151692723779,0.6076497540901485,0.5150783049334217,0.5580256166615196,0.6005126504576718,0.5282716812758889,0.4561065592587356,0.5013550615978787,0.493080589722435,0.4529615245377097,0.49627171240265466,0.39377100018273853,0.4619913300032546,0.4827818770483211,0.4987892573934657,0.5300652549204352,0.5888518874616788,0.614952565142631,0.6131147493532623,0.5945833068119437,0.5439645446430424,0.5997057109354588,0.5991689532835425,0.5712673020541912,0.6168522171544125,0.5625367172015929,0.5857944309237323,0.599953821118757,0.5669598789860282,0.6077743173267345
0.5770833801232288,0.5888253016253332,0.5841942629553865,0.5929853326483702,0.501268223548115,0.60968971625145,0.6053684194277397,0.552515991517808,0.45617544540535415,0.4859047812144885,0.4764644637031425,0.4498807473151115,0.5042729403733509,0.40961937756653705,0.48681543013501305,0.4731387252130991,0.43276207744136763,0.4506004485823681,0.5457902444015774,0.6175511635785736,0.6051759228474881,0.5662033727747526,0.5638779718290259,0.5355843203146107,0.533378554342477,0.5027697211477826,0.5649549679455618,0.5346354222601839,0.5668323700658614,0.5752721922442942,0.5136323860146849,0.5824568026541327
0.5958863836413405,0.6210199885549659,0.600892160755818,0.5808317705862215,0.548299979310518,0.6111328351856932,0.6135325083105605,0.6038883536538143,0.5918754598241043,0.5995193466622174,0.5901426462028831,0.5542311168670467,0.6117138717405473,0.5323389638115549,0.5243207474295132,0.516055607127268,0.513735034294864,0.5734915310085626,0.6210926280916488,0.6036646285390054,0.6293523036705962,0.5756641354524032,0.6029773934220879,0.6001060963627346,0.5690825568480697,0.536546162242272,0.5639733748692923,0.5372915659496995,0.5823169761258478,0.5717634727030761,0.5329168458503611,0.5206357668795352
0.5666501854970024,0.6020857050410946,0.5482704455844831,0.5837395049825855,0.43942496702298867,0.6055601212414208,0.6106361175779585,0.5832537679539072,0.5212755986135124,0.5844213237471881,0.5648710738156056,0.5255017266544888,0.5796064628403609,0.5705528556634533,0.5799966111030277,0.5824245307978383,0.5939660443669852,0.607916060575784,0.6119862963601063,0.6104658296299618,0.6221950743484613,0.5629476965390457,0.565055049850326,0.5973394788492189,0.5228148864826868,0.4727714337008801,0.5231219783554697,0.47541668441374,0.5367647445892947,0.5681261296119456,0.4712817654799564,0.5029606214972272
0.5901074849089346,0.6014844523882925,0.5067021132976551,0.6025608194055819,0.45238006528321484,0.6031559025160748,0.5918847130137831,0.6088502121608468,0.48174048883489967,0.6002078575860806,0.5736180651017275,0.5069755810828496,0.5396720356973994,0.5390035478931875,0.520882864263782,0.536640534594176,0.475339516136783,0.514296413517887,0.5486379687225882,0.6303971512352747,0.6099414760404643,0.5559017030122777,0.5603234654083895,0.6003308759675786,0.5082120271772669,0.4563976121432996,0.5413547573511645,0.5241191413252685,0.5704101777607445,0.5909226969348232,0.483621043204025,0.4788972311296057
0.5928059776703619,0.6089637628761995,0.6009007472014382,0.5844205577934277,0.5114501406225926,0.6156405797347418,0.6038423177535267,0.6018259773714881,0.5373893447882611,0.5794382401847235,0.5675289000924651,0.5354390292153356,0.5620537089644071,0.48604235681444713,0.5446914095348268,0.5530792708405315,0.5115426106102812,0.5129515454095068,0.5269433297353502,0.6173891982063134,0.6100615083959714,0.5325517364759895,0.5685300269981902,0.6094935386699127,0.5832502507077687,0.5610612051589058,0.5825946791450096,0.5642674935340901,0.6037225082768171,0.588774810400703,0.564441906433496,0.5799118256147927
0.6238615938368214,0.5959019604689351,0.6119109164786245,0.5940063849962873,0.4944514104215943,0.6285592574065295,0.6012994496013243,0.5508419712829912,0.4812671135943876,0.5967420431767846,0.5721801427805785,0.5317988321501399,0.49782200576110497,0.4746575266423317,0.4881493728666969,0.47384528459789016,0.48033846758577164,0.5236927746450744,0.5798887626413302,0.6110343622011258,0.63014799756288,0.5667296556098987,0.6080082103590212,0.6051871653027128,0.6013355748156538,0.5876799752015883,0.6070551307299024,0.5765432443648691,0.5846877754670146,0.6009173625526252,0.5870111991373,0.5520884066464257
0.5941950494096474,0.5970243261335392,0.6262718730005193,0.6030036680212135,0.5285750600385741,0.6329708476030661,0.6164242839633973,0.5760361249891673,0.4953451565118122,0.5790172181998884,0.5802500160018448,0.5351604969959552,0.48623553899380323,0.4967933541841637,0.4844329843698517,0.4999935305524519,0.46533205672749606,0.456099277970395,0.536109537475072,0.6164145290840912,0.6047188668523916,0.5379203863463763,0.6013055230750114,0.5586205675489168,0.6028261954427834,0.5747219276388281,0.5939051368507384,0.5259019487708125,0.5537276886766388,0.5620782196306251,0.5682303250945486,0.49663892048982766
0.5801390406816188,0.6085153476425101,0.5954581244029652,0.6240877016161792,0.5834299094042901,0.6271665843082451,0.6250715515805291,0.5499635401454458,0.5165034791343153,0.5815536419283306,0.5629948579184956,0.5086173606011396,0.5503414945030828,0.509416764846013,0.4987288885887324,0.5221797415004951,0.4985633032440484,0.46496226526047757,0.5372174088398127,0.6223470676939428,0.6051046266329105,0.5503912336028254,0.5625447873860645,0.5619746105778313,0.6050068404080208,0.5824385458761139,0.5972043269126617,0.523677048086398,0.5401303106337928,0.5642949976842949,0.5985198061301558,0.5230227760660161
0.562720743628866,0.6012438683580896,0.5923407822564504,0.5956725161843511,0.5390145633611556,0.6153215184539951,0.6167178322591246,0.5258375333427563,0.5313912573758907,0.6255886656949967,0.6314782804924527,0.5437523931655193,0.5891933221622293,0.488883719414844,0.5696409763441557,0.5775907191029741,0.5804454620900942,0.5864897845264623,0.5628849685718614,0.6243016578951681,0.6265632230981525,0.5237599403191088,0.5404901124100084,0.5265152141424684,0.5602662042499801,0.5231795657423214,0.5391737915284471,0.458443819787516,0.5142748682941398,0.49292088300900166,0.5637332260245712,0.4755209300484695
0.5974312636809704,0.6081222837616153,0.6173620455517483,0.6192272672634094,0.5914762305167943,0.5960139738934075,0.6058929780452967,0.5151335509334337,0.48952218269606745,0.5780386113831001,0.5331997024904198,0.516167594135664,0.5664531554469914,0.46556100220580904,0.4751075298113064,0.5442120370227531,0.545132209590295,0.5415176300593898,0.5646773017880293,0.6201502240142042,0.6285177596792104,0.5444892847024415,0.581537385954529,0.6013713710568375,0.6018934788968453,0.5899515659217055,0.6222087701493354,0.589431159091842,0.6047260617704253,0.5967998909885237,0.6084663514545149,0.4977924688275496
0.582665370159505,0.6167032874278653,0.5884041039351283,0.47993372342276486,0.5453871335017069,0.5994344774134673,0.6079835465953508,0.5198782880778808,0.41620808730298947,0.5838655978110519,0.5480177731800451,0.42721576079921453,0.4387496194494794,0.43265083457188086,0.45139205366507673,0.4665983234201213,0.46125620235125303,0.46565228608925485,0.5270116573392902,0.6064420715079426,0.5908457992551273,0.5113196875056029,0.5896574674048457,0.6026927411147066,0.5928729249285483,0.586297440869972,0.5977390508826936,0.5515167704185774,0.5169638899748246,0.549548604253293,0.5719527363039201,0.47282079358704665
0.6162901795692883,0.6207160735682765,0.6191566367722472,0.6087747156982461,0.5421608488019595,0.6207909569095034,0.6036058258651814,0.4890532283768075,0.3831204232629354,0.5612257568391754,0.4936167871059675,0.42145888945233445,0.44926219676977996,0.41279636584576446,0.3777325117048731,0.39687030743591734,0.3781440248434329,0.42242035735092914,0.5224486335847334,0.596918017260993,0.5972486882331706,0.5174859845415276,0.5994842012380208,0.6355879965574003,0.5808932263848725,0.5755602304315834,0.5823948365214856,0.5724375622256137,0.5127340418948245,0.5669745158581024,0.5712419435916349,0.47273619563123404
0.6235923666008616,0.6200711328156993,0.6155431772883075,0.6180508098182763,0.5094614920463971,0.6023109270177849,0.6208308081252336,0.4855917933961846,0.5132528436790053,0.5888335269473389,0.5322016574385767,0.4896971357322254,0.4937679793046774,0.5141296067710027,0.4786134489801162,0.4551639481244736,0.41183009083797933,0.4584709073736086,0.5837055515725702,0.609917641847183,0.61805423350021,0.5986596083126366,0.6110057896042879,0.6245048550442166,0.6062472524915307,0.5818073105789646,0.609854246068352,0.6031518897556479,0.5699963010491449,0.610036789052716,0.5835353874116341,0.5503969748549484
0.6223892496843821,0.6141110834867654,0.6082710026051262,0.6062349391100643,0.5518240190882511,0.6090325822373337,0.6126000597541212,0.5551190532790341,0.5309123369842622,0.5832360180160252,0.537493128385198,0.4972192424128358,0.5110712762696036,0.45517144893563344,0.4864033536786422,0.4734722811756077,0.4491944718410422,0.4480781397282407,0.5557519831687725,0.6109753495524944,0.6166281135126915,0.4830327468597811,0.5709228509309124,0.59460074874158,0.5959687718426626,0.5909395352667707,0.6189731799456273,0.5904013950844076,0.6212965710235439,0.6213428488642961,0.6008942015048512,0.5005657507630993
0.6266042014719844,0.6271247227334646,0.6194482205073587,0.6002946035802067,0.5481611149662885,0.602678785825795,0.6049135360570694,0.5813708381480087,0.5582126067907272,0.6086243635966779,0.5801420844662178,0.5725723579985204,0.531560089898076,0.5227184429642981,0.5446054383675943,0.5461918373464899,0.5516672558748597,0.5546441438734654,0.5910430903286099,0.6242846183993461,0.6233200458924952,0.47409827710975466,0.5994525670945553,0.6347555326669412,0.6256336583914676,0.6136663770929597,0.6210270910531597,0.6238907232615618,0.6015696714007089,0.6074940467586609,0.6239383194816274,0.4565397350899321
0.5874269044640165,0.5912157153784966,0.6052725812834131,0.6222059969309555,0.47233335259565024,0.6236318548120507,0.5797858294755427,0.5684717501130232,0.5178138252062398,0.5796436015370707,0.5620633104366738,0.5236178857073999,0.44997224651744216,0.4768517444400606,0.5144545353816881,0.5140999577377603,0.5096585419734291,0.47138678871409123,0.5268736623672926,0.6072846590843693,0.6013212565656383,0.5243985204754364,0.6107298372837309,0.6256667426945149,0.5609823213420541,0.6100738148308391,0.5537942985591691,0.535577279876064,0.5719851894723899,0.5918438003843308,0.5685752532287872,0.5200966020066821
0.57953942022587,0.6041192177155754,0.5994682185753331,0.6151862817224432,0.56488819439563,0.6185753857325663,0.6107571370132282,0.5985817535957177,0.44143952854064983,0.5512855882161046,0.4656586285527914,0.48794086055013297,0.44220335052764326,0.44107768808609255,0.4669832544515489,0.4265231274474964,0.3952806669120149,0.43343431481854194,0.5259987848535016,0.6185061859665321,0.6053116400090415,0.5083177839451437,0.6037075958254158,0.6093303910844956,0.4902197160232672,0.5514765316191507,0.5863342186552511,0.5250501947424937,0.5557688075635117,0.535443004586905,0.5340248888839961,0.5114120338550288
0.5876473099923318,0.576024703846475,0.5116393492453072,0.6026440478709323,0.5721876409732187,0.6216908172708776,0.5800752534369292,0.5471626533412339,0.542418665977316,0.6127577569994366,0.5871891809477573,0.5784746868861336,0.553833829927342,0.5205402215352971,0.551977185409315,0.5399090331846415,0.5312804047403669,0.5713045258527606,0.6141591635728927,0.562271943312201,0.6101861687612183,0.5948343526510661,0.6130418060956124,0.591528816711718,0.5536409273539439,0.5478796864148494,0.58209717131018,0.5190430470849824,0.5519252170885223,0.5605313940799199,0.502900114796968,0.5867048607010252
0.6161079834979528,0.6018794883212399,0.5536312301602868,0.5888244130477103,0.5895592156268272,0.6168951969328564,0.6077957089079506,0.4659410515260488,0.5476377166234416,0.6050216926156493,0.5520148363228338,0.4780626336622718,0.5343384799309839,0.5015297441217629,0.4772037357129743,0.48795884122133604,0.4640370344772701,0.5246736561262997,0.5755443417646879,0.5924323731918658,0.5908998533257898,0.5822200588252774,0.5730256969730895,0.5899709180104382,0.5928401146015271,0.5932155690355311,0.6038833092276655,0.5917520577293657,0.6076912826386502,0.622219729092578,0.56154710956753,0.5774134504741341
0.6109034437599639,0.6091317747383775,0.5750506277155716,0.5697740062417161,0.5293722253082013,0.609395595251904,0.6332772550210235,0.5355423884083493,0.5229964635521024,0.60377988426965,0.5430424228158228,0.44669429029534596,0.501378891940551,0.4883986313790294,0.4262162321809656,0.4385112729877956,0.4510091525306619,0.47028498164203564,0.5399878029306004,0.5506733614298284,0.600872869531708,0.534476555998895,0.5932008412356339,0.5849604588342686,0.604563395960122,0.5386351363038897,0.6008737630351677,0.5769308728738396,0.5914047822687627,0.6003435820551575,0.5578377872881185,0.603766482307944
0.5822878010526804,0.5611314307353751,0.5029516973470004,0.5900492896619722,0.42505651563880004,0.5923954419022432,0.635006044133928,0.5734161417874184,0.4297216682201041,0.6080142301651843,0.5898683201631042,0.42465256625605424,0.378850146015308,0.4102157885774358,0.4722252134937292,0.39202272029380364,0.4628587709213066,0.4030814521772893,0.49783713780140365,0.5343445141511833,0.5998539174042863,0.5411766529609949,0.5668865098038227,0.6120085183441415,0.4949980566249836,0.40659419419409387,0.5682810492551394,0.48176414851720073,0.4574159424497674,0.46553316974490405,0.5037314533054745,0.5666700744041536
0.6009320502328702,0.6131674481692977,0.5632010870675874,0.6154493634227768,0.5023055743289103,0.6094414379967816,0.6061101452219485,0.5620229665989152,0.522209911870079,0.5863811832945168,0.5628131487764493,0.45688917094981596,0.4989594746661233,0.47662412995397613,0.469693936403711,0.5108721484072083,0.5033845768654805,0.4644659101369897,0.5370023890497763,0.6152872783579976,0.6207045444651705,0.5546274981445327,0.5898623297501709,0.6050033411446972,0.5764077441574592,0.4493682011978562,0.5725956092093479,0.50631596287334,0.5316915119769973,0.5471648277752436,0.5684825445916301,0.5517246759478353
0.5828531082608313,0.5919877113586476,0.5821667017860992,0.5902668765489133,0.5147703072271484,0.6255597928789242,0.6014845760833073,0.5404685792670393,0.5311266009724221,0.6118862847920894,0.5943364496350407,0.5450393715805653,0.5219478298498147,0.5329491476984951,0.545891495166236,0.5513958972514252,0.5200877205607709,0.5033283280808506,0.5578949017129754,0.6225507007883162,0.6266701882964705,0.48610091437690506,0.5976890338987317,0.5967891979801194,0.569544829097921,0.5562815142034722,0.5371920998645874,0.5389323326546263,0.5395872703515391,0.5348438945741006,0.5200303105410694,0.5848050556308365
0.6047997470784336,0.6015855351574675,0.6218899043090488,0.6026627142968016,0.5253686345403545,0.6008067648601402,0.6027617267864309,0.5025784482874895,0.48397422528362644,0.5910268369318006,0.5639633055633639,0.509348198647203,0.5075723294100543,0.5002979217844667,0.49854386089266006,0.49134350443565034,0.4574425314901702,0.47070890420540346,0.5547784979605866,0.6115111343603428,0.623083547193428,0.5429506736766029,0.6163012881434375,0.6233652645468848,0.6096639336476883,0.5680951476673051,0.5773401771000356,0.554009242091852,0.5782176311275123,0.5648275602460188,0.540366461866478,0.6023082740744314
0.6115291025036056,0.6052628030658954,0.6265274490752908,0.6119231132165954,0.5752802289253874,0.607671646240587,0.6202091887530699,0.5871376782824029,0.5234702216511256,0.593986908653366,0.5089514187108696,0.5279240172854416,0.574796634126234,0.5261069363249194,0.5158315186343105,0.5123738279088825,0.4403635352185717,0.4560140513128055,0.5830798043583543,0.6106286098228263,0.6064919192916006,0.5831783777407885,0.5843508815874259,0.6101891786502831,0.6138916294123887,0.5878187872972758,0.6128312976882939,0.5862262497567818,0.5813656326709444,0.6192820537938611,0.5970545884173495,0.5886246567975052
0.5892875820138755,0.6225004401723641,0.6104269860545769,0.6292617902998334,0.5755530961783122,0.6036050941866052,0.6010335435425668,0.5939460699606289,0.5485186957417713,0.6070897925743424,0.5609422728550703,0.5175791144485496,0.5616495181022347,0.45137026542032954,0.4538532174194447,0.4665866732068876,0.49304806076780844,0.4938025146096815,0.5951970056378324,0.6106721214586884,0.6085145687372003,0.5794022059216102,0.5919570335584803,0.6323834237862597,0.6052120071257308,0.5580980479691936,0.5999972853920819,0.5797140838780728,0.5804760345382981,0.6094913314892146,0.543052938846656,0.5862524211311178
0.5905365900480588,0.6091665578397186,0.6173769750404423,0.6258093543510902,0.5622760776205392,0.6083146185586351,0.6178945622002135,0.5941654150708264,0.5147775221547103,0.6094684239108212,0.5960393205385908,0.43784195756308847,0.4453684004441831,0.43676196261380335,0.4678951512843912,0.49405527848589087,0.5286068050469906,0.4791296226365337,0.5311177246479568,0.5996304740782881,0.599367351488274,0.5414733848048849,0.5984555944848337,0.6204944452501847,0.6127547421784998,0.5812994846035072,0.6093297478976362,0.590838712016765,0.6103608715958972,0.6125630315743938,0.5617861169723758,0.5676079295255873
0.6121187980724263,0.601301745261435,0.5609296020270018,0.6023122157510741,0.5600792592044549,0.6035003505617271,0.5835907771751032,0.5678289871523097,0.5024288795353791,0.5855199058571348,0.5831717455062803,0.5602402573296971,0.5402537230504326,0.5194942584222139,0.5530211444883063,0.5582270751100225,0.5698304290382931,0.5922560939089073,0.6083515999202248,0.5937151065612896,0.6037290195100172,0.5688158991718312,0.6192754107463065,0.6142203169364967,0.6198043264466697,0.6107619998891645,0.6121081602589968,0.5989263754967038,0.6190034530265915,0.6031285461395792,0.5909512475845123,0.5804331515495175
0.5678488133431994,0.5781918171700774,0.5746632029413439,0.5967019897785328,0.4810627293954697,0.608991467467641,0.5763545613769255,0.5872435339776279,0.5340454758873838,0.5951253503824558,0.5870110607845972,0.5700441896994328,0.5674228677568591,0.5136356874898313,0.5334433998313614,0.5550495702625476,0.5229626028152864,0.5697565678688989,0.608013293161943,0.6011879287814936,0.6115443415265868,0.6032995823164257,0.615204993890464,0.6181347141726614,0.5984546281831754,0.5826033818898154,0.5759264824934482,0.5396477864568563,0.5603435469200259,0.5190498968883115,0.5115744521378539,0.601418805339121
0.5622032660641056,0.5596347320871403,0.5625285749820916,0.5727595268446903,0.5742354961921119,0.6078009094020799,0.6256870153233298,0.5795115694541777,0.5759407557654197,0.6116324518936906,0.5723775128510814,0.5811715700676285,0.5663664911492264,0.5935967947375784,0.583212349949845,0.5741506487168959,0.5746699041109871,0.5721128413018544,0.6091578732884686,0.5968298390811417,0.6122562175352233,0.60096093058741,0.6166931744395789,0.5967076661154145,0.5708989537284321,0.5596680871047816,0.5686429749464212,0.5515318609980435,0.5835972618860323,0.5397898105893096,0.5170264400860776,0.5893902181591045
0.561932830409797,0.5630292440053786,0.5509977183144424,0.5655386013078781,0.5345135829553402,0.6134410899596684,0.6090664389870647,0.5969196305329776,0.5549959736122613,0.6209056413999738,0.5433631521872478,0.5519510428963538,0.5691191268665556,0.5831693919558422,0.5487176527759489,0.5478044789196362,0.5680860339533549,0.5668396426418953,0.5928887883102858,0.5988682924213203,0.5979228223536917,0.5768144614312167,0.547469680543694,0.5825951619159396,0.5424815073861184,0.558700256683786,0.5669834719422518,0.549768854884276,0.560510097312093,0.5613984644318954,0.5605006124263093,0.5637696431160888
0.5342361737125737,0.5549848315561475,0.5687808093151512,0.6061613819356657,0.5444874166029932,0.607425857362037,0.6266275487638004,0.5521001566916526,0.48749226971781273,0.6010403929007132,0.5540024480253023,0.46768725022885455,0.5467712214103156,0.5179150745552524,0.5126811971551816,0.5616432504048565,0.5469029418766094,0.519009110738824,0.5797175070516609,0.6200682928908069,0.6246232615517249,0.583778190446374,0.5778731972963355,0.5761242683502368,0.5789195193126914,0.5330252142801268,0.5376748682387835,0.5015625783297322,0.507349939166782,0.5358197784990362,0.5611875968890379,0.584675799624311
0.5641898824566844,0.5951231701287829,0.6147583553783552,0.614406003283874,0.5406788119421823,0.6060607591112258,0.6038875389737961,0.554475393813726,0.48476652542638055,0.5767270105808157,0.5983453404333322,0.5018459687231923,0.5265641606662284,0.4974659743353533,0.5363235282183199,0.5740269912596816,0.5547907674763767,0.5323305496170176,0.6075863337024395,0.6030464203775987,0.608453130311427,0.6117981822419071,0.6196310407391226,0.599929694707296,0.6011295203708417,0.5802400806303407,0.5471295209726348,0.5361677652949081,0.5062495764745473,0.5030347711600526,0.5689006299321145,0.5873830091787006
0.5802432521064903,0.6020047426975641,0.6061877814378487,0.6086834105400912,0.5247456085257544,0.5895581315677798,0.5955719375724534,0.5209888099659731,0.5004477735448807,0.6147868702529773,0.611877115641751,0.5742011927408687,0.5464022436306107,0.5504387317383882,0.5864098364371206,0.5839121674619789,0.5568288871424188,0.576341121692535,0.6057296123494312,0.5857865290273305,0.6195572870910921,0.6091385195481304,0.6274222359529529,0.600234479634806,0.6118421459852106,0.621948513449191,0.5892741504853666,0.585199304665388,0.5534371123429264,0.536371553180157,0.6157815715379513,0.5481941776220423
0.5934878201484272,0.6231181089483147,0.6081119707012005,0.5651497671083078,0.5560197113767904,0.6166925178213601,0.5732394930971799,0.4904323192305312,0.5506297594850559,0.5968091235712161,0.5792591155460406,0.4745995833427088,0.520871831809974,0.5490611938730561,0.5412066328008921,0.4757254617834322,0.520958338817805,0.5429508013303712,0.6145809309332424,0.6080763571224865,0.6058930372065078,0.5833698714873892,0.6277974707060245,0.5970733979374762,0.605075292599909,0.6230023960486595,0.6274164354045368,0.6038958770591739,0.5834888767262842,0.5970306132504408,0.6060744976243512,0.5996004963342801
0.5786076112868517,0.6097242822146739,0.6182543808982712,0.5754672509552877,0.4960894289434982,0.6055828828063321,0.5996112468978845,0.579003625421599,0.592075591080564,0.6083381536766295,0.5675430684569288,0.5179398024779487,0.590399871153722,0.49116269303895593,0.5358533212152637,0.49875643021700267,0.4868769346352644,0.46392797523685375,0.5689493795502482,0.589588690613068,0.5910637525963677,0.5975866611640683,0.6213666180134071,0.6150326221009143,0.5972673943055904,0.5927658760090707,0.5971573237752187,0.57486739782083,0.5955058610959265,0.5827562875149994,0.5575145025766142,0.5990148306722519
0.5999983574831266,0.5699962107894798,0.5762347782646464,0.5135076527275353,0.45032306798151883,0.5845595451241513,0.5891842293701288,0.5814759136121838,0.5806965138903533,0.6019036973995816,0.6091728439104971,0.5918824685900415,0.5456735937736222,0.5388082325375981,0.5464563521125756,0.5004594339019237,0.45783663634946203,0.45716588785001294,0.5842744309147344,0.6098989801608143,0.6254112289607651,0.5956558726690943,0.5912697435924599,0.5788641313296498,0.5822429869006702,0.5807603844330235,0.6192718652070377,0.5887189370860618,0.6250964348302143,0.6084540573358538,0.5396814215702384,0.5866904894392083
0.5797980086327942,0.5543188072095973,0.5546176427552509,0.5212750941656417,0.47393605394325794,0.5757112381496655,0.5608389388004383,0.493043125321231,0.5408846893670899,0.5519839943572961,0.5987481112664031,0.534997709024168,0.5330183726481609,0.5079787098439629,0.48861081504595316,0.47790135435900394,0.4925178241829117,0.5261137851864626,0.5946008323536063,0.6118536545897538,0.6151425159214026,0.567814826117212,0.5593868126810629,0.5989513863506521,0.6097369860847809,0.5538341749267309,0.5787744083573759,0.5347536850393009,0.5469892590782838,0.5896507501649393,0.5344860390161612,0.5773352145644048
0.5863754222986926,0.6036316623203435,0.5998490862699126,0.5947218148151001,0.5012085033191623,0.589857118695766,0.6114473848839137,0.5272924782595665,0.5304366545067296,0.5935084903857591,0.599714975243617,0.5531296335329526,0.5532377316385133,0.5183184539045554,0.581111763638371,0.562157762908859,0.5789692451480789,0.5730652300874222,0.609048752229033,0.6190291501519188,0.6235771085286016,0.5982798033594103,0.5830291165276833,0.6031492434058696,0.5997440860072644,0.5983513340343826,0.5593130034590312,0.5632434622823583,0.5457970665548904,0.5876457723100892,0.5631331797154023,0.5831901475844065
0.5848119852291178,0.5845434901984392,0.5485861306013715,0.6156369386111059,0.5585526600152515,0.6123878763547318,0.6188483737226549,0.5347977585014069,0.41043249909664026,0.5893569765730793,0.5812380926704045,0.5372330878629853,0.5369307020652306,0.49986098307211313,0.5707439014318053,0.5470398161291326,0.5754168941510864,0.5842986250688098,0.5416316943387595,0.5836530199327842,0.6155174209727143,0.5456859846581696,0.5244337801029002,0.5871319052331125,0.5854353222088207,0.5639107847738158,0.5476272574604774,0.5454591382220054,0.5409096386632034,0.5783833723821216,0.5762371435637863,0.4621000859416704
0.5708474539164604,0.5673764660542425,0.5232055073558427,0.5565336133274537,0.4860610582292467,0.6066120520099617,0.6042428964404271,0.4745544537114984,0.4676945431957608,0.5860270704437167,0.5893404166382868,0.5169435407667987,0.5246079922169785,0.5355853691099676,0.5568322732218541,0.5291377478172141,0.5469316239408181,0.5418649278369952,0.5756417949550732,0.6099091986769807,0.6105484684028476,0.5527859145695546,0.5594666040741529,0.5863929861362787,0.5723926811418667,0.561835950710935,0.5873812720782509,0.5453854661121675,0.5796362582224618,0.5481885552298492,0.5167997594120703,0.4698427707334364
0.5364348818711361,0.5945363742628178,0.5742297818044982,0.5729960437300627,0.4430995168422223,0.6193524629573525,0.622058502659748,0.46764442390508737,0.5383357206662743,0.5830898299701139,0.6164996424113741,0.48402014561790235,0.5266784212455655,0.5086579251503887,0.5419806412355186,0.532536456019626,0.45876983240829317,0.45633725073303605,0.597983444855051,0.6069381038301017,0.609311077725344,0.5948971888892925,0.5911287155776987,0.6052296606867207,0.588127622300357,0.5505070644271817,0.5888562096306458,0.5352673031290833,0.509804885382672,0.543645539216476,0.5030914554930853,0.5519032399252725
0.5434361367133841,0.6112622154117504,0.5880943120774252,0.5509489883724645,0.36707785265088183,0.6132107976577696,0.6214179804376972,0.4880659015493452,0.5444031919277307,0.5631056736018728,0.5979973635569183,0.5047095493640825,0.4794376462910192,0.48053062611741365,0.5227660841637791,0.4845414558030974,0.42570018872173254,0.4013093824573417,0.45146623334214997,0.6284519428208949,0.5776250648817712,0.5037619507924916,0.4946911697232888,0.5768594847797397,0.5403711777053354,0.47829726647531073,0.5054148511426168,0.5032305757715532,0.5175948856882845,0.5253068213752142,0.49378740695308737,0.4661895376838451
0.6015810973988794,0.6080528138231434,0.5996555053066982,0.615537224747738,0.49632275342324306,0.6187880049362576,0.6002080206803668,0.529795599024249,0.5221691253765351,0.6280356535046316,0.6191487220738626,0.5896040135672216,0.5637753241895396,0.5557134293897755,0.5747597758450341,0.5518952205037804,0.4897146721338679,0.5204480048511716,0.5559045536448685,0.5827746406321251,0.5691782026343697,0.5630271371181498,0.564887883653484,0.5999912627349636,0.5851176668304563,0.49923597192086655,0.5216492173861438,0.5378916046055202,0.5439529144381946,0.540466248634353,0.5278553413898865,0.4633265971651138
0.519379678083527,0.562002921810153,0.5673843733375836,0.535444851547609,0.36372166196388545,0.6166646022812932,0.608613416416361,0.6065550974057604,0.4820549203579753,0.6291425634471371,0.6149572673046397,0.5894280549831681,0.5675555020433791,0.46075498229013845,0.5476036050784492,0.5403494225803261,0.5528893465039245,0.5321422463233785,0.5376309172863429,0.5918875330131086,0.6000264608244268,0.5624665087773442,0.5804424462347119,0.5864963431730186,0.5244974967860644,0.5203660871370929,0.47441921354425604,0.4474737540403646,0.4594151822707615,0.4737969076373328,0.44612930346598834,0.5483310338495795
0.47959565870738463,0.5576213580130484,0.5830548251553473,0.5262116149889874,0.42527808755188734,0.6126324997946927,0.6119365983832563,0.5592033349848954,0.47168136988190773,0.5691301928543162,0.5925181231433918,0.5179014763102285,0.49872398785062255,0.4607604002381114,0.5240039970735335,0.5435029842955134,0.5552111300802723,0.529302481304078,0.5857265922046757,0.607526907668673,0.6208537464053803,0.556034507099614,0.5535581193297078,0.5862880275371986,0.5693930666857198,0.5756037129570784,0.5092573621281443,0.4652925191876605,0.5043156745705121,0.48665414763396364,0.5186805197452803,0.5423070416579318
0.5831162274574423,0.5859615580167442,0.5230381566109953,0.5754095749296585,0.5238166688058662,0.613002092628867,0.6020413904151664,0.5118437801072352,0.5642010174408425,0.6015953766611074,0.6178871063684955,0.5604367156650877,0.5182879669260139,0.5105504192800818,0.5742481638293887,0.5893300564296056,0.5662266674974066,0.5463514895717411,0.5787091822187723,0.6049955293845706,0.6172922652272028,0.5623949637288348,0.5064983091578721,0.575487306785009,0.6188914258914995,0.5089078085462507,0.5735851872531096,0.5162015450824335,0.5706322560885466,0.5274763445846292,0.4892776373044095,0.46918674698113444
0.5570022193240916,0.5697812204385307,0.5490503975791377,0.5947523331742799,0.4685164049840766,0.5932051182275604,0.6213410962679956,0.5925947485455493,0.5832505812663571,0.6022607141559682,0.6111032024866015,0.5543519967078372,0.5650205623243498,0.52423639814732,0.5049962960935095,0.5231686582073772,0.5268023467499777,0.5186331894953485,0.6032067271407736,0.6283378778407989,0.6154154486516866,0.5956506801453739,0.5310686419643426,0.5593275184029772,0.4968894319144198,0.4591761184391053,0.5236411843940604,0.4900296172343087,0.5592011727717118,0.5246382329827015,0.5055909537220876,0.43117634285453227
0.5266813284538397,0.5681884513753689,0.5402961464837602,0.5644711057622436,0.5208070342097432,0.5879308260754446,0.625075250814034,0.5582950173710582,0.5568539511407431,0.5901711322457862,0.6017897242900122,0.5591586532184984,0.5268723412726408,0.5102952534949472,0.5168966020967038,0.5273116304494969,0.540144851399778,0.5583700968029311,0.5831818445337564,0.5994865032641975,0.5996560741440327,0.5322651941162345,0.5350657964514585,0.5628574809149611,0.5384990038653853,0.49996896126946505,0.5370465277575754,0.4969679172190328,0.5042628997749019,0.47291318638123436,0.5267230841430007,0.43788047421400333
0.5282173651580221,0.5980280974637973,0.5713201914559513,0.5671956657837071,0.5674633114204094,0.5922427205763745,0.5982845037367596,0.5779562068314571,0.5289254914989002,0.5903412022594782,0.5581766129639346,0.5343472813768954,0.4334784901177248,0.49336911956522134,0.5366155183501609,0.5417335392819307,0.5453534177937872,0.5308345420719485,0.567437983231707,0.5943279922601702,0.596387999053852,0.5359305830905545,0.6041211018783678,0.5842181885334061,0.6043020351873465,0.6138065809479281,0.5645570753339242,0.5643366971350456,0.46967548173412665,0.4563310194540248,0.5793834674785123,0.44475797297679387
0.5905060244122049,0.6029873274193258,0.6062341152244697,0.6134446449749733,0.5674876822740369,0.6037735736260186,0.5982136897987002,0.6057813653598813,0.41787601150391096,0.595519054445673,0.5443468736696117,0.44257185620481443,0.39641542190854323,0.45232162569832923,0.4926623164234779,0.4646442442587382,0.4935858107922694,0.4841128270932709,0.5324301233128769,0.5558544748885976,0.5820061776311607,0.5031781038178238,0.5679926473349091,0.5723143088595515,0.5740024178614648,0.5515452613095542,0.5600597187412254,0.532200145005648,0.5252951773204855,0.5377368729946481,0.5350007043132499,0.5771911958163514
0.588818477085057,0.5963072294411497,0.6004111459307501,0.6169573492965547,0.5569071550718646,0.624605880950037,0.6157193644406739,0.625811736389852,0.48562859843960093,0.6013958302944709,0.5520551585360335,0.5005886583737587,0.448589396383024,0.4823371757485482,0.49820574366505876,0.4685559482308593,0.5111961893706768,0.5237855679736243,0.546326945006844,0.5938687347263227,0.5758868380640217,0.503422101118467,0.5280673502676024,0.574214841842829,0.5554729377602787,0.5527681999154312,0.5841378957704818,0.5337632460610148,0.5442774055166194,0.5634361566617241,0.5529410893773538,0.5715767619681748
0.5992649989535422,0.5931850609452285,0.577410478130964,0.6142653499739437,0.502924719387769,0.6272155590124951,0.6174469763195032,0.5764888331142698,0.5629164340540916,0.6049811024881878,0.5590599648988189,0.5596408346289945,0.5598262161046532,0.525351439753319,0.5193505103659466,0.5019139667664628,0.4720904083044802,0.5525483888232389,0.594393646776139,0.5813626773327943,0.5777123099562937,0.573279570238525,0.509820630658752,0.5713415773793041,0.5060300283108142,0.5235729692171368,0.5835634785589797,0.5140858672297574,0.5431218321270969,0.5451981310797318,0.5368052192341719,0.5676966037255188
0.622428602602196,0.6167265350675109,0.6131093348896015,0.6092892096426044,0.5508903159293127,0.6054318671124926,0.6285316676849392,0.5638701729115533,0.5516844702838641,0.5914412541851074,0.5613240987372065,0.5270293038332338,0.5693737430296038,0.5587805010846502,0.5616713789873828,0.5268538013843792,0.5123347107588775,0.5049552565387281,0.5391023083156016,0.5929760958315472,0.6199857426914944,0.5845831590178506,0.5968418689333519,0.5480004746567511,0.582139528084277,0.603350564255338,0.6003460614107274,0.6105692149639886,0.6179073477936744,0.5851123080249128,0.6195208701667297,0.4588567895200758
0.5507383310694313,0.5980399358202063,0.5867182120762274,0.5783578461843665,0.48146534384173156,0.5995376435861758,0.6113995409849615,0.5955432902376581,0.5378427717055003,0.5652076288381818,0.5470268725290225,0.5459202762411112,0.5388139239710684,0.5261931022956066,0.5493729814264615,0.4229110006212635,0.5374747499009028,0.5086506176258424,0.5453227556216285,0.6139334500959944,0.6220007398156193,0.5583725672540006,0.5948320221458756,0.5958923088780864,0.5702126900495477,0.5250990539164033,0.4987202584507337,0.5129978724631534,0.5267965026999264,0.5237055651088598,0.5314642854436245,0.5644432868664979
0.5837527856082498,0.6299570617139323,0.6138045181773886,0.6024420393131765,0.4274159998542135,0.5903935788700533,0.6179694139605028,0.5773885967601269,0.5711699052321451,0.6077377455423462,0.5762965799564963,0.5701932583151451,0.5325875555138535,0.5873940654898144,0.5430793427481134,0.4860866243624885,0.4418022739553153,0.4393536427338164,0.5695638665093304,0.5672904929804863,0.5927404506311832,0.5544176476636543,0.5904369283393561,0.6055906919608443,0.6044519353788953,0.6033190371944601,0.5962739847623909,0.58717270196877,0.6074968177958098,0.6160945425171522,0.5963413504998458,0.5884353193703239
0.6128065171513273,0.6167489359254593,0.5906478329001004,0.6063081709414129,0.5370111226515331,0.6239256073311438,0.6269019698370069,0.5916848782198512,0.5495240654891507,0.6054903238961797,0.5892445128784982,0.5595039837801462,0.56156647951026,0.5763253028430414,0.574376579113275,0.5520296286776358,0.483939078897279,0.4638940197239558,0.5183658032972284,0.6062587093989027,0.6044477213808609,0.5586977821288294,0.581502955859669,0.5997495625481795,0.5967182016735522,0.5918670576310379,0.6119682348828054,0.5950166315171831,0.6176225593005779,0.62180141305204,0.5919821174212482,0.573896813515997
0.5943632704868075,0.5678089791211903,0.5519545837367981,0.5676288600669056,0.4628578359883537,0.6010071603039895,0.6222382695631277,0.5592388628746817,0.5377040802780572,0.6117176227655858,0.6018699202260648,0.5405889959476041,0.5564387229852642,0.5705675672706153,0.5681261746603958,0.5765729806357415,0.5618278656056346,0.548366475255792,0.547063678897126,0.6099156872087557,0.5954817926087121,0.507612731189528,0.5144461210071528,0.5806326737151417,0.5634354480541364,0.5008613892531175,0.5057856634566379,0.5047503507729407,0.5472345315903511,0.5794925777146489,0.5547917786555613,0.5320837900394899
0.523174291627639,0.5645204629099747,0.524248303542561,0.5769425803424632,0.4652398032848706,0.6006549953521709,0.604353737758303,0.5234672667121971,0.5082691884801858,0.5670026294643963,0.5358355320490487,0.4675454429654613,0.5214474739741497,0.5436833484678963,0.5348303121154362,0.5421793118662944,0.5372667662111384,0.5210192459137493,0.5246972350573547,0.5885993635786833,0.5778810321809313,0.47994615101411514,0.5044362874424791,0.5680357666978102,0.520860544095785,0.4806650930281187,0.4823759332744868,0.4645138307814753,0.5111904920932344,0.49337415457614736,0.5082763581213228,0.4349628441264865
0.5685875901678286,0.60218114640281,0.5831968767218131,0.597371562377657,0.5628363759126542,0.6019286955042537,0.6151930685494517,0.5729638441495373,0.4332068445962055,0.5844972515488405,0.5504725390445675,0.4609208776203786,0.3827733006137734,0.4409899639965182,0.4771256120999271,0.47361034708566135,0.4326968364052752,0.39571614691173784,0.40546425858848933,0.570928635935386,0.5714982207382258,0.414815362730028,0.5713243606947351,0.5611687771951914,0.5716432943499344,0.5911445616179898,0.5802979700281053,0.5540936647777489,0.5770589366861759,0.582632418452826,0.5613063127994022,0.4360382946041551
0.5297889650695836,0.5785027515403905,0.5782222303009461,0.5436610323908174,0.503258550091277,0.6200042244369188,0.5846834365301046,0.6102188619244071,0.44030289217602636,0.614699108638996,0.572416420571034,0.42265671482607403,0.3981017498893989,0.41545826425327437,0.4636944791969561,0.46276153307871326,0.4427612302767775,0.40549555975127477,0.433451020601413,0.5943841858648986,0.5555576370443686,0.4644410961135731,0.5785783099732412,0.53900366055975,0.5074999066880083,0.5461365211884934,0.5554827664523649,0.5186798153233148,0.541302991799982,0.5522260219274973,0.5696005997922516,0.5992913823662838
0.5968457987131176,0.6132961895130253,0.5968710582361345,0.559596684195266,0.5536438863610583,0.5948334084342228,0.5869115143422786,0.5794578728358923,0.47868475073995403,0.6032016050438062,0.5780889445063986,0.4917060883296287,0.515402471120705,0.46383380647831635,0.48461794727622737,0.5144410100009557,0.4946788076182262,0.5102776896939009,0.5649076370885632,0.5947856550543432,0.604501599342796,0.5520374917461697,0.605109570398993,0.591808451467693,0.6067898268576599,0.5935964732980485,0.5949924341510646,0.5676825074216598,0.5813171222601871,0.581518539091427,0.578781906173104,0.5742688171752484
0.6064001275735622,0.613071963827234,0.5272762509411995,0.5686919085874405,0.497113062240765,0.5945064000940384,0.6050740923536205,0.5183415717696369,0.4849128283827901,0.5363691136258372,0.5148895533640325,0.41092002479770406,0.4274489245235648,0.35263407132891605,0.399827512458438,0.42795863587520394,0.4108033005016588,0.4446677928794781,0.5361018067279724,0.5920165565100709,0.598608050766805,0.5721410461625458,0.6308873289041588,0.5955886454190955,0.5956298282104965,0.5993672662172087,0.5643594080854236,0.5433894859442869,0.5723610974626012,0.5494736933154242,0.5773024894425893,0.5956664001289493
0.5939744249739713,0.614398041543867,0.5968912360601248,0.6005071026986358,0.4807915631846071,0.6239984781602218,0.6278264273611847,0.5312858196788647,0.5047218351577837,0.5807058772955228,0.5349115525668043,0.4448440910604528,0.4383397245024581,0.3957923023016121,0.4215474037495291,0.4288901600928946,0.42100764575406874,0.4409158550792351,0.5427889740921933,0.6268658433881397,0.6090251111831444,0.5847622844201226,0.6168975710625025,0.6089337458212037,0.5984808615942362,0.5579441882342254,0.45456969293426425,0.5213012386535951,0.5604961086033051,0.5045509421700354,0.540062323387588,0.43078315335074324
0.6128269031355287,0.615017371320485,0.6028386920958158,0.5798239175994954,0.5386004235875738,0.6218316581947011,0.6209592696012509,0.5551515952755659,0.5890151118950827,0.5958290193948154,0.5634742831414441,0.5488792976830028,0.5845927088745206,0.5310872184728956,0.5090688918877248,0.488250494186425,0.44371352528293934,0.4508150353978419,0.540224012499954,0.576166912432303,0.6117068827077057,0.5671226244698775,0.5786475906761485,0.5984600006819512,0.5952550430348144,0.5671221164834671,0.5907202102107744,0.5796590017868282,0.5742904367392369,0.5877066648381264,0.574517060425029,0.5593457392182712
0.6093221714229935,0.62002145452274,0.5837212388709359,0.5858319487051283,0.5321706341305381,0.5906308423144788,0.5971470742977634,0.5901405816460046,0.5843274851745309,0.5917707230198018,0.5521165685599493,0.5545465257548899,0.5410898212051135,0.5278354238338197,0.5186085554900481,0.5051906086754557,0.44324818433752144,0.4351977344484388,0.548280002752917,0.6072248249578107,0.5945398394763753,0.5690945656252833,0.5845472422592058,0.5623654921881935,0.5849836419024771,0.5548217360136753,0.6122167277577336,0.597170625109327,0.5767814784715422,0.593392594775929,0.5821437475570286,0.5475087553037221
0.5928814552590976,0.5924815848683722,0.5627644595811936,0.6016751450409562,0.5645747563087099,0.5920455259083391,0.5990181645585492,0.5619475802009157,0.5677590536558956,0.5835080066457768,0.5857319257428587,0.5764973585566942,0.5159963839649603,0.5233427438564509,0.520456559357996,0.4990707387505758,0.45277782173363806,0.44492006663558437,0.5192523384706502,0.6235457537486927,0.6141216031080996,0.5502980523956843,0.5828070928277413,0.5900238551547321,0.5790991301943448,0.5589525816119212,0.5858536075070109,0.5701867628559709,0.5783739694910363,0.5929482716866494,0.5671045910712696,0.5539438580630165
0.5853868063593515,0.6032590545549438,0.5923663154400272,0.6120585380423155,0.5404201273844402,0.6021218720733175,0.5956796389393225,0.5595190204908732,0.4659683823081245,0.5619011082684402,0.5002789396426143,0.5423288822327491,0.5328914500439103,0.4567701081137685,0.49919234262898293,0.508144787929032,0.4982372733891538,0.4964384367210795,0.5723305423905494,0.5953131096614145,0.5932789860823074,0.5772399988023698,0.5937963066632282,0.5964015386156576,0.5986146015004651,0.5784415817319506,0.5966133636057518,0.5676508927292993,0.5735094889140125,0.6166408156888139,0.5352769371569147,0.5476323458925609
0.5832952702305277,0.5896558620821617,0.5894780801414515,0.5845913614453421,0.41118649717582995,0.617348622005657,0.6217973735650624,0.5322501556939205,0.480954131008363,0.5831542019436686,0.5470928337194535,0.515773941964845,0.5567639077931487,0.4814595365156935,0.5238497720680655,0.5247686484839184,0.4893604031451871,0.47514666165614966,0.5657308028711375,0.6196971925438427,0.5970355145121308,0.5372162479615913,0.60131129054025,0.5585284077713593,0.5620422726045894,0.5397291716970116,0.5774002957070672,0.5264000273735548,0.5620223342942464,0.5915202666090013,0.5227154545106854,0.5861450712695547
0.6060839894481854,0.6201191344376487,0.6011956002260963,0.6154243992291955,0.4100176324947619,0.5992211030085058,0.5896835652832385,0.5343493774135992,0.59085452429975,0.614313340273575,0.5541319979441225,0.5330596486482844,0.49726994776909855,0.4917239104254432,0.5129353547998702,0.4987545069266794,0.48137912620735307,0.4102738062627962,0.4507232442528562,0.6130273807808598,0.6036013921031514,0.5324865923469375,0.615824009804701,0.5981728796058376,0.5955809100129781,0.565458120348615,0.603629034519896,0.5861877085426307,0.5998675120044905,0.6081106486184956,0.5815867064126166,0.5579277895379604
0.6261482293966661,0.6217693713624083,0.6017478882403833,0.5967123377461718,0.47702693137352054,0.5977241776367939,0.614658655006538,0.6024417843313405,0.5352939868642939,0.6009315655437082,0.537571278405585,0.5167480850113801,0.48704698987529543,0.5005311204027778,0.4843315629050834,0.4725427546187237,0.4551082471745406,0.4273197570549073,0.5240042696813257,0.6227732712538058,0.6136314890144832,0.5491727495288661,0.6117646137489944,0.6083893422239671,0.6129124404156095,0.5982458268760006,0.6029695316425474,0.5990065209587736,0.5869156487597345,0.6072668644264617,0.5591811092717955,0.5639123217214507
0.6047451969456209,0.6135582746760373,0.6069519722957561,0.5511197601288406,0.41020526358192017,0.5867190839864804,0.6112308283608185,0.587002043389247,0.5355466139742026,0.6024580500292758,0.5486745466928928,0.5283260566209385,0.5083144689278378,0.5135124055021449,0.5255393406941652,0.4945120261746622,0.5070634246222332,0.49005543319882283,0.58875950645102,0.6281199433324631,0.6317583659667846,0.6078126524945715,0.6005432281712595,0.6063323801531536,0.6098486036577371,0.5720535163688637,0.6043864593678611,0.5745651306972461,0.5840687168434412,0.5995210173930853,0.5592730486312059,0.6019006331357675
0.5965875102472282,0.6150354347474241,0.6081575714836688,0.5750762568795768,0.42503709679595497,0.5923306122732408,0.5995372167472985,0.5254450232059253,0.5333674734339449,0.5815176751727621,0.546040924717145,0.5212498259882411,0.5122589709180253,0.4884056475136387,0.5001936620238943,0.49105962735377384,0.509310846693813,0.48482992484085613,0.5750504344418834,0.6117097292563527,0.6251562983129993,0.574999033929867,0.588274188762833,0.5940000416489898,0.5746298663339325,0.5326153851591698,0.6017208317980332,0.5378949071444723,0.552159790145338,0.5913458827618496,0.5268379115896404,0.4967809826544951
0.5730963741891879,0.5654582973739066,0.6000989979325287,0.5561678031618574,0.5617784819041521,0.6052897872195416,0.6133207239035731,0.6111585107054501,0.5655774703485237,0.6104979461341212,0.5693735630880048,0.5536449069433824,0.5689106644334146,0.5358387355951147,0.5259999378614819,0.5210993805766355,0.5159568151602758,0.5584747237608225,0.6021734790826089,0.6140518613639778,0.6227335806313417,0.5829183964149921,0.5786495742473567,0.5842845361596339,0.5513352722164485,0.488183172348067,0.5167449166644721,0.5102766171149384,0.5399755820577784,0.5570552418572409,0.5243027491298607,0.5083610230372358
0.5968379537307935,0.5746525764256275,0.5996760347320356,0.60370038221934,0.5386318717742188,0.6063891867854593,0.6116712946273819,0.5931084200210035,0.526606394409278,0.5894976744962481,0.5585815291393995,0.5564251252328625,0.5721941835037826,0.5293855820063524,0.5236925920061904,0.5606567504013319,0.5422813439152173,0.5752708214675216,0.5939691874840892,0.6021472390546411,0.6080391921790913,0.5741938457601926,0.5740501774713193,0.6083229904351134,0.5970319767582651,0.5521081701243876,0.5636062192608743,0.5582668224301787,0.5893104316621762,0.584668492510593,0.5774692961686427,0.4855705731210331
0.5618331502751809,0.5567890594815241,0.5844478141285114,0.5869611847395366,0.46611160359252796,0.6039939986723629,0.6068881792896763,0.5858689179805893,0.496574497841678,0.5806688993592378,0.5471972855572511,0.44871320623263306,0.436220373765199,0.4543815470864991,0.4785647381903833,0.48257202250601383,0.4720653048887784,0.48563760343713674,0.5468366907078926,0.5901680522626441,0.5986317645453353,0.5684414083943249,0.5674550378200457,0.5902574078252139,0.5693716623848476,0.5331470180994076,0.5223151051769007,0.5125547857437391,0.5457844110833627,0.5479962484818535,0.5220716619986252,0.48694188722138987
0.5633589804938856,0.5379163631621601,0.5709399335860904,0.6013323637964008,0.4802013627643536,0.6267842036219375,0.6119438210932634,0.5782238382620503,0.5282198981964303,0.5786224879896932,0.5572710867938174,0.5173686042333259,0.5016169867222243,0.490107842072309,0.5057703973511468,0.5129891783077029,0.5225737951924594,0.528907499133945,0.592351212440722,0.5949203266849085,0.6113440214493241,0.6015975028281639,0.5904834407377652,0.5940726271727209,0.5698136634176288,0.5017231377211628,0.5156239312324925,0.5052657475478738,0.5021015552573208,0.5678876794888563,0.46940744676082613,0.5378108832141407
0.5869749883392679,0.5667724172914977,0.5784474404532608,0.592738275150118,0.563031812991277,0.6180719671804706,0.5790832650668913,0.5626785470919508,0.5365948089801523,0.5771681487023467,0.5503454707029356,0.4909086015037888,0.5111501822639438,0.4731198520839572,0.4668817362404261,0.4854363538750596,0.4986167508374483,0.5236184552249545,0.5604023289390863,0.5678212677180816,0.603566091699491,0.5634921398753874,0.6247540769569262,0.6216930498715969,0.6274089836800939,0.5703002532910523,0.587740841595406,0.5591745272213082,0.5513543983155489,0.5696612942710746,0.5417489748140576,0.5504101592601158
0.5841580303349153,0.5140420235478974,0.5767955289314364,0.5847529583216882,0.4991424416363242,0.5939353887757819,0.5995954231098106,0.5285640285300819,0.4831026181247641,0.5705327534085476,0.5517072900255402,0.5156638561342327,0.5368229814452949,0.5372097362452253,0.5096184817751749,0.49840221021767095,0.5283900631804543,0.5579619238363062,0.5736775096374612,0.6123920900807891,0.6220554431763426,0.5702537969043702,0.5845330944647539,0.605465316953981,0.5817957247575297,0.5741635390187969,0.5708862800287473,0.568283686389335,0.5793758243413138,0.6064173437736378,0.5359572047752436,0.5222737949066304
0.5726816285476528,0.6020162051896047,0.6012785508744274,0.5415926515768089,0.5157067963362842,0.6050090265491037,0.6237883102574736,0.5760202865487344,0.47395231031019314,0.6079748701112507,0.5901208668322537,0.5100815133471917,0.5300064866416249,0.5087112565461429,0.5168440579922846,0.5187871865595531,0.5416368938821335,0.5386292733701915,0.5811924575235242,0.6078872446129239,0.6038151281315429,0.5775013885433662,0.5935306428316574,0.5960511950578778,0.5874116982953479,0.5689246849235426,0.5937387504953963,0.5487730530432928,0.5884882357364952,0.5503344064977325,0.48166296476807563,0.5570473894518854
0.5433161642239783,0.6097535654970562,0.5906676286393481,0.5436243506905095,0.4538764193243512,0.6162641742322897,0.6137841448743944,0.5490734859216261,0.5550216425410421,0.6195514441064773,0.5901791341731776,0.5500858216586867,0.542175164783372,0.5363285669961343,0.5246866347871092,0.5295460323903206,0.53525797554901,0.541533196329425,0.5912935148762528,0.5943758983103201,0.6159406060169966,0.5800784239627254,0.6011509824231986,0.6039804341363799,0.5915728018289902,0.49508811954495513,0.5319067179807478,0.5440606124722267,0.5265724206210026,0.5093047740638807,0.4769085684121456,0.5484385883138618
0.5559033995214143,0.5605984934198667,0.5889576448225032,0.5518355555003738,0.49860751098322303,0.6286956435980003,0.6261927961809799,0.5190701938775939,0.5643151437708827,0.6211039378146921,0.5815791115274894,0.564544436515332,0.5660972002504235,0.5349222649908398,0.5110848787110396,0.542403947722895,0.5117680704971443,0.491561255750718,0.591248351163439,0.598837165795706,0.6266569468523334,0.5799418504567263,0.5984259012116904,0.6070278991356164,0.5974295368813602,0.553867426350889,0.549232523502264,0.5250313093527239,0.5498039214272914,0.5491277617321708,0.5019986589679253,0.5446251212998712
0.5927433987611612,0.5858349652418176,0.6053746634565761,0.5943057771981043,0.5366392599290251,0.6251045042361741,0.6196222578723497,0.5803798014387893,0.5388466056999534,0.6179996541653212,0.6086014120458476,0.5752294231129895,0.5403468950107654,0.48906097902642587,0.5150854722885936,0.503793345222018,0.4710664132759097,0.45843185032102235,0.5410617597433272,0.591970322169988,0.612178315903719,0.578439256492235,0.5830622006479785,0.5939739607277641,0.5859215365413197,0.5791633910731354,0.5666727934108733,0.548443683124054,0.552803604738865,0.5466420373493746,0.5793915075796714,0.5683981067379349
0.6236869980484109,0.5958964315129406,0.6018863241575741,0.6034594708121186,0.5709728420032228,0.622730145309709,0.6063757231845289,0.5633881661463304,0.5197993982481616,0.6031564185234563,0.5765316624226181,0.5567495610643337,0.5579213182788116,0.5189979305353777,0.5144765916535928,0.529422462326031,0.521635484334895,0.5212986405201702,0.594594563334931,0.6091627683762525,0.61573996621719,0.5833578111646038,0.5824747921456678,0.582479500888408,0.5987793719292045,0.5747739864015592,0.6041236931024838,0.5839974968446332,0.5961598965145649,0.6171828368347773,0.5443846991794398,0.5358565393059467
0.5651748473861807,0.5361160067664045,0.6146091846602499,0.5477805922519379,0.5108770242698052,0.6160903730915536,0.5959278576612745,0.5497206485210444,0.49076041199012393,0.5514418875972165,0.5844337213890629,0.5445912412287002,0.5153537992635767,0.5798152684962085,0.5646219340359829,0.567173608687024,0.5945159022815962,0.5819717475919703,0.584383512329369,0.5964469335279196,0.5887740327047,0.5313449999589895,0.5914182787997427,0.5840637924184652,0.6035595349909129,0.5615096066915348,0.5514034111631527,0.5409633595993202,0.5416264515746477,0.5349002609192726,0.48589588537543277,0.49803117139309633
0.6167345216451419,0.6043786762104899,0.6191993453502144,0.572286593992274,0.41201183028629945,0.6190292749666978,0.5942981809291044,0.5482943083544521,0.5066658219003755,0.5626656912907335,0.5985107729030389,0.5209000968703336,0.5344962154823085,0.5749447935372535,0.6044393947045615,0.5874883202098872,0.5583069686581643,0.538113202347999,0.5840911856613998,0.6204398873523522,0.6286086783921205,0.4975323482299988,0.5791446811445973,0.5977830123752084,0.5857870382041749,0.5245078973283952,0.5802752142038455,0.5878562879146086,0.6056935868658206,0.610991000958739,0.5354289728532637,0.4710980136556429
0.5664228013347632,0.5940856942657916,0.6139383311048051,0.5545321847951343,0.47662369464529003,0.5902273654927698,0.5965581917449625,0.5463046827827377,0.5370345857068584,0.587330942877878,0.5798819076072811,0.5141848858825866,0.544052948481052,0.5379312772043022,0.5680022449428973,0.5641995887550814,0.5591852039253732,0.5513919342203116,0.5530634988701673,0.5982756919173513,0.6152632163455994,0.541539535160156,0.5798497984652745,0.5736416813190649,0.5960901221320984,0.5074145627636234,0.5689161082232443,0.5385902131032544,0.5688546326590491,0.5820038214003267,0.5107700279430054,0.5213871483669541
0.5334701442879058,0.5765941902452966,0.5740880096615352,0.5497275087183782,0.5448672773561001,0.5996187801239992,0.6040057959600477,0.6099879492861378,0.5337117102096676,0.6102720885138508,0.5768929848413347,0.5636456463723515,0.5398060857251306,0.5094030779284022,0.5270338317457663,0.511049616536536,0.5398238650097188,0.546311968286695,0.5701397201289242,0.597142163439205,0.6229706214831425,0.5578161448009212,0.574315620751843,0.6027406399427093,0.5952396713449931,0.5051889153703485,0.5357051979002138,0.521553402773155,0.5003976256017169,0.5448363990985068,0.5067320621025103,0.5293464402417367
0.5831849124543219,0.6172630331669459,0.5523214269021224,0.5978506588331401,0.5769795439435962,0.623758450566014,0.6269709078559461,0.5546292299069248,0.5307872416860492,0.5832156710468501,0.5766754573518325,0.545483430833282,0.5628131949521044,0.5100830555093753,0.5358457600240418,0.5184925955485585,0.5627692725193987,0.559228779600713,0.5799290180234942,0.6043169448538722,0.6215568881447366,0.541687548893913,0.5889408071972393,0.6102011431795136,0.5735349572062601,0.5620782112466799,0.5515873548228362,0.5630931144848418,0.5323935868515287,0.5903666731840815,0.5667601373655627,0.5304004880649501
0.5889853541526318,0.6000016779841999,0.5932877048843272,0.5750094513215075,0.5558376903541036,0.6015505914786857,0.6232031798965253,0.5247131507978483,0.5590017297052006,0.5956444366233823,0.555942136482507,0.5759531150826603,0.5722359309252366,0.5550253171955808,0.5341629068279153,0.5216606887592559,0.5296025828405911,0.5047267765267416,0.5862996049258471,0.6004544001359815,0.6175227485555238,0.5496917384914507,0.5913883862809073,0.6024505161402993,0.5595703672575039,0.5488633172428683,0.5523854133299191,0.5714794830484435,0.5832321552931227,0.5680345361268767,0.5624222543628649,0.5300711995405738
0.5921001340552868,0.5953024743041234,0.5764189593933685,0.5675806696352048,0.5165328581307055,0.6030640581025006,0.5907336405498589,0.5741167535311423,0.5617432633566586,0.583442962476455,0.587809799850437,0.5627127298175495,0.5705320678025221,0.5715940113657535,0.5764989981990992,0.5952806349993527,0.5885007018562128,0.5824108308753847,0.5717878670935095,0.5806407667255793,0.5864392074085891,0.5751945520584832,0.591200763634299,0.5920830622885263,0.5804162843336729,0.579660425342415,0.5746638847316866,0.5800838802497655,0.6027114936264548,0.5776289048455798,0.5490006505090927,0.532544725215564
0.5653395949881296,0.577729208468613,0.5177897088767915,0.5879617541859317,0.4967951184846401,0.5938349401472423,0.5911309263678741,0.5443091368669881,0.6011418053406344,0.6172997246929345,0.6044532400609871,0.5692806112350957,0.5564596896212914,0.5527225183433325,0.5707743866064943,0.5538866584616083,0.5638367477046073,0.5525445425308191,0.5656846522656881,0.6155198235854915,0.6142043273758111,0.5621543523018487,0.5694139838572085,0.6111998326713421,0.5418151196586294,0.5349301532644276,0.582788316415459,0.5291299637183524,0.5574975596597438,0.5632847829089063,0.519163031204592,0.5706204665448196
0.5547759873675611,0.5391315520579779,0.536629002492792,0.5855725703419862,0.5120796449861753,0.5809778637059679,0.6173904635152223,0.5673906202091904,0.578304869836578,0.5974462359090739,0.606147544847356,0.5834440326081007,0.5882469755428226,0.5811914979638135,0.5752526464507175,0.5750923328733155,0.6032486660032601,0.5895978288166318,0.5847147616885635,0.6061912124199734,0.6124621614979862,0.5556526463431692,0.5709579747833008,0.5909770447411736,0.5652594828653608,0.5457367085400838,0.5698001368496703,0.5273286672808476,0.562608781871416,0.5500123986045389,0.5220142303001073,0.5569984173429207
0.5922646552467465,0.5455284148839321,0.5863002343591032,0.5744122942895169,0.5855424706398862,0.6102461921578972,0.6265298063704982,0.506069647369103,0.5776160193563457,0.594823200034119,0.6002920587755872,0.5593976509735955,0.5473915440632418,0.5348276163588219,0.5467117150128591,0.5583167336709165,0.5687877636881369,0.5339819906495469,0.5662448710575082,0.6227144915337832,0.6143053724065695,0.5401803398801898,0.5589796819508247,0.5830431127704011,0.5951191295742175,0.5373480279535913,0.6048261605229315,0.5620499682792394,0.6070863980192477,0.5969183353644519,0.5592569782328759,0.5354488377616855
0.5820206279854758,0.5737970685591023,0.5940812250924289,0.5835165384817234,0.595104990216948,0.6086723300677213,0.622274886462604,0.6154285173027249,0.5115681736866938,0.6089238989513671,0.5774299230233985,0.49660132796805173,0.4961012041895024,0.5029893851047232,0.5398623998146201,0.5411692728873936,0.5478538187251719,0.5411630388269723,0.5666710569478585,0.604190393139467,0.5912778662733483,0.543629121934457,0.5573070283507207,0.5932242734616955,0.599043089185608,0.543987689509813,0.5907668574027748,0.5654043716526054,0.5758333084591819,0.570393725549227,0.5579509607283112,0.5618272491665136
0.5299283154472235,0.5562532190871774,0.6041009976136762,0.5284183753478209,0.5595724190136249,0.6081634358585893,0.623900948877192,0.5925192099213351,0.5233285371975637,0.5894618242157944,0.5786984317776727,0.5222850340512482,0.5023282200620364,0.483018377835112,0.5238414147240411,0.519909032963827,0.5550239156957001,0.567467270308851,0.5884736057389487,0.5961434930315829,0.6025422618713415,0.5690154265721423,0.5893242045381151,0.5617913026955124,0.5727013372934758,0.5756323707254399,0.5697332765677477,0.5240874060472712,0.5558387014893772,0.5390831708982591,0.5633404846613232,0.5301183589366024
0.5333442679667739,0.5575424679856257,0.6101829475473256,0.55357231549123,0.5615498864166812,0.6122887765209829,0.6213367760785857,0.5804429355121703,0.5644031178259963,0.6037474923609474,0.5891366364670592,0.5641502313649486,0.5349307022244915,0.5181027503573369,0.5031744347161962,0.4955093227834711,0.5216972662658611,0.5571788409957733,0.6024428792943615,0.6113136075495422,0.6229066677004409,0.49775532877546375,0.5948660187123926,0.5895771392027075,0.5563745770489963,0.5610697143740783,0.5667987026947491,0.5097149201089163,0.548957460472672,0.5352540993466731,0.5482989797458314,0.6111875567812337
0.601198992902771,0.5906364387555094,0.5591379082201497,0.5464923918092848,0.49197617771570756,0.5827583619574995,0.6087467455056252,0.5049829262885719,0.4983432653749511,0.5679936700879857,0.5644412307350082,0.5204997939645184,0.4981557715852763,0.5102565161683582,0.5250414169479506,0.5098492190281548,0.522176571077538,0.5060798022906398,0.5361496173255238,0.5901077939277009,0.5969995291781304,0.4548782553792723,0.5676713049677374,0.5756148831513852,0.5982309634236213,0.4977170775105618,0.5735518218329978,0.5429125653780287,0.582788691330456,0.5815554547163178,0.5322069293455841,0.5950494284976793
0.5725139845594308,0.5791392702399696,0.5493247681779224,0.5599290132906646,0.5407611006273063,0.597440902443787,0.6088813283614359,0.5769151606642051,0.4898955020945954,0.5888989019312653,0.5478043362796862,0.5013587530877774,0.49163586367150797,0.5119921986171193,0.5393052861191593,0.553983684711478,0.5421929025662741,0.5232278015593512,0.5160677781869493,0.6142464767354954,0.6021691092505557,0.5186247169229141,0.5980136107579342,0.5686233951333625,0.5726579936060439,0.49693214090526505,0.5772232312023542,0.537766495681824,0.5450059065438966,0.5655521902162253,0.54972531118139,0.4889905357587714
0.5754972878506646,0.5662223000080379,0.5714330136989306,0.532281022323307,0.43780805516312893,0.6225226200870573,0.6039657224599336,0.6041978125483318,0.5345913136781303,0.6051895626337315,0.5566180535143261,0.44808943536286094,0.5258075041673317,0.47130559800550104,0.49647665992418716,0.5131153871177988,0.5083257852281203,0.47540240040014115,0.5455541689299068,0.6297364751300804,0.601134328064006,0.5818291810507049,0.5858907613994223,0.5658449845522132,0.6015913005627405,0.5325729969972006,0.6016076356527058,0.5229895416735201,0.5621108396849765,0.5668940157101335,0.5330386994976455,0.48857587167958705
0.517726097055865,0.5439431941926766,0.5253344445979622,0.5285116494413701,0.3966968002171235,0.6036185812430805,0.6006527383975474,0.5723740735389153,0.5606984833117709,0.6061529496852153,0.5819724558142851,0.49096469661447734,0.5158003851208467,0.48021860874265215,0.499874942747429,0.49839063891909496,0.4680875548616437,0.4865857815577064,0.5604625520242534,0.634161806216008,0.6094291816405549,0.5702512512373832,0.5817663969094038,0.5921926124171928,0.5817230869869497,0.49415744965588465,0.5289352669772465,0.46759291262975644,0.5410708783350286,0.49429048404247905,0.44254321696957843,0.5133159527332201
0.5590134616960565,0.6044148098450777,0.5747002682528604,0.5860804901399932,0.5246736063569435,0.6081414721515602,0.6005038685229621,0.5482939901529178,0.54082756752903,0.6106257025458591,0.6089468355921436,0.4853231575213553,0.45556914598844506,0.4934155900980185,0.4964721251766396,0.5273611233836305,0.4951168762700849,0.5068516021500735,0.5939620760484184,0.6165128651743843,0.6256858111548186,0.56284876284003,0.5771672545481498,0.6111494382892625,0.6014852847784586,0.5855661408126785,0.5896700123654306,0.553083661333915,0.5691771148817759,0.5702231718776871,0.5074732961623541,0.5942871244017844
0.6109574440403506,0.6122143788387976,0.5792116764223938,0.6062758389881155,0.5545371087496298,0.608842409189745,0.612221176129563,0.5865362321901184,0.5542168373007511,0.6082480033318406,0.5959513466253027,0.5474278453828499,0.5160946622574418,0.5238555041886789,0.5485530085860498,0.5287055768579492,0.4764279300986423,0.48017706091539225,0.577646590707951,0.6187601382245994,0.6191112415595224,0.5642985675468426,0.5809287514755682,0.6069517367505392,0.6340367440872515,0.5979549078999299,0.6210765737139032,0.607715235450038,0.622559496806955,0.6068213713948977,0.5852660252386269,0.548066335973658
0.5877412813334717,0.5666387221939595,0.5780595529755239,0.5439029166997201,0.482969099036223,0.5744603054918673,0.6098954697836761,0.5233612993175918,0.5091342760657457,0.5259389064167345,0.5446660318896226,0.4606360944340216,0.49348824543943387,0.42225532376517244,0.4857201214349806,0.4697327201158704,0.43469517470450686,0.44968503834454926,0.5801869380328639,0.6186188397312508,0.6144219697962999,0.5748793813680771,0.5979872757715275,0.5828630230185828,0.6098077767693196,0.598898389212855,0.5838407517561021,0.5543939919548319,0.5954953503694808,0.5647703534484608,0.5686814429282365,0.5571857221288141
0.5953178678483957,0.6223139521874248,0.6082625435481691,0.6034166350223004,0.5253987879886473,0.5900662703351974,0.6063437637716244,0.5365902646813473,0.46849272421826893,0.5565959332336832,0.5683632814310611,0.44889165133587017,0.5023878592495684,0.44353275306910617,0.4620805156469856,0.49160151788125134,0.4425813683773703,0.45165858460196817,0.5589174448205355,0.6210354521353696,0.6184248582799684,0.5617595760737589,0.6086481800021094,0.5818819265819261,0.5990510486354959,0.5827799609525433,0.5973430088487696,0.5788834036855779,0.598680979867093,0.6067051781511226,0.5888750812961981,0.5502887170594625
0.5695351005448827,0.5846186658749741,0.604421160381631,0.5649969729619054,0.4981960407744182,0.6120407597664466,0.6127681522186047,0.5955111133935794,0.501335624380672,0.5906238850898828,0.5893169378772731,0.49765336951946537,0.5518443277860754,0.5173995351887101,0.47421130857897215,0.4792519091836848,0.4641025199873074,0.47385792737773413,0.5671072337240315,0.6046588305985316,0.6047366491027483,0.5845814544581603,0.5881653445006844,0.5587371553979181,0.5836722676196372,0.5637657001181426,0.5766853833039557,0.5621692809302734,0.5947071528107007,0.5852016445278186,0.5708422818553895,0.5840532573504804
0.5612960185291983,0.5963020749914912,0.6058347502803403,0.5685707355469332,0.5127342651304976,0.6244818708995683,0.6235630424168018,0.5767476637688468,0.5627817357192437,0.6088032454429713,0.5923466577715768,0.5766065205038762,0.5669213580858627,0.5547158038882469,0.5409392058215624,0.5501661570877509,0.553811866490614,0.5622381260055157,0.6067821763044667,0.5782488307841873,0.6108981719729191,0.6098437698503238,0.5968065283360815,0.6005864779406294,0.6151303242809774,0.530045237685793,0.589980262465993,0.556004727652218,0.5943323471069899,0.5650414001204523,0.5454420250508603,0.5914843191702269
0.51876712777438,0.5362895944077027,0.5480778595967553,0.4980741669295804,0.5276770877065324,0.6110412866429287,0.6065378500419871,0.5590564380076071,0.5546020376713812,0.6150177082989965,0.6245460848932126,0.5688713332507296,0.5553923034317928,0.5283520618789616,0.5617179908296221,0.5597600572063561,0.5606525984990831,0.5551866799842787,0.5912798952107472,0.5844973491364901,0.6212232554800974,0.6052553072298623,0.6001020789026422,0.5974831716510609,0.5644124386873637,0.5156683684305792,0.5254327247237304,0.4950990391736363,0.5546067563594398,0.5226657021233179,0.5051168251486416,0.578258371860947
0.5584614115046056,0.5573105455265369,0.5502476661208128,0.5647442860671149,0.5113396986675026,0.5972838595508193,0.6175436265568418,0.60699730059056,0.5754657628436073,0.6074900657994422,0.5920727424339917,0.5776157514846487,0.5230164122232314,0.5400184276975316,0.5720511148390962,0.5520273420199538,0.5360553664996885,0.5438927284603153,0.5612966532023059,0.613484009797397,0.5981020708148939,0.5598599502189455,0.5377204305294978,0.5780615837580043,0.5469031568128652,0.5538517503068908,0.5495617291807079,0.5157678465590602,0.5551568068246228,0.557112338581404,0.5404226010420706,0.5779315116010288
0.5873206947220797,0.5768691300151816,0.6184843458583952,0.5838314825593783,0.47750329176405193,0.5613572369809924,0.6155091642952468,0.6036020865402276,0.5819678490283305,0.6150656800712082,0.5954375305788755,0.5648298953896556,0.5692587435653512,0.5704433233870475,0.5779043925053198,0.5818143380531604,0.5837407223750246,0.5908751343730577,0.5996752195606945,0.613285224861934,0.615365756181838,0.5848785602744914,0.5863543640205751,0.5915527134137509,0.5868654627508162,0.5595986924559904,0.5648745993065458,0.5313605828122984,0.5642799006357901,0.5633534667072817,0.533587071056669,0.5741397665102569
0.6178659519188846,0.5994881434222746,0.6239624481775835,0.6114956396848431,0.46509657699630486,0.6020312217405249,0.628440343713099,0.5188509868833708,0.5451343927033403,0.6160415075784197,0.5786613820341601,0.5126694802563215,0.535607594051337,0.48763217071834986,0.5247009192474269,0.5303896572188891,0.5425971801069004,0.5384494434635555,0.561891696396745,0.6090226326794843,0.5655171877002471,0.5640239854282814,0.5278042345901481,0.5426652819790361,0.5832973900043034,0.528079224759675,0.5926869401415178,0.5397184181447591,0.596276705621976,0.5918155889309265,0.5428745864001827,0.517004366341361
0.6043969978540924,0.6081137083561929,0.5644990093316125,0.537051224071658,0.4499694141644096,0.617917647494546,0.6103065744366202,0.549557661392668,0.5214074885080792,0.5834214532159703,0.5300379727058568,0.4991449336230009,0.5296858947534494,0.4974276747079622,0.4940768995951915,0.4922236111616836,0.4966742500647012,0.5199019752760873,0.574785022286719,0.6251630021160846,0.5794177324711347,0.565167960551802,0.561271045839391,0.5879864787607924,0.6120737268850474,0.5539982679347568,0.6023786699077951,0.5715974777167407,0.6179976975721319,0.6062061702066992,0.5731336789684679,0.5447611053593922
0.5479807477738589,0.5653565086617678,0.5434850357866688,0.5335406542805233,0.5190755035730791,0.6150525106383755,0.6258740427458449,0.5329293822290962,0.4549829546875796,0.5683689828603014,0.5136926234145219,0.4846720460912774,0.5541429460479201,0.45301201316701045,0.5089897972370473,0.5245044131017585,0.5144947544927279,0.5617203230734756,0.5924851484737947,0.6224034342223652,0.6078876799311138,0.5727102468799679,0.5688069989294158,0.6039621251912191,0.5829744267512881,0.5892574437177498,0.5843750707750566,0.5468920690930898,0.5494796319419639,0.5754830277204731,0.5601853247496793,0.4717967847119101
0.550140643904745,0.5870060725677086,0.5565429350448432,0.6105318912749359,0.4922107068820102,0.6097095512875036,0.6279491200463897,0.564716660779474,0.5378319579350566,0.6069006480381488,0.5753261318769733,0.538021767076003,0.5655835954143028,0.49660809494757024,0.5361665352790856,0.5457472909044238,0.5545708250955641,0.5586497762068923,0.5742050493342383,0.5961333666551072,0.6009480018010505,0.5737558669102558,0.5522149580697635,0.5982201121809184,0.5679183742439975,0.5701828091567813,0.5949224239588946,0.5168433109566193,0.5188974730329283,0.5617606375798586,0.5162281177684339,0.49176358031676665
0.5469520291725041,0.5774350556808121,0.5806542030623103,0.6098029877619386,0.40602674799512944,0.5925791133154419,0.6097083051810505,0.5337386922356012,0.504754607906461,0.6144378498464412,0.5792990869037318,0.5712391738653255,0.5434592211391336,0.5309615169915259,0.5579966683802269,0.5484822692222927,0.5616695519938522,0.5540167667277649,0.5934316782926354,0.6087928811066559,0.603665011816045,0.6132679481219339,0.560700197791017,0.6031229315450375,0.536702392687818,0.5265178827083855,0.5526561539863641,0.5062167306189043,0.4959361944341851,0.5141656994852244,0.5084540055791058,0.59613845817656
0.5535547684825393,0.5847228248887217,0.57664222587397,0.5436892365695519,0.5291128217076232,0.5904326067565296,0.6176142457076519,0.5327619201262698,0.5500299425291395,0.5970571041516899,0.5756246639818386,0.5902759508767449,0.5316703072135974,0.5425923791468743,0.5622425389565026,0.5623033322216904,0.5081274932273832,0.5303850522447621,0.5947636198196058,0.6089797901303279,0.6032594291074376,0.592031364911688,0.5878792979055326,0.618249033875157,0.5843318256511493,0.5669139729385431,0.5868128842027721,0.5668785793436066,0.5483127270864803,0.563801012482768,0.5407203321322133,0.5903724578360325
0.5944647994263569,0.614107474636383,0.565315368713562,0.49531657550888814,0.44664924024431196,0.6122699197415579,0.6226034125331691,0.48046141661456593,0.5462624374199876,0.5912584467148388,0.5629773140747648,0.5600366795191178,0.5795617827857359,0.5624008725754481,0.5318126356026267,0.5401970175362578,0.5125260696928015,0.5358359587103436,0.5954047372943422,0.6028224792455429,0.6184464764029065,0.5801889220514725,0.6181567716480235,0.6036005129588173,0.5897677112492237,0.5767699078977828,0.6142568164503763,0.6051650136427621,0.6041362773026068,0.6207770044986163,0.5796553866151666,0.5475118162058943
0.5861157150871159,0.6085121304840564,0.5908362831553668,0.5433051176640414,0.4524657942231153,0.602067356025013,0.6174846654953324,0.5722444768608741,0.5616939282056214,0.6215919784733518,0.5286112634900171,0.5803540305017719,0.5789910855477142,0.5122778529810867,0.5338204764455243,0.4741791803235259,0.43399153077855696,0.4794601240613353,0.5936210019542437,0.609267234895695,0.6209561933801961,0.5894442787703537,0.6212121713586155,0.5961970161815113,0.5947061700451848,0.6095916848467654,0.6168029511143515,0.6193992312491318,0.6177390239494652,0.6059948422511678,0.6094218340730588,0.5840723640469295
0.5862823500171723,0.5618253393862244,0.5914377824088144,0.4890335499604472,0.5116105942122423,0.6225794965160727,0.6144745285567732,0.5739178560727224,0.5097678091327755,0.5931529353320754,0.5714363794016142,0.5626350950531994,0.5141346697667308,0.5331216467548379,0.5497470456483134,0.5332627100022193,0.5121431735771876,0.5079654549866512,0.5623663033197225,0.6101798509064186,0.6104144820622154,0.579234903672896,0.5983559197862766,0.5931653259527967,0.6338776259436433,0.5921318400412177,0.5934624654996912,0.5692815694005927,0.5877080661711566,0.5780884755886747,0.5564131674723798,0.6063110248667036
0.59844633575844,0.581840298192817,0.5779631776399583,0.5231214935300968,0.553813878851208,0.6116218804853447,0.5993831237859335,0.6107072385366228,0.4647677985587687,0.6106235184473611,0.5887723433120184,0.5191614462460311,0.47709820401361125,0.5116920276634304,0.47516886226551486,0.4961518762135765,0.435823265418954,0.40703835814616923,0.5197441891126852,0.5902520274832775,0.5829412819216335,0.5708121092382927,0.5701482850633566,0.6147731805940976,0.6148718622915373,0.5783286094006497,0.5987752990936523,0.5839664682586628,0.5685786733234925,0.6017612884114719,0.5648543678109215,0.5667186290372637
0.6134795876973136,0.5906818338975328,0.5979314657452618,0.5846028542078028,0.5560383748658932,0.598916908184235,0.6151555047901737,0.6154108324523512,0.5653164387035582,0.6100257085757783,0.5876887796838152,0.5298187157209545,0.5133860258202031,0.5270780496763772,0.5080064887825971,0.513116565386567,0.4780944176501084,0.46721523722511865,0.5467936497062537,0.6177522410397386,0.6088186118555504,0.545903703489905,0.5842239681581105,0.6007962472024702,0.6036670489156021,0.5626275275300291,0.6019983623502129,0.5859702192573655,0.590763438248759,0.6117330849417448,0.5672345493824242,0.564833232105815
0.5839050091538094,0.569551760226134,0.5310821944416863,0.536945702956917,0.5569941713356895,0.5932123433838881,0.6076291387567654,0.5432184959992,0.5708571338605434,0.6177405809800162,0.6179454373260157,0.5960396808505056,0.5565890800309508,0.5698340352601995,0.5820364643384373,0.587239306627568,0.5665633099778925,0.5590128448321513,0.565465668587597,0.6174397649915775,0.608970189184354,0.5490602716408168,0.5841241029701095,0.5834558763061162,0.6021129473754094,0.5950501720559437,0.5953112197727283,0.5766153620317045,0.5801685353761141,0.5993981574964766,0.5761091225015034,0.5496933391606559
0.5805664689363604,0.5723788871619959,0.5517217112925992,0.5957059847677467,0.5399169655138691,0.5988758394886755,0.6069115433689866,0.4739501562951602,0.5908328611965166,0.6203448082518417,0.6236816308094715,0.6204078383333205,0.6146753620519756,0.6173769071445468,0.6053784905327456,0.5867827475192607,0.5369375725323952,0.5033638039817511,0.5521340819269368,0.6189261816773124,0.6040039510926756,0.5364604407198372,0.5901634611686722,0.588331770251513,0.6044334856747402,0.5573053171089688,0.5731726105059622,0.5448687209497568,0.5434508863097103,0.5550274186353031,0.5250551824701688,0.4999472571538842
0.4998263967962031,0.5565890798907535,0.5597541627104364,0.6128212022872395,0.48830851774632167,0.587625938725578,0.5928373755734756,0.447820492342305,0.5204840696570596,0.6139704729203029,0.5618336760963931,0.4673373748083909,0.5285205148432952,0.4922243722022402,0.4370001966753281,0.4447852932506591,0.43781701931644684,0.5038656109419986,0.6125531795037825,0.6095077886963896,0.6142119922200001,0.5875434425770548,0.6044222724904771,0.5862247080635654,0.5574179872167031,0.4957068538826255,0.47073760219231947,0.46497946823326836,0.5452514080277185,0.45556904648818447,0.48416985307773985,0.5317673207133478
0.5480354478104889,0.5954149388029019,0.6060136664583854,0.5946957714132152,0.4689625230999838,0.6112989473191803,0.5976114292646875,0.6269070413187443,0.48404909755524733,0.5979243750031534,0.5525394525203599,0.4719019408706066,0.5141184922097742,0.48904559316068197,0.45696096473141035,0.4801644180712659,0.45257907668771413,0.46749972470210677,0.5621903321551552,0.6014594119992476,0.6120822559134045,0.5875078487631147,0.5931947648006459,0.5767352273305506,0.572614706003512,0.531617092707684,0.5214623847011888,0.4951469287847073,0.580178152452743,0.5306468678637437,0.5066377009084605,0.5763661363044832
0.6006320687939918,0.6253524794262171,0.6020904270989882,0.5902741579285847,0.5762738152317177,0.6289899105269979,0.6049289617468118,0.6071601976987513,0.49549260137141954,0.614502137752576,0.5576675463160883,0.5284629480571822,0.5251758401084345,0.5078937725743433,0.5082940681061764,0.528931809654614,0.5432075319106575,0.5674952996029603,0.5768888825307957,0.5913296905619115,0.6075126211870372,0.5792554532284317,0.6010165774826746,0.5927570707996396,0.6175950749699145,0.6004898187604587,0.6278019660704891,0.5782727982413763,0.5988627064704067,0.6082646832039944,0.6088826784551684,0.5677302411523921
0.5868098179294123,0.6123780684048078,0.5876072154346883,0.6174792571704991,0.5734935234783634,0.631028841500429,0.6274276504876148,0.5863258266544502,0.5331571451731898,0.585902222678772,0.5641041259254023,0.5486671473579231,0.5576303598700599,0.5294178905395842,0.5375975052258317,0.5409632507667063,0.5372717230794967,0.5261395725625562,0.5642323979913797,0.6090699491856628,0.6081052691181318,0.5390552131622791,0.542846573030022,0.6028129187085737,0.6162225809644157,0.599274006612595,0.5938671827256089,0.5726423368270366,0.5560619911381203,0.5682306524756447,0.5311889695667542,0.5923059107857367
0.6088582554471664,0.601524404721613,0.6143636008049641,0.6039786204138974,0.5448427435826401,0.616716208745295,0.6124517731538476,0.5940229578098503,0.5306306922519767,0.5888681079164457,0.5857441678667772,0.5422305987436367,0.5233399225566364,0.5485446150245135,0.5473034478863319,0.528025025628494,0.5387509731637531,0.536935383362522,0.59160590852119,0.5931378157161552,0.5791075985738796,0.5918585615156997,0.5820963266298466,0.5899018451636007,0.607887150818704,0.5869922162787645,0.5976254969397783,0.5758657964996031,0.5246005838478192,0.5776430668543086,0.518882821209186,0.5920722927955926
0.6110814593178178,0.6241790700587038,0.6012837272405327,0.5968825551623284,0.5661817724923166,0.6238415154707634,0.5792471595312568,0.5714959156094152,0.5853989493628718,0.5760193764524544,0.564270993897191,0.5406880111605831,0.5138036903744762,0.5412463143402442,0.5721375849924872,0.563595880453201,0.5519116324694826,0.5179300498072361,0.549724073145087,0.6029005360396508,0.6056077090672606,0.5567168501619559,0.5829509255901136,0.5966995178870149,0.623989548569265,0.5958317942540866,0.6033916701785268,0.5970767989544692,0.6069023579179663,0.6128407190370565,0.5954548227285625,0.5763783908047978
0.595902187465207,0.6230545978361351,0.5988382729038445,0.6314628677391434,0.5724785097623472,0.6190289573036354,0.6175814377090998,0.5737443907617611,0.5433967900171299,0.5718417325023413,0.5615887676066987,0.5302248407383381,0.5467898898940402,0.5551723818368834,0.5514959925000162,0.5329818879580227,0.5253032323544687,0.4782248269501935,0.569533547750484,0.606828032924956,0.6186231206427324,0.5987724914560023,0.6207763233239583,0.6150274447817548,0.5959432792629351,0.6010972325739142,0.554733726290541,0.6108697658747705,0.5649545306874261,0.5633402833412574,0.5868688320683794,0.540475249359354
0.5453516388367435,0.6014188356560936,0.6021558990646055,0.5853833344367776,0.5464836335890081,0.6077599294433272,0.6276359673574041,0.5215897740021923,0.4855065906491024,0.549666526871215,0.5678252982487612,0.4811873566767325,0.4690215983735594,0.509513668602423,0.5173560150146792,0.48392869386348875,0.498888808309637,0.4808553284248971,0.5637618861533734,0.6231356064475551,0.6120461098446496,0.5731914158477385,0.5985997816762966,0.5819559692024991,0.5363902571055412,0.5986859547251824,0.5005695838027854,0.5682396785315768,0.5441544335659965,0.5306815873447492,0.5714423270446176,0.5077299956952108
0.5650632194928594,0.5962866161846518,0.6158954873057714,0.5797822108939014,0.5034314706490088,0.5990007939972036,0.5882055877644885,0.5766634234290383,0.5135590703091175,0.5272520385357119,0.5453996541905182,0.48685704874717195,0.5279404178890815,0.4656556205743997,0.4596019790535207,0.48964519100214005,0.4795275707072244,0.47800507295619293,0.5841266644573371,0.5864738233122075,0.6158623645918522,0.581470412610958,0.6088112316978601,0.5998562473616901,0.5951759053494591,0.5554458232054085,0.5714535816281227,0.5727530341389362,0.5526858152377392,0.5649733410201018,0.5620937470743109,0.5448827791006103
0.595303482058597,0.5915763501484098,0.5781701197983612,0.5980375399055847,0.49857664208615515,0.600016159674334,0.5828604490452681,0.6037627443846665,0.5386030619392536,0.5714871726701152,0.5535344516586135,0.5184312762440595,0.5512905312935441,0.4859072217956272,0.4926336424338488,0.5174583210163668,0.4699010229641734,0.5005259022634381,0.5859474694243602,0.620407681227943,0.6053143407268402,0.5860452775614535,0.5802569298466013,0.5835332702082594,0.5790983305639628,0.5660996960117641,0.6006080091694448,0.5656950939937492,0.5861450952129329,0.5825865634712654,0.5788728826823277,0.5758769051720005
0.5626935792996526,0.5615105617729311,0.5633797799784911,0.5990683090297947,0.48029632908839676,0.6181673568211746,0.5971233296763838,0.5570778238159352,0.527387592417899,0.5934722469456035,0.5729728725114189,0.5547354553220935,0.5249383615961538,0.5009049705246243,0.554383583562879,0.5566805718067537,0.5451674773636751,0.49597271438544827,0.543485295828179,0.593779642044904,0.6026018776058963,0.5506298099376049,0.5751534774237821,0.5783837378162935,0.5729531881608873,0.5090366216042284,0.5785169713574425,0.5296298974844097,0.5416629834553257,0.5849022841410291,0.516697468214252,0.528016440002372
0.5298281095724398,0.5655748839194604,0.592425526911621,0.5917729376606605,0.44225812018171096,0.5783631710477402,0.619331321771005,0.5966445691354098,0.524627466011213,0.5928880372774287,0.5129762926884731,0.5145587381221525,0.4911142973796116,0.4586964468114807,0.5020651490727804,0.5261803275143407,0.5046708445062457,0.4965657607483364,0.565626209912357,0.614199964771753,0.6210742421475606,0.6070901642482053,0.6118516574976205,0.5781975322187447,0.5255624441150598,0.48681684357744626,0.5213582041724087,0.48328044271478954,0.48594537105972335,0.48351809531170004,0.5004164990175668,0.5553571712730433
0.5890165619846618,0.6001576249827602,0.5993480377502378,0.5780926778264023,0.534607074847478,0.5797757631096694,0.6033625213925969,0.6025677198493311,0.5634617611029548,0.6177526435492154,0.5225239564210546,0.5445658871336533,0.5574519677432765,0.4974298755329071,0.5176549720465453,0.5613305913615853,0.5124960314804211,0.4982418508634096,0.5707990654667863,0.6173936978837333,0.6304166585577666,0.596708940663631,0.6288601883535146,0.5987678912414921,0.5884301833088423,0.5637083291000454,0.5764506044736533,0.5635037833716048,0.5665429373308692,0.5436164305599103,0.5319051372107769,0.569925028356315
0.6055112875472541,0.5771037702248556,0.6073172436722142,0.5737075948910009,0.528506714370989,0.625335099039286,0.6015667158361887,0.613908932355145,0.4889519124647696,0.5785442072604862,0.5860286892154979,0.5168464510101418,0.48274382060347626,0.539851772569996,0.5402662286942215,0.5384246946652324,0.5415514411324466,0.5388117265899685,0.570377868264949,0.5822562876580174,0.6182981346293795,0.5580348858060343,0.6086618514287828,0.6299301997398842,0.5816990632745491,0.5313114756769624,0.5694138585810421,0.5710838102404239,0.5611548243488335,0.5699761946239177,0.5517129941436612,0.582215916242767
0.6196449767151384,0.6185481848210493,0.6206575004531714,0.5928201981146232,0.5412942325908054,0.6132911094253004,0.6154930393392646,0.622864909898742,0.4772217886751694,0.5952915216629613,0.5679457754255414,0.5306812893507566,0.49146358900691106,0.535985656296384,0.5295006101819123,0.506513855468786,0.46630426122522656,0.4922622211387109,0.5440118580761107,0.5933545770391526,0.6041054592509337,0.559541351269018,0.6009246089495847,0.6261928990073423,0.6197229240538971,0.5555666300077098,0.6059685797053583,0.5776827387427367,0.5527936056933107,0.5978278984826456,0.598764351546854,0.5190411377377949
0.6199406901610748,0.6151203161816434,0.6300999118859656,0.6247467462788499,0.4989520263660256,0.5892965468381218,0.610954973942453,0.6071015402919095,0.47165625614456863,0.5731860651973812,0.580911117548854,0.4693014796052182,0.5373522575878484,0.5415819949706207,0.5273715614658024,0.5450922013773493,0.4904405304791034,0.5168850192487149,0.561671055745977,0.6141240728351474,0.6277700328996988,0.5451035428175568,0.5881845754703003,0.5990213539081384,0.6187561878813087,0.5209465962720589,0.5509352483721985,0.554523252000695,0.5686832456214265,0.5509561139808177,0.5563011891254744,0.5234139024283969
0.5730280743409296,0.6155356383816387,0.6074424593215968,0.6025341260053885,0.5538170219261863,0.6018571420806489,0.5916730677128172,0.5772682912526782,0.5212740592382509,0.5889085350873641,0.577756779543913,0.5173022412563493,0.5348305769086883,0.5102034205553667,0.49623903419081083,0.5124895333952209,0.492966214068796,0.5191781394839469,0.5831499671515964,0.6072069943718085,0.6008069983451476,0.560886011078357,0.6135361517237541,0.6068422214105609,0.6066797789214845,0.5743463434327832,0.5168093958676755,0.5596249604026778,0.5607797314010824,0.5192603945722548,0.592539564471368,0.5576539474327226
0.5867086647097195,0.5579885716891767,0.5693591648242358,0.5402498393809729,0.5043103285085975,0.6135347892305778,0.5518934251216864,0.5849808852552878,0.5136856329012888,0.5511873140437629,0.5007690577115818,0.5207502566452968,0.4850894076620493,0.4643886955503066,0.4728350686258391,0.4790738985141223,0.476696736433251,0.49624471393010533,0.5478361885623019,0.6278852078455188,0.5840060718143494,0.5732250767829195,0.5754550794439424,0.5635772625614326,0.5924624231785943,0.534710417208722,0.5597566622689758,0.5556199194685227,0.547928932691513,0.5697101389693603,0.5531528137913079,0.5755507792834799
0.5330104254855703,0.4929943911910689,0.516180795084565,0.5347228926268583,0.5070147962739004,0.5882423808351606,0.5815331511050348,0.5744656298613302,0.5317348405790375,0.5732778714450434,0.5487522760987839,0.5258380370028994,0.5099605187790957,0.49369419207065124,0.551055645557533,0.5598308053145867,0.5582126137097702,0.5561917990127478,0.5972324341378613,0.6075197450904013,0.6084261218997169,0.5935431128766896,0.6159633759338367,0.609944233840232,0.5794715930931821,0.5486865237591236,0.5832640975991144,0.4920259629060555,0.5133026252053748,0.5124892781169401,0.43112679852529145,0.566618664119012
0.5476823677261293,0.5515172626148719,0.5791717976210801,0.5889628483658139,0.5562194288942689,0.5965304773252637,0.613534723795515,0.5539254774861142,0.5411776110614457,0.6095074095723336,0.5913301024260159,0.5370985288451458,0.5373882689056596,0.4809907060480107,0.5505656377518685,0.5616264899977711,0.5373821184749777,0.5203000851876026,0.5622345855387958,0.606430430636643,0.6197820623389775,0.5720337726586195,0.6092176568071948,0.5983590771359506,0.5428330834711397,0.5639517278197246,0.5968773170026654,0.5194380690878528,0.5328916839584,0.5348546541363708,0.4843528006519644,0.5810992348467658
0.6078477998211276,0.6062590935562978,0.605518511346544,0.5971190213102147,0.5432028994804728,0.6145824017292003,0.6143937191790861,0.504639152159124,0.5133660772811101,0.5957643663459903,0.583945596510172,0.539146723635629,0.5680823222940039,0.525918608176706,0.5543734090846979,0.5463136624067996,0.5506281170645141,0.5174134513192616,0.5633541400412894,0.6060776503213973,0.6213267502027474,0.5780157198570888,0.5823015235575131,0.6104690138145638,0.6067001482973983,0.6076535891311595,0.6131089450160022,0.6037672129175118,0.6140102690890614,0.6031061615559026,0.596266349546669,0.59097825666264
0.6101044354762705,0.617757987883131,0.5979023059216256,0.6209346194721793,0.5877335309383618,0.60947500063352,0.584386871772605,0.5611229568343984,0.5722274000776316,0.5871648159912736,0.5748450014495966,0.6031777188866448,0.5787860021653622,0.5934170609146406,0.5940863056041464,0.5721946390248869,0.5607139319676336,0.5910152386725129,0.5977513132191746,0.5998304485051824,0.6057824783628829,0.6098724208331763,0.5963731728534102,0.6166854216833128,0.6217659717744487,0.5878546789737372,0.6133369381810336,0.6101722910424664,0.6215903165144592,0.6003628361602941,0.605166190537441,0.5929847413636996
0.594496790204205,0.5878214725509304,0.5936271123018557,0.5978382977478266,0.5841973076497226,0.6224513892951586,0.5986983038430804,0.6025050199889107,0.5437810236092172,0.5974084771527348,0.5878928132376146,0.5952082334476861,0.5133554489725017,0.5606943144236912,0.545313263862055,0.5492815229499961,0.5263429079791363,0.5447373262163648,0.5920336205039298,0.6103619848920059,0.6120748442013306,0.5838870435163424,0.5926113007763814,0.61348438619181,0.6108883053820935,0.5968365761761102,0.6162892417921956,0.5997919448797949,0.6154357738523829,0.5974050745978293,0.6117563836194528,0.5865712916858749
0.5974575920489833,0.5811583725372996,0.6118721557650767,0.6092728020054968,0.5457893858281605,0.6124561226527416,0.6246402675861138,0.6119066294099199,0.521111614730549,0.5807882072123984,0.5710398893484449,0.5749335962937046,0.5521635841370318,0.5296293849345343,0.5642461930187567,0.5295402484478113,0.5392606926085886,0.5532522832098492,0.5998320067300311,0.6095890854806056,0.596566551148296,0.5722988605996878,0.5882506827817904,0.6031468146375336,0.5931476807781857,0.570162523991805,0.6078369173912624,0.5923624195367173,0.5948775411582138,0.5783543186550627,0.594263780663221,0.5734484285863947
0.582763951904243,0.541208398864979,0.626746841115166,0.6021243547870898,0.4700837369326019,0.6019202346935516,0.6109515375349311,0.6094695482497046,0.5391650990229699,0.6238461741788004,0.5961221882628832,0.5744370914690783,0.5596676212370167,0.5772541841929787,0.5683449279799103,0.571467073865456,0.5816122450411277,0.5919378594220348,0.611192865889196,0.6028027663469058,0.621017240253679,0.5874086708915245,0.5688359874307798,0.5999935960695999,0.5807823554780518,0.5492535331784024,0.49386545526713493,0.5521574083974766,0.551880720656374,0.551129984254228,0.5238824293718044,0.5816061311644894
0.5953042472652308,0.6123602881637907,0.6131545661521306,0.6189112710824132,0.5154245486150995,0.5941698454290056,0.6152690358017628,0.620096983203177,0.45603443895830986,0.6111046424706675,0.6200494650119497,0.47199324385154,0.4436534864446648,0.4894102146053404,0.5038798677499143,0.49561710651447544,0.5051694257709336,0.4771553953877411,0.5615869291274102,0.6045382546793087,0.6091349669603915,0.5423000353774261,0.5709558753096643,0.625958734312607,0.6212828754215501,0.5922771570037739,0.5665199709874015,0.5857962671670468,0.5818346932429783,0.5549375885268331,0.5928157733995846,0.535384409709108
0.598845419408977,0.6045688423205183,0.6243751779403311,0.6074798020441471,0.5170006097347962,0.5995717450834712,0.6119040585423631,0.5475280938882846,0.48412969578893483,0.5747443747816363,0.5668757727250816,0.4073099070417308,0.46226423263089367,0.4533587122545412,0.49207815771506547,0.5205980389641761,0.5359827270597365,0.5189166124609456,0.5887600765511978,0.6181510544217135,0.5995272081312852,0.5811114851631951,0.5835273236298129,0.6112586064050874,0.5943087157696528,0.571823331260137,0.608696856758568,0.5623500104116922,0.6002407088754049,0.559480616187704,0.577496863018766,0.5744376438402858
0.520718515783788,0.5482099121112134,0.5686144393968342,0.57954139061432,0.48425795507781577,0.619229977616142,0.6086540730461228,0.5438085796962356,0.4795653069070336,0.5724372478688562,0.5043688598927889,0.4433265760712475,0.4519805260427624,0.39213275346459364,0.41657076448622554,0.4224468041024314,0.4349873632754485,0.4315318137318417,0.5450327356730333,0.6089997827031014,0.6016817452570612,0.516925178211935,0.5967582742724418,0.5899985217167348,0.5385829972176963,0.5391509030327837,0.5142566807954562,0.49265672047334047,0.534300635657467,0.4771770149509401,0.4739192948969738,0.5574361144575156
0.5651150152599173,0.5344123868572014,0.49500740761335854,0.5691520092755794,0.46555991108089817,0.6162609869025181,0.6002418582732482,0.5817412023969517,0.5254165002344218,0.5723581978094843,0.5417280525569269,0.49861181489919204,0.480482391314213,0.4312577961006172,0.46171858142980793,0.45302216884340163,0.45245126922574663,0.4642087648589763,0.5839061704212173,0.6119840112520862,0.6115884927306724,0.555694903282511,0.617735117602896,0.6022425489785297,0.5727227429387318,0.5237286953132729,0.5234050342411058,0.5167257486535455,0.5052269200748662,0.46924646338482234,0.4963623114192268,0.516711384712437
0.6137883070637867,0.5904467070269767,0.5537634395442425,0.5744412779896784,0.5571406256573103,0.629580016518949,0.5968601718173934,0.582223742993492,0.5214272576461485,0.5727221173094804,0.5477879935895043,0.5234171629883455,0.5586533009559699,0.4971140066065613,0.4934816182070385,0.49352856440027854,0.5043182972896664,0.5362753822447732,0.5905357692122427,0.5973197290044067,0.6179555792571668,0.5896078528001777,0.6175503500386592,0.6043160522336943,0.6194948509500122,0.5397338423952743,0.6150043837118639,0.5885481177181819,0.5527702047798646,0.5837888519601349,0.580670717808072,0.5025602881487401
0.5783183625205328,0.5985155578455039,0.5937646913119846,0.5906137028018623,0.5668251070026185,0.6182125746951102,0.6219475207445483,0.5673186784008487,0.5755400535479129,0.6009470835548434,0.5773857518552996,0.5635838736436505,0.5186026162693405,0.49861875462453104,0.5326006580406633,0.5428037611426609,0.49154218577771247,0.48483270039776777,0.5370001921851122,0.5828369601492027,0.5945173904140195,0.5574949055281208,0.5606445801834297,0.5799161518239391,0.5794266233384656,0.5580789141115255,0.5873665622753222,0.5576902206480979,0.5745950432848678,0.5893745044037955,0.5574808750941822,0.5459634197130512
0.5803989140889907,0.5967190322374741,0.5927625599757136,0.5698648894735718,0.4945954021706874,0.6160083443867259,0.6163401809446278,0.48954115177914165,0.5931984953672699,0.5858944764816449,0.5948252858408535,0.5574283520882649,0.5961550177344083,0.5451030326363853,0.5176912736483726,0.4853336839702418,0.4483656066702951,0.43119017317220526,0.5675007270969001,0.6003369404663422,0.6146098025445741,0.596548565486313,0.5631481630604053,0.5933224606756065,0.5858075857827936,0.5674971792209629,0.5555914893540799,0.5618036413867992,0.5758690849697955,0.5786031905528037,0.5620926469131493,0.5678581152590999
0.5549904467338231,0.5949787892640669,0.5719655313115184,0.6067605209348196,0.46161608135310606,0.599339556574641,0.616524295452872,0.5292631902431344,0.5498168138628767,0.5979956712577154,0.6060990897372276,0.5954650697864945,0.5197973806522426,0.5304331173733442,0.5291953188543328,0.5453483199482209,0.5146070674388858,0.5036515404901197,0.5621834729922212,0.6107167508172721,0.6107615557969158,0.5439303745664602,0.5803056383315375,0.616161563568716,0.5663504393389711,0.5309998196102453,0.5700300933576705,0.5352574168330236,0.5731051718034234,0.5611108974778387,0.5124503807087748,0.5630111326395386
0.5746320645819046,0.6226920208034578,0.5968884298760195,0.6158207535713502,0.5122260291729301,0.618134267940581,0.6134194621195388,0.5071951990991483,0.5244704974885456,0.57937676333426,0.5407160822464465,0.5702073479497562,0.5083968645788479,0.5585495441322057,0.5654288006802579,0.5839928210263088,0.5564344545943286,0.5450885201536246,0.5364919862350512,0.5894498952824555,0.5986033938102843,0.46631735899127424,0.6087573710786152,0.6073222277766069,0.5925098144454403,0.5652665503507667,0.6105717824086422,0.5878763086964571,0.5942126620934075,0.608693795571684,0.5826626353463871,0.5314540915689294
0.5964974963668002,0.6194173165043377,0.5964080745675368,0.6227780355667536,0.5790330808504974,0.6035813286288517,0.6214108280244378,0.5785162003485818,0.5523007606760335,0.5937207585429513,0.5918764587901998,0.5621938274539404,0.5197493962630783,0.543775302122139,0.4971530501701105,0.5265514258725731,0.47469331240097556,0.4295750967456399,0.4982476285714019,0.6026544855379866,0.6184269138850176,0.5150713121544229,0.595650685326285,0.566554499543458,0.5544845541034097,0.5823560662612479,0.5997246058776369,0.5597267131681015,0.5664258761157641,0.5592980303235051,0.5790171249522512,0.5308591529935749
0.5949291571316415,0.6072806983271476,0.6146157526299826,0.5951520311287959,0.563705236078129,0.5887988113770845,0.614484336439948,0.6128475154644492,0.5303800770030068,0.6014792300535768,0.6034659415388354,0.5597796988718214,0.5582535877298804,0.5490535887469642,0.5346325484112064,0.5474345925997788,0.5283215523675364,0.49763810544316156,0.573613292603157,0.5894659452474484,0.6032675651654886,0.5470481550116993,0.5940579433017781,0.5921219113838089,0.5998185350839506,0.5894200611451461,0.5886904343334041,0.5838838802740889,0.5743135741842036,0.5790921296465072,0.5920786986140927,0.5698925259345696
0.593357367400425,0.6122237690475681,0.604578186202565,0.5597037154464346,0.5444924414382197,0.59451620768034,0.622088409567481,0.6121322672173899,0.5172957255621347,0.6195935333737476,0.5736964761269492,0.5308341958368133,0.4928605459067774,0.505900704671543,0.5457512219731165,0.5385958609030101,0.5315106332405182,0.5161171940469418,0.5725723123483207,0.5615108425005119,0.5692527963237907,0.5744491339150477,0.5881332236884065,0.5944710280968184,0.5943716681261568,0.5856026734077243,0.5686200034939074,0.5493266135308855,0.5789571118544635,0.5738095762929744,0.5652409111080273,0.45881513462813583
0.604178499646117,0.5786380807056222,0.5659065555067567,0.568774260618734,0.4522070436929125,0.6086722725314258,0.6054562301678523,0.4817718103984652,0.4894744312233717,0.5656256328116483,0.5027519138205461,0.437174955144743,0.47488282476426924,0.4231625310862507,0.44851996520715787,0.44657256433676384,0.44214268149233793,0.4569144326355476,0.5547315195604694,0.6173017122383325,0.5920170328189586,0.5889548096758694,0.5882982245290967,0.6237280941112375,0.579870381416513,0.5414920555096584,0.5686168971419007,0.5562678011003066,0.5541239283411273,0.5452487969301709,0.504429644392173,0.500680095860959
0.6155098470876734,0.6013536725903922,0.6158606501499134,0.5593876384916818,0.5028996415445471,0.6185689003459949,0.635754341134652,0.4538773752431094,0.5154939686827302,0.5823457085221424,0.5686653731165975,0.4883921714820936,0.48513540667664484,0.47310066229777614,0.468284067687488,0.4697594719682359,0.4476239482062662,0.478959291688262,0.5577729730415713,0.6150598907157018,0.581893368505371,0.5716195669332822,0.6068729828970566,0.6087215060904626,0.5667349996472435,0.5827796928891442,0.5785110845145177,0.5812410073622739,0.568703992880076,0.5859147803947797,0.529682839968679,0.5910400241057343
0.5975595042125814,0.608879565306657,0.5717517458119852,0.5347251076607396,0.49352845520001765,0.6139488742884525,0.616764938075689,0.41374575824945276,0.44021465378126107,0.580817335528275,0.5890600302681631,0.5269805708124775,0.4577099669364619,0.5287742405692462,0.5468560425713704,0.5233891189767063,0.5195476781086911,0.5151722966771144,0.5731533599879233,0.6076466125602578,0.601067062978419,0.5279783954330004,0.577502449357804,0.6291054489928827,0.5864618327586503,0.5473489591925488,0.5839683511616455,0.5613893708710421,0.568565278939288,0.5943031399237519,0.5539103299528338,0.5139025073459855
0.5707886259645161,0.6008067820286821,0.5513211737306812,0.5643232454552904,0.5125033334670079,0.6274765423775033,0.5733891102184349,0.4373293056773858,0.5471901295524633,0.5773500325866319,0.5855791883998827,0.5513037074421351,0.5304994672822917,0.5741115226073419,0.567720580489262,0.5673096793753283,0.5619595578550872,0.5673411580401907,0.5954397245661285,0.5766731486637757,0.5897312605419266,0.571010170695893,0.6024150271881894,0.5967873047597517,0.5778390071938213,0.5697712403949331,0.5805830206621622,0.5530271805768989,0.5607103208901902,0.5802962593137139,0.5441521061766191,0.5838852930498751
0.5945390580833323,0.6194096544817557,0.5999686359810953,0.6070670976884202,0.5015173952531008,0.6033132680383595,0.6006396179490188,0.5693907350993578,0.5664491246429515,0.5759918054897528,0.56718622409682,0.5503870026966989,0.5550937282139042,0.5353408308870687,0.5355521362338987,0.5604000992436617,0.5495497783723745,0.5852184340718444,0.617421682649332,0.5903919838963781,0.6031393616982125,0.5825979940485095,0.6031470995052507,0.5634171090241318,0.6006307640356953,0.547958216376779,0.5813217917790349,0.5410500879388861,0.589430074762299,0.5733298356907258,0.5435011828937184,0.5420796520297863
0.6246697431770414,0.6052100083050913,0.6264082428957013,0.5980690647544998,0.5354908556098598,0.5808224738085156,0.5918627870043993,0.5654536514249595,0.5445480791360255,0.6237446133682587,0.5977899476786841,0.5683665243751344,0.5775764888785636,0.562597940847653,0.5874185848179948,0.5579250290319827,0.5632027427507933,0.5734076668524548,0.606342489170088,0.5845026844339511,0.6041939692828903,0.5544094356956504,0.606653164367903,0.6037165150998738,0.6215985828069286,0.5746870026012288,0.6022613067381621,0.5868467468929399,0.6054293552937416,0.5950057124490441,0.5972002237752044,0.49655278394200797
0.5743374991513542,0.6124038409605823,0.6072429106812771,0.5993987042376764,0.5597618330782609,0.6186894451217028,0.5945731093605467,0.5161498679299027,0.5499377748808904,0.5969042637829066,0.55613913846625,0.5069608755268299,0.5711747177573473,0.5362630719392306,0.5601623912369493,0.5595301015274409,0.561681078530479,0.5854833487435313,0.5860183060323113,0.6047619535522514,0.6106044267891604,0.5517671786686811,0.5780225670208489,0.619885884363461,0.5902421404513567,0.5123123266203785,0.5248917833915355,0.5560884269028343,0.583352192139902,0.573601893778521,0.5981953851599155,0.49495527622759816
0.5592365976337128,0.6019055189537565,0.5437017430051143,0.6060805296836156,0.5403702333743202,0.6158869291218445,0.6174576507833255,0.4455784516162054,0.5347874550463857,0.570885611867426,0.5400926680572109,0.5529269395754223,0.5516228684522838,0.560176674529248,0.5691565811502773,0.5741244118711669,0.5734408844955733,0.5836420715286926,0.5888955538649789,0.6119661301420711,0.6214584174683098,0.5747718615624123,0.5017249976329792,0.5896847532244536,0.48985507061037736,0.4330686742317033,0.48461399158457596,0.49931527645987683,0.5225614684716404,0.541010826706714,0.5272231189014642,0.5054567916459887
0.5797063125146272,0.6030177803410564,0.5534456578352135,0.598840318123838,0.5227880876031085,0.5899678219352856,0.6168132033296988,0.49141282629020794,0.5913993870994955,0.6062244175682097,0.5272240550590845,0.5525837078591208,0.5760418187483717,0.5537430303524632,0.596841606713942,0.6068224732969525,0.5989329662079005,0.5859934222657415,0.5854708248258379,0.6099128763656321,0.6109860604365588,0.5244941635711747,0.5323119533588048,0.5878145013726757,0.5291675242471106,0.514178874912743,0.5228081351216279,0.4959360475405263,0.5220990575263986,0.5573405357436914,0.5154740181022092,0.4979550262583121
0.6070844722778745,0.6202177967138113,0.5751340838937117,0.6183294053796731,0.492490965793108,0.5913070740720849,0.6005172251097023,0.4921359711484295,0.5396210622785677,0.5567703456082795,0.6094256909191119,0.5635423605303577,0.5360499959170796,0.5387862364378339,0.5601156485012918,0.5552991013092186,0.5243406165933349,0.528803937902793,0.5747052511977306,0.6043953530317863,0.6048370631822428,0.5541977847805248,0.5381139354749958,0.6200832699045181,0.6048651716239978,0.6150689482561363,0.6238172314592816,0.5898853786879452,0.6203876894476091,0.6050212870061754,0.6121901397511786,0.5552873262894649
0.5878857078226256,0.6023098588604857,0.5810157742330399,0.5977616303391438,0.5791684420339187,0.6140170931339249,0.6013107793611188,0.5376847597261659,0.5227687136026414,0.5769526678143422,0.6067197563071599,0.551458416681548,0.5301265704823436,0.5446514923528494,0.5509245971771726,0.5454560406062361,0.5380099670039875,0.540201725486559,0.5591363148562515,0.5763630813338152,0.5897087078930664,0.5495045635403354,0.5948431911820761,0.5993154247775038,0.6007493623572258,0.5787927664441511,0.5994936892060873,0.5744177587507232,0.5933873263471,0.5969022108076907,0.581078294207775,0.5414146325865865
0.5837841461797416,0.562829824842887,0.5337575045778878,0.5888353736418893,0.5942568519196646,0.6125148244212021,0.585103947220094,0.5156972196413504,0.5428124478415878,0.5903599864846831,0.5482000135776259,0.5573216172695815,0.5626915057539099,0.5591374199884931,0.5249566026207061,0.5478206281827663,0.5433147429231845,0.5481539122578537,0.5861593560161565,0.5998270222766795,0.6134893689589298,0.5939747703577409,0.5960799719342437,0.5751789931717763,0.567275788110709,0.5439346588066635,0.5908972738541276,0.5393971359679602,0.5320634768177734,0.5665921665507041,0.5306424186437133,0.5557082707059506
0.5711521052007398,0.5629635411361542,0.5596692172321813,0.5556463833290821,0.5837761252039446,0.6262407799840066,0.6181311755775757,0.5410998316820004,0.5816507511275039,0.5995421321819167,0.6029335216541015,0.5653983652099254,0.5754407756634209,0.529253470641409,0.5342392313566451,0.5581707369700845,0.5722829652208568,0.5806617151289121,0.5866211460913077,0.6004366207972417,0.6143526986515571,0.5861420353890191,0.5870450878392925,0.5696886150108951,0.5354035575440919,0.5375636918865402,0.5588464695161658,0.542176203410815,0.5328682822805785,0.5679462162818678,0.4769984626033039,0.5622956520448087
0.5814095937017951,0.5970353090682494,0.5886085347347219,0.613469774593906,0.5772879357171331,0.6235919821490239,0.6025829449556105,0.5992941381825276,0.580989323894253,0.6001664621052428,0.5728424329122671,0.524268440252348,0.5243734966944834,0.48866439417685575,0.5222902186628665,0.5234902603121281,0.4461328396285678,0.47447127237217407,0.5542941343410714,0.6063827303062395,0.6214583800038345,0.5689713113687547,0.5851603775772011,0.615878344451449,0.5456016160904974,0.5806901855613525,0.5803796327178149,0.5642788592898788,0.567820736162528,0.5688280553669589,0.544145209876299,0.6045452137173234
0.5610873050820844,0.5912374644403356,0.5743048795834789,0.6241701347303179,0.5546963762134891,0.6232299940842647,0.6084771158106728,0.5649144190420391,0.5445022265056964,0.6036174072996874,0.5971284627631617,0.5309528084974001,0.5296601189767062,0.49138214738296015,0.5443554002601582,0.5832950596034036,0.5651252267240741,0.5673969226207438,0.5606752561254605,0.601452986900612,0.5935417523473964,0.5478366525809069,0.570932259441823,0.5943098234042729,0.5817487093053906,0.5709940227349696,0.5805176674142886,0.5429064688153439,0.5630011621623555,0.5516956534370069,0.5684996178928295,0.5760361206317332
