Fp1,AF3,F7,F3,FC1,FC5,T7,C3,CP1,CP5,P7,P3,Pz,PO3,O1,Oz,O2,PO4,P4,P8,CP6,CP2,C4,T8,FC6,FC2,F4,F8,AF4,Fp2,Fz,Cz
2.0533972847663953,2.0804384628840116,1.9293190362831456,2.3017700069914593,2.361658265481213,2.1995505268509152,2.288106215715547,2.063713234210653,2.1379429889808645,2.0312382374427043,2.04964399952668,2.078510207946297,2.1198531864927155,2.2017469731080026,1.9507748592595022,2.010285947460551,1.8720745177979379,2.0273871502089555,2.0142263803051668,2.303214483197411,2.2078632824199422,2.0939619035149155,2.2201514204893065,2.296206812822035,2.29069055795748,2.289140405794157,2.4100881785687642,1.9285476462777116,2.3309011631667143,2.0679693887085655,2.3481433754059293,1.6791092089088213
1.9571691084677079,1.9295562650667115,1.8678140486298906,2.2605226175908126,1.8079352907350148,2.195231060293881,2.214661371135691,2.1611243220952074,1.8033608138253419,2.099173960772154,1.9040941799225197,1.9365748376525138,1.9759715017917263,2.018613583112159,1.8484274422590974,1.8036343388667093,1.805304668903473,2.1414456283399135,1.9233002214020916,2.0746677100504485,2.068505318976831,1.964965915878731,2.0530656000278524,2.0697495886913124,2.0548060707093327,1.9823751583357494,2.353446836063417,1.8614089295004286,2.278626819560949,2.010175786312651,2.07974631927096,2.0025084455922895
2.2122985828038466,2.375700067764232,2.0135038680417527,2.2041086594854717,1.9597273340317511,2.108128259987109,2.340376068663523,2.043221711154714,2.1185335937860974,2.3948887325401853,1.9425625806484976,2.0640619429905236,2.1514887435263135,1.9557779589792395,1.9426223473366675,1.8955946165268955,1.8013634295394718,1.9767835608178,2.0310819731127334,1.9248498464956472,1.9533547067666786,1.9949093967282896,1.8788935282473778,1.9199991022852616,2.001523165577917,1.9038840786973308,1.9954434422019052,1.846361061434609,2.193101230720719,2.035252600754109,2.336237078550429,1.9522837178430283
2.084682722192277,2.043186860042585,1.894397107876167,2.1571952600424105,2.087792953303621,2.173860555544112,2.3983185104173463,2.24371895476271,1.8883777956371781,2.3331491472567953,1.8907034973021386,2.1365772800382725,2.084489900463699,1.9126624545763742,1.9130933245122366,1.8715272768163012,1.8602771112687038,1.905855455692094,2.351578547293686,2.2107947816483917,2.1814962065841246,2.179969073175989,2.259017564016423,2.0466600711670155,1.9986060091582056,2.223896871070449,1.9359486021594348,2.0846372032407188,1.99432491277244,2.1725474613743483,2.153438120862244,2.0874461644438598
2.2718343263041287,2.0752377828885273,2.020827618609581,2.1970158457021025,2.0637730157301672,2.3463817595055483,2.181554963153912,2.127221030351958,1.922088861329544,2.01054324508911,1.8730159414935408,1.9921518834459062,1.9324187408310523,1.862664376564509,2.008335948905442,1.9718645980189282,1.8438996342403207,1.74249021771889,2.136750182745206,2.126639078594117,2.1370306115529334,2.248302208633447,2.322637471042292,2.1070690236752125,2.005681060630789,2.12683579877363,2.102718561254242,2.1605358140805544,2.391512297763027,2.2550308357807607,2.182060802365157,1.8488876765402262
2.196414246014433,2.255378231678354,1.7929525668533337,2.3659674766470737,1.8375437663552565,1.908191833432373,1.9820317776343177,1.8702540565926002,2.042519562481441,1.9157579892888792,1.7729615335826685,1.8067609580984891,1.866450760616539,1.759968736201751,1.8526847919515927,1.8291999844438656,1.8071493316051859,1.8266231871549201,1.918849701611194,2.039682958125944,2.270329545252643,1.9846630592659729,2.2163140285971146,2.326841188177708,2.3639687315343623,2.1128800067710602,2.101917799065237,2.1187084899637902,2.2754798786553683,2.3018611332058,2.4221351783009872,1.9766299811419725
2.4355117551277594,2.351651204240089,2.045288952124957,2.1093779055968502,1.9682664911974324,2.076781066728551,2.1848704742260985,2.225351868477398,2.0614736716858193,2.0446235756763205,1.9098562810856334,1.8524345599681338,1.8277579431552753,1.7420205168276317,1.8648875501233777,1.6816408281068964,1.6751654275641454,1.6890523508992599,1.7768226327302468,1.8570544340183273,1.9112249632442986,1.7477220085967329,1.8982208444398838,2.0495295922108308,2.298633439279952,2.2312051982889614,2.256977590034872,2.1523811930395564,2.4999181385867324,2.471171567662589,2.0981776580516667,2.0312753444443787
2.1509959571215256,2.191221828898438,2.0103875579008528,2.1981565921411974,2.1464661053533374,1.902006073813846,2.105104316407257,1.9686345529315235,1.9998283841034186,1.9009081092533828,1.7877265056741163,2.033178161870153,2.034224394474181,1.9796817028067506,2.0698427850615464,2.0755421307619373,2.1173420192371633,2.033634666461256,2.21873032231183,2.0299098839920844,1.986686619313436,1.904877066156548,2.079479233393618,1.9098524278987143,1.8700555222770554,2.0272931228825133,2.103109888419978,1.6879891337812003,2.468810245398823,2.1221883984502736,2.0959077985062633,2.1542252373681903
2.027654456109682,2.2246488169663343,1.860207603197305,2.4804354907962147,1.9162729718068316,2.0614547471996367,2.0601770033611837,1.7718895381195183,2.057773818142097,1.9674028962591146,1.9124770521899015,2.13784094151829,2.0909293819658434,2.0112264929030137,1.9184045159553196,1.8684431734619305,1.8182192082153317,1.8696069354969886,1.8739121262692209,2.1926913401052195,2.0394482201853434,1.9807299598671133,2.1450980619523445,2.2000355638053146,1.884119031632187,1.9688757586966636,2.124790520578753,1.9293207529551026,2.242571709069509,1.8917811767073611,1.9788950501824432,1.9760481722569911
2.1798170192572024,2.1803887892283993,2.1251077532678284,2.3907101974831124,1.9481190301843938,2.0379892433072833,2.033202389371971,1.8752336812085455,2.093599452703536,2.2001369885498527,1.8507908286154546,1.8866141899015327,1.9760078180919218,2.0737474457665184,1.9350467458716396,1.9754169886550756,1.8472452203626755,1.8695355538169218,2.3224064989599853,2.2939324329422996,2.2079244507772686,2.4074291677594806,2.254673865364823,2.2410286314498986,2.3264443962680503,1.812271805402774,2.3070785419990494,2.038700314731053,1.9627941144239285,2.041239337908634,1.7675418968385896,1.7609965846760443
2.21649320721477,2.240421417616148,1.9726910523348997,2.5715526197590317,1.885898073801255,2.3880394257432602,2.25196383876284,2.0297593901608013,1.716688118677926,1.8841639134406716,1.8289474704103907,1.7480360930217775,2.044792979052084,1.9619649394299663,1.9282868959896093,1.7584177926136233,1.89007679589703,1.884474733430802,2.009209634701613,2.3502373905884726,2.1804721678034236,2.0745527980114007,2.105353235240513,2.130596188665825,2.2430055501728896,1.7948960010684287,2.101732415975613,1.9342280785896457,2.1264511037988383,2.2582300376290525,1.935176527472043,1.9179752501360345
2.1708082364770904,2.461246620459766,2.2803644828670904,2.4696199746731766,2.114771687663509,2.0224568059315997,2.1510379681258582,1.7999715965413239,1.8040198183557246,1.9906217359664093,1.9306709302176106,1.9490271266246002,1.8237313342184163,1.990545242220354,2.0929333876745804,1.7621397128670957,1.947406795984066,2.0298542674242634,1.9988078230637125,2.28610774972765,2.11764152657855,2.0055396452041294,2.1060398073222024,2.2160859680608156,1.9550445907387366,1.7679960365320062,2.0519672900711727,2.1406665910876637,2.475916563546489,2.0770201784663223,2.3405484645149857,2.0934753695809456
2.16646838401153,2.204389662080442,1.9947627462158,2.1360166878726967,1.7660680087919525,2.042245528520816,2.1967525105978742,1.8520182042289395,2.0111234840990244,2.1442155885217313,2.1407004445194686,1.9830320622690185,2.0476109479073887,1.9664495082859053,2.0533030517132054,1.9665129630999219,1.989345106342686,1.9876197489211989,2.0893086800666554,2.250224801279741,1.980639732512922,2.008439239290508,2.2214346115909542,2.3131361942486452,2.01318814628797,1.9261800525368982,1.8848577004950582,1.8763534396331156,2.3089037096684133,2.2734142447141745,2.0270550394929128,1.8165319564866886
2.1246823029482282,2.264593958068724,1.8168685276995973,2.3591982619488294,1.987724926722917,2.064746013411963,2.3050328091155574,2.0066031368710173,1.695362397341648,2.034286623942076,1.7597467230799846,1.6923844832024084,1.913442427546099,1.6629626660621086,1.8662813231925963,1.7844938149177483,1.8661395630653372,2.0040112703643036,2.1941386841736734,2.19506592869319,2.3462109955008286,2.265612247593827,2.1699322849238203,2.4220227732339805,2.301826739668921,2.0819939409949444,2.1737139249469415,2.0848308985856874,2.153772650573681,2.3027653161338275,1.9998420544401458,2.0817917605973246
2.577801665937078,2.2892015438571964,2.0899231551779582,2.1353053410413394,2.094715620085504,1.889841226372952,2.251443424519458,2.0672415055190188,1.992212765598575,2.232741794904526,2.0499668711950267,2.0216593746736846,1.715992195079841,1.8548056994988076,1.8461057859263286,1.9394361006545362,1.893848629252181,1.7704598397307636,2.169426319723578,2.2974241668062505,2.0877080468040172,1.922747005162142,1.992274159734085,2.261535326422875,2.229588430410858,2.3601778008178678,2.193974998357865,2.084655442212943,2.2352593402107725,2.4199011221606974,2.213896585869807,1.8165852084061527
2.0741419359487656,2.097158714698109,1.8730281067785108,2.017969678124481,1.9919369644285498,2.003960639605079,2.0624521749255154,1.9417613624520527,1.8047109485259805,2.1813243481513234,1.8482331027103467,1.7444204287542453,1.6058766143863585,1.7246694271924816,1.6709176488240711,1.7662301161675698,1.6836671912364374,1.6872676434419438,1.8147086041233889,2.206378353066885,2.4162770289186786,1.858200217067403,2.1146245863026722,2.2273835321185813,2.2281698477482283,2.073926681192795,1.9437781822904308,2.0584802750360582,2.036456031108968,1.9877738351836,1.8228835713059182,2.112521689103667
2.0037378323114634,1.9342094786706516,1.9790323072384788,2.239384125490726,1.8177740583707491,2.1903826465728646,2.3634206993094264,2.098549747932208,2.226774774606434,2.1105458660250673,1.855295777843511,2.302514644406148,1.8969930566946553,1.9751826093373155,2.0992729012639906,1.9908894029833333,1.7439845744992069,1.717551346715972,1.8109283540963874,2.0907221805457614,2.1457212363916445,1.9443873093025836,2.3230441655176968,2.5001630819493728,1.9806945101314402,2.1122894247341892,2.0587959343644564,2.18727451080271,1.9181150387655008,1.9877134214904144,1.858288253270398,2.0981124085359344
1.9930672373318885,2.125851123908052,1.8206392057282377,2.184352752237939,1.898940634930368,2.275790360359275,2.10786498256275,1.8825524884504445,2.0470911476779983,2.0578064640406635,1.900512886489684,2.394635539282096,2.1113962106931465,2.088291761885237,2.115390516775213,2.055389370973366,2.1094959322699953,2.0391731386810763,2.2134656356778972,2.1820749352787168,2.2668015951864313,2.2996005482731388,2.3202974087294757,2.1403356922936014,2.2172973328464622,2.2338434989222233,1.8761109929707755,2.037170047765689,2.0982868849686818,1.8984329310733086,1.9359992316785777,1.9121492796535744
1.9150634092181873,1.8173274005847262,2.0770852073868102,2.289991633627162,1.9606636663059385,2.0520757036905057,2.094592736620501,2.0130010730301615,2.0128116171027863,1.8744709702791547,1.7534400712254996,1.8447372876106272,1.7836795320929764,1.7841699774746276,1.801554365684739,1.7816277763172355,1.7471534564693476,1.700544105846945,1.6728031197837117,1.9212038938844913,1.8015994476134323,1.858867609212089,1.9668557175234347,2.0489452063082765,2.1852063584679864,1.9991523611588464,1.948814182835727,1.9437923240393575,1.991312113298992,2.0165771441380413,2.227638649971182,2.126728418919153
2.08121607110756,2.048609586649531,1.7663853046205562,2.2583107807308487,1.9565046894921791,1.9134144620283966,1.8607565719292904,2.087816783194637,1.9659962688814998,2.1416436119558466,1.859150608305254,1.9663566850620864,2.1792019974553716,2.0139393785224224,1.8977167373225214,1.7462284542799733,1.8353419491755105,1.8203663112343793,2.0013054026485597,2.3048311979810245,2.032921566204452,2.0417688898505446,1.8435518848370733,2.0610901690451158,1.9058535205080045,2.039649115784792,2.1732437868937184,1.7931819933157216,2.4071539459429756,2.0473353531796734,2.1145727715612743,1.9685139795680093
1.9458979098870242,1.9851203170248133,1.9445286288280883,2.0146488525140342,1.9433256207874328,2.069491867768231,1.8821457775842476,1.8973731299955912,1.7851609644454975,2.1525739027200084,1.859785217927473,1.8726669442907988,1.9049594138360015,1.9730968774534916,1.8855539322887738,1.8381821479761251,1.9242090509381613,1.8656566067043359,1.9560440593987138,2.2345126614340782,2.0939497546874377,1.987343411593129,1.838074824183244,1.9677787957028532,2.063569154928547,2.012441633117243,2.2614527795933,1.7226024639635955,2.322185672390741,1.9899535949997051,2.2282020317063385,1.9712715722189198
2.1996523020315673,2.3077737037553248,2.150304309016621,2.0387253436320654,2.079987264969225,2.203243508989234,2.3147021021638596,2.0066788255387187,1.9466086323857086,1.8894660537643893,1.9771816232023216,2.1099117696242096,2.0064005368100473,2.0456261948677397,1.9532166549197747,2.056881469322848,1.9713450983641518,1.8800072609503717,2.0884087274102634,2.2235012021752403,2.180166886220605,2.111946754765515,2.26819411920655,2.2125345922256936,2.1050150253468036,2.004160603026034,2.070402814460155,2.013179466346318,2.362733657416934,2.2948662151940065,2.1843573479525817,2.3079712174027867
2.205615029546908,2.043192876906282,1.6341251700286326,2.2864376726874704,1.909689477442284,1.7675960427274298,1.920557090512424,1.8095552075095502,2.162608609402373,2.021499248232473,2.3391454686337423,1.91759712770718,1.7727826035244372,1.9800349488501041,2.0064365463959213,2.054220025104831,1.7582788212649534,1.7717534274817595,1.7412566064096182,2.127675348714922,1.8488466561745933,1.8101289816597963,2.1005451938265476,1.912087811243312,1.8495082686812228,1.9925470309361517,1.8120791526210556,1.8249681958052062,2.162243589456164,2.0399420788800144,2.0579436840778556,1.8190069259619506
2.4524388843355447,2.0386473803921694,1.8007261494439426,2.5640280407865843,1.974861468900119,1.9812692517692259,2.059312861450231,2.002158214057481,2.134175715840919,2.185437685831644,2.2231715262065004,2.126738711315786,2.0510710211701344,2.1362373350569483,2.179330558436969,2.1761473468099823,2.056022690144061,2.0949550268220865,2.193129478031439,2.1321661154624514,2.253676610521722,2.049824208489366,2.2433964453928077,1.9762749781395812,2.164144618782319,2.0876503495984897,1.9071921032928862,1.9199422798091652,2.31198598423067,2.2168085388318852,2.094984066457108,1.9817528331906706
2.0555774142940937,2.052662660333281,2.1508906795275275,2.075675666337641,1.9049596667642912,2.155268217748012,2.1353322504742733,2.019558970681451,1.932600496303088,2.230673888153725,1.870161946341291,1.703575413506521,1.8966841542673398,1.8127785119445672,1.9054080518425067,2.132894425806864,1.8783785404585902,2.046418519267012,1.9703177616759444,2.2273445044727502,2.234111544724246,1.892422617901822,2.2624240828625624,2.092382728561984,2.2321653587298194,1.9731679748130524,2.2204819440118535,2.0460221258216302,1.9627270208686913,1.9169034150619566,1.9645765364621695,1.900661163472831
2.193579212356656,2.331910496052133,1.9829751892918837,2.166152249928097,1.8431476209736368,1.9979747877708083,2.074772867286812,1.8326923057448035,1.996718844149086,2.200296268823082,2.169532161262253,1.885655671458729,2.107304876154583,1.8954758665198974,1.9354165828439365,2.1353158996296266,1.8902669732198605,1.9568392095686846,2.1288902607965907,2.1593922096683458,2.235230302916264,2.1298307489501966,2.167013130014902,2.164508162396255,2.250958198896247,2.0538101457317013,2.1189329548662283,2.1716860124202824,2.5805749483105367,2.23977823550576,2.0649880961652096,2.2861792520684436
2.2397424924527223,2.2872163186139103,2.392320156911657,2.3816121641477634,2.04767937943283,1.924022579726639,1.971615319759791,1.9924187654604448,1.7397661695492754,2.2457068932829287,1.86684304930961,1.9654576192249353,1.964448738265463,2.065716735221315,1.8131539598084951,1.8712048003874429,1.8780372996007784,1.8727207345511168,2.0914120116584622,2.2685460309916943,2.150806746676262,2.0771965949004967,1.892201723505609,2.3957078377627834,1.9995891373588086,2.1005185354879523,2.1426992408301393,2.1809048483663522,2.4795580775525283,2.0671728837720904,1.9959950324737774,2.3026357765150673
1.926766651558721,1.8840843512370566,1.8058414230134394,2.0591282723304025,1.9419441263802575,1.9737603428175647,1.8854532295944157,1.7722638368882593,1.9936183520235813,2.201633402401311,1.9272057188044855,1.9458220238394406,1.8808853612202283,2.1528566988867754,1.973951429813847,2.006695964315462,2.283440892938218,1.9612456711631425,2.139570655826042,2.1050543803395882,2.05257391745895,2.1556360132856356,2.1121412610588632,2.215289620783133,1.9870582367538703,2.0432316814031335,2.2631427475748866,1.9281090837506274,2.3458291386872427,2.054465629346182,2.1367484455097907,2.2115320749427583
2.240430409925854,2.1843411430651627,1.8222101851925736,2.1288003166328098,1.941425733689382,1.8822861228951426,2.294662966581191,2.069928885308567,2.071759887012587,2.1374055134365326,1.9686599800452493,2.0251237598334693,1.9909428577543509,2.102599172024626,1.972391659415398,1.8049614834557608,1.9032155170015639,1.9047154210055255,1.9495070516092554,2.288736261679309,2.0062014689597345,2.0279920125481468,2.080248699865858,1.950283468523921,2.058458310697575,2.0197843192759453,2.04011130470427,2.084998123275793,2.310362448608855,2.039521580173618,1.986190667445368,2.0787808991593857
2.271081915683406,2.091844679208513,2.054750356866107,2.444615752071757,1.9892329650298424,2.150457179584306,2.1352915360449027,2.0311964879888773,2.0431906911564055,2.2024620355862203,2.0712099934918715,2.134200016250586,1.8572785532647118,2.138786718378797,2.0184939809109874,2.080275683424908,2.017013434238884,1.9060339377549562,1.945994599340779,2.0759857082053976,2.1487775049557065,2.0439935050687787,1.743925291228932,2.04784546268568,2.126493405463742,2.2191388264192597,2.171670643504093,1.7800788808037091,2.223003932587991,2.1229141772619005,1.9451446545564421,1.8658523892584333
2.291157149430281,2.552185702921025,2.071354812900818,2.2317323740225454,2.249139211913057,2.0744031743484355,1.9118017493647352,1.9730807389684941,1.9397589638337132,1.9580947138412965,1.8526836341782655,1.9284774238044113,1.9708266911422423,1.8301091704387369,2.129944363566709,2.1067402622183495,1.865760366758919,1.991467272701713,2.1815088419959614,2.4997962285969653,2.0998932707737787,1.9737248622639603,1.831001230644573,1.8617532568395343,1.9415919331672074,2.1662134208129302,2.328363299784881,1.8625462068648142,2.303888393185469,2.1409161585777605,2.464354943165768,1.87775501693024
2.4853975011291727,2.4016501814525038,1.941264935092598,2.2625011847593988,2.064014128752247,2.0330378301158443,2.144284402595502,1.9951440007399224,1.808342839305449,2.134974545661013,2.021747563539425,2.0492223122950413,2.079231861784381,2.017423659633446,1.8526066588669237,1.774523840321944,1.8126860698544576,2.060266313938991,2.1193870245893076,2.312417395521825,2.0213077815800573,2.1884677214820294,2.0028111874511105,2.0473245892073892,2.0859675770090136,1.9211198540111285,2.1068777053551804,2.075902984473407,2.062451022754101,2.0900913521240847,2.2539619362785754,2.1309150021276215
2.3710560339739404,2.209118971669287,1.867808982044096,2.539581239727214,1.9778460777007871,1.9182660332879042,2.0331481889282017,1.9954592801269895,2.0544572580920635,2.398471461531675,2.108176751201921,2.2601933108666175,2.0219469714073166,2.0158041521205763,2.0424579685080486,1.906590893806492,1.9855439149392011,2.1139600639947886,2.2808455300999584,2.232306614543818,2.245990102837309,1.8861055905350574,1.988603305759016,2.1936260215194956,1.8584136349146623,2.153911319932746,2.165824192135051,2.1247330994504052,2.3140268403062154,2.0836707707036672,2.3003016964772844,1.9512293549286275
2.4432562672509586,2.2859424702645086,2.0077750043449414,2.2819083003455223,1.924724942942545,2.0972211091834296,2.3598936322941264,2.1067227771149963,2.268961385770018,2.335800874222505,2.0191834747463497,2.286908393369782,2.0927164001978693,2.1376932053644686,2.0464940744842646,2.008670186477206,1.9636402372158634,1.9271310461140025,2.036641092178642,1.9751539123196982,2.2696501098980546,2.09242033252913,1.768532941694983,1.7942953727809186,2.2560548403269793,1.9845289820903702,2.2772036874077823,2.070390206534423,2.0643757961567597,2.2186175231116305,2.010361959045609,1.9836440572546097
2.2811853196173106,2.4237611137105355,2.1322006415531938,2.3885969189164418,1.6756227616288346,2.0032294852136587,1.9793361691049647,2.021369287109192,2.1006659931489153,2.3571822690720894,2.1861222711711874,2.142785114280609,2.081231988304792,1.9240544727313451,2.02122283678654,2.123007706605465,1.9076571449119615,1.9849963318578854,1.9698927634227879,2.261958484575653,2.382035368772053,2.0604314033298294,2.0098889524042804,1.9700060356994828,2.339162595096239,1.970211728668988,1.8988548705132366,2.387260360163887,2.2146188058605376,2.2134970157914973,1.8020409718349435,2.0108306873219215
2.266044276340317,2.1687626626133767,2.0426121420525014,2.2325116666819893,1.8260560685690348,1.943052666089196,2.1823227615143366,1.9172668615928858,2.094611514385512,2.2267609909377732,2.13863441155206,1.9296018472824727,1.878287650633182,1.8965490596699588,1.8161149102405105,1.8718317124102613,1.8705347247693067,1.8331226323226653,1.947782374807546,2.3199303454529203,2.213713772910147,2.02412100104799,1.7878129819073103,1.6688205408937966,2.098171115449774,1.8090543468740423,2.5073456397750244,1.7631212499072972,2.1106803287183538,1.923669226703747,1.9463670029374336,1.991740368714113
2.0591258566494997,2.2036208781195157,1.8435198932448573,2.2871563161956,1.8495750045753423,1.9850039506647663,2.1809657454030793,2.0195275648053976,1.970134397258448,2.0716114864048416,2.0594760699389356,2.0210146581502713,1.968880673959339,1.8769446775540783,2.0631231412977424,2.0036382764634952,1.9543865238635447,1.9275266432382232,2.2399778863247852,2.2157106778081164,2.1414399537435953,2.157214044519945,2.0671974128063617,2.051384347390818,2.195468561776265,1.8388122652431353,1.8526381649613504,2.0036199753185957,2.2901776776696496,1.9911749519115791,1.853268660494459,1.9944672029704398
2.082294854740909,2.218846415400319,1.878054141094764,2.314824980764313,1.6729778621125717,1.9534942689515693,1.8860402881171054,1.858038668060342,1.7672009035445375,2.0369746540862312,2.0302234750079244,1.785086426988885,1.7480280339731498,1.8553869788792383,1.7742972145788354,1.9036034478182091,1.7522720244860885,1.7723022772345267,1.8520334043938496,2.0740256031179083,1.9006797679357257,1.9579681395573079,1.9629599224736014,2.061726025940892,2.2917298129266026,1.767580074414677,1.764642810684668,1.9703516301370634,2.27371107381067,1.93906705331784,1.7052931473972517,2.112060739477218
2.3984043833354103,2.252039978072783,1.884613854202029,2.1997063229041376,1.9597252648015238,2.1216244770010055,1.8474698313677942,1.9654937066858094,1.9639109851814935,1.9388764253494566,1.8860156864669766,1.8690192891242787,2.0211503207582786,1.742003857179662,1.9607164444414857,1.8668409094488532,1.8048755586688525,1.769731552027366,1.7657961593832225,1.8533986807168377,1.802778510317781,2.080488634104448,2.102207353824836,1.6986266819625653,1.8839761224010632,2.0552418215546604,2.0447157822063198,1.764192163145468,2.39152425419179,2.119343301333899,1.9091391354110683,1.9144477727080753
2.1808154151762067,2.307230704744808,1.92221583887537,2.449251752200523,1.9065984012652328,1.9895288335063603,2.269107086667977,2.3044139164000947,1.963205918476492,2.1085369824730678,1.940392933578319,1.780487918886324,1.8002398859549225,1.957341555742885,1.985569897064364,1.9987136095928733,1.9278240044725046,1.9243706380673165,1.9833009738066794,2.2903732572927633,2.0004666223519916,2.0256454211508195,2.0871583929215545,2.328192052044091,2.206707563338716,2.0620463865294316,1.9437784407174963,2.1356495414127035,2.2990884258490034,2.1235166713083204,1.9623137043959376,2.073278448790313
1.9556474333406717,2.053948157196203,2.2459008167573637,2.0927517122549757,2.19191128053434,2.10897514102147,2.3593061987408803,2.289209308218002,1.9657961452663566,2.240336149452891,1.9842835482220278,1.8664292877083273,1.8185617676197068,1.8425377516237553,1.745837765552201,1.7334796652453985,1.7461621691771343,1.6845242478218072,1.8093379401308658,2.145456826220984,2.2124476430498805,2.0167379686906126,2.2094991455354784,2.371407158030916,2.356110415556379,2.2597596497400088,2.2143744096591718,2.326318628055317,2.0451665278798585,1.9156836249381313,2.0519069900714175,2.219673150352007
2.1762865181065387,2.1568667551041174,2.196680357452218,1.9001914293569764,2.108868066800842,2.277898533617888,2.1468926309081606,2.132746616115526,1.8906677536001086,2.006164153891506,1.8704572864624587,2.1012158377276133,1.951345931252828,1.903250116872478,1.9709202235898398,2.019203610757036,1.954218256287314,1.9101838574926584,2.0023156209850472,1.944689421683857,2.0357188987767536,2.0007101450327407,2.209672514654804,2.1309931245988625,2.2025933698825098,2.2887214748378457,1.9985984898453315,2.338284611297846,1.9901741464192901,1.958072789157288,2.1109079490035563,2.085967091112213
2.310488774884794,2.0493747902248853,2.016039337697204,2.3374167184289227,2.071755094071768,2.1975451562862123,2.383755791058599,1.7747256843168864,2.106757492718487,1.9658219031677417,1.9358707388781715,2.351781859610345,2.34210648884914,1.9662518616090687,1.9224530277124254,2.041795265888535,1.8715377180437236,2.219283775110927,2.1881379645946732,2.0747978591565146,2.042913328134144,2.3308931494591536,2.297572902751467,2.059742056490686,2.0701555938783707,2.274431125946972,2.076892475698535,2.2322354470949963,2.137057769751244,2.243927253843685,2.1106762906259804,2.1716602386626755
2.106524191872003,2.0461203733210493,1.914295916406459,2.336731583039683,1.8319969239394747,2.018031875688427,1.9556895789704087,1.8712267218182286,1.9887465035922962,1.963376110426112,2.0132385713317884,2.0214701839584817,2.084416675740261,1.961846614194662,2.019214119122485,1.9240677309260983,1.925726976412582,1.9462410693654553,2.043230797193426,2.1789345071817063,2.24084997789227,2.2410312495597755,1.8272868690616115,2.1684965740856383,1.993716716069083,2.024531578644715,2.021472339228727,2.0118661565147273,2.071740753505921,2.2690522470403427,2.0952515322084104,2.1193892135154635
2.2456661065252574,2.112112957534975,2.2597125534622298,2.1083759094057615,1.9489072121870423,2.1348067223995577,2.241111883728779,2.155461658820876,1.8497920213544465,2.1493296242791327,1.8871401426985066,1.8011021709543218,1.8455051398906728,1.716338869155963,1.7877948940381088,1.7245638198497737,1.717624598772918,1.6936310861865298,1.851950311064463,1.9878302333973967,2.0286266252214626,1.827699569792622,2.224379330669618,2.2782943958757866,2.239031794562362,2.192489427391848,1.954370536896647,1.8816675190701666,2.197683251982682,2.230144156886993,1.9687310898115247,2.0056958046308724
2.236058672024706,2.4001549073917583,2.150220735021308,2.4273906233509512,1.7835628561698946,1.9714330935792581,2.124789069103408,2.0660702307151584,1.8862468406267732,1.9037879284730053,1.800400944768607,1.8483233709980176,1.9545935707058184,1.9845503451287887,2.0642954864218175,2.1154499085711094,2.162628446669193,2.1019615052432448,2.223336450510859,2.0799878856046905,2.2834889618259213,1.9044892328744203,1.9313391395318098,1.899457824261503,1.884016596824306,1.7866360913360704,1.849611650175177,1.8742707794830131,2.053736189534447,2.2115852232805997,1.9559327072930315,1.842345534739755
2.025217876991284,2.031777707202028,1.9013910157207758,2.226255413153031,2.047335356613991,1.7141935746610473,1.899438938532713,1.8439427050964297,1.8860562494307158,2.024627819271939,2.0472036644840332,2.045092760512715,1.9780434327469687,2.106321388809903,2.1607272916029565,2.1755632182712015,2.2377449612057356,2.023227759548687,2.1061423456244843,2.3468632520908117,2.3140157186785313,1.8336840734543565,1.9412994649454611,2.2001928289527015,1.9825459141674207,2.1155218827218096,2.2227408479893462,2.0707687257565195,2.515356093425448,2.0455014157843507,2.1634898504200417,1.8457274010497424
1.8281408829558645,1.9569579339758836,2.0301607063053533,1.6883106205849499,1.761025530196802,2.0948126115627868,2.159721239892324,2.054586771369325,1.9940551199957235,2.244429168329272,1.846466672055726,2.072804211048678,1.9209218119177718,1.933324101506383,1.9734439840480487,2.072499307212783,2.0128447398899922,1.9913327742626559,2.0415104288207298,2.211590740134513,2.0299288404451614,1.8989287488215056,1.878192443410636,1.9045107112945647,1.858598507253669,1.9055232535667923,1.971575505348733,1.778176559906816,2.262461046660837,1.972889727506797,1.9378843688614948,1.9372625916788282
1.7179220951683623,1.775458592068357,1.8230031630691395,1.7675483618652639,1.7163231183027114,2.0525339562848965,2.0332857633279846,1.9948109599488302,2.0233828687101103,2.30684738723486,2.06551231181707,1.8576498527395364,1.8016370670731943,1.8678580302711218,1.9496022852607544,1.936336651872996,2.0123115388535306,1.8346797783411035,1.8528979858197792,2.299679963938917,2.0455480885602157,1.972566067894258,1.9930559676093682,1.8566668518545333,1.6867813758983126,2.0316025027936098,2.0090318123838204,1.5041904385631926,2.2755879533813728,1.7623536964291766,1.7218270200535095,2.099659785037037
1.6328057883729494,1.625417707476432,1.5380573163114613,1.6783540503648353,1.5627211406377088,1.6765951846672693,2.093832506286715,1.8981077359275838,1.979007785151137,2.0696328477185846,1.8934738195617462,1.940881154319045,1.8178659472308496,1.7366803616394424,1.8416660551947828,1.6928400984914753,1.7014655817734279,1.7389565654187775,1.8443867161944092,1.9199290351033065,1.8542048250778516,1.8382651398995684,1.7593245797488148,1.8250303164078292,1.7089861289766461,2.087121624044932,2.062272018138425,1.6223753996275605,1.949247760038861,1.6404814725034564,1.5930201393886965,2.0278123586060466
2.163346454383955,2.0532509371839387,1.8080297832535974,2.305940459662206,1.9968407415562193,1.9335053978254262,2.075214613568732,2.1466253393847823,2.1631113899384724,2.212978153012671,2.1161147739137074,2.06689061071792,2.1073889434127926,2.0790561865016497,2.0428508169082944,1.9533201522945107,1.9915870387600436,2.06645189302468,2.1969652931299586,1.9482535240566583,2.14060515688646,2.0826438012662045,1.8383041387072288,1.9772617693916181,1.7865763492569042,1.9760032804146548,2.2227094567945977,1.5992007382414584,2.2646996949738214,2.1650299316308224,2.0516588567344525,2.1331894559568902
2.00887707111326,1.9439353768731513,1.9509143761375944,2.124338141842778,2.146381807240785,2.1811799643622107,2.1921420338305198,1.8741077876494692,1.9452196666304722,2.031412458749293,1.919928535965031,1.9469899470785461,1.9554376217184393,2.063888196884747,1.9048210669821168,2.0539639152729996,1.8757615681571018,1.9281462546363044,2.064981002457802,2.2735782906656206,2.298783918054294,1.9245769470673548,1.9582420065157333,2.0621834166247774,2.132230021133489,2.1217373300300273,1.9688807008993088,1.7713835615245874,2.3431248885671074,1.9472686603477736,1.9233579489025643,2.346521816901003
2.301177792394963,2.096526641258401,1.890162715752693,2.189874956295629,2.182640418052049,2.1831740132858743,2.191039735224578,1.974773901398079,1.861058184687531,2.354259594125451,1.8651698390755407,1.884908214502685,1.8620457956480565,1.8533177192759507,1.769647997450873,1.7397650177374147,1.8724871960634195,1.912639937913286,2.0287986733485295,2.264084188989633,2.1895121089657423,1.8390321067823434,2.038759396651388,1.9748082924134553,2.0974886840949543,2.3077352118869885,2.1604464263975394,2.0651433993806556,2.456031676242857,2.3154637599841563,2.0036508482684647,2.08872504156982
2.4256143776450863,2.0207597530294628,1.9435983928429867,2.145822761940104,2.1858053895495835,2.031394299406521,2.1965703997742505,2.134546841349677,1.8821146281940293,2.1504789607002377,1.995297590811814,1.8946643959028648,1.8671980469282101,2.1357812488176857,2.103522815534117,2.15298195951958,2.123575314126645,1.9680834374129075,2.035331092876987,2.0618794574545647,1.9912782199829515,1.939572469878551,2.0806746756609984,1.9752750477978536,2.068242159079902,2.1054575925486856,2.155481463996712,2.0041683552312,2.347003858198308,2.0692250921559756,2.0483536990041395,1.7977481030512426
2.2482641813073663,2.2779305318857723,1.7969567270881572,2.0618953070810715,2.0666733546454465,1.8639095727056718,2.0701498526531896,1.6486473832324366,2.2013470319120696,1.9680026532372366,1.8646752386844339,1.8451710926121696,1.8991308621901808,1.937452914238733,1.8117837006549973,1.8483040968500786,1.7599885402850883,1.7447751463018066,1.835275550378891,1.862250370245422,1.7848318068217468,1.88619610341633,2.1657621025686473,1.936294688894963,2.025530100983364,2.100721523630536,2.117018688018744,1.8965285980588162,2.359391537260549,1.9552543136973808,2.197438648375985,2.039837148262533
2.3371977610997052,2.4529185449407547,2.0175163786589283,2.2687851534783388,2.028930182548095,1.923934510463989,2.117906488770508,1.8559978735559357,2.0927195893093926,2.0243441601959398,1.9158675467339845,2.128219635059154,1.767652120841741,1.902749172117355,1.828956967958816,1.7843494545600747,1.6986974116084788,1.683129716078356,1.9026920997370222,2.3479592284030018,1.8669903831634078,1.8697755115024193,2.0833754227850516,2.1657947149049828,2.045751475895778,1.886518124539388,1.8962698145981762,1.9842822723265863,2.3951594741706947,2.1758774018342124,2.2077020340600275,2.1526484239642434
2.199733591447137,2.214139810337892,2.0189026450530783,2.2923646390071273,2.0185521985715447,1.9912834052749462,2.513261538090621,1.9345871256869382,1.914522880854219,1.895426457034241,1.9520778953586173,1.8315483684018357,1.9876427457604062,1.9606581570925155,2.0234850899151726,2.0125048038039517,1.9997852579474562,2.0149337121511053,2.081425169522305,2.135707659439754,1.9913280185636555,2.0189314228821074,2.147989841941176,2.1820382055002483,2.1292697091968713,1.9840435656619095,2.139443577423133,2.119815195600035,2.398206969965852,2.287699647304134,2.220797497780592,2.0274506238228933
1.857878000098836,1.8895879512479077,2.0243500288055682,2.1247126392322135,1.8701636315273074,1.8051837871313634,2.317338507936871,2.0480245164325797,1.819366618994533,2.064664353357127,1.8521309588730535,1.7953360561493155,1.8625561809704863,1.6971298746104713,1.7430979163437024,1.788165034384095,1.724495707293868,1.6208554029979978,1.7543966597125764,2.0223123608679816,2.009535564623949,1.7910182450856875,1.848552866589298,2.034081402997568,1.8417842980180206,1.8058339237044914,1.9652062409557978,1.8310577150331255,2.2087170963425917,1.9142578128784578,2.006036452916565,1.7022645180233928
1.5106077497759856,1.4386183905454433,1.4761505378446704,1.5600400306789217,1.9493257746676347,1.6457098361121745,2.2941304861184024,2.163083824144478,1.824102519904743,1.9085835154959452,1.867201192730323,1.9081166796043392,1.7171350631819724,1.8313434024273854,1.8754821140527291,1.8313139168501826,1.724688877318861,1.6359473546679069,1.6288170569574039,1.785768288803704,1.564897485453804,1.5673717631717434,1.509764312552082,1.6009402924234024,1.4334418859825377,1.8377217698495547,1.8556616852879648,1.3384120226480911,2.4941022435557136,1.7698208458666305,1.815383791521379,1.7328415527905585
1.627517495747753,1.5922933411781324,1.4247238507927609,1.614399772855596,1.8477612189274701,1.5752832735983449,1.9404725725453187,1.830720587456052,1.7933672929966906,1.9353808757596462,1.978762686407305,1.7300388651913814,1.642163408155747,1.8700214955624408,1.8967124847371286,1.7699116053476431,1.7850047802193778,1.7148393546338012,1.6912513722042046,1.9302325084394707,1.7402745395714538,1.57409457546644,1.574143230914475,1.691673355200724,1.5214020678606375,1.8259496939636257,1.928944971776789,1.4100400341625172,2.5289857272472527,1.9433509982844717,1.9772193533268876,1.5641977189102731
1.5203775188228132,1.4912487960226557,1.245954788907173,1.5302220468341425,1.930884956168332,1.4644903810457368,1.7626145032018616,1.7458229158806384,1.5809039393920883,2.3504252429377637,2.0761843467049443,1.7468630902589746,1.5329489544105286,1.679797070039318,1.6831169009535538,1.6464739972015119,1.5476325724529088,1.5430891337098829,1.5364637656761775,1.770873812023559,1.61704281699869,1.5026071721997427,1.4908981661668392,1.5434333320510856,1.4827921249358536,1.7243242588977157,1.852907219411442,1.361154621742141,2.2799841491061037,1.7812897466907094,1.8542282190593504,1.5638869653554393
1.7271853203560512,1.7424148801178434,1.4646144146584756,1.7170969839856525,1.813165797459779,1.637635381986489,2.0746205685980237,2.0993976389083846,1.7520587843151916,2.2648035756585645,1.983728377032785,1.763232459541331,1.5948616661709922,1.7625764066351886,1.7386143477645324,1.7246337359727528,1.6210921310687774,1.6540367369611484,1.7166681793511758,2.162793370215148,2.040393702339723,1.7927659855539175,1.9348248540455815,2.092018200734341,2.246833243718942,2.0226867859421778,1.90633590606855,1.7625411149243853,2.156406431154861,1.7296013281123663,1.8382458525460648,2.3426045856786586
2.012341466290832,1.812734939231878,1.590876793462872,1.9945211620389558,1.913739685059465,1.7940281055596927,1.8520173900803818,1.79277397585081,1.6899060341387078,1.7541365816913246,1.6982694580380047,1.783011144953547,1.9911647090359068,1.7956899601306613,1.6529963871991873,1.706721023387605,1.705920859609922,1.7975782401712754,1.9668585444367654,2.096687845946084,1.876554003277153,1.892990277107925,1.9342357980485219,1.8425916257496038,1.8025614523870195,1.876374827406409,2.038246383434028,1.7124644324632126,2.141751827275163,2.0693089020315614,2.1508146955280645,2.291107762642403
2.0083341617058452,1.8688916412342254,1.6694568998972112,2.0759972233408406,1.9136080220677343,1.9927866457788623,1.8483168944830832,1.892450454415625,1.8614131395213513,1.9325364689034472,1.810329868790062,1.909789024956632,2.1197964317850846,1.8809902886973673,1.8118519848725865,1.7886522946139831,1.7957505808472298,1.9154797366085798,1.8875373934788617,2.184899820775129,1.9049179138050725,1.80002672123374,1.8249706658747196,1.868017395514733,1.8015938375025804,1.7944097323934889,1.813886890353756,1.6662382592593123,1.9564869534968672,2.065242954737172,1.9503156361263634,1.8566687914479838
2.258011543913933,2.2453218402102606,1.6746999335626094,2.1671696097288087,1.987990349529653,1.8283169050174453,1.7614286509487826,1.770138411391864,1.6235602602135843,1.669506443802893,1.6007693507231908,1.651833186153721,1.9265203280459937,1.6732672298488935,1.629837044327063,1.685033041799334,1.7151847707135228,1.8342662497899156,1.9275765487853793,1.8242380281604667,1.7279639863864982,1.8753604828860888,1.812839593636407,1.9309852595147017,1.8516160255754397,1.9340305805797129,1.944174162858514,1.7052462744262131,2.029632891871353,2.137656048720597,1.9703905860789916,1.6734163014099044
1.9441409752304455,1.945389184333903,1.8480179247745825,2.374218144289848,1.8396424046181972,2.016472509691744,1.9997226458246673,2.103232959472668,1.9249264826969128,1.9704686954205464,1.8543901465318562,1.9270085902769618,1.9696767370747335,1.963758196260436,1.978611929359653,2.2031969293255376,2.1143609722174492,2.1201556348446378,2.3662043535098767,1.996964792941141,2.105258013219028,2.1777432876906695,2.263537693935201,2.457318253575582,2.1122888024929964,1.8728415990972,1.9364087174276583,2.0956785799654005,2.1209945153133076,1.7011716319721337,1.8001431467140432,2.0829685924519907
2.1208454582400624,2.1353051644675873,1.8627514293559377,2.0583349449177133,2.0847953634479435,1.9686641426613598,1.911367114489682,1.9365853786535865,2.0064915398146943,2.298154947000868,2.286751091882965,2.0328072674967608,2.180238856159298,1.9502920790470908,1.993311726255957,1.949871945250094,1.9621156472217702,1.935920378722615,2.1509704894221264,2.1010405480722323,2.4100037999394694,2.1163075128252267,2.058444487332555,2.4877395074195086,2.062204708841986,2.187290070063892,2.213747950383567,1.961417647183031,2.1508878214225526,2.044747573118658,2.2626956657172133,2.1324979764865732
2.3189912584454904,1.9523715978012284,1.7223357188876929,1.911267721535258,1.8974770261032046,1.9526261982994955,1.8546254637050452,2.0293590938567894,1.8222433113769572,1.9844067168626975,1.8852652492891313,2.006870773124125,1.7536182811938563,1.8948455021640978,1.9642697859895262,1.8302441267931255,1.9990314029344298,1.9120542522265527,2.221136341259493,2.1911679852876604,2.27634848880738,1.9408545700655824,2.031872738407739,2.1180389966169604,1.9681889686128817,2.0136228506145275,2.055807402316723,2.264801731675566,2.458499109993953,2.137556900406909,1.999952359111787,1.7304997640252076
2.1914739073551903,2.130621835712551,2.06224246932243,2.1359067005095596,2.1551595060563815,2.1218612061867232,2.0839006983235797,2.3035515850237944,1.9309466736256835,2.157948169411358,2.170964341067009,2.134389195350013,2.007967153865242,2.0918503797996264,2.156613159306954,1.9690686628229308,2.034439757422608,2.000919955219791,1.9847139393209077,2.1040112193401677,2.128169968653157,1.8776174916093755,1.9221750014682049,2.079654951556303,2.03804833666174,2.1923456837479383,2.148234559456446,2.239479707177098,2.348431312363771,2.2749668838890384,1.9935068741933324,1.9518191468476893
1.6950217165655885,1.6529100715180058,1.6448840038206105,1.74694032193485,1.8311800176281605,1.7381270041334966,1.957335467198556,2.1629819441838745,1.953534346178258,2.24770258106318,2.388127679163826,2.1800213932734387,1.7788282000570845,2.149337836138839,2.1388701488887256,2.035267506108207,1.8902498990139425,1.9367369468751667,1.8614056518646607,2.1471833971213696,1.8117501543437045,1.697445474223889,1.6881464970495335,1.6912502616779643,1.5779907521809258,1.7436241056164143,1.8929827556369214,1.4264359993797695,2.070762958757094,1.9990117497359656,1.8989207925862914,1.8504959507507779
1.768443634334804,1.6984686207993556,1.5736089157499102,1.6204638459459701,1.7497919670683515,1.6926451175274608,1.9458053491044474,1.9064042664106964,1.8068116892944994,1.9295843190615962,2.1077439771500046,2.0543415271344156,1.8209089796236169,2.1269239971707345,2.1756843460345947,1.8930874745834236,1.8870682329558819,1.7739903639455243,1.8399186242662577,2.15111933212258,1.954166905022265,1.7955424250135208,1.7749781642271518,1.7788136198492448,1.715307492405198,1.7760826811032273,1.9574338310313952,1.5301806863407117,2.326222019909252,1.8318379362290629,1.927989731623284,1.9468185345601494
1.6009338436420797,1.5300968691331636,1.4471573946453264,1.4594460485957774,1.574873845933287,1.5697493450326017,1.9016327497102157,1.9333724385034958,1.7355588660366958,2.062992383493616,1.89375051358813,1.8668826850212785,1.7196468169426682,1.7735671988285766,1.7585371620654233,1.7568471632436427,1.7018482476870644,1.6780298286915332,1.655194266624426,1.8565023291140694,1.761316522913569,1.6177607620458587,1.6659494719192858,1.6869643353136068,1.6633203284882012,1.7384929584231976,2.04839838282233,1.51127759568678,2.093265963614201,1.66817812071552,1.5589085478037257,2.0106427065680212
2.238708187486168,2.5776829510075405,1.8123714388301881,2.1790689804477257,1.8112659627579786,2.042109371426654,1.8278975756600728,2.0371868551724233,1.7520107063607844,2.2246842092310293,1.962308328960386,1.8687857938303623,1.8500616859850507,2.0411172125328187,1.962004591665999,1.9483269684845657,1.8678142459001341,1.7582946929284478,1.929345442855514,1.9546917778187394,2.1398199417518042,1.741638250899531,1.986113244010093,2.083430105431566,1.8247740299444064,1.7091436321616391,1.7901857930631309,1.7315160736722723,1.9543003456354808,1.9209743604732323,1.7641372860335103,1.8873794802331367
2.1948468031349826,2.2626523988444447,2.054204857169674,2.2145631991946657,2.32333282922616,2.0916062365254877,1.9826466941842564,1.8851700928074586,2.1299791926091016,1.9567087429838514,1.9231152330102974,1.8040926334391267,2.0269592703898835,1.7805005814793484,1.7664655907185791,1.809790560143598,1.83537228823886,1.8865770587631576,2.123192085874198,2.1651805281296848,2.158466013118101,2.078936070041745,2.104424112733669,2.043344243191543,1.8944361772838414,2.0164032636451963,2.025002471712062,1.9766417547799018,2.509661034389291,2.001709049307671,2.2118285270954336,1.8962874803720418
2.088335905780624,2.125850969619049,1.942333116674291,2.076608560406668,2.1514782248242303,2.0311638557794423,1.969098406953779,1.9508457749780657,1.7572254870280744,2.3069434030627947,1.7208636179643713,1.746951239731304,1.8535648472655855,1.731420820314994,1.7274574212733171,1.7061650439015326,1.6847761846552245,1.7084065057117062,1.7962983808825337,1.8974456962133792,1.8289926512037906,1.7783298776878647,1.975929250911866,1.9593195559961378,1.9482110444668073,2.1398357472455327,2.315688701880898,1.8349453472893866,2.3167930444138807,1.995530655578804,2.287231474677216,1.8023245437278952
2.2037583461023225,2.1932845666747585,1.8964679318872424,2.1574027676957064,1.9757588283195033,2.347782027766064,2.3776295490804094,2.013586057176725,2.0107561499901454,2.119689766854454,2.040260358854121,2.3188071344916295,2.0303126557325997,2.043140823623748,2.0868180240255443,2.076830138093894,2.010630748790298,2.0940703367115994,2.1858021423493548,2.250181921213125,2.1399016511559847,2.0324431019144944,2.243649420227551,2.067406804972607,2.0049062893640612,2.2368622688904147,2.2746437468846197,2.1021991031726386,2.1363535721064215,2.148539199665528,2.084208554830196,1.7779396814855863
1.8734209982111487,1.849380272956608,1.7100083773951205,1.834429025302458,1.8197604522583706,1.8149366718439812,2.2325659655826486,1.8317616847498284,2.0115846425069215,1.9942467231252534,2.0799583486749103,2.1146552764408457,2.105584660310322,2.095888922347227,2.1586909256576168,1.890874336043319,2.026911061563048,1.8974409977501003,2.2175758996535087,2.206926381137231,2.1858108435603048,2.2722586505320153,2.3653225781464973,2.1101450805985302,2.2140507209539946,1.998181631778817,1.9333998423703465,1.8997124407619665,1.9756956306781581,1.7596863378998642,1.8033420622005745,1.8677178104880985
1.9863436296772752,1.925177598831655,1.7079774360991178,1.9027152535168248,1.8613807370375126,1.7809096233709758,2.2713770414959233,2.151454076316972,2.1728448258816813,2.213618562541965,1.9303389089975709,1.8624132064873702,2.0448924602391827,2.047197018689661,1.9459242559763514,2.0017141407061714,1.8103518438553616,1.8371417850548095,1.8834558610237604,2.056972747707526,1.9310327923193638,1.9677663372154115,1.9522974571730647,2.2169612511375014,1.9448300116021944,1.88531324758472,2.1336786411162536,1.922379291985269,2.1534980031069555,1.9015650205075074,2.050963085507715,1.9370324759930846
2.01607510126149,2.030624597977269,1.6892050097086118,2.282765543701378,1.8348250015560705,2.0574930473872826,1.926973724998084,1.925391162975549,1.9765687417462723,2.0260739995636268,2.021220484094634,1.9582682098773914,1.8316378795529056,1.9586804172723034,2.085880495475795,2.1467583936529087,2.1749843314744965,2.0385034268678166,1.9803058259254966,2.071027759792786,1.9785475935472248,1.932981152377555,2.0503207300439446,2.102437426156563,1.9110538822778753,2.019574438282059,2.1711724994495465,2.05665856623711,2.232328752726856,2.1821762499218216,2.2290137931173337,1.9947998403579115
1.8651389041143533,1.8480349558688798,1.8085570323625606,1.9947215335467943,1.796011347258503,1.938586782163307,2.271421922343635,2.0072678200947722,1.9403568035664438,2.1674312054674774,1.7780162585638108,1.7863497786433105,1.7652221877622265,1.687508871755634,1.7780573417939158,1.930297898566241,1.8269235439800715,1.8947326388660815,1.8033000253402878,2.028283436265106,1.9713431227145874,1.737976752985757,1.9246020201409535,2.1695759948642186,1.9587662255007048,2.0484294733681274,2.136780902815534,1.956066083991916,2.2219939490883016,1.9002151775702776,2.029387228698854,2.000717316948815
2.2431522987430124,2.050239052771342,1.9419086021769698,2.0387290769135946,2.20178125693744,1.959793054675852,2.3164188987731404,1.9865209840412452,1.9372037311439316,2.3107093485990413,1.859120028023494,1.9149452079141085,1.7798423260552576,1.724266409107094,1.8246206374232752,1.8926806418726603,1.8944538835355291,2.0155080434681687,1.8709003180725274,2.274952362189574,2.070841091622578,2.0721813897068158,2.0505887443937447,2.164131304882159,2.1505094337643267,2.0187531440500517,2.1836113460181483,2.1158186638917407,2.1688570941941876,2.182729741780156,2.440354748234704,1.906736470137487
2.202654340967748,2.0002405276504023,1.823432821891939,2.150273724408923,2.0440550823112025,2.0778607965652265,2.3232261159161247,1.9406115894682519,2.0532227673261194,2.4197778036429805,2.0564407587362927,1.84407500321016,1.841435763925751,1.9705590864453062,1.9854211497855112,1.8817614253267416,1.7650673483527568,1.7047383724887182,1.7403579712180106,1.9708188635537771,1.9693537666231251,2.036416355520934,2.1154992915008712,1.9703321410184176,2.128279759570077,2.268294079864252,2.21236614330949,2.078249817706902,2.154475753660746,2.123011364582691,2.0650959181715236,2.136087346360765
2.276297419197541,2.260993678088396,2.1081314412852636,2.347618643326087,2.4350122317820317,2.251303714473243,2.3963180965633324,2.1927866188595333,1.978650403458648,2.1507719788417763,1.9794430673908487,1.891288120681797,1.9704895365031079,1.946517741440908,1.9404214223065568,2.0146255130563846,2.031998924647334,2.0429048794420086,2.1166485669348805,2.273891817217084,2.097003847763437,1.9684183333203715,1.8827284854380708,2.088354356376476,2.1115726965569825,2.178041605072379,2.4421602704429253,2.2310923054438354,2.1935921254969513,2.075719100821169,2.1977403089330507,2.0269902981718513
1.9003343603900302,1.942973910353254,2.2800799480566813,2.3032717829110068,2.1753365565144858,2.322828180770511,2.345496702929988,2.2907387456375115,2.0778205980872766,1.9969425068848163,1.9382738185705888,1.914721206064981,1.897244288523426,1.9539233625576164,1.9194925390267328,1.9324543862088044,1.979667900241017,1.9576192922761007,2.0016539022645268,2.1868913535848744,2.117595683844203,2.0360960259044356,2.010432621680529,2.1489548427283998,2.313880366703129,2.04712452657337,2.282133074851641,2.1162919268802347,2.1151433956485404,2.0807637269754355,2.242750567064045,2.150311745461228
2.1315619566224195,2.088142539988386,2.239573364215579,2.0014567813237223,1.931556515438668,1.9401519584527935,2.202949787645835,2.2346655795376162,1.984678341883885,2.051233648899075,1.9879941849091454,2.0042716052665104,1.8249453942177565,1.9390750268148487,1.8758785129763131,1.8588408640566847,1.9882575823784583,1.8752990541604582,1.8308044629180125,2.041901856159374,2.233106030376069,1.930184089081528,1.9913729732366148,2.1624379363701403,2.1401636815501663,2.051099254143431,2.3802634741143796,2.195649984822653,2.4455181793238587,2.23252006397711,2.109634777678972,2.1768125212712466
2.2259715118515087,2.285703852833809,2.4373810937266858,2.141633748441854,1.907570075047919,2.2883271549768325,2.0831926707219677,1.9543596928045326,1.9189505207388535,2.000490959363404,1.7928424280505824,1.722554163456846,1.7684335388073695,1.9167270976243969,1.8949927102436157,1.9660223015825486,1.9256135903052491,1.974631649259409,1.9434921829562386,2.077627531685798,1.8635314681677089,1.9407123317139001,2.0634205297217516,2.178868867554859,2.344189825219434,2.1478111358812857,2.3697604892890602,2.446328561868857,2.2254278508133334,2.0130601240750985,1.99310046409721,2.136512180237096
1.9658582380952603,1.9665098103113299,2.1690831984619336,2.073324349984891,1.8857632557097654,2.030652993145618,2.2621331512089773,2.0354895143458442,1.7571143569863994,2.024692869391725,1.8212639774425745,1.7315188821931262,1.6240783077761207,1.8297858585983697,1.798226919655612,1.74804573041174,1.740987511068128,1.755247719590224,1.7832760065721471,1.9210545814776956,1.869735876720192,1.8062163110796197,1.9077650544563645,1.858422784560028,2.2893141339386864,2.011178616128803,2.09997220733301,2.02671192965131,2.4808119426350506,1.9698523712130194,1.8897306745446933,1.8493698376279264
1.7859148754324499,1.7006678986604513,1.8014313075731885,1.7859802334823214,2.0689228694855113,2.1052510239208306,2.0981671795358294,2.067207311866318,2.060021095128272,2.2423661349622726,1.9607620408177133,2.096855584358376,1.896930336230367,2.038811033934323,2.1150735308329915,2.016987950992235,1.8973446815225496,1.821541804509218,1.8635106492794606,1.919178167852264,1.8490280457072257,1.8296230505329538,1.8358719351954438,1.8014883719143608,1.7959181315206174,2.008564541120248,1.908585551035389,1.6395441293700097,2.25954100711705,1.9703030315568937,1.8897298346033093,2.016480602967011
1.708579143124707,1.682096978744732,1.399646882622825,1.537590421457808,1.8391526917074912,1.648873477481972,1.8725755151067895,1.5655085652480873,1.8261510765267015,2.012802935115572,1.956139575424302,2.0655938657693236,2.0024730782787246,2.0518119588364754,2.0147192761994397,2.0978849789053586,2.1972960299561612,2.1925337475965114,2.1921895649018484,1.9561869551015443,1.977087601379209,2.037238133195709,1.9500458089681725,2.0469901786744273,1.7479889883404833,1.8811686733353024,1.9626402813475332,1.7416206174119147,2.1584104652157237,1.8324513645193359,1.8348167717958936,1.8742142941973323
2.056635184565514,1.8891699975103073,1.654942890638121,1.7569802597132202,1.786865979891286,2.0921339563227197,2.0871667400122926,2.0087089326902987,1.9727844003486128,1.9895690501895353,2.1180850182982924,1.9632287927874317,2.225951100945738,1.90359180413221,2.0095477621462514,1.9757948864603303,1.970814948554656,2.08539167401898,2.1817189337846554,2.1525248849594165,2.157112761354197,2.1870006538052205,2.251607827808395,1.902447329623055,2.045987986960675,2.0680985326494516,2.3882000924525184,1.932292054265876,2.4132647701410845,2.1109710040174363,1.8258475285958675,1.8806512917359945
2.096300376997442,2.056182035784242,1.627212153883132,1.989657766043894,1.9606954163522978,1.9189521027981162,2.0872765537060105,1.93425941595833,1.97350068353171,1.823214552235491,1.9357310143266935,1.9538706857744739,2.066711317418683,2.0285756147231084,1.8967787314609053,1.9189931173030306,1.954075757133219,2.084911729229933,2.1420909083883553,2.3890926419775784,2.3214194001653095,2.159448628611552,2.286617315981887,2.043674262513673,1.9257081633791566,1.83563132988158,2.076663067124107,1.989137054256539,2.013448696894842,2.1715779666371096,2.0110263656058387,1.759598552428602
1.8890938830483,1.824224461854081,1.4629963497074725,1.837046216824315,1.8724655561110546,1.703628651014781,1.6762780073392576,1.8025868851278046,1.8235085987084902,1.980201297807437,1.820980464316535,1.8529618959283545,1.7872920468438853,1.9122832006323434,1.8050044659144475,1.827176580473404,1.7707992730407776,1.9200617406877416,1.9863567449970905,2.2350978799179124,2.0563649154391443,1.9296206859958076,1.8623404326498973,1.7453910204608671,1.728253743235135,2.093768484065915,2.1046351708193707,1.6702301277238965,2.1922032319941036,2.085315565338067,1.872861325226208,2.1597723034495906
1.6283638055017202,1.5395173556278545,1.4192426331626602,1.5765074665686147,1.6722372250474162,1.5702819267974635,1.7293215514262268,1.8355607273974268,1.61604271253762,1.737299235365433,1.5903522320454309,1.6421493936931968,1.6403248007981996,1.543833312390128,1.5325141468658274,1.4853662474485052,1.4988579400844089,1.5682452180755184,1.597069324557627,1.8012038471409544,1.6685774388558305,1.6036477852530264,1.6666168609593905,1.5807989767349726,1.5135621032166588,1.9739341590348407,1.8237662952729607,1.3710359843749202,2.1036557964866067,1.6994808592757065,1.7020906331249495,2.0842984052474653
1.7343131111268377,1.698902449533619,1.72262705862893,1.7896602679520934,1.7137234060849076,1.8925625155696495,2.0843687460247087,2.08360594745289,1.7862287264307357,1.968425890268717,1.7494383680654049,1.7467768320722996,1.7123834832646405,1.6515535125640586,1.663719743944701,1.6898723862484277,1.6437720161850449,1.6414333912505565,1.7748285913155915,2.0608193021959114,1.823417709555956,1.9032378550444067,1.8086488873215172,1.9111005248410908,2.033904155339177,2.0055987532301516,2.1503728610521446,1.717730768269838,2.02647082761498,1.7719121857066507,1.7633188034760632,2.099991987964414
2.172024178353578,2.3067863836587157,1.9180481500236004,2.158450857531014,2.263700668632614,2.040205242976196,2.023985725799625,2.125987028031811,1.9883248145780377,2.146413291929751,1.8228920508191067,1.980763660723851,2.0646083965664106,1.939970645785787,1.8409779529494588,1.8790170599305487,1.8408614439360473,1.866956829245235,1.9330780608142584,2.026535350468562,1.8865854301364577,2.2370946316219094,2.162996972409869,2.03086603821736,2.143017821632393,2.267226148702135,2.2359874027719107,2.2329468724309307,2.2567512026203613,2.0549770654672614,2.2473772111717474,2.1318265851770217
2.0671146568604195,2.186103991397763,1.81457114656266,2.027970973541901,2.1497228395130277,2.033409231992259,2.255100779203397,2.2045899126088373,2.137034584760308,2.0597248219822837,1.8797608346725299,2.1202439464941727,2.0671894608683146,1.8428763722619894,1.8876591803680827,2.0106998411307666,1.8354181891670294,1.904325024614589,1.8389346119664303,1.9644472690126478,1.8609877868227376,2.0673776406533326,2.2186016516723734,2.216949684007894,2.113274843373669,2.032059957584066,1.9073546560362105,2.1095134707708407,2.398170504793485,2.0254995330238197,2.051945271362203,2.153476391406029
2.475260367312305,2.2002981099470844,1.6723641837065348,1.9880288928632952,1.9592556892209827,1.843984742685026,1.9916506551460489,2.0700631569295997,2.055855701878644,2.091357228519144,1.7642722859050992,2.0609580972930854,1.9353541225515456,1.99420518786182,1.8293125048623609,1.9206804537324076,1.8955216630254026,1.7987424187074463,2.057290064318576,2.074193664149122,1.916252546599587,1.904427248373578,2.055678404445403,2.1862585974001325,2.156437635997058,2.157744152658037,2.2520454896774997,1.9148506383378916,2.4790257272448937,2.210987801945641,2.273179048678996,2.172180080196685
2.753523588799689,2.4436209453555056,1.9226733521335497,1.9958885817405105,2.151415094190066,2.0168158617893472,2.109613495181688,2.0386423754080347,2.0690475607292416,2.237473077303776,1.9860975744549443,2.0638572062922766,1.9555522076003158,1.7676929659311085,1.764344179048119,1.8956290277803967,1.7861188805685337,1.8334495414243208,2.035854622533392,2.051599508155716,2.2796438619702446,2.0831375336405995,2.0966164412158093,1.9120751609950528,2.1127505975877012,2.2199868787806363,2.2968933082480096,1.9957160106171812,2.5367266395029717,2.1797054012350254,2.202198619330203,1.969845707462404
2.2101262085928712,2.2525242182517378,2.0833585155295657,2.214087654990086,2.074741144756906,2.2522854948141404,2.1762076888435287,1.9493859616450422,2.0716523428387674,2.2138878100457697,1.9564943836723196,2.014975293254686,2.1400727179733052,1.920910884489921,2.006912688167885,2.0045906085518292,2.0305153589449203,2.055158968219339,2.155902672628818,2.0463996143539247,2.1756134309960875,2.1487300477906803,2.0570726769265244,2.248327874280785,2.3000853976654194,2.263764034223009,2.0082106239320883,1.9754623449161566,2.2748427516537593,2.0646856168297067,2.087527007564443,2.0369877742583644
2.228379691714195,1.9697353155363295,2.1857948956881557,2.1847291398077218,2.1577692864746787,2.1643689992281083,2.201484439387191,2.1865571170925016,2.1464334583179823,2.2029294485660933,1.8985947641801282,2.007050063452356,2.1495163596935747,1.9043484481539568,1.8311908604338119,1.8721462380287663,1.8282988071869397,2.137894024572758,2.0623040473081753,2.080313953356699,1.9059048577942876,1.8623507624533684,1.928388161096139,2.1829048344489625,1.9780412434022223,1.9943470460756,2.034366013547388,2.0614768210945957,2.213481853639675,2.0758005223494838,2.103236798071752,2.204826706924837
2.487248299574263,2.0719936103984353,2.039116524921966,2.096612711116599,1.9779084538662264,1.9464103445346688,2.315103088222373,1.946972532685413,2.0346334033420224,2.565774014664902,2.1614189413903215,2.0144194451590285,2.089348452810131,1.9665082850296138,2.1432326303409046,2.039591007749574,1.987342572346371,2.010920192326004,2.190534170507965,2.0844421289419035,1.9623497322786916,1.9537379623980857,2.170582539026817,2.025451346827267,2.027390504398897,2.212243034269205,2.010733749362164,2.122784132163149,2.3817854775613236,2.233982763874811,1.9648903351389624,2.0421522693667593
2.1560387426553533,2.057473325637848,1.996839234351471,2.149324851093942,2.0551280931301203,1.9371418202686599,2.2282265419289358,1.8749879058703227,1.813552108946851,2.094091570761188,1.9238309429467226,1.9576191889935186,1.8837087136748696,1.9896759374083484,1.8899666461769504,1.847633484163634,1.769397838244721,1.8060256044617748,1.8520942398515332,2.0691080709440057,1.6740203321341887,1.9120998366257618,1.9492403461075871,2.0757764305366178,1.832843180145683,2.0547412384500454,2.2773422927914706,1.7592637007857546,2.1597910531120426,2.2023859933970806,1.9926895284356805,2.10140600187731
2.1115477225754766,2.045495502874689,1.9283120112949976,2.2323625407239116,2.115171028173818,2.1633738117493064,2.2079897194627716,2.167349885131278,2.1069171283163963,2.0858651140393345,1.975760272731734,1.9805196687184088,1.9359883311946355,1.8860992149828648,1.95265000401616,1.7909878384890616,1.7953982511845414,1.8637245018070085,1.801546057498776,2.2715638734974712,1.8296412614448667,1.9010374061300395,2.1251290640218077,1.843865241955686,1.849659713807825,1.896349929237316,1.9800365595778402,1.9484807200547796,1.8865799119243438,2.1174193764519047,1.8183830649275017,2.0393803059152513
2.127371487283207,2.2698565784229934,2.1035603936621947,2.3957619018382035,1.7588503578678436,2.1460470848742155,1.952067276586358,1.928434478675015,2.37400279001706,2.0003656872523896,1.920850961656021,1.951643859130944,2.0669833982920296,1.9161180347317652,1.9566496655606886,1.9388501661073618,2.061702727347401,2.0226628610888864,1.98192193127926,1.9860679791459548,1.791727962962418,1.8827640753752275,1.978606309490938,1.924367182551134,1.8140281442991455,1.9016610099650029,1.9972158450008308,1.8889424653387046,1.8117945513586393,1.9409174468450912,1.7950095412467386,1.8814880786148274
2.149670791369945,2.0755502134122374,1.9287849360405334,2.020239420197462,1.7558739676912842,2.1220709695680826,1.8897820700917982,1.880656036245219,2.1315035451007387,2.122593794688338,1.954910823422404,2.0173309628151834,1.9954108217035593,1.8934189473212535,2.0233259745708256,2.082408108205637,1.8213250231632054,1.842867047081134,1.818023712761315,2.0437151442688695,1.9300059753665513,1.8196913270079997,1.8371740813445716,1.954156387197013,1.8214499245707383,2.167712634609712,2.3504117579604626,1.9332074453122299,2.2005866040790556,2.288091508272358,2.0139272517594655,2.1269438498711293
2.157391615989617,2.2091943962766813,1.7740609560266418,2.127552925046113,2.0942097058781113,2.2236836594169453,1.8621737293041658,1.6970959255679436,1.7568822171722085,1.871810695261547,2.0408443652308,1.8477654076954646,1.9924423490493495,1.8598153110184594,2.013497441809724,1.9615932401932412,1.8647553811539572,1.820115135352227,1.9742589348607722,2.0112626812302317,1.8739391097123628,1.9557581272950662,1.904619379524363,1.8858981551474623,2.1094488612032665,2.042748200302102,2.2146518356817397,1.9332548380194716,2.237816142265916,2.387131808699241,2.1829859302070886,1.9398231417668332
2.226997402172582,2.113754222142554,1.896379914157766,2.430124243722936,2.045287379210502,1.8608991073017263,2.151983236894689,2.0807591584895744,1.956870253016242,2.129162703215958,1.7389323755421542,1.8922239472280413,2.057444205319811,1.8285648780156716,1.871666827635271,1.8001443619826147,1.7793247604482016,1.9242914949522867,2.1627414027913536,2.0826920431844873,1.8792248336106474,2.129293086527217,2.3038595951848833,1.9951181607418322,2.0342915740605614,2.2338555530938713,2.1682695316287868,2.0453836051379137,2.238960823850344,2.3834426430695452,2.170302299621599,2.0518461734600435
2.3274380355803057,1.8893964651667328,2.16441175704653,2.153278434649315,2.102235229128933,2.216897720478809,2.4716696795347883,2.276800634163325,1.9416684280415362,2.385429791019346,2.034495020331597,1.940894023232141,1.8328550475304237,1.974985831737425,2.07486679204709,1.9244378235343038,2.089221955756666,2.1512038234393676,2.090291972259118,2.35528100070718,2.0396533357921784,2.12740270876489,2.2687924164245885,2.4137570890677242,2.193340029647993,2.0891300734565608,2.0430422204023615,1.9224258484662329,2.058813783023792,2.252822445359611,2.033704226263008,2.017747782769426
2.0122116764558227,1.966789542879728,2.003411950094268,1.8767397765814695,2.0075724321419304,2.2126288521508815,2.0990687885407997,1.8910979641534154,2.0024839272236563,1.9934010246391738,1.9093373350177887,1.9629736001400453,2.0795030776452497,1.9393486132274462,1.9352231699222626,1.9314932664546496,2.0069643152333994,2.121837616843855,2.135087064306144,2.2936136366115703,2.1183881455721174,2.279739838902499,1.9859710597710671,2.250805250257417,2.0194415978046925,1.9857679090834297,2.2000004934290556,2.133084051530991,2.243990704631039,2.3738346824556165,2.037490671543134,2.1488568312036844
2.340749621863233,2.1677290304029384,2.2545811945217875,2.032197555429585,2.079442925906409,2.2042828339781098,2.0583710520756804,2.159807947661798,1.8336674174645637,2.233894673762245,1.9175568709167579,2.0527572251780444,2.159655409691432,2.1647800630559573,2.03296869860134,2.072067794980672,2.0587576316069582,1.9331929553605542,2.0585460873043906,2.1753666621287358,2.127665955960818,2.212520981780626,2.2111706724380054,2.4423192462218157,1.9002004366074206,2.1235598981403965,2.114924123316705,1.9875820997710338,2.315893315889992,2.1352267804662497,1.837561578076129,2.1644837555942384
2.3223690374392096,2.0763871125633986,1.9341166558189962,2.1668840014406046,1.9294205566693798,2.153690551578439,2.078822929389444,2.278085404903509,1.8336964941855916,2.141625081101476,2.013544254586377,1.7553423247732889,1.858349006103348,1.765157257616587,1.8571398481144838,2.0684576699391175,1.97307141994575,1.8270056051631016,1.8883343696626758,2.1901410300079878,1.9044705394402388,1.8627851939112265,2.1156645940525336,2.130686665916068,1.8868787902797255,1.860571829431577,2.04739056703907,1.9712149999498083,2.1272087782539058,2.2644726556504606,2.0226958610052255,1.9127892070684245
2.3096462598176237,2.374683932394966,1.8940951711265999,2.413888845508553,1.7264110633581067,2.0169739522827244,2.0133813132470664,2.0328206010649263,1.9697769779123653,2.0850335444328234,1.997172682512344,1.9023507433699018,1.9281253763328028,1.9446453625122821,1.9891781850876598,1.9853972472388588,1.9350982914553863,1.9529260428008208,1.9719661076151627,2.0489894107130087,1.8731099702623468,1.8970473198574058,1.928388752307936,2.1415159817255893,1.8310584812613586,1.7155034568993375,1.8696078544047665,1.8562091500024287,2.1679820828453322,2.09798972969318,1.993696676275326,2.017605925998243
2.3802022689742195,2.345402771341173,2.058784979173955,2.1595151247821494,1.725884313359657,1.865739123125173,1.9016492261932276,1.743726859541166,2.0916070952792345,2.223410564659407,1.9515902625489787,2.1245040357172096,1.8531200831053627,1.913871650727647,1.9184328914818172,2.0016399087843464,1.8502711755475718,1.852073778952714,2.093154575154001,2.2826328162038885,2.1419323848699556,2.033397329272663,1.8870013403349937,2.1334930266800036,1.9887153253010088,2.05426974187452,2.3981357898379323,2.22357459627441,2.2673605188654986,2.1141122806114767,2.0385891960916864,1.9165928361826636
2.1726265202505948,2.3949789653893236,1.7692114569014679,2.037484050656987,1.7656165579830674,1.687646591056998,1.8242149790415187,1.592505079518749,2.241488974967606,2.258995727965304,1.7860685031073147,2.1231958473450465,1.7855286885255066,1.9373612633576003,1.9197858799227405,1.8822925533306432,1.8761126203879435,1.8952657869097729,2.09090667964712,2.029527632279216,1.9813301568763335,1.9774679376936275,1.8817911140348922,2.0508112972572174,1.9787265023948337,1.7951021996733048,2.1972244710110687,2.1103825902903317,2.2742243332548493,2.133649417915685,2.0081593603008723,1.9974437257452917
2.387144084433841,2.231078803697672,2.0892269226059894,2.460568813412062,1.6466114745500007,2.1458485611613893,2.070985637878858,1.7862445512643657,2.09032745710187,2.169965566150618,2.1782613434380824,2.17719421329422,2.033616297923824,1.955878818991897,2.1403383514972596,2.14143212927452,1.957699161296938,1.931137917798688,2.231600069371664,2.3928090835395612,2.2108521234457457,2.2039615211151045,2.03025751656,2.2903950195445866,1.8646784003081185,1.9600403198226755,2.2202290779793024,2.214090909079077,2.334295602556676,1.9884789549675046,1.9872547636724236,2.071234357277455
2.3003489489887667,2.5148735072142467,2.087464180356422,2.5006994155269853,2.0572007179547627,1.9246811381354818,2.1708217018537352,2.2308579551325707,2.0637864423620003,2.431103672240256,2.075106336387721,1.9366367827689368,2.1692397113826045,2.116638567573663,1.954710688421038,1.8932367152815457,1.7744718098008543,1.8456786617113723,2.215264530214673,2.050746490080715,2.0741798352891463,2.2150755863765026,1.8294055518140855,2.37874315241152,2.064923807734621,1.9281849418863442,2.261632460083433,2.0847069064409176,2.334390484119694,2.2960100257848417,2.198744177804276,1.7678288942936533
2.076446550889624,2.029614889307859,1.7718981656232793,1.942237339524039,1.9909890594435642,2.208107332676975,2.2567705808595075,1.9817438371944978,2.0403666625671018,2.2691525150133733,2.1852337412222407,2.039392797487962,2.1778928692097144,2.1283033545821066,2.2059688577187706,1.8960795877931678,2.019367746322336,2.23982186024792,2.393254461379332,2.3121443519351055,2.2028798401596865,2.0473611578440343,1.8642732390102597,1.9444711259296383,1.9268999744879522,1.8807153406759916,1.850006295752147,1.9098909467205434,2.1685879996818866,2.180243419954992,1.9463240269972668,1.7666450266962213
2.224782747276069,2.2815040378658473,1.9211075168056388,2.105349562036468,2.1590881476018393,1.9384135723908273,1.9623301276116139,1.8198137735817959,1.8096668846152701,1.9641156233641732,2.012115497232854,1.737423773040347,1.9997705006493514,1.8161536920967163,1.7288697291068964,1.8505163543926477,1.976440448451577,1.9892650892698174,2.1802173380223957,2.3226078445212255,2.4415532308144723,2.115449154714542,1.9915696894691917,2.1608023068280944,2.3406085967840715,1.9395813204745176,2.1351928620214826,2.0165231435251973,2.5051167630711366,2.1983250253912843,2.0636887392957948,1.938363934299798
2.150105706395668,2.1675911117013653,1.966619000772561,2.007178128432025,2.2265881197815967,2.139220959919423,2.281083101979251,1.9558909883436946,1.9072714648438414,2.1147496224563254,1.8734839874514404,1.9042278798947643,1.96046223949876,1.8990073929716145,1.901574864978899,1.7647326993866486,1.953320237774368,1.8784939938388383,1.9707619247356387,2.184418559700847,1.951660019167366,1.8636531516635428,1.979088036434955,1.9609569829969524,1.9135405225465936,1.8165952467801236,2.3237398600123673,1.9031610324441892,2.238102464750962,2.273442756327323,2.3225708512941687,1.6751112906843222
2.187206368220747,2.1995777121855964,2.028662071939402,2.0858358700965645,1.7862621206805527,2.2357740007432074,2.139680402569859,1.8588121955664554,1.6165097977023755,1.9872075488583987,1.7347724257217638,1.683634014661404,1.6700824990311385,1.6552218583522496,1.6514718273447124,1.636009775219166,1.6471489390833605,1.6214200317271041,1.9700705863369827,1.9736405364142375,1.8185809370600132,1.8239067619922724,2.0920735418308394,2.15901887081876,2.139050650612954,1.8145091488267084,1.8951110968443095,1.9285995410966053,2.2801178769858867,1.9229053731203773,1.9412134987984346,1.966594959690289
2.3630230297202828,2.4117104316139657,2.01820954257874,2.1608455333211305,2.1333752528707266,2.1755511205138256,2.2953527007022387,2.0507348086249544,1.7445058533230506,2.063786511511326,1.8759772307503386,1.8428262408690275,1.916086736986092,1.780656867654129,1.831495069925635,1.8134282964887307,1.8643504638466484,1.8189649319233943,2.0825781739110187,2.052337366686567,2.1383872210817927,2.1661638792804023,2.0441426517786536,2.0014381226926066,2.138914521257092,2.0277861254406715,2.190483106577314,2.0963165413970044,2.27611474679507,2.408777664153359,2.0641531757796785,2.092350208205573
2.2960741738529165,2.328116051726776,1.9824722021072736,2.2956292612283415,2.145071376367653,2.0467912882553287,2.1675071954707708,2.354450703694244,2.003280055223854,2.2137987452717507,1.9732103207871539,2.3583662039384605,2.0677054595201056,2.1595719610546,2.138350922962752,2.2218875485411558,2.0734227471280615,2.1756256783497654,1.9045417505306348,2.0653119236054183,1.871096289003394,1.836281379828058,1.7365871279599718,1.7928035815013965,1.8201890066042727,2.0854688402017763,1.7315267096992217,1.808868865149543,2.025417370926306,2.1413295309289735,2.1884182358302358,2.0892711467331546
2.2084375483544223,2.34527400350092,2.1299953806053065,2.27911196073037,2.2213038651604036,2.139113864610601,2.040125350890955,2.086670958486172,1.9916100659999205,2.05904765001546,1.7883914283811055,2.0004894696512308,1.959998355052662,2.068162997637654,1.936721413180918,2.054867177717933,2.1760627113012996,2.200205510760121,2.1869785788997187,2.115219800974405,2.2800618599627445,2.1637819359182764,1.9545705155894324,2.0775203676880913,2.106376440266407,2.2775981339845943,2.023012256851872,1.9540293056044298,2.351887928782082,2.1980807009803494,2.2775070243577247,1.943280455050559
2.1135682626325645,2.3142282705975363,2.0096627648904404,2.19473523531899,2.02229733287358,1.973260740047684,1.9379566666102022,1.703533805536373,1.8060202173505175,2.070708142175712,1.947712418560126,1.8135397720392024,1.820004653542108,1.9249916518322299,1.9271967991671266,1.944393972426902,1.9934168032138222,2.0518588230782084,1.8141535779813434,2.0336583951006078,2.1228213380843792,1.7792297103710568,2.1494237915437617,2.1838714340241676,2.3459480230088894,1.9653721430354338,1.6420325683348238,2.196001986271494,2.3113561712287742,2.028184318671133,2.0929271250212524,2.1891514726733234
1.8390749426329132,1.8028218115006664,2.1191345258045704,2.0294858110380383,1.7178010056903446,2.109977449573256,2.295729141016846,1.853335461524382,1.9163218455599271,2.1901987723527125,2.1815243053037006,2.0198746735942166,1.8678734064996148,2.017388750400171,2.201601383745074,2.002383726369942,2.0276525298832437,1.8971447560482928,1.824987282638317,1.9664663140700533,1.8391017674980026,2.023651961830525,1.87787012309046,2.0178888906521637,1.8526786739138374,1.802162148160534,1.8497124864293426,1.866221385385923,2.2820855472661954,1.7704588190830979,1.9558689754990048,1.9764501457471406
1.779082085385022,1.8494255076150354,1.8892551607864436,2.0011970288606182,1.722327701500708,2.1419888779842617,2.035924000765987,2.0557237439218636,1.6579664829023606,2.0433625238830326,1.7379217615471976,1.7538637648113058,1.7718671208768184,1.6175448108901282,1.6897907377582624,1.6539777020562219,1.6678971517403711,1.7187699730054298,1.8067938780078916,2.1150172291690392,1.8643428435520566,1.7460056924008032,1.8588985934269198,1.9615823008473932,1.8372379026785606,2.087096686394002,2.236838956302494,1.8816202384871423,2.233488103116421,1.695111139854201,1.848735870596976,2.054680028130716
1.8226378604998061,1.9421452027258355,1.8757719848852412,1.8309538182893446,1.9430376103917952,1.9899271410886636,2.176412611651566,2.049344233591134,1.9625661609068101,2.068357312314609,1.8183755834726285,1.8924110720871237,1.851878750880036,1.7816598198478644,1.7622014573638636,1.7576922571947722,1.7972648993493379,1.814417181527151,1.853166000391882,2.1293421668818593,1.8485022450768973,1.779141874272348,1.9019083369879435,1.813726045607687,1.756500011176372,1.9762866167368618,2.20148986066057,1.607476357365748,2.24544766108296,1.8983604379172383,1.965147547196134,2.2425309854399287
2.2223843960371097,2.397633301799948,1.7704352384711237,2.5898012339286263,2.306517335006336,1.8495659638565243,1.7858613041337654,2.082706367870271,1.8980761658930039,2.067362987687951,1.6789590810009056,1.8609254698309294,1.7492539297730159,1.9678472840092602,1.783779911058645,1.784817891798737,1.7136470547740736,1.8347995387040792,1.890064985344054,2.1061832487075165,2.138120918558671,1.8716064539122748,2.084166803303443,2.14667221217717,2.294715817469701,2.0616351845138827,2.352575287202607,2.166804249766477,2.2302477744144737,2.181347131623508,2.434734669795932,1.8430625873986504
2.091297477753199,2.4700267463916834,2.0634933057896854,2.3246047688524647,2.293708010590705,2.2241967269016603,2.19088622198885,1.852913506505594,1.8753870887242814,2.1491993449775633,2.0041181943201183,2.071785833456911,1.6958956310679114,1.908161340376382,1.9058774182839284,1.734141205643955,1.7154154329716156,1.6256429667618124,1.9158163965470631,2.1032002175103384,2.0509833659981576,1.9901360788551634,2.187535976275899,2.2140205685830057,2.1756510791380728,2.390739656697837,1.9504940975715694,2.2191833285134925,2.315910732760352,2.130663489385265,2.380020616272711,1.815978674887552
2.468013864611882,2.1624591424862967,2.2072616940899805,2.1660003225929265,1.9909655833605984,2.383870551954894,2.2366052291575236,2.0717819549462364,1.878632938810838,2.315244286428819,2.236908122206899,1.9538620871926022,1.8293556599412373,1.8935334597055034,1.9423799318334982,1.840169878277691,1.773069378417855,1.7712197508585728,1.9800347937439953,2.3056728892433482,2.1024503843264783,1.9722196437275292,2.172054563764929,2.1132067798080674,2.194883156026667,1.8223494389241797,2.2071348484255364,2.089348658901402,2.4083857558054524,2.3506512132540864,1.8395308029611126,2.1470822114885815
2.163127019103045,1.8650258424330823,2.0077115063274045,2.2281056430909367,1.8817119236867272,2.1021776039846576,1.9356179135566163,2.18949768487117,1.8845307197865078,1.9798773169405097,2.0727152119313943,1.9636211543887472,1.9741538343027987,1.887922517562467,1.9276334011618255,1.847668847446448,2.0541043106578134,2.00780667170375,2.138584934774305,2.274670026634281,2.0745678114348753,1.9329223335565704,1.8925309170577194,2.1502804245148153,2.1850710442639962,2.067017871314729,2.0549181295377155,2.2466287501173556,2.3848250106589997,1.8761242048639497,1.6182575422875738,1.750058416125102
2.1930761336388502,1.997784342439884,1.8479538837792246,1.9892365800050167,2.1483080501470306,1.8650134065963726,2.3051267053207525,2.083242922560698,1.8602096349141835,1.9396434404690255,2.1524550477947617,2.218558931522521,1.8798601717305214,2.016955791949619,1.9500301149168424,1.9083346454370653,2.0230275751787743,1.9723748816758657,1.9743951957258532,2.2349135219954026,2.139596512088259,1.723249969001357,1.905926971756297,2.160316623706491,2.0020183536051297,2.2687167574541856,1.9664925688594361,2.0267158305925177,2.313277865260616,2.1464920158454035,1.8747974671194085,1.7041986466069845
2.3105725484133073,2.17083615862928,1.7157946651903586,2.2442591237756595,2.358493830658,1.871914056423321,2.119528379188249,1.938822312996691,2.075127148012031,1.9842499098637973,1.975580271351413,2.168505420612479,1.8849389543876742,2.0541984188585287,1.9614501387104977,2.128764384325654,2.110248198590298,2.106107384715633,2.1270734041887627,2.067527441280324,2.126417883375376,1.862735091034467,1.973373728757768,2.2447442984916863,2.054756726565745,2.1519915963514236,2.061035003704092,1.9851650271217458,2.082109558326253,1.9931116473866035,2.165403487537543,2.1117331030276816
2.0715961417343904,2.06735888023696,1.9881724103258136,2.049936827788893,2.05482333874311,2.0480981862999084,2.1387835663031276,1.8430276639996965,1.9372425471692185,2.29247320566777,2.0613460003149977,1.9118896940794436,1.8412731754535598,1.8535485967304726,1.9436395550175074,1.9856241969267907,1.882970674189499,1.8266195570115626,1.9627195855958237,2.3316251276656597,2.0372412628085113,1.9256027178595285,2.050545806033272,2.1122697810876483,2.0709782092384668,2.0725387225781278,2.128800843672267,2.015984995037975,2.5729428732337496,1.9667186198831033,2.1087553122458984,2.257727011272157
1.9650315505585212,2.0062808206274982,2.1779331420263004,1.9889375613855704,2.0891667337633404,2.1227221182231957,2.0746091788506282,1.9376098432483035,2.0238576679413103,2.2814515040658563,2.032561039597118,2.110317214412088,2.165790717977304,2.08793587250173,2.119037809870325,2.158556931176309,2.150305291622781,2.0085594890039635,2.395366725260084,2.077864250299919,2.132058474474342,2.286796533898681,2.095124027780972,2.2182251660537244,2.202865559479157,2.390185453025469,1.9730087283993163,2.0605215989989363,2.4414667580236844,1.9118329964053216,2.016303629404361,2.2180267321548173
2.07486934916219,2.3200484114606112,2.098961103279085,1.993376451687368,2.060919465613047,1.9825070313570166,2.1534150850367872,1.9421353368134826,1.8691526798601172,1.997065062271044,2.030286138263614,2.02202680907277,2.0353351152380648,2.0134465859273867,2.0926683994499333,1.9707228176059262,2.0206800304784895,1.8209765733454124,2.057974396243219,2.2412260941305733,2.2097003947051372,2.116548404230883,2.028987666924316,2.216862180992327,2.29341015019626,2.0887031895526396,2.3181954997719836,2.057785979789281,2.295129246308686,2.265389621227172,2.271236695523138,2.03150882859906
2.0559428081439135,2.1755342211151873,1.6541492994911327,2.210238062249635,1.8600186032416839,1.9322829634801149,2.0243389929285804,1.963036932741177,1.8398329597388803,1.8950032612929357,1.9759667437640205,1.8591298140761634,2.0095038242128567,1.8872117669300665,2.0411309901303296,1.991573872365364,2.067843299821497,1.9754466486772828,2.0159024099539193,2.1034271044741204,2.2852476111703686,2.094589449999857,2.2503156000493436,2.351045286283834,2.5272097125462714,2.2502626180809924,2.0082141239189206,2.182921208993507,2.5625557057142374,2.1655606177431412,2.2223178969783026,2.2666863557774115
2.0236613267745542,1.877288784423827,1.8971249255506148,2.402561600352852,2.028849987904237,1.9126177328144949,2.212472688521168,2.4683776336588297,2.1833615817677416,2.020882451703193,1.8990636506802727,1.8562343069348821,2.108689365626487,1.78359543329832,1.7885652026197982,1.760342634737515,1.709933010922124,1.723533104636052,2.0544023114094503,2.2351830901642384,2.1969214624243274,2.1252352929156535,2.1496852827657476,2.344349039975115,2.0667001766950865,2.389217522115616,2.352797165055304,1.9297428711549494,2.33133995375483,1.9852400248412247,2.1386117424529765,1.9498472782624816
2.0869663167289216,2.111128154766104,1.8337447086819754,2.4622150038070205,2.1552832599964336,2.1186748853203685,2.208060778367287,2.051431096764616,2.345633881062899,2.143153922744332,2.0283818460970497,2.1906180703980187,1.975141447821954,1.942977255607869,1.8820397775443345,1.8306895829164749,1.7323890806048914,1.8093270494560454,1.9240984196714945,1.933916166238056,1.9817479742476287,1.7977413682707999,2.1236883911523137,2.188884096796299,2.070410383190422,2.3873984418944922,2.1941474144653657,1.968406990761315,2.6129310510946384,2.231669212952307,2.487478132708559,2.1920148876422543
2.1971322626363508,2.2472513243091607,1.8612066357648183,2.2504431018809945,2.217555414479967,1.8855922993443988,2.0058786320908957,2.2043259164335383,2.4178860693280226,2.059535061434459,2.1242273210838603,2.2168720292854664,2.3246431413454514,2.0125874257508127,2.204398382586606,1.9597872317038547,2.1820105064418276,2.085790052170784,2.2081475563995694,2.1410712361175785,2.2712742160744543,1.9791809726686485,2.152003841636935,2.2336447395922745,2.310008737282006,2.2016052200480094,2.2881282417977022,2.217070491466214,2.5602175376383043,2.1824306405146485,2.246328033094375,2.0551345662744698
2.1018185707881223,2.0794656547529593,1.83471214179418,2.019747087354315,2.0211089406401834,2.1121150568122595,2.072202601495059,1.8561390813930987,2.2277870303465006,1.995105902055186,1.9994499617474228,2.2041944140125027,2.1464515588359934,1.741519606821413,1.7968443132981549,1.7220485098629648,1.8293266053013273,1.8118507398898076,1.9023739944102607,2.1374483256096526,1.8934153953522297,2.228346743372837,2.078526533060548,2.3709471683641756,2.2449784746379837,1.867164117236252,2.251227151307793,2.011575296344527,2.0073710141468113,2.105932515007471,1.901135214384884,1.9854580859737594
2.019365380294443,1.9117997534595013,2.0139206498667934,2.1540168428979,1.938403542097851,2.124994484738236,1.987085662944021,1.9930605909674521,2.107529621806423,1.9147492861596578,2.1513474587565855,2.1292811948064125,2.2785383534211476,2.0624838728269874,2.026112869688936,1.7438553805708072,1.7697083490089704,1.9020175396169525,2.140948753675298,2.0673090925053486,2.1454714030770834,2.239133397926799,2.0377127581791052,2.515799315456593,2.299484765048358,1.9081690866381376,1.8285425856151933,2.4036977819971588,1.9805184257823838,1.9292710740961763,1.7723922180109248,2.4154162486654487
2.085349772490194,2.2885183492666425,2.1371821267981956,2.0519696181256704,2.2524599571923862,2.1368570220723897,2.228154304400489,1.9677547653397123,2.3026684186320012,2.075837020483771,2.009917561403734,2.0333543405132515,1.8868954026432165,2.0282592201247347,1.9357405885984738,2.0891228619023967,1.8793205810323859,1.8167602613269704,2.072512735538347,2.200222171184602,2.2954289171227393,2.0998485241722626,2.0451926369158087,2.4793957949810657,2.2226839429235064,2.068320244960087,2.2693633300758393,1.9723482494208642,2.001890010515001,2.2046008255640324,2.157083675329923,2.189783183847383
2.2073028653787357,2.005111121607444,1.9278152965072106,2.21565508762611,1.9552782372164097,2.135938360616709,2.2403224740032726,2.283449003408819,2.060115253531138,2.1780722246060793,2.226810735529818,2.1547257871188856,2.14219294407976,2.188418344983609,2.282525002950273,2.017039512586846,2.211635327037276,2.226651412142495,2.2629012778037922,2.1993189950038,2.4389934885296136,2.10855274452301,2.1903940298348714,2.216368233873952,2.4000303620791277,2.006539978700262,2.2260806540293085,2.069903196455278,2.2315038668220346,2.1890991239354167,2.060555220650215,1.9656167176868482
1.902342030644619,1.7562226719921286,1.7322538577664999,2.0780674221582447,1.9125827879194053,2.1298103685257006,2.1920826503305504,2.1931442397319967,2.1753604777660183,2.0567551004905154,2.1313857596926367,2.0558057519808512,2.0320932685154602,2.2232676796397985,2.291893932468076,2.039949089330809,2.0419854607622256,2.061124225030675,2.2953654105372387,2.21005244150722,2.3049903908038507,1.9791853844794822,2.29831032460351,2.088482320866601,2.0624493491711378,2.0072372013686586,1.9558514901397368,1.9572550592491318,2.1064839768525676,1.9210408382614934,1.971488991444696,2.0122642730555333
2.2495691489301475,2.109418116483555,1.967895915657826,2.1711035276965243,1.953255993557008,2.2358256183297818,2.2799216463188436,2.14621907839699,1.9103546872885209,2.0734310464768657,1.953223492650586,1.8665939855837268,2.052200989558225,1.9744002410041714,1.942111390982957,1.8009218869662234,2.109218356427586,1.9618108256029154,2.0135657607626185,2.0940173458555935,2.017856552626576,1.9978888004746507,2.045284158104771,2.2775913594438353,2.300596190693197,1.9003727048261432,2.0384886626926613,2.040388796927817,2.5139791041785746,2.00880744575341,1.9567145783595319,2.1258798200283153
1.4675426939011083,1.4145100786626335,1.4272684535637234,1.4599968028149042,1.6136770736958435,1.6586193256268722,1.8562655442725025,1.787415236267023,1.8546535555872745,2.196690254920061,1.9339494364894512,1.7640476110664118,1.6617568994726044,1.6911235388854884,1.7848522724602374,1.5665594745428721,1.6735476329937444,1.8401471511475591,1.7785047161608996,1.9383673773910197,1.969734541704568,1.7616466917628295,1.956029520778133,1.9953411766367433,1.9967702434588097,1.8681330425615463,2.3102511426422816,1.5378404739954719,1.9728696351920163,1.6805949406912202,1.6428397141400484,1.9509070238206356
1.5639149967343666,1.5687052556666718,1.4436381195134271,1.5297632184685266,1.820129433879959,1.6785022223647377,2.257811551166389,1.9823891139576149,1.8872671900979148,2.217233728371179,1.8978069855963686,1.8592985391318804,1.8253515707779653,1.7607085823744295,1.7019484830342593,1.6869803176665283,1.6771040430125845,1.6593327975613386,1.7126859292694199,1.9358201551212932,1.8150842278956376,1.8261838960468812,1.6073064525460035,2.0033604948996353,1.655306746355428,1.7910606237582294,1.9381483657313674,1.4753987299939848,2.4811865152224137,1.810594052720965,1.7886781690064755,1.8899822694471067
1.5184779827180417,1.4690432321982112,1.3652657783890985,1.5283944647976513,1.5712157664092172,1.5854144295720705,1.9536396854955658,1.8509999651730213,1.699090605104708,2.2010138894434754,1.8084002548687426,1.6454473999783181,1.6247200140025329,1.6864096523068843,1.6738533988650466,1.61348116636853,1.5935960588560742,1.6475081825897055,1.6405677157907135,1.890158079665415,1.7142281254920473,1.5677113454783658,1.656791488032396,1.8911401248731434,1.762679625320485,1.8419981051678662,2.007495183044065,1.4903320967073088,2.4737654619943155,1.74033438630472,1.6764756100065956,1.921810736886307
1.470298602528791,1.445615411235197,1.3518181295302267,1.507803056295847,1.5157932139747283,1.58658502885136,2.000222524167759,1.9262973822770642,1.7073100792752889,1.9482765045638517,1.6551409038920508,1.7204716695839073,1.6324865373066524,1.676589439273927,1.5722334875462163,1.5359154922252058,1.5472652656028216,1.5696516197581867,1.6293347453211997,1.879876513335511,1.6571872679764714,1.5818785550074936,1.6351706218351956,1.6940477848246958,1.7298254958720283,1.9496188426141892,1.9507636195006777,1.4338995585173864,2.2660102635691364,1.6180625372470425,1.6582270623830393,2.006172455132378
1.6443147486423346,1.6525383604227046,1.5009175421402194,1.6502185850680176,1.6863982054488629,1.7777319879296825,2.386477185457776,2.2177058965736847,1.6733496358403699,1.8993530216235586,1.6342033974477774,1.6132777725628686,1.5776241949904866,1.6755937540118633,1.5725456700030849,1.5509136724437962,1.5330872340701416,1.6343387094403412,1.5825622822322907,1.7780411051811238,1.6307706652850316,1.5883474674576086,1.6783843585348093,1.7807371287753133,1.934007194917124,2.194301339646258,2.278969017440029,1.5670949803977663,2.327844361257266,1.7772867110465196,1.8177212258757522,1.828234559057588
2.163288374673019,2.1854059470658,2.0074263125136453,2.3889886737762605,1.956363496264991,2.0858771053990908,1.967872908064278,1.955829906198289,1.818179267804217,1.7540614359708888,1.663783715394762,1.6672889879423265,1.751670563319101,1.6237351414018362,1.6244996362274486,1.6668044320232378,1.5705301426119056,1.7151030167338643,1.737986239711243,1.871291851993786,1.9013915157929542,1.9091259403471934,1.7934827681206371,2.300764263212503,1.9021555878106262,1.9457892564568418,2.2170418575480846,1.9121888887682852,2.509902947243094,2.4738684791039502,2.2529380213201917,1.870143231199842
2.2383831291054723,2.2061481622182724,1.924949021202592,2.036901545485778,2.0527677569000384,1.9553375329451976,2.2746736219793835,1.8432397939280902,1.9424353220134494,2.165112679938555,1.9069679120769987,1.7784343943097987,2.03120841650403,1.759734493446435,1.7537608613288953,1.8724712227721383,1.7489945222593322,1.9603848218219975,1.9962891504081532,2.11225620399048,1.452640649879033,1.9812055115698721,1.7417354602548538,2.56193600549903,2.274150588267004,1.9482818404051734,2.065838915204795,2.021082555367415,2.3816981678159777,2.246561711539986,2.301426045103184,1.9677488653077142
2.1408624614229277,2.225941100906184,2.038318284150097,2.468922691926276,2.1219117208139444,2.062929154239392,2.274241966583044,1.9280729964973402,2.1116565393178934,2.236058003949131,2.1242012780990494,2.133291233557571,2.0309989690131673,2.013462623906446,1.8643110633157616,1.842687050623121,1.7889537851920339,1.7866575433213632,1.874844976304751,2.0795684123672737,1.4760432371654957,1.9694442917141624,1.7431769706217617,2.499423064488929,2.22228829820604,2.099425015177103,2.1321062736798613,2.040457579942913,1.987679471375646,2.033376599212085,2.15987262106656,1.9859806546068237
2.0679434061269992,2.118150012906508,1.783090164564366,1.9548498510968786,1.7183954793290057,1.9881643191627192,2.31319629028233,2.127876967391349,1.717819128759636,2.137290806490752,1.8721619398976608,1.8069140739810594,1.7736570208983602,1.8489719816532284,1.8592789725066237,1.9667322924456878,2.070674886980852,1.8764810723454504,1.9080552440383205,1.9460243687205347,1.5281001216908014,1.8694607338955935,1.6759061125103758,2.2606613903888766,2.4935434488709323,1.7947027428779916,1.9493782422057597,1.9078795286521426,1.900440789735506,2.08057473690701,1.8179117084232619,1.924278658384629
2.118849676159829,2.2617093234901096,1.8704702402607434,2.3079815864517985,1.8360420373039823,2.071599750519698,2.155380887585226,2.1155403258425847,2.0788127575519906,2.332636015659036,2.031574977524708,2.153200258317944,1.9947646048080687,2.17012173155652,2.0000103714769684,2.0106019073963446,2.023739625730877,1.8850721343636643,2.0745905342402056,1.9532715228683952,1.870730326259189,1.8210191072998714,1.9382848254897145,2.162116859216198,2.524497485834245,1.9772668588433382,1.9396741265379038,2.353009345898982,2.4950502957205813,2.1617670164977016,2.095890987304712,1.8647113121409171
2.543221582647724,2.1436060733747317,1.8356601168610487,2.1950041225970844,1.8621499640668167,2.08567197528768,2.208521555131799,1.9142237602790528,2.1778968824895215,2.1210580398910466,1.7479880453299108,1.9543726202199867,1.9930534793914623,1.840098114917415,1.6991345616493747,1.6929013339116985,1.6720797769084539,1.7568554578185192,1.7632089919145175,1.6727465606348193,1.753109578228755,1.7744648784561559,1.7136454470371554,1.8659832630235293,2.0929605991818727,1.9711995209648447,1.8601578249026576,1.9270603444852237,2.069318798011305,2.0715226408836545,1.9581722152150722,2.040059161636717
2.414714799387181,2.5799370861590356,1.8321036920654674,2.021509447457834,2.093181270770468,1.8843269178508737,2.2408729449111,1.7360464307598398,2.12239201492198,1.9115961724872266,1.9415144552998618,2.107616809661612,2.0389237482662836,2.1147285669938185,1.863348466876288,1.9212328617614531,2.0227986310987847,2.0542819573543323,2.16688603912594,1.875345567480888,1.9491303046339883,1.9771832825145044,2.1122985116628152,2.0097614901943235,2.375639783754995,2.0749948891540826,1.974048096507077,1.7700842125942637,2.1834063244645163,2.3128317303314283,2.0178681201453084,1.725271832995651
2.311208524026883,2.2204413948100696,1.7974851818503306,2.1143714528669943,2.0621793139672344,1.9829742754820927,2.0880172860057593,1.8784517326034118,2.0044668515474076,2.302627148297226,2.3572785891173904,2.058017404901217,1.9626241534111388,2.270836058899096,2.2284927253162317,1.9590606780820852,2.0263169866359454,1.92006741020873,2.291943013450463,2.033563800402378,2.033285417496278,1.95939099911443,2.015993505424813,2.368263021829165,2.1987916330694715,2.19584998013654,2.220847549745879,2.1534913341690265,2.2719389663911564,2.144743813520546,2.114124771278164,1.9290258783462002
2.423739987028575,2.1197887488851377,2.080242475276598,2.149611448982566,2.023862391228932,1.7943481672512285,2.3327797632722747,1.958547622423431,1.9379155533650372,2.1981869197360675,2.291103390837386,1.858227747976898,1.9188507810012998,2.1389703884158258,2.00355868767091,1.9559759494713598,2.131251405301485,1.8443551821336661,2.2671011170092865,2.021550563004877,2.237052233450702,2.299113926144588,2.0070648674730234,2.415471596234959,2.399252885974007,1.9651270521481334,2.057416355684816,1.918574338282473,2.189809679613162,2.4486057626026,2.335528526707731,2.0070208640219356
2.3227029871867844,2.035299013725279,1.7819046383843216,1.9189526866531477,1.7729900093883335,2.149123406462959,1.8815751003492498,1.9141724835910183,1.8041804508039585,2.1262982163522053,1.941492368584885,1.8038029390827977,1.9671003942757848,1.877742713084487,1.890431726499434,1.6913563222106236,1.876562206664935,1.8947275101823424,1.9280072990224828,2.0203612219852496,1.8868913398195621,1.9231468933102653,2.0766315171617777,2.0386599398839444,2.339018024505285,1.8583350238733651,2.11216087845487,1.8003428329535698,2.3736145366139443,2.1769541886617363,1.928774290596213,1.8544004023225518
1.9907621756099634,1.8307168687390691,1.8864889643166882,2.1348466304673432,2.044889596310417,1.9629488512138482,2.1396272532866996,1.9696784103540492,1.8831555785604404,1.96919688022459,2.019555644459091,1.829537810470531,2.088824971428139,1.8980764355955153,1.944320750803744,1.940023215364344,1.766169525901668,1.8652304790510963,2.166343364672573,1.979965143194641,1.8674198102253767,2.036594695819035,2.116576134068122,2.3421749307052595,2.217835703541588,2.0764968920820333,1.8882342329729411,2.077581249028419,2.2541362593826397,1.9593614759584337,1.845874448407476,1.8115444173629252
1.9223264396716762,1.9151001159974927,2.1984535310099673,2.172029185369371,2.11055006041982,1.9178072509493156,1.981593355263168,1.8730838693194536,1.9732763527765462,1.927276568023527,1.8187977241498552,1.9014426370942192,1.879078855253264,1.7411488075241133,1.7758184346348054,1.9463959834620537,1.706145938597958,1.707789979737238,1.857371579821158,1.9710795902106266,1.8864404432764499,2.097611072351605,2.067950232359252,2.2870909137861957,2.4695500051041073,1.6946836291588536,1.8602898349531851,1.9245864805546407,2.0403054319227176,1.8266561496086584,1.8310450094541535,1.8257205543532866
2.2708680806042287,2.3699958505398704,2.224122919200175,2.2976504274142466,2.1977470988845003,2.183938721647962,1.9657153522908326,1.8479782492727286,1.9252447426837123,2.072680194705482,1.7981440421696708,1.9381798527919138,2.118567022646604,2.1217283288887243,1.9362093097637598,1.847455978979543,1.8887417147704477,1.8674021183554461,1.9114194194847791,1.942710291658685,1.9968217658532244,1.811890531754123,2.1811147408720717,2.3623403197956088,2.307931797412518,2.1847750497529175,2.0010672018162556,1.9097537632471862,2.231553637293176,2.142218852024477,2.190749311968346,2.2522949793924076
2.0026453271605638,2.1087100083808665,2.199569121795678,2.1055132264773904,2.1909766478732604,2.155677138795505,1.8705104225821503,1.7868186415499994,1.9602260224959818,2.2018345748153223,1.7408521475741239,1.8305623724769033,1.984559282752673,1.7815444078313651,1.7566299732229342,1.9301036154141575,1.8582839730899845,1.7943633872050617,1.861377772210127,1.8532395288049561,2.175768733965472,2.015902865658107,2.1028766520684217,2.1037126440906135,2.0353538196864673,2.2700175759750953,2.158748798273116,1.763107698913439,2.1849489788907706,1.934483999118895,2.1338354055514297,2.0090351947441802
2.386166339090231,2.2346337523482704,2.27257407847788,2.1686541600269447,1.9371195362188793,2.028062055150157,2.1865074335592887,2.067335811999293,2.0769081245112355,2.21938011681772,1.9469442400077384,2.148744499272352,1.901285466578662,1.9627540813066247,1.8027797907923824,1.7479195001600856,1.6648540753669143,1.7177766999060187,1.7960844045307254,1.9702691291992305,2.0504999058226168,1.9405711107261214,2.189757099347721,2.3491910738240787,2.0998029637635325,2.04193499386332,2.084552086285193,2.0145291629601094,2.0194730101410707,2.2368215225784622,2.1820194051504185,1.9206628907264591
2.1763955637235886,2.282032400330481,1.9704304341687877,2.4674950166796474,2.0941062023689536,2.1184377478469156,2.096974941950728,1.8547827753475725,2.0141114405234073,1.8760272388133212,1.859808109809429,2.1370603816064673,2.0007110250195352,1.9987869392242572,1.995454200004536,1.8720222231281203,1.7339163168449148,1.8390183330621244,1.8806102909515645,2.0217819400649994,2.0575763310725197,1.8781927169472894,1.8114765127901475,1.995746792788498,2.1423111722791104,2.1566260707866576,2.169308637579331,1.8157399692675655,2.1404020341956964,2.291769091659513,2.1036327898226186,2.0190998192537037
2.1238000178020293,2.4541656875312214,1.7043399685438785,2.1247644022643666,1.960707608724789,1.8045807975595796,1.795837823237413,1.9323460135145099,2.074716058356469,2.0711247980907137,2.123986343483559,2.0247519326189285,2.166454710370138,1.9541999909678924,2.2173495951303295,2.053386484051039,1.996929360241145,2.157126353765842,2.1565195584146406,2.094830712858171,2.1236521289135473,1.9910591215136764,1.8600639365906995,2.0669519285427738,2.228381957961345,2.1964667775171796,2.120020943642942,2.0898658541649153,2.3336609359055718,2.0176025699598754,2.239695956527755,2.008126528909112
2.29877092864021,2.442002254614573,1.6489743028565325,2.154514415741759,1.9285667841289444,1.9355896303242808,1.7090417112731062,2.143609907252184,1.9514006428217843,2.090610220516858,1.8931058374293344,1.7863178189802469,2.1640071351329113,1.8615231663754204,1.892659815302961,1.7666781344756262,2.043203740716502,2.090730136771918,1.9887832644407337,1.863759047808299,1.876681369764189,2.073096982095678,2.041039317882665,2.0057136661171375,2.340428509746439,1.950654097458992,2.083118571004294,2.212159388433138,2.363120006769952,2.2603750504583946,2.1186057400133667,2.114963121734518
2.3070083113804873,2.198306313927568,2.000148927176184,2.1396050535193325,2.067745182695151,2.281498715427848,2.1005558387679053,1.8101330551822286,1.8731306839519033,1.9057685022969557,1.7613751990392568,1.7109597333961053,1.794915131462618,1.7193994317542636,1.7077795459696772,1.7105675429496228,1.7431386562406355,1.8407084140634553,1.8786131982918501,1.759397273029353,1.953650562009373,1.8590239315792045,1.8195418848634608,1.9581369630944918,2.1963215546975237,1.8912215291671315,2.207449946767482,2.0231482556387945,2.135016567402374,2.259515543818157,2.134754189973855,2.20481845147065
2.0655108663882515,2.3565723602392117,1.9405405714364632,1.8035486930643967,1.9693282609085614,1.9434833547956794,1.791241453798172,1.7572633499307604,1.8686418783847976,1.7487726083000061,1.5889672462222078,1.674641128570991,1.7662925984440723,1.7137037344792474,1.6720845297140783,1.6361498244545445,1.6865859256121374,1.7192771983719952,1.8699666112415774,1.749870780289825,1.9875385599510147,2.0643216111845897,2.1761660502653455,2.2308869778316387,2.229235597637114,2.124894881872417,2.0927142337886484,1.979865151075392,1.8949336829662693,1.8445835239169197,1.922188875228285,1.9460653300870239
2.2526488099178774,2.1889871619024444,1.9130116804841597,2.0898251902426166,1.9903976545382895,1.8773463561515669,1.8808514064459179,1.7743998408228658,1.805321347937481,1.901247706333359,1.7188011928823088,1.7799034485844267,1.7879117781835834,1.8909053819046673,1.8286129465155396,1.8977267630522676,1.973335324827759,2.150472605203969,2.0661934880901316,1.9412150728052378,1.9460075713412892,2.1146647985005593,2.1996636405478953,2.3223760358129093,2.0250281590907084,2.0957036667958007,2.239157135901712,2.046053508588038,2.3415543824997584,2.0317708303775577,1.9193085711364166,1.9873406995719884
2.203538055371659,1.998325527903137,2.112741120989681,2.2101753477652037,2.0177764633072317,2.1295978979487744,1.9922885883513257,1.9415396181730593,1.7581656686010272,2.0989880089131323,1.6319944930161465,1.7234482842943328,1.766297265493531,1.6742076629743246,1.6031071568819242,1.5718188594586202,1.6782755474393305,1.7802711236710393,1.8088581381695543,1.7704048268580206,1.944944074865799,2.068529757549446,2.215723780774439,2.2791089296410165,2.363540552856237,2.0258859764749078,2.1993416194376296,2.039915291770318,2.1435038736213263,2.179975048698557,1.906218789673025,1.8351331197973126
2.3368300360636605,2.308407163433389,1.9573888151758958,2.500592097342626,2.0746159593540665,2.1027336556660394,2.3414591774885385,1.8114260160035567,1.949927120063631,1.8841209316643972,1.9850431202923127,2.0385327927127666,2.008291972913805,1.9895032028106638,2.173703841461,1.995818558427555,1.982661893733258,2.1806299062661263,2.114659329176177,1.9761157398248632,2.2144253126989004,2.1087207603269915,2.2242728093922914,2.3775749949205767,2.8229526570952728,2.0361242552983354,2.2070590859475976,1.905375713329326,2.5273926859144122,2.1237187773702892,2.079011412992159,2.1078948910015844
2.217334815174997,2.3875155317054566,2.2239889430548447,2.21648837475791,2.0707561069776603,2.2671758933055126,2.2706166422452223,1.811109683349143,1.6820707522013043,1.900664277895659,1.891356062078476,1.8971814472859074,1.768688071674948,1.8158145979002098,1.9483193399252647,1.94149811503145,1.8686795612342082,1.8015777764133576,1.9241868614715354,2.133833432675124,2.3549924317888897,2.088359064563186,2.182023590146685,2.274198575819823,2.374719842837434,1.8320861462735654,2.0943564587799828,2.1481353990855427,2.040384531799844,2.1124517352151577,2.2518990724216876,1.8298069290672885
2.007504905169388,2.0949746246890073,1.8071407849853685,2.032988620477464,1.852296906677843,1.8764248078442585,1.8609333147520868,2.1654699096498904,2.042789035902302,1.9697126645860774,1.6601915888566499,1.8463730098129452,2.0580403380130816,1.7399693468492858,1.6952437460693361,1.6832110442492658,1.6738267723834186,1.7545145249543213,1.8734748881156398,1.7302986888920018,2.0533877041647215,2.0329974006995113,2.03700884707108,1.9697816624367388,2.055796853115342,1.7535606632390488,1.805503100981707,1.9568246365953614,2.1412787626266625,2.0337531773262083,1.791277325464461,1.7463873810841704
2.4766065060961706,2.3425232885894935,1.9531256769429415,1.9270235362620116,2.0767585959197734,2.135822488658279,2.2154547690825197,2.2042637993123093,2.075884499357259,2.20694685324859,1.9316560193267718,2.071251348553014,2.201241031189868,1.7603259033586782,1.87741595670112,2.1036314115233754,1.9987039850033372,2.1671929656461226,2.05394630592506,2.124748869039681,2.068329753356711,2.3206291630065126,2.108193631410966,2.1785518140623887,2.249735217193156,1.9229389312477436,1.7987851383245843,2.106155100194206,2.4601711776850017,2.1126974176793323,1.8130079411995728,1.9643453244828522
2.2471381395661405,2.442180916975511,1.8317269766016229,2.2454409625097127,1.9910525478285583,2.115692786373669,2.24138362466224,1.9344392755847981,2.0672353762729365,2.049058867941995,2.0817152569360924,2.1703368192577166,2.122472062199327,1.8652944607053557,1.9738123428227232,2.1024003186438622,2.0818242301752217,1.9883557081175007,2.3344687976497824,2.0274385426384907,2.0420377391074815,1.9162406135400187,1.7711565068942603,2.341426664098837,2.020625870020972,1.817271262416308,2.27517044826569,2.016285350303294,2.1466761361852575,2.2190377743083203,2.080205812479921,1.7125326666142215
2.280151352416935,2.276049431155203,1.984610286464549,2.283909502024196,1.9078996994760666,2.1083723106269825,1.928192327763234,1.7989017266306548,1.7521050096080757,1.9729545916195959,1.6449063864633602,1.8312916810541928,1.91851624936649,1.6517864408074534,1.6531428357653126,1.6879507902564153,1.6805420759180534,1.762575953413933,1.906783848606526,1.8198315194763046,2.079689807143969,2.009878193948343,1.809687132553209,2.1509609933219074,1.9550016511716402,1.9379668388900404,2.2820718114514436,2.059789367481666,2.082622090682536,2.0898894434697777,1.967781368931938,1.8363478442217986
2.0020469323841987,2.177205280723858,2.251374655186469,2.161276652832011,2.184762890049151,1.994513010880637,2.443773317994371,1.947805271116754,1.6780219395607168,2.0638136452954963,1.69234068360132,1.6769395770305549,1.6980873683583597,1.5893525994426787,1.66220361103819,1.5990319561848114,1.6578955517174263,1.6238352772939189,1.7992399695998793,1.9258904613442451,2.171640206231449,1.8983141027060308,1.8710436416200715,2.3143222521528193,1.9808704527753636,1.810748058478558,2.181799589488982,2.127342175264354,2.2561480156905094,1.973679419073736,2.0142581771239074,1.765656290379695
2.0442859411969274,2.2640805321648725,2.2521734247767347,2.1317000224580327,2.003166205230234,2.2512467320108405,2.63343204687397,2.0647714196745053,2.008722443976637,2.03878208379173,1.846370315162374,1.8413775881387067,1.9088673362968482,1.9294476743544922,1.9229709683931442,1.9701248917842318,1.8641082637897535,1.7703850322067913,1.833661642893185,1.954089167231616,1.9539344742446876,2.113093426707158,1.8197701734255296,1.9716387307030958,1.7598837378724241,2.0013663805751163,2.0159731888516847,1.963690341305978,2.525400783093309,1.9781655644782277,1.9864175200778602,1.7672257231411834
2.1863206511382685,2.084789278632862,1.670787006497497,1.8869507644786068,2.1563220843970514,1.8380976352851743,2.2644555728871065,2.053262168687244,1.912390156011909,2.5027548913408695,2.2287673846328038,1.8832989690081172,1.9859797547639249,2.020842424145475,1.865764926129022,1.967003673110625,1.880240000268674,2.207686742707424,1.8910591050572128,1.9713937623029156,1.8613847268731543,2.075764712849093,2.0623753023323306,2.227723608586854,1.961061122386635,2.3234688358180438,1.8297497378434182,2.0134375143174217,2.153851941703469,2.1955326000955937,1.947549243397785,1.8431070513856038
2.220354020486448,2.2210273994425216,1.8342624604711002,2.0631806247916393,2.152960094334627,2.260873034180886,1.9548302458705153,2.1786988662547735,1.8536924637242778,2.01275666611704,2.109896943686817,1.9197721370752947,1.952576358519055,2.0844109163816933,1.7975546290207336,1.8272063236035694,1.7914839019888982,2.034449302865189,1.835036376393884,1.9305643957567324,2.1347573486332947,2.103044176487155,2.157054946254691,2.568128286122455,2.2520571958815707,1.9866346423825358,2.2860581092631285,2.2116045978468253,2.4445672608293667,2.0498072172964736,2.101925625527721,2.1077742401109627
1.9557564505008203,2.2222196403355152,1.9048812076269064,2.301032872762559,2.1683999106194247,2.1636184419381874,1.8027926777512628,1.7990673858663893,2.0410168222212186,2.0751796083718514,2.124031484253881,2.1997716038562034,1.899948570983442,2.009046623998025,2.0003210386732957,1.8557753361647256,1.6731337750508088,1.7737413390297219,1.9276159523337995,1.938197508949499,2.2213529046036267,2.1777111049699953,2.516566552230387,2.137426390053012,2.872557200198013,2.191477498991175,2.5460419799636034,2.2568955354556404,2.2804392722812747,1.99902135505303,1.8473075138412958,1.9590286634027925
2.0132560514944036,2.286509468473245,1.7332650050957188,2.2432392065095406,2.236035255627936,2.004156935349531,2.227325015856473,2.0093371016358286,1.8849120599019573,2.194401876282461,1.8974835902734617,1.95510081449129,1.9691518644080162,1.8748328398411305,1.8500818142472826,2.1663561739677273,1.8063571205776392,1.888218207499667,2.0670034495976277,2.0904987336162737,2.3443230242345665,2.1756371639482035,2.1873648995316533,2.217023571009248,2.695956679935121,2.294928878465974,2.593003495537764,2.130605551629839,2.263186678687175,2.1518189888962875,2.2981256668834753,1.8946576237828272
2.3356553989286124,2.1434449899866173,1.7928270504167423,2.0830618441209654,1.9548414883913716,1.9055878374051407,2.259885098469441,1.93179076483158,1.7305222637860884,2.3437020601857177,1.9128587181238828,1.7987725281579707,1.6821210994541782,1.8104140525626309,1.754636212779202,1.778518627038997,2.014577216469711,1.9459734482638247,1.943802201665038,2.1633239104495305,2.207041506045942,1.8529763131834935,2.217608722741063,2.4569406763266346,2.5877094664648403,2.20139066602339,2.261201633275214,2.1775498855414193,2.0816769552875063,2.2481390740902527,2.384267123209655,1.994852938586078
2.228372392618682,2.1727574576020454,2.080707314681003,1.9862802633609669,1.9984995278816642,1.8960523647644525,2.093875467390702,2.1265920543086865,2.1054137853236905,2.285838791665021,2.090151554161982,2.2760805705223253,2.2763063777302226,2.329920436021099,2.241610748044184,2.164189083124854,2.3499580870147563,2.2860424219779647,2.3111442759223855,2.1846780443856293,2.194929953721947,2.137288208441587,2.5157789676683873,2.0536746934773555,2.3043248702681636,2.2928540660697605,2.4012076953222667,2.077643162717889,2.357467141659056,2.1591662659423094,2.149395031941362,2.1367359784187254
2.1556853727873313,2.1162141265699006,2.2130143804179423,2.083019496091639,1.8286298022883287,2.0401574497678867,2.129328606067202,1.8835032610609843,2.103490196007507,2.0995550792646904,1.943087801821501,2.0791490549031617,1.9967347953831844,2.0305884778996592,1.8781787501798168,1.7981299016030738,1.897526862553742,1.868886636277003,1.9124607622855994,2.0149880033792256,2.230229724237447,2.1478174215006787,2.37734871766127,2.220837725913255,2.4781146030926817,2.17698292653066,2.193984259749553,2.3977598995248397,2.2306051348869707,2.27406786323718,2.365894421626333,1.9594409977315468
2.474215552685556,2.6700243401637533,2.006866821590459,2.3735565123174216,2.033053518324963,1.9510519709890708,2.334973039051513,2.0788186155431516,1.9835404813639115,2.3526495540900867,1.964076352030366,2.139231987196261,2.160806554158175,1.9985028324659166,1.9335276249077773,1.936186837286123,1.9271136527691874,1.8504846611943226,1.9881498204545132,1.9676440407843627,2.1732412433941515,2.246631814003208,2.0912610828951133,2.584618825000296,2.452275425054658,2.0755738681195646,2.2038842530655356,2.0295488758338247,2.1977771013879797,2.4820401063304134,2.3646828459445417,1.911202552830978
2.3677924225672737,2.441081216266892,2.1083428319252797,2.3888720369758163,1.920044716454373,1.893706864785076,2.3333983180889075,2.02047095400368,1.8634257560155878,2.148740785361522,1.7918772712408937,1.8635877162438048,1.9068497659082178,1.860760647042365,1.866874300127894,1.822946869985995,1.6795737494280347,1.7481170088775912,1.7141926279765585,1.7618176765751603,1.9455450496780462,1.859966676727123,2.0739458851825194,2.4461372317852947,2.2511171973670936,2.1844580766181108,1.9831322332033983,1.7810541718264927,2.125819836420538,2.1769060247340857,2.0685077015860847,1.9461756189308894
2.0741026310723876,2.0497066051663895,2.268252302836805,2.2703291051700987,1.9070134741520839,2.140803845665924,2.130825120298219,2.0370688776601997,1.9599221653973047,2.30873891489162,1.7992321777573994,1.8063479930229749,1.7756192998340397,1.7854821510528693,1.8167454634881923,1.8240899407335007,1.7385933277066923,1.7553846851368522,1.825223761873902,1.7701029296453294,2.1577928655183145,1.868641134145364,2.048714336904244,2.394099586827019,2.195180938147636,2.052134505142201,2.1299781107743,2.1040967858699204,2.2998437877777396,1.9248763050518676,2.3353475958952203,2.293517897873594
2.416227108449869,2.1481739958544646,2.1080975764714225,2.1265499953173532,2.0370449211426145,1.8813091306374141,2.2548740010788806,2.03543788596011,2.0319625180609973,2.158569309058846,2.1454075516624203,2.13998357949758,1.7480581081751556,1.8680008217424549,1.8629312333495054,1.9589552107851005,1.8002755770341639,1.9674886996423824,1.8843276596788825,1.782791081732,2.064604392165771,1.8708845912519922,2.2018080255019785,2.0843545374141423,2.303105421711237,1.9574552917902301,1.8698490603418143,2.1318168567548716,2.4012109843312373,2.093656285040858,1.9115660146081872,2.0732132927903115
2.312868874347637,2.097345480413302,1.743146382947476,1.9371582682970625,1.839044314369471,1.7348122821217526,2.1947283104222723,2.152432289829563,2.012814502132558,2.1522687602099086,2.2784436311853593,2.1015408443455534,2.129649434788374,2.1066090355583555,2.2209225941987323,2.0338287096062,2.0994415434537834,2.180158797337785,2.2275155386614585,2.1549285896129398,2.2141720607140214,2.128855013756367,2.082615628281736,2.300036156709493,1.9661893003801996,1.8299908471943422,1.8269926763368654,1.947235672336581,2.080077593461559,2.1101644142394473,1.8091760567543835,2.174531707778225
2.3888189859262163,2.403882035694271,2.0471387029891814,2.5454864580125554,2.026823173961084,2.322473192458505,2.1666302308117795,2.055298525501346,2.103033660410226,2.381697205080597,2.1299431961749096,2.0970874143965212,2.0897791153467136,2.2187941429795246,2.263363140005241,1.8417277719006426,2.203606706624203,2.094842090727045,2.2027805744212814,2.0566838055276864,2.1607065806494754,2.3810557871258085,2.0171609419048586,2.2310131935152433,2.185515088889296,2.022042901322384,2.2004948832652067,2.3939036400260356,2.1666585437566286,2.3558254280273605,2.242619175559037,2.1176298572681564
2.290751343986143,2.4770691097068043,2.003409848690978,2.1539775975022675,2.0760266538976366,2.1455491193492766,2.199424779539385,2.0501804589372314,2.146676610777725,2.0296287139807037,2.096831782373021,2.081059723516595,2.089122438337025,2.343006528875347,2.12412247070174,1.958915232527176,1.875313771311635,1.8595034438154991,2.1845796261803927,1.820629674640159,2.1538664977950384,2.2368628453905273,2.0907767322942945,2.1653787221720022,2.6164870879077875,2.1670722449571485,2.1697354693208903,2.247332095128025,2.559469577617055,2.2103896347929686,2.274647026466416,2.1963032273097918
2.491336157795922,2.2308524001603964,2.2500887918016645,2.1595070996690007,1.867926722721376,2.227506193016846,2.3876384864584015,2.0735734115705475,1.975528437592832,2.07814119150575,1.867718733131167,2.2019357846266794,1.989580807651154,2.0293847388124258,1.905372454412844,2.141610939161044,1.869367209690722,1.789343679438072,2.1330698175230673,2.0016984250741374,2.329640400911131,1.9055046090758525,2.336238063732612,2.1792645162287054,2.2694951888681767,1.8278182492952353,2.176580982702352,1.9423213262227477,2.550190979492616,2.239756075192745,2.0846314318599917,1.8795296844402325
2.335019265233004,2.329093965882148,2.0650239954590868,2.0328958683275866,1.8609210433663288,2.0736372974422,2.0373305054838102,2.018640712450957,1.904392962780509,2.290014274327372,1.828604193266202,2.1440655440818825,1.9586336119942631,2.084930656127781,2.052758074807433,2.0077017471233174,2.0565117140323825,2.0217213165890118,2.0570500382067216,1.8559781368598118,2.0083446406748187,1.929780789505358,1.9871313927292746,2.072708427451897,2.015119847055303,1.8353243627935196,1.821878697278681,1.9735095380287164,2.2809386713824304,1.994165374536574,1.8698720811228764,1.906308176442885
2.498089370473258,2.4776835289504984,2.0931061099243586,2.4662142551925794,2.063063245855399,2.0544013286459037,2.2040553293175904,1.8196837603705625,1.729984152181073,1.8641111467834965,1.5996696062172249,1.7341723248418135,1.887332548343519,1.8916707081413218,1.8530160059981122,1.6963913617444932,1.8322337792592294,1.863034750395706,1.772871949011115,1.9064840093205138,2.4543149440634187,1.9356147641215116,2.3689633398537904,2.3271094356765194,2.3203544878122306,2.106809579534482,1.9273606379610362,2.1151768505618693,2.544610587760975,2.3272394681116837,2.3111993193205524,1.8413917883693847
2.1223493614924154,2.319090369519403,2.0639760163724103,2.2573903937616233,2.0396233812214786,2.273720550038912,2.190413315566061,1.8668407125816195,2.0821704575478894,2.1360785640950843,1.7351045821770783,1.8992702286150893,1.9477551570530245,1.8815527600522088,1.7678072175912394,1.6369697390295133,1.6703361943319335,1.784681646808491,1.6439372070668492,1.719857590878022,2.0409772968061097,1.8801852157417895,2.152001241770483,2.307636867326547,2.5411516606636355,1.947761848928447,1.848934175709493,2.017480499057627,2.5598572459710676,2.1225206359150293,2.1029752419765053,1.8643465106698807
2.1578196211668335,2.1868053563993217,2.325629011242353,2.153586167655378,1.9401946772253704,2.3548234753048876,2.282862003538575,1.9993334097669178,2.040281730195835,2.2235296766563284,1.7739563162930838,1.9833974165341217,1.9303525053691344,1.9335214091734512,2.0410860517779468,2.071358244090502,1.9853746416034435,1.9928605472627612,2.001602493394973,2.1351654424900395,2.31589962975338,2.232625635381082,2.14485570402448,2.595912024221766,2.5892935810349695,2.226306934200912,2.2752648753724354,2.2482220237477284,2.241792053436815,1.9884676358838396,2.2006198636042047,2.2203445644781072
2.6677733666674803,2.33086373855863,2.1202521604807316,2.4618792655896153,2.137448287298571,2.2391381405111277,2.0526871456293416,1.9218834460630547,1.8451447513777004,1.9308093250283864,1.6337532759655924,1.6649224852754725,1.8201772047123577,1.7109929548327703,1.6842812927391786,1.6900479582620536,1.689811472884923,1.6351675684328235,1.7934790773449614,1.8429668718136643,1.789417545475714,2.0003617127218476,2.3058101270268154,2.310946054301834,2.372876957268619,2.1370627780602485,2.2289480203515657,1.998783897500969,2.2641361786676306,2.220174876849113,2.1097841057713786,1.8844477815789125
