Fp1,AF3,F7,F3,FC1,FC5,T7,C3,CP1,CP5,P7,P3,Pz,PO3,O1,Oz,O2,PO4,P4,P8,CP6,CP2,C4,T8,FC6,FC2,F4,F8,AF4,Fp2,Fz,Cz
"(0.24757464455594855, 1.5652292639024443)","(0.2890549981298899, 1.3963746428440185)","(0.27103539734767434, 1.5072443699523097)","(0.2175126814128684, 1.6818045311073075)","(0.20922500147949907, 1.7178403076974718)","(0.3044884347841075, 1.3809970014763546)","(0.277370166489061, 1.4755667820129252)","(0.1693778369285361, 2.386732183867442)","(0.10421887262437358, 3.588834831385843)","(0.16356638764252196, 2.6156648436814103)","(0.15551196440640133, 2.517751513757426)","(0.11975499756457708, 3.0874991544580523)","(0.12404615988797317, 3.1040902510965753)","(0.12480489950061802, 2.897167701269623)","(0.12586665010045342, 2.79960366191968)","(0.13764510110498762, 2.692098103001836)","(0.126755135908763, 2.84194375479168)","(0.13573138756914926, 2.7037928261542143)","(0.16209224107607156, 2.312027055390404)","(0.18025688719590097, 2.207469594586499)","(0.17714205142939823, 2.1851928750175196)","(0.18287265219670468, 2.0542272387472846)","(0.24610648574350855, 1.5137658876891573)","(0.21818013984468868, 1.7318145169697172)","(0.22801471618453314, 1.665885736825792)","(0.20769082123839147, 1.565095224261491)","(0.21550781424256082, 1.8676888575412025)","(0.20986880655965465, 1.6769523185159447)","(0.22487373204541863, 1.7110247193842556)","(0.23387170987831554, 1.7211933681696094)","(0.22468787983639155, 1.5894185305904736)","(0.1615071381961904, 2.408252740184492)"
"(0.22479624341276722, 1.675484354777925)","(0.2964620296791105, 1.3670632517371921)","(0.2867508662113123, 1.4469722490345982)","(0.22119631646495863, 1.7218648815212423)","(0.2096355903671521, 1.701122434093498)","(0.3121624014068275, 1.3486115060585453)","(0.26236570900002215, 1.578762506567358)","(0.16502747645367144, 2.478981073559193)","(0.10530318172610685, 3.637160495068995)","(0.17253128687026845, 2.443193662573716)","(0.1625041262643892, 2.4487991756432725)","(0.12936961864568183, 2.8657850498282245)","(0.1288101453806849, 3.053822113290441)","(0.13239509324198773, 2.767255115046204)","(0.136521818913473, 2.6260044399951656)","(0.1419025665185575, 2.6400073474989503)","(0.12862223941559922, 2.7662776985588553)","(0.14469657550693876, 2.539915967230019)","(0.17874012645481788, 2.1575780153489745)","(0.1963638315051124, 2.1025152996736147)","(0.1892665978399114, 2.1246889490248004)","(0.18381486186509244, 2.070052859937929)","(0.2451102866754838, 1.5156892011439365)","(0.22761914582306575, 1.70881351351076)","(0.22885478058993122, 1.6606508533238)","(0.20648308153003392, 1.5529832902246963)","(0.18514648050056123, 2.1001128280079633)","(0.2041347844886921, 1.6879585304697362)","(0.21497942414572463, 1.7682133281238082)","(0.210311260265278, 1.8885648456972015)","(0.20478854773749267, 1.684545393873791)","(0.15459977425749705, 2.525477904719077)"
"(0.23020768783157278, 1.6395230977904658)","(0.3116842854546849, 1.3453150156551095)","(0.2998170680370924, 1.4114738742186073)","(0.23298348969861762, 1.614233819691882)","(0.22144062769651182, 1.6937536236145831)","(0.33338352741239513, 1.2811736143254104)","(0.2680410574689993, 1.5279208512914395)","(0.16711357123032666, 2.403915389901198)","(0.12015006609251737, 3.2218725466301668)","(0.17210221344629323, 2.373203074618322)","(0.17513903987042573, 2.303422963081808)","(0.14053142702072413, 2.7047004893010467)","(0.13745561537706852, 2.878566650019891)","(0.14193896358481217, 2.682930570436572)","(0.14769678949001513, 2.5668194348917144)","(0.1479998597782308, 2.636036218086885)","(0.13703674520497972, 2.745465423367064)","(0.15280507320938272, 2.451643178548364)","(0.18117432218662455, 2.069805001633172)","(0.21652768293893382, 1.8742910706920637)","(0.20565449393965535, 1.8641777613664736)","(0.1935173381218265, 1.9266763258919894)","(0.23887809185956008, 1.4885925201741437)","(0.23867140748040291, 1.635647679429392)","(0.2277906263050005, 1.6892044273291476)","(0.2036636737559493, 1.5837906171440517)","(0.19918361870907667, 2.0182499047494225)","(0.20763860028155376, 1.7290093012613013)","(0.2068943767058531, 1.8608167361862995)","(0.23578934008454275, 1.7612707045136509)","(0.20081870395612866, 1.8036164662809206)","(0.17895144744142708, 2.1386777257060205)"
"(0.23326321139517256, 1.647561440838342)","(0.3190504781391311, 1.3231174890256423)","(0.30330430314271867, 1.3765375129811415)","(0.2652440119964119, 1.4569279078446502)","(0.23085655705481853, 1.6670473143247275)","(0.32818158102971334, 1.2898790241602258)","(0.26123590418721315, 1.5550040186873881)","(0.18773412562113792, 2.1205385945946893)","(0.14193984235152618, 2.730241845901396)","(0.20167683730459007, 2.045262812043933)","(0.18991647137957127, 2.109001855613733)","(0.15579494091792234, 2.427300803533842)","(0.15381611594732542, 2.5542215219139406)","(0.1565519526056962, 2.4271318727823683)","(0.14202102856741222, 2.6399138048613495)","(0.14927070384985713, 2.5646680435374667)","(0.14205646130301297, 2.6149512294475956)","(0.1565397913018574, 2.39383135095494)","(0.18731546867810098, 2.0313279287015393)","(0.2543579536294821, 1.6214366853368127)","(0.23455744037820028, 1.6795110743292345)","(0.20173473477511278, 1.8441770266674655)","(0.23761843666437268, 1.500348341228903)","(0.23340609332229695, 1.7224136217024748)","(0.23131030614548076, 1.6608936581823646)","(0.2042975166123419, 1.599449316568643)","(0.22062436486685225, 1.9350832025668174)","(0.2119730736482392, 1.763202436308408)","(0.2001663645082676, 1.8950975393324994)","(0.24960504739357894, 1.7148446532522077)","(0.20511356187314536, 1.8396130782650464)","(0.19464789129183402, 1.9192750191359655)"
"(0.25156727533577483, 1.5580353269073626)","(0.31219248750380213, 1.349016879353645)","(0.2836669762654128, 1.4356596339604304)","(0.27234603738774976, 1.468737215492071)","(0.22183537112693824, 1.7433186644487273)","(0.3168170170388103, 1.296793327751231)","(0.26269945539352313, 1.5440286013242148)","(0.19729717021540247, 1.9950268031508755)","(0.176712554300603, 2.071341938796713)","(0.21782722729385556, 1.8890198248830645)","(0.20577075354004634, 1.9447898116763287)","(0.1801882931365895, 2.059062029049549)","(0.17619662765553218, 2.0953889839200124)","(0.17629525271994256, 2.086205776523369)","(0.15325079807554542, 2.4019536672093857)","(0.17685567764426355, 2.12347897534404)","(0.17032638089271562, 2.1853047523302482)","(0.16835937150156147, 2.1938191490190393)","(0.191831031200672, 1.9522573800325824)","(0.2874008291542401, 1.4326548401254353)","(0.24850380695738236, 1.577202466803265)","(0.20686280124165238, 1.6990478731189025)","(0.22890551741608342, 1.503369362234147)","(0.23292920589745306, 1.699450525432456)","(0.23549823410574838, 1.640525223628192)","(0.19622386412921564, 1.7082102006594866)","(0.23919046478344982, 1.792541049826343)","(0.2210433433309041, 1.708582961526802)","(0.20538627009271362, 1.8175192243833547)","(0.2634735808567698, 1.6100931617919312)","(0.20503201843153013, 1.8736913947567628)","(0.2010761292376924, 1.7767544008515759)"
"(0.259372844771972, 1.515215335921829)","(0.3113652691446776, 1.3738535200729443)","(0.2802103217552683, 1.4564880851092548)","(0.290173872324551, 1.4283038603608544)","(0.2260781010005616, 1.7370238236603233)","(0.32378481614383975, 1.2995012144517677)","(0.2737647964448243, 1.5260340350243826)","(0.23667361767262382, 1.6390975814895044)","(0.18647310195293457, 1.969787740902347)","(0.22184005889291644, 1.8214019717939542)","(0.22575540221468182, 1.784689237889958)","(0.17961824845193297, 2.0542741756284633)","(0.17216148764722713, 2.132303588683351)","(0.18138325232644498, 2.0278924299091385)","(0.15447501306657907, 2.3940417314317153)","(0.17938715231085828, 2.092852228205617)","(0.16960430393306772, 2.176580795326685)","(0.16417489465495988, 2.218111574550828)","(0.18671284113937936, 1.980820132907765)","(0.29241463083856906, 1.407106370909114)","(0.24611579800760525, 1.5753782256367288)","(0.2029925363177614, 1.65172047824248)","(0.22508738149310345, 1.5236488612690262)","(0.22951934613636693, 1.7482177756942066)","(0.23557209191184597, 1.654297684812932)","(0.191111096007138, 1.7531433255876963)","(0.2558851111006186, 1.65849326306137)","(0.22682237843637182, 1.680792501873608)","(0.24907671811013668, 1.570807449101481)","(0.2790097228326694, 1.5178021492526896)","(0.2104324537757459, 1.866424912253892)","(0.19060087024215153, 1.8144142702200476)"
"(0.26032181199234733, 1.5102087413390624)","(0.31658880055893174, 1.3681030166458483)","(0.28237011569952397, 1.4482074487878984)","(0.2832832282088939, 1.475290507494541)","(0.23528585881245279, 1.6832711388636028)","(0.3319955086652755, 1.3056375667689393)","(0.28305577536854504, 1.5086702391240145)","(0.24283495462706697, 1.6316651686318187)","(0.18509030253439424, 1.979447113222288)","(0.21793562865981608, 1.8765234400726347)","(0.22266177179950883, 1.8108030061886289)","(0.18348741784715078, 2.008999790387726)","(0.17204548844626322, 2.1329978638139466)","(0.18081231695551686, 2.036039415138171)","(0.159479494115544, 2.3188517921607645)","(0.18120573718660102, 2.0559273958268176)","(0.16784117252096747, 2.1913499531961755)","(0.16521339461905576, 2.2212161537228643)","(0.189180802761583, 1.9848508076529747)","(0.29699737617959165, 1.3853437935424677)","(0.25294214563384526, 1.5522303420586299)","(0.2085185518542028, 1.6298701500898587)","(0.22665232210443756, 1.5335297347149368)","(0.23387904535549328, 1.706376657046642)","(0.23358392145862492, 1.6613812553244762)","(0.1944946656199827, 1.7258007383583842)","(0.2542786125052721, 1.6566334911206142)","(0.22730549780054857, 1.6680657374493337)","(0.2559348561411156, 1.548967798917955)","(0.28140194527968043, 1.520436454096002)","(0.21470080105939135, 1.8330628361979096)","(0.19335524461012124, 1.7718517943102086)"
"(0.2675813019137419, 1.488703320419566)","(0.3108445951304712, 1.3666109913478568)","(0.28745048612461477, 1.434014223911228)","(0.28066769825778337, 1.4730286861276)","(0.2401001685330927, 1.6244215887593356)","(0.34038425782535925, 1.2644797960050873)","(0.2948341269007217, 1.4898259770718285)","(0.2449955654236514, 1.649291800451485)","(0.18939723707452003, 1.975739085664655)","(0.21949010087071327, 1.8981185098343751)","(0.2209014760514329, 1.8530838447158706)","(0.17908745143173835, 2.09144429307686)","(0.1723543508679995, 2.1881946588867627)","(0.1892917494185593, 1.9861336905826945)","(0.15630101227204865, 2.401989145754479)","(0.17397073340304048, 2.196166353821317)","(0.1573346384717998, 2.379639362554935)","(0.1618626991948128, 2.3007390646145596)","(0.19158794300558568, 1.9658773388331923)","(0.2942908660878554, 1.3937089766714659)","(0.2610537502668078, 1.5211489723660259)","(0.21561697643385036, 1.6166517453240892)","(0.22686914331451882, 1.5340754522730407)","(0.23467892611790772, 1.6937736259340206)","(0.24262086649675974, 1.6251713903058047)","(0.1946172280618942, 1.7532911537220828)","(0.2607795418783772, 1.5910379295013162)","(0.23281913201887408, 1.6354549799734888)","(0.2672035760245823, 1.4764781463963943)","(0.2873629375835115, 1.4858880200410522)","(0.23300330708679787, 1.6922977438552573)","(0.1977741837340027, 1.807253138740509)"
"(0.2718842192520513, 1.4914845348629153)","(0.3104045134844271, 1.3628093326746245)","(0.30531444657049495, 1.3487831787691524)","(0.28847212601780825, 1.4328473495636211)","(0.24324706733733845, 1.6519166798812597)","(0.343453385337102, 1.246425653416545)","(0.2925732440181259, 1.4788654777223906)","(0.22974669979660464, 1.7550011211425327)","(0.18541366958621128, 2.0241865837350685)","(0.21879059609144227, 1.887436353875616)","(0.21503178591207947, 1.8780652240735014)","(0.1756710333924937, 2.128447926914882)","(0.17219228394886352, 2.2007928510053207)","(0.17839274297731894, 2.114306112750134)","(0.1493521458389542, 2.535813314501622)","(0.16426289977218417, 2.3347873289479573)","(0.14479012805326077, 2.5954220765711997)","(0.157683464680507, 2.385443787962809)","(0.19288335653003544, 2.018504484982343)","(0.2980548085691331, 1.399463236031766)","(0.2697250141950184, 1.5332116655673302)","(0.23152596198945294, 1.5634872714336725)","(0.23793902940229228, 1.5632189344309193)","(0.2505949282281687, 1.7169603911409854)","(0.2614990811961304, 1.5733808117791472)","(0.19964635025834881, 1.8516172428303483)","(0.27236084048159637, 1.5645921863479586)","(0.23884005332134053, 1.6687192820477035)","(0.2777156349215039, 1.4336344858484762)","(0.28940782972003243, 1.4940006081643145)","(0.2443916622577232, 1.6654720434346753)","(0.20736093944840553, 1.770130240667628)"
"(0.28867742041758576, 1.42074716783682)","(0.319674295408607, 1.323876291087433)","(0.304682211866023, 1.3709598661544915)","(0.2990131279520913, 1.4219669376838562)","(0.2658428961496252, 1.5340405588414878)","(0.33739210407617726, 1.2745795193820668)","(0.30281785363933117, 1.428901520254689)","(0.2355369174416935, 1.701125857077488)","(0.20197312415232108, 1.8383175382907946)","(0.2443024421710237, 1.6977870760188896)","(0.23096389356677738, 1.7468743593123481)","(0.20489989488553018, 1.8458712698032933)","(0.19863808794983634, 1.937952968909145)","(0.19647775456392874, 1.9109944103947796)","(0.17342841369989748, 2.207913059636155)","(0.17653519042203525, 2.1789157909707435)","(0.15132601103126672, 2.4800332007566617)","(0.17168081262925394, 2.2413668075552966)","(0.24006324718828315, 1.6731020880229035)","(0.3170795861694058, 1.3281183742916014)","(0.30863884766260496, 1.3675957655406534)","(0.24128147505084707, 1.542369215656461)","(0.2539745319252104, 1.5260866037202991)","(0.2918615832485539, 1.489676329295634)","(0.2683061075609447, 1.5621271745777525)","(0.2295096176178839, 1.716921954622003)","(0.28249192428589953, 1.514515202982175)","(0.25563755552009576, 1.584967754642039)","(0.28364399842894267, 1.420026050785546)","(0.30015858753268415, 1.4368426267669796)","(0.27952642085510093, 1.4789681258415113)","(0.20876205570627207, 1.8225056713420675)"
"(0.3007722188072633, 1.3733928734385126)","(0.32403227284662417, 1.2956145644788601)","(0.2963224153571574, 1.4087774898412777)","(0.25622086589484894, 1.645339678273421)","(0.2663308557374995, 1.540185645634368)","(0.3492526103294179, 1.2466581396337284)","(0.30038855480729126, 1.4218902074605477)","(0.2412610409071431, 1.629407626156089)","(0.19698159438294663, 1.8167703093402492)","(0.2471315768687115, 1.6525146410543847)","(0.23082079591645524, 1.7235159448715602)","(0.19148432257953696, 1.9173733818633287)","(0.19712577987979804, 1.9002406944803012)","(0.1908805573248896, 1.904188348850668)","(0.16917334871560732, 2.1833038801425984)","(0.16690901494377652, 2.204107340726156)","(0.14409656246977828, 2.465591651223562)","(0.15722501113656315, 2.364806714032198)","(0.2167294069073952, 1.8169744385759279)","(0.3091982153749354, 1.3671697781660845)","(0.2867968026448076, 1.4651157285388507)","(0.23689150342120838, 1.5642571100378053)","(0.26757606528020156, 1.4302959420486812)","(0.2858704018983854, 1.5188704567154556)","(0.2817456575168813, 1.4660493569961848)","(0.2520718320750719, 1.594103925707083)","(0.29419728436002546, 1.4629164382611326)","(0.277201891547809, 1.477812302819806)","(0.2941247657026845, 1.3788734876466942)","(0.30215988785270004, 1.4304096669104267)","(0.28378218527455307, 1.4682846793706215)","(0.21265393060031673, 1.7900355941466461)"
"(0.31585648409362316, 1.3223840714397954)","(0.32029588474307513, 1.3302092839625792)","(0.28758072810613683, 1.4344134321744408)","(0.25359728837307194, 1.642463684673166)","(0.26734517678755076, 1.542013518445679)","(0.3578312092432318, 1.242225539559709)","(0.29798191426159876, 1.4327097475644412)","(0.245113040238443, 1.6200615427695884)","(0.19790862783069532, 1.8424684954672848)","(0.24357254004350445, 1.6725228002742287)","(0.23140581993198145, 1.672494267601966)","(0.1605082000634837, 2.301749495100808)","(0.1753736555373971, 2.1493333088828304)","(0.18897456111210853, 1.9440601564575)","(0.16009705876273825, 2.338046961918555)","(0.15991493962073067, 2.316934439116196)","(0.1425069976857301, 2.5522959475738465)","(0.16034198049733422, 2.3591209829483346)","(0.2100079464114824, 1.8752059452421035)","(0.30806226436450185, 1.350688024509178)","(0.2806941222248598, 1.4780376809600944)","(0.23496430031446575, 1.5688329951725157)","(0.2492089153196578, 1.5203930070127614)","(0.27201322605274747, 1.584626344744364)","(0.2748699597461672, 1.4971132329779473)","(0.2492351099624537, 1.6365117358764265)","(0.3121295638721014, 1.3827301929190687)","(0.27470507611823614, 1.5262572572514619)","(0.2980697908764451, 1.3777083018555678)","(0.3176961902964138, 1.3682468348650312)","(0.27659284918732424, 1.5493991957485655)","(0.1969626791450156, 1.9212699624115004)"
"(0.31468966925945413, 1.326789309921124)","(0.31529548610731145, 1.329091078985706)","(0.27550227883660294, 1.4739409981388207)","(0.2630930286130584, 1.615080748138971)","(0.26126237397235375, 1.5715066107561944)","(0.3651680367520786, 1.207113274133852)","(0.2869467134370868, 1.5005068384296643)","(0.2543349210098682, 1.5600550240664555)","(0.20876703148693831, 1.7665434296167066)","(0.24759863542384164, 1.64010587749663)","(0.2098899946738369, 1.8207244270735123)","(0.16741584432194428, 2.1834575506882685)","(0.1906816129901335, 1.9255803614097418)","(0.186193644701221, 1.8722635384895137)","(0.1549084884275834, 2.2230444233465096)","(0.1574060590584834, 2.1467199655570486)","(0.13563881936922934, 2.4396862330842026)","(0.16064158530822706, 2.2679751467084195)","(0.2123420531700826, 1.8420270068267797)","(0.3043010301087692, 1.3771170339047654)","(0.2706691351920618, 1.543478925410896)","(0.2272603050061341, 1.6400693801405624)","(0.23613781552345653, 1.6026479455729805)","(0.24768149344279186, 1.716371894385854)","(0.2508627885036894, 1.6134435919948438)","(0.24599957541197767, 1.6520029623073775)","(0.29709098131450534, 1.4292363596563347)","(0.2612109768494038, 1.5610908638771712)","(0.28994275666205155, 1.417649390513887)","(0.289405130695713, 1.4458363496322308)","(0.28762816008749315, 1.477267728392194)","(0.1917479315506797, 1.9873914071225058)"
"(0.3216132818177718, 1.274910210200958)","(0.30579576442851725, 1.3538779623210346)","(0.26527921663897397, 1.5556609386889908)","(0.2551825222095635, 1.6836733616092192)","(0.22714821649725625, 1.766782698720646)","(0.35895189119504756, 1.2169907873443075)","(0.2948212798802215, 1.481171494868612)","(0.22601931871477052, 1.750386656457471)","(0.21756521066773543, 1.6943176716557777)","(0.24193783346943992, 1.6352001520514563)","(0.21476486809891637, 1.7727760023525243)","(0.171938227850246, 2.1273987673034243)","(0.1986261650888274, 1.8436122617038122)","(0.19152774961182834, 1.794201148974154)","(0.1657839683746498, 2.0748530223655326)","(0.1635294566484204, 2.0745889399708184)","(0.13584695886091677, 2.418608709313963)","(0.16016466076897873, 2.221804465769721)","(0.21412863234739657, 1.8001173681959832)","(0.3029593395794037, 1.376357282067774)","(0.2668646329642253, 1.5523982551468418)","(0.213082061516365, 1.7365312484754558)","(0.2072232296557545, 1.7996023378983708)","(0.24834492674216518, 1.6747258207796027)","(0.24410488806598007, 1.6548914834350579)","(0.2354596688934397, 1.7234494460198362)","(0.28747936588780837, 1.4163210524319843)","(0.2598269886290202, 1.5210490129743526)","(0.2932759311577865, 1.3971655388258604)","(0.2832191718666967, 1.4105079489867876)","(0.27584000750767196, 1.5042082126257825)","(0.18863286266381038, 2.0918586350996784)"
"(0.31399283236728753, 1.3020562981596728)","(0.3068851265477289, 1.360717725878575)","(0.26022097253377763, 1.5920903179259793)","(0.2491451856327035, 1.7020866585403647)","(0.2291817407870463, 1.7577676857688005)","(0.3624707796862918, 1.2014388068862465)","(0.3004779647422063, 1.4396348586129806)","(0.2152610683354841, 1.8424091436310361)","(0.20914735338097076, 1.7950958180022223)","(0.24745522117305188, 1.6261327835938646)","(0.21081386012093545, 1.7954166743049929)","(0.16948073415219864, 2.1465404344677435)","(0.19592705098474944, 1.8916352354026476)","(0.18852525472746492, 1.8504256571343278)","(0.16144345936674223, 2.1446523886958144)","(0.16438603932677487, 2.12989943609571)","(0.13647870723388736, 2.4100776369985324)","(0.16054736403009048, 2.192926849760309)","(0.2122948203191412, 1.7995646772609193)","(0.3024191820651555, 1.3766750954229199)","(0.26618849489881513, 1.5423368060490068)","(0.20619536160148616, 1.7637545043281084)","(0.19120830533059024, 1.958422573030031)","(0.24603863704082193, 1.6813082028018038)","(0.23103311620900627, 1.702784355071775)","(0.2418678933928026, 1.6880864332308994)","(0.2818759015881472, 1.442292185931337)","(0.2501150001323698, 1.5860948407989255)","(0.2951116629595298, 1.398527702207544)","(0.27831792292666035, 1.470166950180436)","(0.27177430335119107, 1.5360770994946298)","(0.20034361672473897, 2.006084694817609)"
"(0.3118183102844819, 1.292458634587444)","(0.3060895121880116, 1.331993283860148)","(0.25906266175352755, 1.6026666300184995)","(0.2473176631799176, 1.7050535644186482)","(0.22078516734072073, 1.7787711330434106)","(0.36176214914073335, 1.2044934487647703)","(0.3019571769085502, 1.3891420916446409)","(0.2081283954592689, 1.9407869705067313)","(0.21263632448735661, 1.734920196765055)","(0.2554294891764391, 1.6192346390557564)","(0.2131870625490614, 1.7761709480775512)","(0.17634696000425512, 2.070426499400111)","(0.21080823059840822, 1.7606479305261475)","(0.19716985510682275, 1.7696405866063485)","(0.16461834785805293, 2.0951126310693846)","(0.16921397014141962, 2.0510330675862183)","(0.14045320861259125, 2.358012253702568)","(0.169724314961186, 2.106589842706104)","(0.22439826847117075, 1.701835576374865)","(0.30904095494593814, 1.3407727637426727)","(0.27573667426929455, 1.475160384379886)","(0.21178724853326267, 1.7847234214067138)","(0.19877673537519264, 1.926823183127448)","(0.25171959225993706, 1.642533195377604)","(0.2235627713229053, 1.7496046851919194)","(0.24618473955479098, 1.6880876498433566)","(0.2822982667055875, 1.4326657334053972)","(0.24551730954714318, 1.605179574473365)","(0.2810658029931005, 1.4418589004215467)","(0.28150434066289165, 1.4322061292824806)","(0.26534316098966015, 1.5509985723333328)","(0.21639186289209325, 1.9179796884373002)"
"(0.3133653017771959, 1.2836965808460699)","(0.30380907424729, 1.316710113963027)","(0.2575650302210026, 1.5817983593432952)","(0.2568834701846386, 1.629889755098545)","(0.21512421369621823, 1.804738842695079)","(0.3528344713207831, 1.2079749596449272)","(0.28214980355468444, 1.427041754553914)","(0.2042429183584617, 1.9310693523824556)","(0.21479376764112232, 1.723813098528211)","(0.24644773816294546, 1.6915483232154975)","(0.1922246243539747, 1.97072476556771)","(0.1706958381453256, 2.1373488912870693)","(0.20701663146768853, 1.7975136543903507)","(0.1640984964929532, 2.0894731234768056)","(0.14866446243994977, 2.287701369283303)","(0.16109729944938178, 2.1379870817376165)","(0.13390538085040998, 2.4355739918667787)","(0.16505305689691513, 2.1258265525083595)","(0.22487753704412694, 1.6786727388277622)","(0.3106648273208315, 1.3403142678660016)","(0.27454335282394243, 1.465129062504004)","(0.1994717664998728, 1.8954683039396416)","(0.19635150692343142, 1.941381775734507)","(0.2663432411837869, 1.572625376977298)","(0.22660258380515744, 1.7372051165103684)","(0.2529487395049979, 1.6449026954634511)","(0.2843141829978912, 1.4252723833318846)","(0.24625321181264162, 1.5936167479140897)","(0.27722622525636614, 1.439224529627411)","(0.28034826382229, 1.422921939533772)","(0.2592757956584607, 1.5814443839689296)","(0.21422243960200948, 1.9458293544488041)"
"(0.31433297983741326, 1.2838540437152186)","(0.3118866857272169, 1.3217904780899101)","(0.26002136219631444, 1.5872697462505112)","(0.26303714002564077, 1.603688960985138)","(0.22750957813733252, 1.7417512803071384)","(0.3435170480231889, 1.241167775039628)","(0.2870466009118552, 1.439324770292481)","(0.19016572365199766, 2.0774760065458353)","(0.20512468054240432, 1.7783444672636943)","(0.2566832976143086, 1.630800311793988)","(0.1902860754653614, 2.031267248041843)","(0.18205489395822, 2.027635287065758)","(0.20241612040774776, 1.7991509602221778)","(0.15951431372449795, 2.136693191231498)","(0.14723836581043562, 2.306989155008605)","(0.15839491540973702, 2.168837276171459)","(0.13094774961878788, 2.4520422585879547)","(0.1478952395503004, 2.316159327750462)","(0.22306836067033312, 1.6918266691217958)","(0.309934324932545, 1.3381054300002335)","(0.27556580047342877, 1.4466623182191778)","(0.19426702096083537, 1.9259446600424583)","(0.19793389460825847, 1.9238835149124611)","(0.277529653117799, 1.536324868430501)","(0.21905711963947874, 1.819439219298395)","(0.24799626078257767, 1.668047655237069)","(0.2890593083742243, 1.4067972149930181)","(0.25004534032232767, 1.5891853687229514)","(0.28982493873360454, 1.4326056722152116)","(0.2775459499644335, 1.4274754806327528)","(0.26134036460365484, 1.5881768009115032)","(0.19846708768894403, 2.022055892757241)"
"(0.31773435888581375, 1.2619541659546192)","(0.30648705282261607, 1.3350384182470822)","(0.25312441501587646, 1.635116166215458)","(0.26217773934850663, 1.5993922852327)","(0.19881582279852883, 1.9728232631050981)","(0.34547977969455934, 1.2397136937501174)","(0.28704222836381615, 1.4341456720604342)","(0.18966616277169626, 2.075126854557561)","(0.19256650075704687, 1.8794054567204233)","(0.26211212110785076, 1.6159868773366242)","(0.18286626445273385, 2.1112405342078406)","(0.1770892474663851, 2.064789694895851)","(0.19336976443077164, 1.8769731199693318)","(0.15754462423828688, 2.1640028021387026)","(0.1341483460209501, 2.524746243865422)","(0.1443704609549273, 2.365968031776211)","(0.11355727476920942, 2.822781030983503)","(0.12292035225151278, 2.8147257748625334)","(0.21294569565611918, 1.7733782946321472)","(0.30137612444878137, 1.3674745690429808)","(0.2673969269786286, 1.4562205021673167)","(0.18152868685545748, 2.0238093116179043)","(0.19158493453634065, 1.849652583814294)","(0.2571270766132651, 1.6331340853764738)","(0.21483581313006564, 1.7441481435011872)","(0.24637602649699863, 1.621913242947819)","(0.2888857469588422, 1.3790142543770452)","(0.24128979861675523, 1.6124941277080571)","(0.29467256567565253, 1.3948993806637116)","(0.27830047721365114, 1.4119926158490033)","(0.24706476251021786, 1.6491755685180705)","(0.19666978355018647, 2.051981390755188)"
"(0.2856155184739155, 1.3459331676576056)","(0.29922105365457274, 1.361523476924652)","(0.2621572726743318, 1.5628274230369223)","(0.2643899732105026, 1.5495195055469628)","(0.16496982936457716, 2.2812918942916656)","(0.33805004687108936, 1.258202476796362)","(0.28674874991512006, 1.4388035289461094)","(0.18448447816505664, 2.129161991492717)","(0.1972503178130452, 1.862540093662314)","(0.2599981425066729, 1.649778612005403)","(0.17767330270869067, 2.2088245760997314)","(0.1652623121967873, 2.2224369323904893)","(0.19017549545314572, 1.8910793883193402)","(0.15202995989974202, 2.2672158106998426)","(0.13280714480365022, 2.5665657376021733)","(0.14434531344049478, 2.3957123487045515)","(0.11184622407859472, 2.867281039343012)","(0.11731081915982874, 2.800609578973962)","(0.20116486558347813, 1.795705226234053)","(0.3035890990479452, 1.314598542060097)","(0.2577161713594851, 1.440077607804702)","(0.19185655620722541, 1.8944258570810126)","(0.2064539162642498, 1.7420577143861737)","(0.26703333176306027, 1.5356289902537228)","(0.2313760583530807, 1.6451252318686351)","(0.23927512962752193, 1.628635238977885)","(0.28018861558532265, 1.3886505855410214)","(0.22521190287049456, 1.6685473642684938)","(0.2759304291291597, 1.4777754913130443)","(0.2539936427294647, 1.5036155353252112)","(0.21751384243328156, 1.8298316007174305)","(0.20258037347601998, 1.9530862881961977)"
"(0.25948021073413174, 1.4773649127651203)","(0.26368389471784665, 1.5219654956057342)","(0.25691775962921026, 1.5955960233692883)","(0.2813015780192575, 1.4866869579089756)","(0.14680628578789, 2.5148121718696363)","(0.3196281413533129, 1.3247861792783369)","(0.2850899637012769, 1.4260046605412016)","(0.17790531681008134, 2.1702387874715)","(0.1891519078754504, 1.9603364070744793)","(0.24780909503018206, 1.7105634145593984)","(0.1782563734901138, 2.1893638875446233)","(0.15118673240320352, 2.4547924210061876)","(0.18800915559087408, 1.912070102215285)","(0.14649518185578592, 2.34469811802638)","(0.1346110928621133, 2.497811814162096)","(0.14832157168606439, 2.3110498563598916)","(0.11575138237980398, 2.8406010779867823)","(0.12322495268492173, 2.7402105420539806)","(0.22101555420328692, 1.6849580439539766)","(0.3008354843051014, 1.3525334615397462)","(0.269985562913232, 1.4044011171005202)","(0.19708070482541995, 1.8735298489206371)","(0.20804159225917296, 1.7609406605055904)","(0.25710299368674516, 1.619217765751732)","(0.22088081636033222, 1.7395476920523778)","(0.204135870989634, 1.8309493451197103)","(0.25621228985520295, 1.4942299300320137)","(0.18333727839356914, 1.9939407390910662)","(0.23274558347526644, 1.7423071419016398)","(0.22529159499761336, 1.6910582648183345)","(0.18333588263436149, 2.1176291849472477)","(0.2032720933429739, 1.9392338879182525)"
"(0.2691221644687468, 1.4223701115323597)","(0.26781610985014276, 1.4852742417636828)","(0.25566052964033475, 1.6325509347909513)","(0.28721860832380314, 1.4635442018206015)","(0.14385939767116135, 2.606057501415145)","(0.3120056956018757, 1.3115208972969061)","(0.28455953549564905, 1.4380496426351987)","(0.1644805310089423, 2.292247673580305)","(0.17510577643884623, 2.0693061124746612)","(0.23803089731425314, 1.771734866133239)","(0.17319645336393366, 2.2475286447859837)","(0.154042172448199, 2.3790945223216253)","(0.16200976455875837, 2.141014878198665)","(0.1293167540317346, 2.6173961221164084)","(0.12089921517349672, 2.742378940880425)","(0.12979108070670461, 2.597629588705505)","(0.09893662038942042, 3.2531518869483875)","(0.10077987389317353, 3.29844411934726)","(0.1929438396155497, 1.912308755792618)","(0.27642582995466775, 1.474969599395734)","(0.261274171192606, 1.4909262399948149)","(0.18878677612057942, 1.960131946033628)","(0.22430700523808006, 1.7335442953963978)","(0.27064498185529845, 1.5269489799648355)","(0.2357907073867714, 1.655991120116167)","(0.22311542929747233, 1.7192837488902286)","(0.2692210527306191, 1.4301382950439845)","(0.20377101724338836, 1.8350642469271692)","(0.2616309912776474, 1.556752218481468)","(0.22692762460829607, 1.6319905763456006)","(0.20100289303604996, 1.9317229726900542)","(0.21578265353046133, 1.8204724233127616)"
"(0.2716586934338915, 1.4332082870978688)","(0.269143487019508, 1.4896885929809924)","(0.2564612977114181, 1.6339000452268835)","(0.2749363913962373, 1.5002151989831034)","(0.14156461116765032, 2.7070044610484825)","(0.3087734000490794, 1.334958183024765)","(0.30145662600475476, 1.3753343379051308)","(0.15080085393644865, 2.520972972531848)","(0.14451121762434246, 2.4038634748209544)","(0.24379726297247833, 1.7625779056473365)","(0.17163176787985424, 2.2274309361513076)","(0.1361413838223252, 2.658401998709908)","(0.14305590007031818, 2.448234508527544)","(0.1259195376448191, 2.6699696965310205)","(0.11757001836618404, 2.85426311358137)","(0.12784558720273922, 2.6898621116917285)","(0.09878049417599837, 3.3909569137004345)","(0.09577765313820613, 3.5469996292579062)","(0.18557802462025222, 1.9937067077608879)","(0.28490401950307886, 1.4388667118614618)","(0.27246905534174115, 1.4450682175230232)","(0.18186461059812364, 1.9464922344181557)","(0.23885733191346317, 1.590476439206408)","(0.29368357970063863, 1.4283340917816996)","(0.2681577909306054, 1.4516527512314092)","(0.22675243178564225, 1.6700788816722139)","(0.27284382877204616, 1.4284627729740063)","(0.2023884251713446, 1.8727158634884022)","(0.25954936285780705, 1.583669850997597)","(0.22826935110370003, 1.6716496471689304)","(0.1920793942182469, 2.031039942912913)","(0.18491861019685452, 2.0587882803674393)"
"(0.2670224580903439, 1.4830784422450236)","(0.2735734804275239, 1.4640468031861626)","(0.2505846802956297, 1.6623658178498346)","(0.28495417603775075, 1.4146337006949674)","(0.15133713038658023, 2.521679906862611)","(0.3114650848085513, 1.32389894640004)","(0.3065122498340092, 1.3430326245728779)","(0.15479128697085393, 2.450155548086285)","(0.13613000928862168, 2.635393516360944)","(0.24631713362890575, 1.7351181954517578)","(0.16992445024315386, 2.232555813542688)","(0.13751360625330325, 2.6610519022156027)","(0.14014347849637365, 2.59152699141596)","(0.1265717424400395, 2.796569887703515)","(0.11907406077161548, 2.9792204190520533)","(0.1248397021258578, 2.893403703970123)","(0.09680574612924142, 3.71064669955254)","(0.09389915150984592, 3.8305921886122887)","(0.18178589711573026, 2.048457252880083)","(0.2730457741878028, 1.4997003621762575)","(0.2654843924186309, 1.4518548004167668)","(0.17953396744979677, 1.9961679673859793)","(0.2370742163451387, 1.617852936987169)","(0.28802082567597836, 1.4709165422902342)","(0.25580246398602086, 1.5458655193719995)","(0.21777532000468042, 1.7558131456060007)","(0.2762153710775517, 1.4325840165204904)","(0.1930607759307889, 1.9993953752557037)","(0.2460373008579882, 1.6735491917603376)","(0.22375741635059024, 1.7519964594209883)","(0.18893208530297434, 2.0736543868333985)","(0.16931207720691085, 2.241340065505399)"
"(0.27698323228830346, 1.4277736334116624)","(0.28752746915769867, 1.4003195335823742)","(0.2667974678700575, 1.5335869161167561)","(0.2917706591115807, 1.4087692983455191)","(0.15619589446442467, 2.447996615721612)","(0.2997985261497871, 1.3763362933899563)","(0.30559515032721296, 1.3539411875766891)","(0.17295051058751393, 2.1837170895913505)","(0.1442154350226611, 2.5007902721408963)","(0.24909802486501734, 1.7109812553158206)","(0.1751005886874123, 2.1887002283891084)","(0.13625421916259894, 2.699913950186769)","(0.1475795758000861, 2.5661101660686483)","(0.12811598053412343, 2.8304247508622864)","(0.11939103826625201, 3.0213705585277086)","(0.12444123602697287, 2.9212244381439527)","(0.09831626111921431, 3.7519601521350516)","(0.0966658322899607, 3.882710597797104)","(0.1883768960635064, 2.052170380525754)","(0.2817461121523104, 1.4488715366047489)","(0.2872412645718986, 1.3994970512829072)","(0.18293923928091735, 2.0603183770713156)","(0.25596761950657837, 1.5312719395459715)","(0.30675422935781005, 1.3786857625577749)","(0.2591654360607459, 1.529451445083326)","(0.20900019994880276, 1.8027375520267948)","(0.278414490922915, 1.4114395409373024)","(0.2014021180067285, 1.8959259767566856)","(0.2503721495247009, 1.6477796726765666)","(0.23452956018041346, 1.68068540866312)","(0.1980635880003306, 1.9373184036204933)","(0.17692710598459294, 2.1380804606080996)"
"(0.2779145659579101, 1.4387230341470973)","(0.2836434369954642, 1.4248243459077303)","(0.27628923997873533, 1.493341574149938)","(0.28458821266519746, 1.3968123925563325)","(0.15651781287158942, 2.4751686698162576)","(0.2947276926606689, 1.3880895241652689)","(0.3012780383688236, 1.3789784624853911)","(0.1803466026693953, 2.18933358835955)","(0.12903678879203642, 2.8433472431655638)","(0.25081493500661955, 1.6989598855084687)","(0.17613693779014894, 2.2645967211025213)","(0.12766362879239188, 2.8895981834772835)","(0.1379530593944456, 2.760187077012708)","(0.11968946228948928, 3.076776043705136)","(0.11414462522142294, 3.267377865603145)","(0.11802673602105715, 3.1599243572569393)","(0.09147235879225443, 4.101852562656666)","(0.08925144109146145, 4.216197711501415)","(0.17241767481210396, 2.2635399160666942)","(0.27874546346468543, 1.4632088757334465)","(0.2837750764048116, 1.4234651425122482)","(0.17425127465615187, 2.1841737411800457)","(0.23592608314344696, 1.641034421567328)","(0.3107930425391379, 1.3746694842384064)","(0.2584679445474218, 1.540823411330025)","(0.20566448350915037, 1.8138571463833277)","(0.29248028879270577, 1.3836108887147607)","(0.20760076471432307, 1.8574456672873207)","(0.2554838377698311, 1.6322599347784024)","(0.24185734815077178, 1.6686161285076342)","(0.20431869234397657, 1.8761986855915613)","(0.1806171106474415, 2.1211921147775086)"
"(0.2781304232651822, 1.4268562789674823)","(0.275102244444346, 1.487834114682913)","(0.27721077923878984, 1.5252763745269549)","(0.30606286688971523, 1.3639199755089368)","(0.1559243125528293, 2.4941671540235157)","(0.30803996503507175, 1.3162242147217205)","(0.31764880196149314, 1.338800894378184)","(0.19027796042791512, 2.119483371459213)","(0.13043256398639663, 2.8196909835112733)","(0.26938851813510684, 1.5996686744770758)","(0.18856862333002533, 2.1524605649825044)","(0.13225666188714402, 2.8480318670428377)","(0.13177446400104958, 2.895672849910897)","(0.1189875378374459, 3.1182260503234973)","(0.11487032033311996, 3.235823752360134)","(0.11034656693645956, 3.3721264375594786)","(0.08160055321173314, 4.6141355038955885)","(0.08339341303131664, 4.527926790488372)","(0.1665911314637382, 2.334149483866537)","(0.28034463143393784, 1.4481370587665447)","(0.273233780179817, 1.4965327123685261)","(0.16429274546383968, 2.3246401070527205)","(0.2362567130318993, 1.6479097119913324)","(0.31124915122811586, 1.3762091847202593)","(0.2563432836089284, 1.5512145616132242)","(0.20916020822378992, 1.7701048119903424)","(0.2943552110547391, 1.366851057400657)","(0.21510241177487954, 1.7825650971667277)","(0.2659438351005213, 1.56638810557641)","(0.249734834966531, 1.6117727899602088)","(0.21327326466124652, 1.804576526212565)","(0.19110529306591287, 2.0078818136892043)"
"(0.2527050874006366, 1.5552252014214845)","(0.270137499224519, 1.4935101852930077)","(0.2708412888469727, 1.5532342657482237)","(0.30722099952047427, 1.3839322848560371)","(0.15054177368271957, 2.595071710112956)","(0.3247632905195517, 1.2692633978665726)","(0.30952337936507845, 1.3427858958757886)","(0.20113744167745173, 1.9871128043424409)","(0.12712900119241133, 2.859924013929637)","(0.2630930149660309, 1.6229784464454176)","(0.1876400302844147, 2.1250818411968004)","(0.1296543493678139, 2.803843014745706)","(0.12967290893018876, 2.9204170775180365)","(0.11449539902335351, 3.14290429986832)","(0.10943988089282426, 3.322197990041603)","(0.1034320661653741, 3.5368064345731867)","(0.07718129970480368, 4.827227212365051)","(0.08331492793985573, 4.561633973810332)","(0.1616977709498248, 2.405339221987805)","(0.27390763931940054, 1.4810073962170105)","(0.2492834339158803, 1.6432372500571544)","(0.15702947967137157, 2.4308935645304723)","(0.2398923569263394, 1.5994319718552532)","(0.26259510483343834, 1.5867652585030414)","(0.2537543864959791, 1.536000647732465)","(0.19748388850198262, 1.842241486983019)","(0.27241180782990954, 1.464764528185767)","(0.19017522849378324, 1.9322267355318523)","(0.23998218537464036, 1.699827182464917)","(0.2384432889573177, 1.6875516335198695)","(0.19513666886816844, 1.9282217938915265)","(0.18028867459067216, 2.1416640593340293)"
"(0.2525474059473335, 1.5755731112120275)","(0.27307040915668074, 1.4840098548360725)","(0.2698471330298262, 1.5810644223335037)","(0.3034013766157514, 1.4178530709022852)","(0.1556979524604668, 2.5304928208907396)","(0.32081117239166135, 1.274402970795743)","(0.32317261312775464, 1.334258484385591)","(0.20047094447084865, 2.0047112480919527)","(0.1342681144966917, 2.7680160574778125)","(0.2690865936844878, 1.5599738283406428)","(0.2039758787687565, 1.916816658496051)","(0.13966543316142788, 2.617130577152586)","(0.130297291869449, 2.8956776760258593)","(0.1210039521507455, 2.9377297512131166)","(0.12162797543389363, 2.931323250554947)","(0.11285368673704317, 3.2090383262374083)","(0.0845249782160963, 4.39693667949702)","(0.09212554434794834, 4.0653194682657485)","(0.16503021534432255, 2.333930100561937)","(0.2830283497704999, 1.43317426506254)","(0.24511681327341936, 1.6576582582045398)","(0.15605477758856795, 2.43004261795944)","(0.24270938625435437, 1.6006097499069003)","(0.25933346323851175, 1.5814146631703427)","(0.25750439233910316, 1.5460959016154883)","(0.19012370635262513, 1.9532725846579333)","(0.27251365639406216, 1.4926494813705238)","(0.19198243774745635, 1.941205529455615)","(0.23859632434422484, 1.7429400210884953)","(0.23966460623213115, 1.6929298355741698)","(0.1834340766484767, 2.093216539095423)","(0.17247879956923162, 2.2068495648181754)"
"(0.2593529230029126, 1.5666174594569395)","(0.27303312958475634, 1.4693632938211605)","(0.2759560497101028, 1.5626117259524481)","(0.3046915236034729, 1.3594787211652493)","(0.1692242248408433, 2.3386070890957913)","(0.3303679049472459, 1.2528061374808868)","(0.321219005375601, 1.3398614085329243)","(0.20056810987352866, 2.032719565728091)","(0.138740815985741, 2.6684148928292735)","(0.25903085970460116, 1.6119417732905144)","(0.18686007533641272, 2.0251825382677633)","(0.14321307848989376, 2.500402276810494)","(0.1286899013463801, 2.8876398639818324)","(0.12128965808753714, 2.890229643167276)","(0.11990290507397341, 2.9097729375913826)","(0.11335261974950055, 3.091445908070005)","(0.08431294054796373, 4.4075321537896)","(0.09114508713308969, 4.180586539415292)","(0.16139777297807092, 2.420226804153847)","(0.2812085333344763, 1.4469048025202367)","(0.23995567980108126, 1.6983167341353125)","(0.15582911819700124, 2.4682021907442913)","(0.2381796131957202, 1.6494234066212137)","(0.23990305616450935, 1.738897959270878)","(0.2523555165203909, 1.5823057679197934)","(0.189012577770219, 2.020417161024938)","(0.2730995965669632, 1.4992615998137326)","(0.19089148657994354, 1.9897533167311812)","(0.24285557495922538, 1.7200180090864874)","(0.2499756412691042, 1.6370772382764027)","(0.19408182709718763, 1.9914506345066316)","(0.159482533084311, 2.401992034412791)"
"(0.28608214914190344, 1.4220444273530237)","(0.3000951251729849, 1.3443344632345477)","(0.27870649511137086, 1.5497542734604062)","(0.3393696273009773, 1.2466041056997765)","(0.20721007073797135, 1.9301855708656586)","(0.3509486677716983, 1.211229525953617)","(0.3239735496654188, 1.3316009952824257)","(0.2026565937670014, 2.038500266969429)","(0.1506156043502389, 2.4779996489453633)","(0.2769780143562668, 1.5202892112052122)","(0.19840843979794143, 1.935459131173871)","(0.16085617256268386, 2.2359564136555505)","(0.13310226817399104, 2.8860179806882016)","(0.12686279558819125, 2.8543858869572434)","(0.11875041043941142, 3.054914892963353)","(0.11542906279128207, 3.1454259051243096)","(0.08523584020142495, 4.437350397942664)","(0.0912165200085528, 4.285062092420796)","(0.16548972151426278, 2.41920377713886)","(0.2859407284754164, 1.445876527397387)","(0.24916192809788856, 1.678912276296692)","(0.1589795313227276, 2.477622884041085)","(0.2363073061758654, 1.7401487662689616)","(0.25086362391687916, 1.6403037483409955)","(0.2704853182594954, 1.518837573379705)","(0.2059598684226904, 1.9455651557964941)","(0.29970797115788, 1.4041278680045124)","(0.22742833562352446, 1.7386611933311227)","(0.2796734527706044, 1.5105932324232598)","(0.28257340119461044, 1.468905304009742)","(0.24217447004922438, 1.6543172258842382)","(0.15964771902890212, 2.4117178742579344)"
"(0.27025866995536846, 1.510438151698362)","(0.2913067751088741, 1.382800637792575)","(0.2753454488873105, 1.558187570993525)","(0.32796775627613944, 1.290819162142381)","(0.20648745026319026, 1.893884266738134)","(0.347232890088059, 1.2283526157515274)","(0.31831418326773187, 1.3507624552507445)","(0.226706327077373, 1.8485162191960203)","(0.15743149740655948, 2.3723989375728265)","(0.30340689950323024, 1.4183707285824982)","(0.2123276796078814, 1.868406520391637)","(0.17524623471902234, 2.087162312120332)","(0.14778827078049625, 2.6396086326865316)","(0.14021348182402196, 2.62375701084626)","(0.13502638857164917, 2.7315097080056367)","(0.12747980729919178, 2.911787827304084)","(0.09270322815766682, 4.157919612288691)","(0.10074582775731243, 3.8817396210626147)","(0.17499452815773175, 2.2690302776998736)","(0.29478674509447406, 1.3957947502091919)","(0.25693525206647927, 1.612440834869208)","(0.15813161205422815, 2.4731598484248307)","(0.2036725387906638, 1.9907216094943256)","(0.24018524773943117, 1.7125018356758264)","(0.2609550075890297, 1.5826829962423148)","(0.1898172988141754, 2.088999166454909)","(0.2743389161684086, 1.555302583205129)","(0.2015814824787921, 1.9660031607814688)","(0.24330847870693978, 1.7492618454335112)","(0.2669156553591935, 1.568011667038472)","(0.21951262555209614, 1.8390091642551665)","(0.16208921498938675, 2.371229202889732)"
"(0.26957491199326, 1.5085150763984572)","(0.28021075558764125, 1.4075753089525214)","(0.28782792087004994, 1.458521849331191)","(0.3309732260453, 1.2713379771042284)","(0.2074819959592418, 1.8137832533181188)","(0.35436429614207793, 1.1908505010437502)","(0.30995297835606705, 1.379200527252177)","(0.23620023254576258, 1.7335312593909515)","(0.17612057663070502, 2.177029791776932)","(0.2925456679902252, 1.4481218643739544)","(0.21555206497226667, 1.8482545843600688)","(0.19235765238634714, 1.9467184506114152)","(0.15986309663901596, 2.4709639529369487)","(0.1372399125018249, 2.749963432297504)","(0.14437985354265365, 2.6060173366086716)","(0.13593986040162345, 2.8304860916700028)","(0.09668680831878468, 4.08877033124142)","(0.11155040581440336, 3.6184836865726435)","(0.1976416191141428, 2.0605707711161347)","(0.30004019254350156, 1.3766182483793608)","(0.26573370567005383, 1.575031540071906)","(0.16807311541894263, 2.4304497812012573)","(0.1992216879733319, 2.0817570529876916)","(0.2357260808834549, 1.712433321262497)","(0.25024454668278023, 1.6769652677351432)","(0.18935441032756856, 2.135612374184833)","(0.27073341125822925, 1.5699318367746715)","(0.2015458357683192, 2.003227713101663)","(0.242071181502824, 1.765974230539826)","(0.2611351704408946, 1.605738381662388)","(0.21785732506195393, 1.8530554125683762)","(0.17917758299701325, 2.2090215531619544)"
"(0.2709583561897292, 1.4696129792046264)","(0.28605138535152264, 1.3838611826870897)","(0.2941880817824183, 1.426677994207235)","(0.331504582828358, 1.266616734089211)","(0.21155698711004817, 1.8309642105617414)","(0.3494391983896821, 1.2113896377914914)","(0.30816777868369494, 1.3793588371362908)","(0.25375829204304856, 1.607139569157537)","(0.1777658217554512, 2.114809109628228)","(0.2872740475098492, 1.4747259902900842)","(0.21432772339157416, 1.8526123224748567)","(0.1858152844296265, 1.9985150520056207)","(0.15214584396130906, 2.5701095527718936)","(0.12906876454197588, 2.84852702868375)","(0.1405617706324965, 2.6257104714920403)","(0.1366829856253952, 2.7612473955511962)","(0.09772834801684988, 3.9644102463755226)","(0.11408803845994608, 3.4647761525928242)","(0.20422435401745914, 1.9852421025340758)","(0.3089474966869768, 1.3217493751605942)","(0.27855179118456064, 1.5016195232421055)","(0.17623631801787246, 2.348993522040619)","(0.21755267530288716, 1.9139211591337997)","(0.27029392010352876, 1.4693593263113376)","(0.2588423108563846, 1.6378859822477825)","(0.2028329238485125, 2.01341083629462)","(0.2690407338464268, 1.5823812014246035)","(0.21313493259800845, 1.8982783559756333)","(0.2555426651169737, 1.7064453365744274)","(0.262410874464341, 1.6052078736794761)","(0.2351798627359848, 1.752753531332549)","(0.19364695649685768, 2.0546387018521206)"
"(0.27266554744759236, 1.445070067306213)","(0.2799235612202602, 1.4010343149452018)","(0.3011637637145797, 1.4138003595093995)","(0.33111518240604654, 1.281416506928827)","(0.19637274674300226, 2.000747911420754)","(0.3448705046359312, 1.251949533800738)","(0.3069159169624204, 1.3996009327743133)","(0.23706482204044174, 1.7199301031520633)","(0.15343099691751524, 2.4747508280422044)","(0.26509956415784186, 1.5740236663861544)","(0.19987794818033794, 1.956648872270281)","(0.17029283857949767, 2.1999785245211427)","(0.142863986511726, 2.7205556924486753)","(0.1229238477720572, 2.959509032471512)","(0.13103803765549427, 2.8107718966579256)","(0.1282179690260398, 2.9348296578430118)","(0.09582113359837623, 4.018450994486588)","(0.10826333265139802, 3.606863779625751)","(0.20060555780758918, 2.0026555975529163)","(0.3092145214131451, 1.3332109966803625)","(0.26975717298645574, 1.5251057248626865)","(0.18896883413685375, 2.1347096274919335)","(0.23123799542832293, 1.7906040345905705)","(0.26401694270291276, 1.4985072579791363)","(0.264406605436294, 1.602092822524446)","(0.22378763287715583, 1.8119933012421627)","(0.2788768518105222, 1.5342655267311611)","(0.22837003572671014, 1.7907171254776875)","(0.27781896640406933, 1.5930565345889245)","(0.26723857341030255, 1.550834947952924)","(0.250645599206931, 1.6566670039256262)","(0.1999270484270946, 2.0179739997752435)"
"(0.27261995451333565, 1.4629120362363968)","(0.27496109778656325, 1.4534260508354042)","(0.3016434704073175, 1.408974375018606)","(0.3309132693789814, 1.2915932140041155)","(0.20143278107606163, 1.9621944430783655)","(0.33058019640074404, 1.2840603669249997)","(0.31417757069932495, 1.3810919500212662)","(0.22734855569783236, 1.6980899554005313)","(0.17873772555671183, 2.136112614816614)","(0.2604534450711378, 1.588385697453252)","(0.20387666090940781, 1.8810918049928014)","(0.17790245140795408, 2.1164442536525896)","(0.14744064048503489, 2.6302241969339017)","(0.1267972495248403, 2.860692185365353)","(0.1332731059271373, 2.7212802044576914)","(0.1326560470434617, 2.793435963116774)","(0.09950506619170824, 3.8171621920391576)","(0.10940727079994933, 3.556800859088095)","(0.21327318317257346, 1.8823835413211023)","(0.3112911604429934, 1.3308309509110117)","(0.2805219259550934, 1.4825518565648852)","(0.2028175584547685, 1.9595351859588777)","(0.2699380272320701, 1.5260510167067005)","(0.26330261469801963, 1.4754985393756455)","(0.2788710647743555, 1.5165156644299234)","(0.26150971117200805, 1.559687823811674)","(0.2790986345173305, 1.5149768958108532)","(0.2336011957166763, 1.7546145974194918)","(0.27586994064289166, 1.6084275955774365)","(0.26507074021569654, 1.54989624373067)","(0.2610144422997459, 1.6154079357120237)","(0.21251462371729693, 1.871371950467147)"
"(0.291500128312898, 1.4147227113547902)","(0.2936787421039091, 1.3510033260829062)","(0.3332145467299269, 1.2818021805991096)","(0.3277640938886488, 1.2647525018260362)","(0.22440187623371474, 1.7799667504109526)","(0.33786163733914004, 1.258655534990459)","(0.3173453513495731, 1.3729446211577798)","(0.21206070700256938, 1.8004130741815096)","(0.17165881606927572, 2.2390775415372355)","(0.25043363133084917, 1.6164236227843445)","(0.20466499206720415, 1.8590192634526073)","(0.17707634058897664, 2.1151893797070516)","(0.15055536419923918, 2.5544841774361333)","(0.13508044326590687, 2.7008604701606593)","(0.13774943112504706, 2.6667349589276466)","(0.14016090013953392, 2.659036735477385)","(0.10952906125791768, 3.492624719299661)","(0.11698166254990602, 3.323825595409635)","(0.2145570647797917, 1.8746753862349674)","(0.3130526205552485, 1.3285689224090802)","(0.27949736215684295, 1.4781092686594521)","(0.20483799753102794, 1.9435142561939014)","(0.2781186323013399, 1.4844166277269537)","(0.2539315540728243, 1.5103531293757866)","(0.29387496245540506, 1.4402986659222068)","(0.28578739408488957, 1.4433685333324306)","(0.30114049145936717, 1.4213916155914792)","(0.2570568185952448, 1.632265747299334)","(0.28659797488881367, 1.5650475967315922)","(0.2704750937920527, 1.5322179263330442)","(0.2873473487895861, 1.4804429640626533)","(0.20112331189746332, 1.994821601779363)"
"(0.3149231596977745, 1.335376777288934)","(0.2958363900351535, 1.3465848995781344)","(0.32652006587805005, 1.3063945018986585)","(0.30846741819856693, 1.334784065481571)","(0.2151540285694457, 1.8443252385759854)","(0.3276303017328444, 1.2968594517792675)","(0.3124035512118347, 1.3747784937697385)","(0.1866070566545935, 2.037885872913332)","(0.17028539869326006, 2.2759494512726404)","(0.2572408305923139, 1.5941762127156403)","(0.20999468547507724, 1.8195989977515903)","(0.18288670509448976, 2.0690419596234753)","(0.16360701177239417, 2.3645447716329624)","(0.15203419184121147, 2.3925945970527382)","(0.15425473027127906, 2.3475308327018167)","(0.16039933768208856, 2.292698568221405)","(0.12882465152049258, 2.9411447487558924)","(0.13627300016659993, 2.8584110172309614)","(0.22703632778987, 1.7641053291150481)","(0.3200110705851339, 1.303770696954627)","(0.29755083124486553, 1.385168945189666)","(0.22566471381096173, 1.7696217362570121)","(0.28017842054894376, 1.4653794307545442)","(0.2767437580217631, 1.3785989315726077)","(0.3084741862563967, 1.3868676445652677)","(0.30285346201322927, 1.3785709432306832)","(0.32229753358358676, 1.3518602128457335)","(0.275375651101491, 1.5375851514887113)","(0.2940302802606522, 1.518575933071765)","(0.28888480185301874, 1.449694881501382)","(0.2879218529044488, 1.4904506653308651)","(0.20823112525505344, 1.9153155077533286)"
"(0.31011171880423777, 1.3536533390953576)","(0.29747242687766684, 1.3567005193600572)","(0.3047197521043674, 1.3797899128518794)","(0.2873453964334972, 1.433815632376777)","(0.22050907456985824, 1.8013346095975258)","(0.3198565612079854, 1.328232999009977)","(0.29072334760775304, 1.4431418356633712)","(0.17290426825465213, 2.170943727986426)","(0.16370227833397452, 2.3239670446715013)","(0.2502870408673725, 1.660259707090265)","(0.19923247811063113, 1.9686929670798083)","(0.17202063964963846, 2.224735288135886)","(0.17591262253772091, 2.18647374216367)","(0.1542107835577195, 2.3679337637701994)","(0.14945359777997488, 2.4560921342989124)","(0.16164234859873608, 2.304142608058256)","(0.1422311486059555, 2.666553751870873)","(0.15322509191937378, 2.5188246134796697)","(0.2361982527016487, 1.6946203289091666)","(0.31788510444680523, 1.3123799208291105)","(0.30219499435826025, 1.372792351179629)","(0.24094864796462723, 1.6746575254190248)","(0.2747463291583143, 1.496943255329218)","(0.27291552950111614, 1.4237123607071211)","(0.30106397389730205, 1.4112112318893573)","(0.28390400642146324, 1.4508187708410882)","(0.3190696673781194, 1.3649117694772968)","(0.26893399791575456, 1.5842039778168742)","(0.28683548907931405, 1.5505910078483511)","(0.2952314353115144, 1.4087967979957732)","(0.28244726750011084, 1.51175963624857)","(0.20511750582045318, 1.9643476511096027)"
"(0.2792389465606302, 1.4945480648726346)","(0.27132596605224557, 1.4821430947366452)","(0.2510294405946794, 1.6509018853756519)","(0.2596770350260018, 1.646605915572989)","(0.20359833629670945, 1.9333858020501287)","(0.29182516353498056, 1.4497307221309248)","(0.29771813494709376, 1.4472203029483868)","(0.16914089559224552, 2.197216538191827)","(0.1633012113148785, 2.2810431896072454)","(0.25478856052765175, 1.6334890690502148)","(0.21472081124808293, 1.8561886314741487)","(0.1731638290900985, 2.1334456457811983)","(0.18088742262475854, 2.0447706525665907)","(0.16123979717762435, 2.2005633892253056)","(0.1559345618258746, 2.2774548988171555)","(0.16474533464005867, 2.2053121700074114)","(0.15479155756801183, 2.3040304871524953)","(0.15612517520968422, 2.3330703400420165)","(0.23573326531834682, 1.6319695583289382)","(0.3141234468637107, 1.3161613935088843)","(0.2801717764767805, 1.4694300837212186)","(0.24136350060151976, 1.6290923853840948)","(0.23583840357440664, 1.724217345346326)","(0.2644083827185416, 1.4522446754511726)","(0.26093968677631796, 1.6045919706703196)","(0.2220600570883035, 1.829528832747553)","(0.2906013272656842, 1.4825036439746873)","(0.22600750372406017, 1.8638755788915344)","(0.27424230678857736, 1.5997079189099461)","(0.27079317295737765, 1.54002793481751)","(0.22423451321215737, 1.8943933217399576)","(0.20435732730961698, 1.9714917890519796)"
"(0.25818271533052733, 1.5937639643560084)","(0.27509879496131356, 1.5107768883986905)","(0.2474371511997997, 1.6544812842994248)","(0.25302202139830005, 1.6310903132504453)","(0.19767746905485936, 1.9576185578432614)","(0.27919848560819077, 1.470221742962444)","(0.3004746821175246, 1.4762348283670095)","(0.16052163878480705, 2.274664332798486)","(0.15608890529616046, 2.3342843200406036)","(0.2363918488147778, 1.7729135215286314)","(0.19180949981023157, 2.079659455792797)","(0.16376819429301093, 2.241031110518762)","(0.17151637035035194, 2.0641091085389154)","(0.14984385534550182, 2.300840758974148)","(0.1405660429401849, 2.479517916580163)","(0.1562077572402791, 2.286712775439142)","(0.14446875275955406, 2.4019819494872245)","(0.14835045449265857, 2.319744668997105)","(0.22435395814469605, 1.6407379179882162)","(0.3088891287085159, 1.305994426318909)","(0.26842571479364447, 1.468619033086459)","(0.2335033761860967, 1.6315426293057163)","(0.21523753136199866, 1.809284634280876)","(0.24954218073908485, 1.5363873923973084)","(0.25071456978734763, 1.6395422446276966)","(0.2083889919417222, 1.8931428451739984)","(0.2684894663688426, 1.5869478918995987)","(0.2038753047131346, 2.042779422084141)","(0.2648167272384204, 1.6502904968510046)","(0.25093586771463, 1.633819992622683)","(0.20615625893360842, 2.0146304699827993)","(0.1995295568288145, 1.9702836871815634)"
"(0.25707067916441917, 1.5885277268263782)","(0.27836587510797733, 1.5074495394109186)","(0.25398372402722996, 1.592080286100203)","(0.25986034112236867, 1.5902526743208256)","(0.1963152292900562, 1.9660098020918229)","(0.28312650680049645, 1.4543881921730857)","(0.30555612239617413, 1.4359109879009786)","(0.13806466467844353, 2.551666952687444)","(0.14778991238423034, 2.485469267492081)","(0.21386252444860382, 1.9220896492767896)","(0.18010502659628103, 2.1650560088419737)","(0.14218189139198534, 2.542910817214586)","(0.15842482090456758, 2.252589639883952)","(0.13751512514176129, 2.4669565245993486)","(0.12924775731850435, 2.6665755878608577)","(0.14860934567596748, 2.3731194428061992)","(0.13414032050202265, 2.5396751176394203)","(0.1426641643696032, 2.4163584536884968)","(0.21532085279031848, 1.7272519145594365)","(0.3043623721485029, 1.3478354719623087)","(0.25634478499008023, 1.540846846063693)","(0.21255792362198445, 1.8177956251668115)","(0.2268907165172701, 1.7036660938626826)","(0.24856550769066454, 1.5509065626754417)","(0.25011139559879425, 1.6259919658320323)","(0.21911114588418673, 1.8027989782348282)","(0.2797997165655107, 1.518458343545945)","(0.21005540825441577, 1.9710565602562176)","(0.2704226399508364, 1.62544788210926)","(0.2581321410133952, 1.5790826828843745)","(0.21553041854343055, 1.9113582507095574)","(0.19712479722529508, 2.010955357526911)"
"(0.2511471585779751, 1.6264322540763145)","(0.28125946392621953, 1.4823684400684318)","(0.22768466564849582, 1.7667788908961686)","(0.2437960641915828, 1.7455860296919694)","(0.19140082544536924, 2.0494510755252344)","(0.279279145190817, 1.4894133126017046)","(0.3133478268830959, 1.4020575311514618)","(0.134471112006972, 2.6341660669800007)","(0.13670513676950627, 2.556733073185219)","(0.2207525819013788, 1.866347409656441)","(0.18360680945169078, 2.1486152244550696)","(0.14576964233734876, 2.382194100856736)","(0.1617713087114887, 2.142656262826669)","(0.14360878677798253, 2.2560415297007848)","(0.12905182988904015, 2.575972391370759)","(0.14810942483528725, 2.2937723853197483)","(0.13902492369090708, 2.3894032459815278)","(0.14515078565113507, 2.2603441194494556)","(0.2095303868222631, 1.6982065561883348)","(0.2995515550235657, 1.356059403552583)","(0.2515460844027976, 1.5347220558291192)","(0.2057352677599119, 1.8241830364851968)","(0.21981282090849463, 1.7464342324153403)","(0.24168123295732225, 1.594890652571271)","(0.23964861425667566, 1.7030928414008286)","(0.2082958081713135, 1.8881846886183198)","(0.28417483265119153, 1.488805276594492)","(0.20671512747617338, 1.9877132591217177)","(0.27290305000548043, 1.6044797532318915)","(0.2579072984741223, 1.573506281686092)","(0.2096761118306638, 1.9521308703471592)","(0.1847577350852406, 2.111638820475098)"
"(0.24949963286567456, 1.6378015290706165)","(0.2807471526920598, 1.4729600382075958)","(0.2180095082860157, 1.8266873455776387)","(0.2549431342899203, 1.635647195719969)","(0.19195457682029213, 1.9855183442860005)","(0.28132337962937126, 1.4322537079988629)","(0.30991014751557594, 1.431050802532467)","(0.13621018627450335, 2.634142933997351)","(0.13425930688993565, 2.587376598186607)","(0.221302178177706, 1.9158012319169213)","(0.18000330196478062, 2.2079443578264972)","(0.1439597643283714, 2.404896592312146)","(0.17480446952856676, 1.94222649903574)","(0.15213497778945045, 2.1214951046298696)","(0.1207447564788624, 2.674135435688039)","(0.14503764363204916, 2.2881880971677773)","(0.14256904479960408, 2.268359984455585)","(0.1491903335819908, 2.1926274228208764)","(0.2148384430062827, 1.6715506028364502)","(0.29863327236284043, 1.3770142915224408)","(0.2558531021802729, 1.535957850688118)","(0.20854290979985776, 1.7932444609553235)","(0.21559212438044922, 1.7931553645297114)","(0.22546451911533963, 1.6912571147629767)","(0.22928628618392782, 1.7574648334742156)","(0.2055707452345598, 1.899468493215943)","(0.27850889297041864, 1.4920335923544892)","(0.19963120995671285, 2.0158558381828526)","(0.27617564187655713, 1.5353268083056213)","(0.26404245871239584, 1.5047875668327948)","(0.21466201705445603, 1.8539483530603027)","(0.16953954069325478, 2.311752672434417)"
"(0.23975571098127213, 1.7008565835582077)","(0.28289825307728234, 1.4440548544464955)","(0.2132012326342701, 1.8344164271225498)","(0.26165061259162675, 1.5751078680818753)","(0.2075874951389079, 1.8480136961301223)","(0.29219142231821976, 1.376441990857013)","(0.322888580308155, 1.359239523896038)","(0.1482852350485259, 2.468164955560325)","(0.16686577488453602, 2.0919339464887154)","(0.23290927619710175, 1.8343041624132972)","(0.19624158018162866, 2.0474467568925747)","(0.15772826425326986, 2.185171105840591)","(0.1766522229108369, 1.8996298149080115)","(0.15946854945117836, 2.0164536040888454)","(0.1279487067674174, 2.5061196968939403)","(0.1531864122592858, 2.137871658820458)","(0.14393272194021983, 2.2313369461888284)","(0.1638735358910187, 2.00598465562378)","(0.21912795964605766, 1.6526424276270502)","(0.3026508315856178, 1.3620439127331967)","(0.2548591743255632, 1.5720519671442708)","(0.20990312235389372, 1.8229344009377884)","(0.21191435914877133, 1.865910824685975)","(0.2254281275478379, 1.7067229413712723)","(0.22741367259692097, 1.8072862554763676)","(0.2048279208598789, 1.9281879706540375)","(0.2630600782475881, 1.5838022515023225)","(0.1927305239897389, 2.087676208030207)","(0.2605730109928598, 1.6111959993300728)","(0.2575701679975897, 1.5751507996042078)","(0.21887502203121115, 1.8352730970995548)","(0.15326966666682348, 2.53542640827169)"
"(0.2408685201731891, 1.7015683329232296)","(0.2677615046794, 1.5205462524197393)","(0.21747609090779088, 1.763488563679513)","(0.27534804061781504, 1.497590689344273)","(0.2203543842635164, 1.663150433950639)","(0.31630121639443076, 1.3070621321985574)","(0.3229913919221844, 1.3308579881366744)","(0.14622684927930912, 2.6137736434527867)","(0.17172397832970465, 2.0582334177627026)","(0.23893094888420477, 1.7989017967163323)","(0.19186475861798993, 2.048163273342387)","(0.1557293241695532, 2.1725181479581885)","(0.18231246494560918, 1.8512251940372357)","(0.16516747531322387, 1.8928556657629816)","(0.12318249642709335, 2.495065173498429)","(0.14967404552808858, 2.16114886633263)","(0.1466049030922473, 2.1574891577210185)","(0.1728705595072048, 1.9317836596969205)","(0.22912692034117849, 1.5882258471366355)","(0.3054358864832872, 1.35063150433462)","(0.2557020783174564, 1.5567326342678747)","(0.21106859380316534, 1.816172700858412)","(0.21544130614473658, 1.800288423625048)","(0.22366183053288466, 1.6979812517578161)","(0.2249196062359096, 1.7710711596969364)","(0.20383884177811776, 1.8256409483612919)","(0.2398094239729331, 1.684829106179482)","(0.1971736924879422, 1.9463041286264247)","(0.25658919529998103, 1.58710440807741)","(0.2586156465027496, 1.5413731572457492)","(0.21840677344451503, 1.7604139202446891)","(0.1565614770382131, 2.3974047147645026)"
"(0.23018597035419744, 1.745199363497243)","(0.2660685655533179, 1.5307151470336005)","(0.1994667434330775, 1.8018054122469687)","(0.26040412659553985, 1.5877496721188047)","(0.22034168124964984, 1.6552493739577427)","(0.31474993022465936, 1.322119967495773)","(0.31954891821796505, 1.3453696635927772)","(0.15419557495321182, 2.5234047128988673)","(0.15815866867109518, 2.2078435027736134)","(0.23693614618070644, 1.7949716606922896)","(0.19021561745554588, 2.070972668795418)","(0.15800097704899904, 2.1231228070021113)","(0.1870440308729133, 1.8412410827914862)","(0.16506786721221045, 1.9040364392181526)","(0.12212052808930651, 2.5147040221088393)","(0.14913173219530135, 2.1890872345803825)","(0.14940493445607989, 2.119572712464338)","(0.17316438340063586, 1.9658261729645679)","(0.232563921219009, 1.6042696085628851)","(0.3009512410621231, 1.3709597807744809)","(0.26046755694495854, 1.5512741603452773)","(0.21806057008547816, 1.7879539275617797)","(0.2231855921846602, 1.7743651609455091)","(0.2249862044832368, 1.654549234614773)","(0.2250118242913632, 1.7956179073554617)","(0.19443249217124123, 1.9008206795882616)","(0.22623668156208143, 1.7609670904884818)","(0.19262658660679974, 1.9324914286640853)","(0.24612625169204308, 1.6255072305996425)","(0.2571132553753399, 1.545685889001823)","(0.21371904362842717, 1.7633399718611191)","(0.14141169760134328, 2.6822564461430654)"
"(0.2319763130057607, 1.7302997780370981)","(0.2623663573345135, 1.550340345122607)","(0.20180738630171227, 1.7843733166418412)","(0.2683778265115273, 1.5336975787399503)","(0.22319194498301306, 1.6444523455922415)","(0.31529429257296804, 1.3076175272622856)","(0.33063306668031683, 1.311536252658039)","(0.15984150177618367, 2.453627055510052)","(0.17375410418482257, 2.1107962743144153)","(0.23973116005526132, 1.7836873870323162)","(0.19077817183523765, 2.0946880382345356)","(0.1653621312651819, 2.086121183169915)","(0.18448489973437315, 1.8702814922053341)","(0.16537349518763028, 1.95783458814397)","(0.12405528159878691, 2.5767535734154703)","(0.14462693168347573, 2.2412286609985523)","(0.13723796294774485, 2.321798821804247)","(0.16680780261823583, 2.071311124720109)","(0.23291960750306162, 1.6394658353017169)","(0.30885614894527547, 1.344355623834966)","(0.26387162091606553, 1.552098627678536)","(0.21629273424379586, 1.795322943966337)","(0.22621579014731943, 1.784932864873264)","(0.2171266891795031, 1.756428279348846)","(0.22064446676751945, 1.7972949684389574)","(0.19279368631621313, 1.9048922254681515)","(0.22679075428671555, 1.723903235823404)","(0.18506697741776465, 1.9723970766574015)","(0.23380012855201832, 1.7128117386433914)","(0.25047153277448064, 1.592022969946056)","(0.21949552932224242, 1.704951310829269)","(0.12390696599612504, 3.0495676514936347)"
"(0.2415844731078835, 1.6532224345544522)","(0.2603636464090052, 1.566080021150074)","(0.20587734216471243, 1.8002227296655826)","(0.2832290419486728, 1.4798641243998512)","(0.22372004292550324, 1.6333942149277443)","(0.3280195214505864, 1.2915315211892204)","(0.3177881773641043, 1.358876727900158)","(0.18444069677769748, 2.2143955923004213)","(0.19648027446447278, 1.9067888600426228)","(0.24583748383970377, 1.7149694543886893)","(0.1992875605124977, 1.9727255903999845)","(0.17976505928214398, 1.910148292021482)","(0.18082263393770137, 1.960413301361936)","(0.17231961168276477, 1.919105691980124)","(0.1279098803057575, 2.5278231516710967)","(0.1463580620811702, 2.2288335585438945)","(0.13124006783524805, 2.4579584820676956)","(0.16184004449823922, 2.195900959005881)","(0.2369028493780645, 1.654749589128362)","(0.3168322214643899, 1.3248238569104764)","(0.2712338116261479, 1.5518075880121909)","(0.21437034766754293, 1.8503942793619452)","(0.21794936534417553, 1.9153672814040696)","(0.22421986699543647, 1.7260612095783638)","(0.21985776452049746, 1.8766785981430223)","(0.1941779566690395, 1.9375989355658343)","(0.22952616385089886, 1.6989226385124594)","(0.19048315954978534, 1.9294763991499833)","(0.2439976383114031, 1.6293207160145302)","(0.2529578738299827, 1.5629167100066161)","(0.2213030245729152, 1.6777445803306938)","(0.12495227205822032, 3.046992667820934)"
"(0.2509136307455653, 1.605146529947267)","(0.29168262826469266, 1.4370173750347)","(0.2538075487005152, 1.4630572102524149)","(0.3099022098081765, 1.3476545831798907)","(0.22180161607089566, 1.6286848664783762)","(0.35499300834550374, 1.203619017203898)","(0.3117311137956171, 1.3660251230913139)","(0.2153703800998434, 1.8659712733984042)","(0.188228389937043, 2.071825532521486)","(0.24856536105179203, 1.702756439715162)","(0.2077438093130228, 1.9441482530802967)","(0.17278813134786306, 2.1327316322022303)","(0.17919689401175226, 2.167409244221434)","(0.1782435518059409, 2.006008325453218)","(0.12653310896351366, 2.7316914129501204)","(0.14609815095623876, 2.424167530148845)","(0.12448071601552704, 2.869296675792536)","(0.1617630710536449, 2.3849413399977486)","(0.24902062640012598, 1.6664616845596463)","(0.3267655566018741, 1.29859962493879)","(0.29355919048449264, 1.4646994701876506)","(0.21519392344666768, 1.9132170309102596)","(0.2337595929777974, 1.8041399163895844)","(0.23451170186219047, 1.7147271258800207)","(0.2543060145855115, 1.6408792747220928)","(0.22132216713321082, 1.7012748000454003)","(0.23807004283859978, 1.6469375342118626)","(0.205493167296395, 1.8148655304497823)","(0.2484410288480834, 1.6570613010391706)","(0.261501676660862, 1.5263287935484666)","(0.24720902585589571, 1.5538693069821812)","(0.12605638386512982, 2.9949896895190555)"
"(0.23278489562305055, 1.7063794347034904)","(0.2478858442053313, 1.594307461165121)","(0.22916793782234526, 1.6299318302922177)","(0.2635394501740388, 1.586430882090739)","(0.21983432408306436, 1.6427623425579412)","(0.3018231617318104, 1.4120816737927442)","(0.2895545481622936, 1.459254679984276)","(0.20801594715600555, 1.907268135486377)","(0.19732710888390087, 2.0297008850401492)","(0.25190554164345447, 1.6592259111711236)","(0.22361733365986092, 1.8000009793754803)","(0.17839212188900228, 2.0956226677255674)","(0.18478407730581303, 2.1426241774370327)","(0.19794440998543275, 1.9274509440195557)","(0.14203022185906505, 2.5995381369576114)","(0.1582169518320131, 2.3919716833222986)","(0.13847458626974177, 2.7683624653984493)","(0.17768642504425103, 2.2430475908158365)","(0.2656965190650611, 1.5571077299073373)","(0.32520347193204613, 1.3031102822050704)","(0.30468502919161367, 1.3989732952083576)","(0.22140718452732938, 1.8685677088631616)","(0.25046810845692513, 1.6535489209264171)","(0.22495778819823184, 1.741150400981003)","(0.25473089097358265, 1.6204982034069828)","(0.2217604112310017, 1.6412446255692046)","(0.24006094718964474, 1.5714155981294047)","(0.2010398353120442, 1.7860591810454536)","(0.22968318135923754, 1.7437734548839618)","(0.25365346594340865, 1.5328870703451483)","(0.2261106537256245, 1.6628511661545924)","(0.13652262587898623, 2.772428596061757)"
"(0.23446671121069707, 1.719268345348837)","(0.25210460411841784, 1.5673711196700846)","(0.2375149025732068, 1.6165061344217773)","(0.2594534545209431, 1.6111339233231678)","(0.225257094780135, 1.6169165820132403)","(0.2977229864498315, 1.4454641104664956)","(0.29791439288743043, 1.4177693651061658)","(0.22017396102770354, 1.822547345676745)","(0.20765045339078944, 1.9372310436877487)","(0.2707661165017621, 1.5188260313993633)","(0.25148477043419987, 1.5875850445115174)","(0.22380074382593057, 1.6883869674814305)","(0.22061451584837724, 1.7749284625655126)","(0.23353282397476183, 1.654607987423771)","(0.1722287398800883, 2.165931762080899)","(0.1754328745686355, 2.178985110939715)","(0.15686961277675696, 2.479515384895558)","(0.20009600470715647, 1.995367829766933)","(0.2819288461666314, 1.4618554023066284)","(0.3287067190450458, 1.2764306508723098)","(0.31353026256684163, 1.3634217397479123)","(0.2520892347115735, 1.6199724867838066)","(0.2644194931321875, 1.5896145396877313)","(0.21691056869858416, 1.7731426799428378)","(0.2641322219383693, 1.5693339154329276)","(0.21397421585618148, 1.6740599910522542)","(0.24039127700551918, 1.5341843189193611)","(0.19204063197606794, 1.841184542504302)","(0.22521054491798173, 1.7538044711291745)","(0.246197763962831, 1.5885481521460592)","(0.22291101149298626, 1.664590147200491)","(0.1376122311277405, 2.741374440323313)"
"(0.23837153901889716, 1.6760251555059638)","(0.2571896051713659, 1.5490405556124756)","(0.2420040727847291, 1.6058991416524566)","(0.26333155086538573, 1.5189782096666444)","(0.22307896487318224, 1.5880742079510446)","(0.28507117840584417, 1.4844431771057252)","(0.2985360814692063, 1.4187154102378212)","(0.2187881897225369, 1.8562757399102632)","(0.20708991696457216, 1.9224839646611092)","(0.27548946892272536, 1.4876482208673034)","(0.24747482685353336, 1.5881934842842074)","(0.21766000054038068, 1.7006004861744188)","(0.222000100840764, 1.7398716862450878)","(0.21001085656323906, 1.790817592834134)","(0.17072803563964786, 2.157397529892477)","(0.17339604805115832, 2.1885034075078584)","(0.15553682023180088, 2.476149074840142)","(0.1975300777462531, 2.020532401039296)","(0.2785090799941431, 1.4850415839144386)","(0.32880609699367036, 1.291379341505523)","(0.3118963283345118, 1.3834038108866895)","(0.2721350996942599, 1.4794926832048134)","(0.2652045867708132, 1.5683925806299175)","(0.22337969370702826, 1.757548098129261)","(0.2545407032092105, 1.6047904859322037)","(0.21886105455892427, 1.6273446361049158)","(0.24604346020074258, 1.505054628214278)","(0.19781780665086834, 1.7820237350189179)","(0.22413721537036266, 1.7241034861443305)","(0.25199165173736354, 1.5652549730537502)","(0.2264030717473755, 1.6167666660882507)","(0.14348000891493592, 2.6010928432523532)"
"(0.22347453784880145, 1.776719498504405)","(0.23474034436731903, 1.7014529727584091)","(0.21265250981906292, 1.8826436310049228)","(0.2532905778636961, 1.6306968162125723)","(0.21575664224528404, 1.648760485602633)","(0.2735778733294003, 1.5912533113154441)","(0.30667166326846373, 1.3807365102432392)","(0.1976248651186103, 2.0516539734113275)","(0.1967425114033461, 2.0221181012129628)","(0.279561219998364, 1.4490869711291008)","(0.2280664078451037, 1.6988072201637316)","(0.19323030441798145, 1.8790049830071014)","(0.17934317747526698, 2.1123460546179045)","(0.16626798923279604, 2.166125331346213)","(0.15522198438726761, 2.2637944902223124)","(0.14884576035446165, 2.418497127945716)","(0.14092874747775705, 2.584263680272954)","(0.16850726166878302, 2.2864953154201113)","(0.26068779407411213, 1.556840279290876)","(0.32644547622300096, 1.2894586947646225)","(0.31001151795077414, 1.3831129976023664)","(0.2594679529878329, 1.5452526538709106)","(0.2492143957316007, 1.651486492122337)","(0.21658658228616434, 1.781521984120298)","(0.2243996861784698, 1.8186351115037487)","(0.19856006436474843, 1.804169001525971)","(0.22304968041385914, 1.684440423744114)","(0.17194173836445803, 2.0638195503425814)","(0.19685453982008075, 1.9378664801264547)","(0.2405431094674977, 1.648279705388707)","(0.2000114124288067, 1.8492659406634424)","(0.15374550313125018, 2.4567456744899885)"
"(0.21678437697970515, 1.8638910461754232)","(0.2120289218857341, 1.8712876856629024)","(0.19969552859987455, 2.0193615288584503)","(0.24215961971811126, 1.7079391153485335)","(0.2182464521656509, 1.606840179822911)","(0.2706486802348966, 1.610939380008906)","(0.3098653032414648, 1.368834557098458)","(0.18937532377147928, 2.151606780151642)","(0.18548987823158114, 2.136664002030923)","(0.27832366057839797, 1.461174409699344)","(0.21592830962356294, 1.799614605289618)","(0.18177181212543203, 2.002000270728971)","(0.17045140297029285, 2.225819546295924)","(0.15599709665422737, 2.3023732121744724)","(0.14936703162299647, 2.3397114188084673)","(0.14299059449646478, 2.4903411748813586)","(0.13650951530415434, 2.632680311996047)","(0.16066340524857975, 2.3674816323089045)","(0.25877398056714185, 1.5687290993042762)","(0.3266190041366113, 1.289813744521922)","(0.31496600781390455, 1.357187107430926)","(0.26399043378287046, 1.5141200102673635)","(0.2565464944878988, 1.588890499795326)","(0.2179177700572937, 1.7782824442533283)","(0.23205968134147698, 1.7599010730443898)","(0.19824625467233212, 1.813187355051294)","(0.21092414140203586, 1.7851717961231701)","(0.16728530992788787, 2.1332954681511636)","(0.18656721840686177, 2.0179102521920766)","(0.22534416263271786, 1.7377913306610682)","(0.1827438874378449, 1.9915870895608805)","(0.17287203279707686, 2.2088201448411997)"
"(0.21225922806968525, 1.872041299651045)","(0.20612213390121062, 1.9128482705728378)","(0.19799410462528746, 2.0631018665360155)","(0.22110436106805006, 1.8724022541494234)","(0.16100326559257874, 2.2542788476941182)","(0.24834418224832855, 1.7639889697682019)","(0.2999534761321689, 1.4137176818251274)","(0.1718328788644077, 2.3645997693419556)","(0.17998077266244247, 2.171620717152444)","(0.26693795235753637, 1.5183569648160662)","(0.22179873935525618, 1.7957099291719425)","(0.18196094796558307, 2.0104262336107106)","(0.16543878404699272, 2.291743366412766)","(0.15422394853081334, 2.357002795403035)","(0.14390628791984317, 2.4875478587653)","(0.1368407438938861, 2.620325022568393)","(0.12863141127463493, 2.8249819253877884)","(0.1488561796809929, 2.575926939060626)","(0.24715338252670543, 1.6493741255480576)","(0.32522250206137776, 1.2944804269658117)","(0.31410610258673555, 1.3714117569196071)","(0.25691181845899846, 1.5608747975468702)","(0.2548234304348275, 1.6187581405804128)","(0.2239946527523777, 1.7530244697212187)","(0.2404095975182931, 1.7218967193109325)","(0.20078907399828044, 1.8591321998837589)","(0.21741416405529565, 1.7643282837852834)","(0.16329455698300768, 2.2463643374414657)","(0.18674897513333621, 2.0504423520245085)","(0.22123630918487305, 1.7834785701509317)","(0.17608406342864716, 2.1151362375010714)","(0.17664825596655984, 2.213207196431322)"
"(0.2064922056737601, 1.8941002641644848)","(0.19859691953946537, 2.012018168388907)","(0.19898878268199824, 2.1093787216245663)","(0.21683256833470194, 1.9118661101043712)","(0.13456064835529985, 2.6636762179191473)","(0.25112073899556564, 1.7704590986756965)","(0.2908957683264389, 1.4578023070425448)","(0.14319753971761756, 2.8127062645777947)","(0.18796847320827173, 2.1105542984083505)","(0.2683143415938982, 1.5190554193838923)","(0.22388945160375998, 1.7660923765893985)","(0.1826420301983054, 2.0221155574882443)","(0.16576010822523404, 2.299758101256059)","(0.15533091250921635, 2.3348515156349032)","(0.13922571642786172, 2.5568652611943357)","(0.13458017252004423, 2.650716861617222)","(0.12672516340945827, 2.870807345062518)","(0.14725914055631836, 2.5894884093150052)","(0.24016083008764882, 1.672168303857734)","(0.3238207745679116, 1.2958014990885145)","(0.30722324544508156, 1.3837029798172737)","(0.24472832840683253, 1.6216612367689323)","(0.25201205163457885, 1.6076460774274264)","(0.21836682450853898, 1.8424739500240503)","(0.23290147057567653, 1.7591971604053112)","(0.19937589969608374, 1.8584011425426834)","(0.21753658882576665, 1.7626385759375145)","(0.15885977982665622, 2.311981756091844)","(0.18752996231009345, 2.040953098450029)","(0.21623459813736404, 1.81378481566125)","(0.17283327379605956, 2.153587421351181)","(0.178713283412925, 2.1808085924751643)"
"(0.20163206501807693, 1.9071973456182063)","(0.19966586590775076, 2.0238039627823445)","(0.2017712183991232, 2.095579910794467)","(0.2125200859399972, 1.9516868979015638)","(0.13589987767672443, 2.5875806626708107)","(0.25580113345422534, 1.7401550605163014)","(0.29623448319267875, 1.4121437698873156)","(0.1394498679877737, 2.8646179018393827)","(0.17932871641068948, 2.1627268277393985)","(0.25780301479075407, 1.5571398505696015)","(0.2261105002709851, 1.7545500234250533)","(0.17600647779209133, 2.0805237425095244)","(0.1624079741738186, 2.3452682857894556)","(0.15379669276626187, 2.3840927413271618)","(0.1380262003335692, 2.616470639877815)","(0.1367164314853225, 2.681524984392253)","(0.138222296336576, 2.661432234609915)","(0.15294235854027152, 2.484430039427406)","(0.24461447738832837, 1.6202092733654483)","(0.32137788281499907, 1.2845409289881224)","(0.31524640113523456, 1.3354941201693449)","(0.2546526063371379, 1.5758681646832005)","(0.25607733220728, 1.5696416587549027)","(0.22629615081516757, 1.7362213627487435)","(0.2332331608590635, 1.752963571359837)","(0.20311693234496042, 1.82336323954324)","(0.21125996054050325, 1.816281537788012)","(0.15918056451999993, 2.302235647634277)","(0.19095684762803034, 1.999280996699289)","(0.21727386415815791, 1.7812162134829765)","(0.16820674641106603, 2.1893220616429323)","(0.20495415757937113, 1.9157840766542336)"
"(0.19718016874398156, 1.938424175588256)","(0.20096418588581344, 2.011402360229132)","(0.20164525481707346, 2.100692567784756)","(0.21298757215399006, 1.9437341897658864)","(0.12689562505987093, 2.7719512440424103)","(0.2533649791610108, 1.7506643739744412)","(0.31210400912570546, 1.3875600159648278)","(0.13586424963307253, 2.8716331311062735)","(0.16536605344280944, 2.3305347391579905)","(0.23647374636381666, 1.705809394550538)","(0.22638478844497095, 1.7477583655285804)","(0.17442650348841038, 2.108673996441249)","(0.15698028177483236, 2.397720274741262)","(0.14967475982575731, 2.444231477184215)","(0.14369730946562398, 2.5296627951392834)","(0.14048985947310624, 2.5981261537882645)","(0.14713775821788028, 2.483875115392501)","(0.15518543887155908, 2.3935192057449357)","(0.2321872979820045, 1.6724164312036638)","(0.30989211391722865, 1.3441057787431814)","(0.3108709243193798, 1.3414308243806479)","(0.24951849553881988, 1.564311512233326)","(0.2602479621568873, 1.517218524920231)","(0.2289962259375869, 1.7107167203900482)","(0.2270916410059385, 1.7663116367580343)","(0.19762430976126166, 1.8528756506223083)","(0.2032836474377287, 1.8988244122037998)","(0.15330971432280427, 2.3870905804816025)","(0.18741314693679267, 2.051092630105506)","(0.21468598544547526, 1.8335145338806083)","(0.16396341004818826, 2.2640161575788413)","(0.19582725255823308, 1.995344801309041)"
"(0.20851389939006557, 1.8643763382932683)","(0.20277723305630269, 1.9344728536636604)","(0.20443718752796802, 2.012130045822171)","(0.21698317699719144, 1.8689663322204744)","(0.13076335188747878, 2.778153994721309)","(0.2532316094443748, 1.7327728869737677)","(0.31302736424050576, 1.3740241297604117)","(0.14027471787158513, 2.8177022777881584)","(0.16669040501121998, 2.2394286057899033)","(0.22208852578434865, 1.771912929297577)","(0.20750910963649663, 1.833806775083974)","(0.17532021107501122, 2.0341790984155663)","(0.15516522197873123, 2.295080443609322)","(0.14602432083581943, 2.477621232771237)","(0.13977999050415166, 2.6437713087781978)","(0.13442145172379855, 2.7047956922984158)","(0.1438308133787809, 2.53678081975346)","(0.1486428270104791, 2.4224578297248676)","(0.20024336157185327, 1.8648373296212404)","(0.3040349324001342, 1.3508402067887884)","(0.2953745178657655, 1.3878001881230848)","(0.2401284727875151, 1.5968492293783987)","(0.2545937351408681, 1.5397257842999827)","(0.22698181383224988, 1.7000904048263472)","(0.22647299207427704, 1.7381123276059536)","(0.20120023123699973, 1.811114610473571)","(0.21729493361961508, 1.7709064973997894)","(0.16028691793120228, 2.2796530188242317)","(0.1837490023518145, 2.0396573684459347)","(0.21909057679585603, 1.7512848221243031)","(0.16785342228392608, 2.160836214992016)","(0.1985310203183451, 1.9927134274779823)"
"(0.22623663634859584, 1.7602317309434665)","(0.23476144633393256, 1.7095736242152135)","(0.23496783988138387, 1.7786472189495182)","(0.23629917595757574, 1.7043997364946823)","(0.1271768603457437, 2.874080378172287)","(0.287604112194077, 1.5383193731249876)","(0.3521342529791853, 1.207939134640108)","(0.16077813045881376, 2.512951196549567)","(0.15991666947724822, 2.3165880013963354)","(0.2305311693547488, 1.7425126884393645)","(0.20961969192221908, 1.8325698410740092)","(0.17361799042725665, 2.0553024648536313)","(0.15324447269229746, 2.336244223657059)","(0.1379384964419283, 2.553134843993366)","(0.12890433238639284, 2.8097388390784603)","(0.1269772697963205, 2.7534848717685034)","(0.12569989516530844, 2.7973444508062637)","(0.13816834011561835, 2.6500886586172165)","(0.19487195961950965, 1.99820401108194)","(0.310308250960308, 1.3347195448926135)","(0.2958339811974535, 1.4187381361673337)","(0.24464628380833622, 1.5725285647437774)","(0.24807831587128668, 1.5815050598656497)","(0.249402378400349, 1.6185726368748194)","(0.22851294293137828, 1.7250894339317702)","(0.20263567841159094, 1.8524622614306938)","(0.22126249566576822, 1.7720040105480441)","(0.16623381514932778, 2.283202204450415)","(0.19266988295444556, 1.964191079213455)","(0.22257979735189382, 1.7408352209254947)","(0.17473686654559653, 2.1194715063599605)","(0.1882963051410633, 2.1507237147939193)"
"(0.23194512363383704, 1.7099750131765936)","(0.23716312617544827, 1.697451201126855)","(0.22533895247309033, 1.824617342726244)","(0.2478294166625486, 1.6088248058908141)","(0.11465310313503925, 3.1399456386573705)","(0.29670199193850033, 1.4836014197629699)","(0.34246220057055604, 1.2595526621556867)","(0.18471693363646913, 2.155402646380602)","(0.16262762016980217, 2.2913108769331614)","(0.22654423858743797, 1.7761038707191834)","(0.20007521940913342, 1.9185727008164644)","(0.16605959666302067, 2.128061107772523)","(0.14973007765179785, 2.4211015094165482)","(0.13221149549004635, 2.617714482452585)","(0.11955370382995116, 3.003734427375621)","(0.12355774058019771, 2.817315980145953)","(0.11679197991792695, 2.9659035068268476)","(0.12762801010796698, 2.901461295020148)","(0.18867181356337162, 2.0935993960667476)","(0.3125101533543039, 1.3300647588910108)","(0.2947363219588405, 1.4301083445556926)","(0.25115306278382976, 1.5496657372765372)","(0.22568521858988605, 1.6812088758095598)","(0.2638865678985882, 1.548936278405055)","(0.22179978328024033, 1.7737940699306785)","(0.20226660393379867, 1.8457465891642881)","(0.21914827295370462, 1.791408859860779)","(0.1714979007252834, 2.213749133113426)","(0.19911435833425578, 1.8930510274474655)","(0.23208652233998903, 1.6720068199171492)","(0.17360252325105038, 2.1404058607224266)","(0.1816818365431344, 2.2373240184690033)"
"(0.22723692124238393, 1.7639331361862378)","(0.23938911752440106, 1.6863514301695277)","(0.21917710602121543, 1.844556546094438)","(0.2577423025368352, 1.5715952705252334)","(0.10707207504511893, 3.4635221034938537)","(0.28750620803983623, 1.540405477632192)","(0.3341118927775189, 1.26545482125939)","(0.18955342782678197, 2.0773934885791387)","(0.15933658401225473, 2.3238578441774416)","(0.22071049264364886, 1.81765761484895)","(0.20355134996441582, 1.8678535245835042)","(0.16706436308192468, 2.160597155311421)","(0.14717503277580596, 2.529463121667085)","(0.13271659562789942, 2.6866106010048534)","(0.12062333211909897, 3.058292306200333)","(0.12475904204829978, 2.8533165033228576)","(0.11293972137776026, 3.123943853197897)","(0.12102103216938588, 3.0448017103405776)","(0.1887722456133388, 2.0723781025209793)","(0.3114966694789429, 1.317765665263431)","(0.278908850979749, 1.4807706901100113)","(0.22306768457032475, 1.7394320308693538)","(0.22912818016603914, 1.6266977826900544)","(0.24191259352861272, 1.6380767157770533)","(0.21910621037174327, 1.8069093919972272)","(0.1969509894380687, 1.8770440040209153)","(0.2088923699784202, 1.8952915853158459)","(0.16362882543966425, 2.306435579829041)","(0.19229748026677562, 1.9675728792870608)","(0.22912104111483197, 1.6839721744847533)","(0.16591850344611528, 2.251355772089927)","(0.17215499313195254, 2.420197483996129)"
"(0.2539511037661491, 1.635839289974138)","(0.24334108434998175, 1.6643801599083778)","(0.21943655957473016, 1.8158385497388434)","(0.2586959606902292, 1.5672919553659568)","(0.10660314945799765, 3.522017301496912)","(0.2813858423981207, 1.5626657254368022)","(0.3281942004153306, 1.286729430086108)","(0.18734228041781498, 2.0709567100005026)","(0.1711468530197912, 2.2403475808186615)","(0.23843606316736587, 1.6813603421684487)","(0.25219269247946685, 1.6088872481656737)","(0.19439059171185358, 1.9698748012717986)","(0.16965169725998794, 2.314820677235764)","(0.14792546776755913, 2.6486018569256724)","(0.1280700031019448, 3.2028438707653746)","(0.13441413819138384, 2.9548410895967483)","(0.11514158774752872, 3.420110897165533)","(0.13351126116342782, 2.943960333789144)","(0.20089880430233514, 1.9764058799178077)","(0.3109237310044408, 1.3294842681914147)","(0.27900482982501956, 1.478975133620722)","(0.2162196614580131, 1.7253753799506837)","(0.23145589173686762, 1.5738509171892496)","(0.2660245150229703, 1.5480475383373844)","(0.23454331593248814, 1.6732405675718383)","(0.22200055091614512, 1.6754425620913147)","(0.24318839161145858, 1.669240833168616)","(0.19286893844180614, 2.0402414861814027)","(0.2171733422219745, 1.7906553285596998)","(0.2644234152509987, 1.547617614782091)","(0.18365944490193303, 2.066169987937873)","(0.17568910185049808, 2.3083931088804155)"
"(0.2772258041685027, 1.5026072163408726)","(0.2639587627299541, 1.5600174780322014)","(0.22518028082535693, 1.7618985979448165)","(0.27268625931719787, 1.5075673169922634)","(0.10293363019538573, 3.662547628558876)","(0.27744474303096095, 1.5572682921100969)","(0.3295433746880633, 1.3001184935925487)","(0.17609696976276124, 2.1511892283170915)","(0.1987308817788262, 1.8955195262384261)","(0.25556467633504826, 1.5649212024625254)","(0.2784699369473917, 1.4572049375909577)","(0.20615184981791415, 1.8384122142796053)","(0.19444425424675937, 1.9884764966146165)","(0.17707625838942515, 2.235520146145856)","(0.14264837509161415, 2.955352606779984)","(0.16166611716081533, 2.5329059130449516)","(0.1396934748092407, 2.9321304071396797)","(0.1523324853866774, 2.628767342489035)","(0.2130073115262799, 1.8428257016356466)","(0.30718548828792047, 1.3331880291024327)","(0.2664939936098047, 1.5235446686291998)","(0.2074588906839996, 1.7773218487233895)","(0.21593989703565722, 1.6430514638188138)","(0.2772764864640843, 1.5172108150866124)","(0.23259896496596266, 1.6634014311530383)","(0.23422527311069907, 1.583943399134787)","(0.2812518360044134, 1.4550616191530263)","(0.21748127576644077, 1.8297693351140736)","(0.2445574789043418, 1.5805452489649883)","(0.3038212921897615, 1.3626497160870739)","(0.20402844988406274, 1.8869014873634289)","(0.1735460774683543, 2.3223005158146983)"
"(0.28307844232385276, 1.4798420252156377)","(0.2793789964963283, 1.4704957652847375)","(0.22059716828780174, 1.8029149137862415)","(0.28347436209147037, 1.4319701275715464)","(0.11169327352018481, 3.2999381801126093)","(0.29558829904247663, 1.4252817359315832)","(0.3250867105209369, 1.3177688775782723)","(0.18392118556672024, 2.072544712334194)","(0.2118228516581004, 1.777361216391689)","(0.2484984503159461, 1.616359372284083)","(0.26844967018138, 1.4915340592026582)","(0.19811013826736226, 1.9050975416073208)","(0.1919702047499831, 1.9576534422378076)","(0.17916636157672478, 2.185189459837278)","(0.14854994480184996, 2.834697414236948)","(0.1774974086496834, 2.3193371559250395)","(0.16515161837203365, 2.4917376915287597)","(0.16198009962899484, 2.4700929690531797)","(0.21872028397654894, 1.7937020321453394)","(0.305215970958849, 1.3451243362136651)","(0.2690280159299821, 1.5044084578609342)","(0.18599502962596548, 1.9771825573479858)","(0.2001565115530598, 1.7478674145199489)","(0.2607152269048935, 1.6067905194861072)","(0.22233275736255528, 1.7472148470659281)","(0.21566803443464422, 1.6772127116343902)","(0.28597501149749605, 1.4175018707203932)","(0.22266616635532613, 1.7708693620550067)","(0.24914029827194983, 1.5508000906155577)","(0.3091951656534099, 1.3404633067753347)","(0.21544410494029506, 1.7679224073256092)","(0.15822776431382804, 2.484831633602855)"
"(0.24978994039743413, 1.6785860881681798)","(0.2697067410281031, 1.523096713538507)","(0.21198082707863145, 1.8208983678961024)","(0.27715185643717083, 1.450141221109393)","(0.14538531294826795, 2.536994609457862)","(0.29231741338813877, 1.361437958603204)","(0.31849211032153846, 1.3428828681300529)","(0.19590978237556628, 1.908503235646911)","(0.194964727611101, 1.9181835132910918)","(0.24440716768414594, 1.6242305526369074)","(0.26749694793474166, 1.4844908722980237)","(0.19842438393163553, 1.8714996277522957)","(0.1870251524426014, 1.927785940005579)","(0.16092342246728872, 2.377011588172432)","(0.1836135867389133, 2.2474090919915555)","(0.19417663665809487, 2.049659895627647)","(0.18443884401107027, 2.1636121721298816)","(0.17055018705806999, 2.2418091412621757)","(0.21980394409624304, 1.7816920773244775)","(0.3115435082471821, 1.3272586222381666)","(0.266617091375056, 1.5256176353175959)","(0.19189141772050639, 1.8780992055149244)","(0.19073369974665536, 1.8382670084644308)","(0.2526219643518391, 1.6425071717373299)","(0.22418886141463057, 1.7466932989593773)","(0.1975051125767334, 1.879644373378743)","(0.2732686095595265, 1.4918064546661136)","(0.2133700197164229, 1.8412471194759623)","(0.2613303036026099, 1.5036541938328125)","(0.30699362247097145, 1.3535375797408096)","(0.21677591685915895, 1.7858283498046554)","(0.15681516134125809, 2.4857712096196325)"
"(0.2513530124825078, 1.6616048364882747)","(0.2655486345025938, 1.5330456210997956)","(0.20654787326710572, 1.8521536781823476)","(0.27175772585466373, 1.468330231052442)","(0.14631455654293013, 2.564240596882921)","(0.29089577728431565, 1.3752703282724963)","(0.31614615343805574, 1.339581179828943)","(0.19340074233672006, 1.8869495186647136)","(0.18510644691438374, 1.9425276893375625)","(0.2336541681731736, 1.642343215676355)","(0.2532732455228857, 1.539198426794248)","(0.1892088388550442, 1.8870885526527068)","(0.15670946242471484, 2.266674926900167)","(0.13917408347138424, 2.6562615674841172)","(0.16491742867041884, 2.4268757031503267)","(0.15891576489076586, 2.4710860638333645)","(0.13988334531906982, 2.8578729145912005)","(0.1394833990046436, 2.7344606083708585)","(0.1997004003445908, 1.9629850477068085)","(0.31583234692549267, 1.3231243166768636)","(0.26951425875484336, 1.5138322968718843)","(0.1811580172435301, 1.937055552200253)","(0.18852642978789297, 1.835324312034493)","(0.25407425283131224, 1.6524296775952128)","(0.2197725821652709, 1.7920179042019546)","(0.20030493508106367, 1.8732645638776406)","(0.2765777008277947, 1.4730344023204929)","(0.21194373924282883, 1.8506208079730357)","(0.2567844203843042, 1.5174091549667141)","(0.3081599621449395, 1.345680431366651)","(0.22597762699290153, 1.7420702022162955)","(0.15483874916469267, 2.5245007657356653)"
"(0.24330179080625272, 1.742241483246146)","(0.24848135399543697, 1.6217565577396116)","(0.20170051421018861, 1.882699607925488)","(0.26985625259051993, 1.4596646003925138)","(0.14276192999183193, 2.610290969833264)","(0.29311837730234447, 1.3589992350609736)","(0.2981305302027225, 1.3699107549434468)","(0.20709586211281175, 1.8197993511631723)","(0.1815454185479957, 1.9935441983885576)","(0.2320886339913229, 1.6585911206207957)","(0.24795933963773661, 1.593325938745822)","(0.17773008796099268, 2.0178376613761078)","(0.15133117670918275, 2.421459184182019)","(0.13162396243707564, 2.874889447356182)","(0.1543987479925313, 2.6235719753018794)","(0.1509382329140243, 2.652590914903749)","(0.1293944938291248, 3.114187901971116)","(0.13511287968249397, 2.8515593172560636)","(0.1956624004141278, 2.0095457962164476)","(0.3201268584314508, 1.2878105155608814)","(0.26810510030860496, 1.5193523562790587)","(0.18608812497161548, 1.9183830159084916)","(0.1795540391501723, 1.9149477849092673)","(0.23843025769064422, 1.7547916717736844)","(0.20239204748260597, 1.9593969260347783)","(0.20041258467445633, 1.875237976973486)","(0.27407432091663864, 1.48662200639014)","(0.20088142899125191, 1.959166431220194)","(0.2548616699291049, 1.5459391841268015)","(0.30922646098452544, 1.3452178191297024)","(0.217135235089691, 1.8183441483148677)","(0.15475283826992586, 2.5108424325273373)"
"(0.23187777828974437, 1.8352781591762524)","(0.23908388940608424, 1.7094614256153084)","(0.1922775967318198, 2.018095652968174)","(0.2717527542924139, 1.494062535277416)","(0.13574656532627252, 2.696079736337616)","(0.30004183061829076, 1.3828416836322706)","(0.295906973995749, 1.3562395245642611)","(0.21478133821696402, 1.8410586103103124)","(0.1890636651182206, 1.936903887675111)","(0.23480383952897999, 1.648136957738544)","(0.2564640800929994, 1.5471187526285848)","(0.18271151265996965, 1.9763121402478852)","(0.16143419457902208, 2.3537960156965854)","(0.13921161575733595, 2.677243217498354)","(0.1549570379807432, 2.53766434064008)","(0.15120983197540117, 2.573022360565099)","(0.13206169332451623, 2.9353262538162124)","(0.14195706822300355, 2.7061680489690185)","(0.22070609440926572, 1.8249680862104138)","(0.32819501429684106, 1.2786229691688598)","(0.2823358505244486, 1.4545485059347476)","(0.19274352861628924, 1.944209642960594)","(0.1811961562435152, 1.9583570957323821)","(0.24277440473105322, 1.717083980917343)","(0.19665224877587004, 2.043551328831502)","(0.1963489985436407, 1.9348797045491102)","(0.26165737930400157, 1.566465084217327)","(0.19103831815052197, 2.056477550477552)","(0.2554119170961047, 1.5474916893449702)","(0.31490546537813197, 1.3334554221812505)","(0.19731408694398173, 1.9898509637036577)","(0.15701465576829604, 2.482422082009968)"
"(0.23884545524832274, 1.7818844178244204)","(0.23832236959927053, 1.7221373064449104)","(0.1818815388261626, 2.0991047573247044)","(0.2915820361991021, 1.4236549106654206)","(0.13883315753529918, 2.65318238266671)","(0.3051667572500392, 1.3698891528762793)","(0.28109263374920596, 1.4229381490542)","(0.21339749742612513, 1.8885049215905585)","(0.18704707245692673, 1.8811667466692206)","(0.23543303163743518, 1.6234417326333372)","(0.24788137813202912, 1.5273045963261132)","(0.18193498619075787, 1.908367175257749)","(0.16142727440789195, 2.2831292526702596)","(0.13932312970042066, 2.553700320127952)","(0.15234642446158528, 2.429566872373911)","(0.1480902167309448, 2.496030525003092)","(0.13700224843353562, 2.6283179778012937)","(0.13820538804867563, 2.598853301311066)","(0.21196905482703882, 1.8533756040230884)","(0.32626012837291063, 1.2890997406032991)","(0.27835945633855413, 1.4719121724277215)","(0.1918790739564799, 1.92714191093042)","(0.18209065297506918, 1.96243280198111)","(0.24234967939261737, 1.7049847212088876)","(0.19971357370777715, 2.0268927530659275)","(0.19956033149170974, 1.9176401045983733)","(0.27726497263630734, 1.506942420364905)","(0.19137299181115228, 2.0512623770944036)","(0.2638146714203605, 1.5038482805105517)","(0.3126975627471306, 1.3670298066672613)","(0.19841330269197663, 2.005534171038038)","(0.16710109449277957, 2.282774709860785)"
"(0.23479883579649546, 1.8000310488389688)","(0.24432149884123588, 1.6841225303042693)","(0.18453201999934016, 2.0781943557892886)","(0.29508930122419624, 1.4202632721539927)","(0.16207868143727072, 2.2907108085545342)","(0.31242019803260557, 1.3440239943533945)","(0.2942889500549373, 1.343045085463986)","(0.2116635466793347, 1.9205480292181616)","(0.18669178889023058, 1.8610482111341577)","(0.23297285820270217, 1.6524543683005561)","(0.25252015938403605, 1.5284700142852483)","(0.18694983102702795, 1.845592155312385)","(0.16825106391320116, 2.210207584343416)","(0.14341421922969108, 2.483237799493879)","(0.16066328852483594, 2.312861110892076)","(0.15440730542033052, 2.390989897959198)","(0.14575330497096836, 2.4804877227509965)","(0.1449081919368364, 2.4882602058754233)","(0.21462451404716462, 1.822428801149939)","(0.31960263071332284, 1.301795564354703)","(0.2695565545323512, 1.510791060776541)","(0.19590138772177174, 1.9251526224279718)","(0.15172931085201313, 2.3945801150106445)","(0.2199071628615172, 1.8615195786794874)","(0.1945057634332368, 2.0852158242156973)","(0.19764674429988777, 1.939562322073234)","(0.28359937069199515, 1.4728534633143857)","(0.19050699741328134, 2.042471576967762)","(0.2517947881225659, 1.5793743044590685)","(0.30139748201303496, 1.4144788793713838)","(0.2069129787217859, 1.9217306856210665)","(0.18543056496832802, 2.0763280265885107)"
"(0.22712266503775175, 1.849360388386016)","(0.20747580055314466, 1.9376922488083765)","(0.14245196867593216, 2.8256132684798136)","(0.2691401117278659, 1.5988815380066808)","(0.16509917875121938, 2.2903862296869537)","(0.3222988803531323, 1.3199938792037267)","(0.2750826454735584, 1.4636049557044226)","(0.20286839750956256, 2.030727355818466)","(0.19420720798735566, 1.8426709326213886)","(0.23303581920643873, 1.649454807938937)","(0.25593058759470133, 1.548982456717807)","(0.1933946328856678, 1.8480718462336931)","(0.17337706317596568, 2.196353307936408)","(0.15385250601089134, 2.3920386405769896)","(0.16923196841739377, 2.2706769429871727)","(0.16533057308402843, 2.3093043660268733)","(0.16142997817199242, 2.3180262984236197)","(0.15624480528269297, 2.3294043960384987)","(0.2142948118392417, 1.8502381764578852)","(0.3180922794257404, 1.31753249242502)","(0.2685565091823303, 1.5478628820923828)","(0.17723819780669897, 2.2323206271307394)","(0.11634500971428136, 3.4097777466952)","(0.19823671687975558, 2.102291998870459)","(0.16847876345472976, 2.50413051076985)","(0.16887657087099886, 2.3277358293166324)","(0.2626848858990851, 1.582293566339042)","(0.15997763974214943, 2.46558498614266)","(0.21796654611905478, 1.8354987266622556)","(0.2857644556672949, 1.48169278651433)","(0.16840627929745974, 2.3659711874190568)","(0.1742228800174648, 2.2265707467737155)"
"(0.22276822377646027, 1.842565060175509)","(0.1982901212830221, 1.9807900444565985)","(0.14648058755245974, 2.6985235148278814)","(0.29512776908767113, 1.4351794517289431)","(0.1771649848251466, 2.1306891692093646)","(0.3242490209263656, 1.3114821875338152)","(0.2682700091619289, 1.5108017365072581)","(0.18706983769254598, 2.2117196506898105)","(0.19778381863877764, 1.7656619713668538)","(0.22814183074299504, 1.6132452708202658)","(0.23955826558226398, 1.5032201813704658)","(0.18922578277908583, 1.7707919234519922)","(0.17483482072254933, 2.1546166224368535)","(0.1565449617401658, 2.2657627727463128)","(0.16969563669999926, 2.1654927923967113)","(0.16610199757615668, 2.2218003618262023)","(0.17172969918109818, 2.079759127883438)","(0.15755673040531434, 2.2493914779992723)","(0.21099016386261976, 1.8721400100381396)","(0.32588083526342276, 1.2806867708109122)","(0.278144963904732, 1.5118570267024591)","(0.18297298845864257, 2.2125148923559617)","(0.12031121850941498, 3.3528914105150696)","(0.19577981798030153, 2.0825208595269933)","(0.1745185216975489, 2.4220038286779877)","(0.17066935108406103, 2.192714271675671)","(0.2507299650603448, 1.5930523474277758)","(0.15661241597994216, 2.3686238161796442)","(0.2177217501769263, 1.7549998685903019)","(0.26401072659884833, 1.5453090724880736)","(0.16786243022251812, 2.2771294984014343)","(0.16485059044837624, 2.340699390312451)"
"(0.2199766119954925, 1.8593684128236536)","(0.18034951863581403, 2.1297920627587454)","(0.14247596511070318, 2.7873084065304234)","(0.28646676833632856, 1.4699793042906273)","(0.17723120935155845, 2.1915571697935006)","(0.3231942303933745, 1.3221705389009133)","(0.2631615936713251, 1.4929598565056468)","(0.18704427788867256, 2.2094388576914326)","(0.2108064389224769, 1.6746445124809748)","(0.23010877877363461, 1.5440166394012755)","(0.2385061954830405, 1.3894930081905972)","(0.20283809398096056, 1.603751745376194)","(0.17736570308095237, 2.1596124610937264)","(0.16213578991073233, 2.1263289595885784)","(0.17231999967523723, 2.0547545050074087)","(0.17049845505743413, 2.120572825889771)","(0.1726672048668242, 2.01989265576817)","(0.15962941333215583, 2.2144327539107413)","(0.21729776661215164, 1.8538794215495875)","(0.3268439215097501, 1.3049563374394062)","(0.28846125942768813, 1.4862480847868422)","(0.18986950495574317, 2.1668732628843044)","(0.1285010355876268, 3.2517255511353715)","(0.18046326145083202, 2.199824058285491)","(0.1570368442991977, 2.6851541774695034)","(0.16091113347121225, 2.3620934464938066)","(0.24871108375548442, 1.5995672909006304)","(0.14919247047975742, 2.45920688264559)","(0.22263688801383727, 1.7607867375138218)","(0.26441422643147033, 1.555019722139527)","(0.1642843064385795, 2.3553055148212163)","(0.16793454048067946, 2.2125340819932724)"
"(0.22470191747694568, 1.8268843155734236)","(0.17153185777929902, 2.2010387503209623)","(0.1407642478392589, 2.764170928976536)","(0.2817727493127947, 1.4945633689122941)","(0.18409874545615848, 2.0882343699516266)","(0.3171132452254208, 1.359638248179055)","(0.2703354111404307, 1.4257104571920538)","(0.18167069111928924, 2.2650458918976617)","(0.219438090408166, 1.6368060683365815)","(0.25394101148130005, 1.3799865538253986)","(0.25063122214155437, 1.3405352535055568)","(0.21390194770904103, 1.5459206022404397)","(0.19816259398258773, 1.9825295545823767)","(0.17288619981056338, 2.0204265519039923)","(0.19216352944643653, 1.8468953356653672)","(0.1924777894452347, 1.8797434850912533)","(0.18459043042508258, 1.8796859885684967)","(0.1730225748393263, 2.0298506686125353)","(0.22888461299949867, 1.7709711369763064)","(0.3361843988943639, 1.267811986815218)","(0.29991538424824543, 1.4379473279719626)","(0.22963425589795045, 1.8335547577188558)","(0.13676954020247606, 3.1344074758907134)","(0.1859128947652171, 2.109740035817265)","(0.15356197716551545, 2.697611189753112)","(0.16055046852851795, 2.376429085930065)","(0.24914392799755494, 1.6152159402561836)","(0.14887993142851677, 2.4688055103390423)","(0.22118391620007713, 1.7755284976101104)","(0.2635895978876433, 1.5751310902026645)","(0.1636564799449799, 2.348038464012104)","(0.18924737433938216, 2.0262242509553285)"
"(0.2372131572430417, 1.751917947282869)","(0.1805945339585065, 2.0897190386644806)","(0.14276737386381813, 2.6370693804827448)","(0.3016937704986041, 1.40885504931672)","(0.1694586768085831, 2.2947693631835095)","(0.3271794081951339, 1.342097888129265)","(0.288613105346027, 1.354170038544283)","(0.18355902992265136, 2.26960463905521)","(0.19935344194083837, 1.8181215267154822)","(0.2498661905516819, 1.398887252837905)","(0.24435901505775504, 1.3752088106462628)","(0.20138036601909995, 1.6541689083478406)","(0.1737803718477696, 2.3065286661316944)","(0.15712310979507174, 2.2582818620262324)","(0.18192912160523958, 1.9698095027065232)","(0.18786888305490465, 1.9721097408069956)","(0.18146881731324502, 1.9658131611188259)","(0.1567305090299361, 2.3128994875775657)","(0.21061931230973027, 1.9263854766799677)","(0.3213722092405029, 1.315472258927795)","(0.2836222756325975, 1.522824388831891)","(0.24230414328326486, 1.7781325198081845)","(0.14372777246000495, 3.002451858221113)","(0.1903168783521065, 2.039563132459354)","(0.1584963582631104, 2.622201759219924)","(0.15678823052808274, 2.390392164561131)","(0.24329423904887845, 1.6428828791096852)","(0.14320108149542268, 2.5561646592307916)","(0.20042913517660793, 1.9403345057295645)","(0.2522576117940918, 1.6421935736698938)","(0.1580871661908435, 2.385343600914609)","(0.1914626690199305, 2.01214044879741)"
"(0.22918474380643583, 1.7870285690417733)","(0.18171686153146543, 2.0508249092054482)","(0.1454254238099383, 2.568240341463151)","(0.2913377802926295, 1.4673951122195457)","(0.1634323895627404, 2.382881213109994)","(0.3198237672846064, 1.3514439197274215)","(0.28929566918162963, 1.3592392094404355)","(0.1833751413002828, 2.3096053678266286)","(0.1876148455681886, 1.9823728291320357)","(0.2554497141123412, 1.4311033688371728)","(0.2406469902811367, 1.4199820574838022)","(0.1993554190897019, 1.7041910755891194)","(0.17684044668431576, 2.2563188933096345)","(0.15971365912067326, 2.2396686126530234)","(0.1811418092651895, 1.9829006246054512)","(0.18623120351174047, 1.9884639119956171)","(0.18899895399835595, 1.8915851349195558)","(0.15607895265165297, 2.3127155376013095)","(0.20623841583761576, 1.9581481135983458)","(0.3182104409186418, 1.3230313933949995)","(0.2812779165873525, 1.5312738970265083)","(0.23661542322973012, 1.792056026423288)","(0.15157046695668455, 2.833010141587605)","(0.2020089376125311, 1.9188564702499884)","(0.16861561131087624, 2.5032860690111263)","(0.1556324085451452, 2.407745732544928)","(0.22799929996462054, 1.7354435660909995)","(0.14006183828279636, 2.592176594565394)","(0.20270049026254466, 1.9373731005495285)","(0.23853873338669718, 1.733386203559043)","(0.14804776476797174, 2.4876790000594404)","(0.19525132223885125, 1.9183884037355543)"
"(0.23785832476635543, 1.711629779509323)","(0.19770684119234302, 1.869180093961095)","(0.15445091282990508, 2.45099512145744)","(0.2880437869586481, 1.4703938833902832)","(0.16533106385044868, 2.3277093112222937)","(0.33997082277303065, 1.2716020016647187)","(0.2997575739751805, 1.3359034758787318)","(0.18491294354090435, 2.2492293876112948)","(0.1874586103199187, 1.9975209568722598)","(0.26022315096570847, 1.4137597157202455)","(0.2384363935298691, 1.4457479030385303)","(0.1994257496612963, 1.7112683322085935)","(0.1764625844776031, 2.2414466599073424)","(0.16045056730307336, 2.214372968992895)","(0.17586794640870368, 2.0172506068530627)","(0.18444354350090222, 1.9849841219910904)","(0.18884183922967038, 1.8738070155498174)","(0.15245860466832578, 2.337719074959967)","(0.20424500610724153, 1.957794767988569)","(0.31235220844013195, 1.3438447696273952)","(0.28209914641473416, 1.516022205272152)","(0.23235420591810169, 1.8268317193165924)","(0.1719208101033834, 2.4827654824984537)","(0.22853472615209408, 1.6469667094600264)","(0.18932419730477446, 2.1618244666811193)","(0.15916951228841897, 2.3352206637592223)","(0.2240737554814034, 1.7377881026783555)","(0.1453178306100227, 2.3726794561569498)","(0.20150313626716831, 1.8874673588357576)","(0.2287472003748816, 1.785177283264234)","(0.14982913525114044, 2.3707101886865094)","(0.19667664661079032, 1.9176666813168595)"
"(0.24373401048928375, 1.6666023809513424)","(0.2190046352763634, 1.6775128922983833)","(0.16553075073385254, 2.3014383741936157)","(0.2959003359586933, 1.4280485062170527)","(0.16628153905708717, 2.304142790477944)","(0.343069802230176, 1.2622355609227056)","(0.3047434488193251, 1.3280266835089989)","(0.1794733253757467, 2.235345648880074)","(0.1587358316897192, 2.3187089241708274)","(0.2593457291802511, 1.399007239284511)","(0.2350765943928751, 1.4578457263025182)","(0.18777937696018185, 1.7830130263512078)","(0.15379141103032726, 2.5423488831318712)","(0.15200681959333529, 2.307579516585511)","(0.16802659720904678, 2.087859578857333)","(0.1754461804094378, 2.0745711180015647)","(0.17908086359420344, 1.9692495569847774)","(0.14097276001162848, 2.4933599132843143)","(0.18873887253785718, 2.073901778735718)","(0.3085500513872857, 1.3485089463736146)","(0.27072685870308333, 1.5827384162678044)","(0.2063176778581669, 2.05841384232378)","(0.17209849519096582, 2.501761256583578)","(0.22809450430612416, 1.638068663801571)","(0.2215496471115618, 1.8831709618367494)","(0.16096647133263092, 2.3050628315458996)","(0.2166162662285783, 1.7862247038177055)","(0.15286411801780006, 2.263121903936861)","(0.22092274360658737, 1.7315339133514724)","(0.21987818935575937, 1.8514045395811232)","(0.15869947532590953, 2.256935396657334)","(0.18012060203346208, 2.0976065697773825)"
"(0.25662731372395853, 1.618368134307036)","(0.2259386966576738, 1.6184902836344228)","(0.17861105903844332, 2.1346823550296086)","(0.3032040007169353, 1.3912807940324696)","(0.16710910278938274, 2.300145360550691)","(0.35337097695576175, 1.2282145866043974)","(0.3107709930454682, 1.311683660523722)","(0.1871807912363789, 2.0707452611717)","(0.17042987741094293, 2.284841364328078)","(0.2613927855436755, 1.4127323163238044)","(0.2395757104842229, 1.4657255408618222)","(0.1957471481486127, 1.7927751388353863)","(0.1629225146700156, 2.468122377325474)","(0.15746359948352728, 2.319176661650767)","(0.1716944697825471, 2.1394441813553624)","(0.17882565155462202, 2.1198668449136293)","(0.1806418803872711, 2.041287953949661)","(0.14252351845433925, 2.5909446976659667)","(0.1990607786178313, 2.0227956235940594)","(0.3111903292964784, 1.332597644773699)","(0.26530544898752706, 1.6293462275038377)","(0.20500223342499949, 2.0957986232319543)","(0.17414130933513028, 2.50737433084639)","(0.22531906014969041, 1.6547985838941635)","(0.20814563982599876, 2.0489634733178432)","(0.161759880778353, 2.317723062725774)","(0.21676912273281462, 1.8120327441530928)","(0.1634800860970573, 2.1778382697468017)","(0.22582324764317532, 1.7148653135969567)","(0.23304966888437387, 1.7775283503962527)","(0.1700494355265842, 2.138610284731497)","(0.1868903085377207, 2.0679961363348354)"
"(0.27252992220019184, 1.559981051085543)","(0.2305279127311659, 1.605888257643222)","(0.17968079411490603, 2.150833467841113)","(0.3053605439786569, 1.381042465065079)","(0.17534279409377826, 2.2301553224116772)","(0.35499162017615177, 1.2244189945078465)","(0.309730979167554, 1.3305599064771072)","(0.2254015087385633, 1.693491003003826)","(0.1634974903152716, 2.3732148745760506)","(0.27371448379027197, 1.4141877408632544)","(0.2358248949423608, 1.48199794641377)","(0.18242326820065777, 1.934373996939229)","(0.15331946662108378, 2.5878138971732763)","(0.1536075784468584, 2.3542894202919142)","(0.16581430347709614, 2.1973464670405383)","(0.17274197766816315, 2.1858116444838376)","(0.17491405626366746, 2.0875387466190656)","(0.13410605343875986, 2.700949810808583)","(0.18461134293974835, 2.158474938452977)","(0.3046898729981188, 1.3769881020445254)","(0.2545291502550696, 1.70627120017582)","(0.19249483006352336, 2.195733788590454)","(0.17821632481825955, 2.452379361690365)","(0.2212029314457752, 1.6988681633468194)","(0.1960355677868811, 2.183346366632152)","(0.16430678256299436, 2.3075303027498077)","(0.21761876391525067, 1.8220992298338001)","(0.16739873000072047, 2.1691320908801606)","(0.22751326623305979, 1.7107220805071148)","(0.24104294433191248, 1.7409778892443006)","(0.17840130509836788, 2.0735630489771912)","(0.1840894883850774, 2.0752488538948377)"
"(0.2817492512509325, 1.5277382543188571)","(0.2490827988722474, 1.5026117211710583)","(0.2008976734890363, 1.9175365757275653)","(0.3111801203374266, 1.3435083004657935)","(0.18065579415286354, 2.1565941257327954)","(0.3489203749291019, 1.2354019270801462)","(0.3190493087073697, 1.314302625114569)","(0.21731790789772368, 1.7268230084006622)","(0.1613157130012675, 2.4149393253982523)","(0.2755222770095586, 1.452953936654803)","(0.23308301065883696, 1.5130947207313308)","(0.16661625052574747, 2.0616237268096316)","(0.1511128292126958, 2.6093646593348634)","(0.14806360959502757, 2.412416374771045)","(0.1586317811258778, 2.2605742674631752)","(0.16528275633810113, 2.2490288357968553)","(0.16675385564196069, 2.150644686024435)","(0.1326844420747427, 2.773446447719659)","(0.18738198167378656, 2.136069340871378)","(0.3107463323151592, 1.3479845405537436)","(0.269188867234619, 1.5997337278425101)","(0.21954963485656917, 1.8953868882511253)","(0.25136990292176464, 1.6810107612349139)","(0.2550127768485258, 1.5061017216664363)","(0.2162991429005812, 1.9323433227718)","(0.18913680291463186, 2.01207288598765)","(0.22157949898281132, 1.7950239900661935)","(0.1923029684039678, 1.8874894363693824)","(0.24921283093974422, 1.5527873662820841)","(0.23864080611920482, 1.7773308880343153)","(0.20918980475712184, 1.7788652108794325)","(0.1870051464417501, 2.0637584197123897)"
"(0.28518238397852497, 1.510270629774132)","(0.2538227834743298, 1.479875515733658)","(0.21774462371325148, 1.8068313045399103)","(0.29299043780493134, 1.4248709597337335)","(0.17957899449339906, 2.147780498950101)","(0.3403686388211774, 1.2715172760454208)","(0.32788870736259274, 1.2638299437365845)","(0.21896517276440405, 1.7142937736431558)","(0.16775123415297621, 2.3358624467684557)","(0.27631706288408686, 1.4748493694058804)","(0.24018070072108164, 1.5064824958239353)","(0.1653110482289537, 2.129670197257125)","(0.1576253735241445, 2.5544531719774355)","(0.1608343014929801, 2.257114046313743)","(0.16781975618382772, 2.1851259111512693)","(0.1735321513710085, 2.152674234742747)","(0.1678617671090922, 2.2086928065536218)","(0.13541334827227786, 2.817543872447534)","(0.19123494604058128, 2.1203327741399094)","(0.3098167012825381, 1.3556128934763487)","(0.26357039527169257, 1.6257163333523343)","(0.20835665655532495, 1.9617279552807119)","(0.2516028359203241, 1.6749389247678208)","(0.26069367002133476, 1.4848730890923647)","(0.21905338873068758, 1.8944052221299372)","(0.184346008034548, 2.102646491075357)","(0.21793632944544997, 1.8545987447887566)","(0.1982921775437312, 1.8902356899324595)","(0.2541900358513557, 1.5877808780118308)","(0.24452978365974887, 1.7279938892729934)","(0.21201825953448333, 1.7840337819697463)","(0.18376296967945507, 2.087267665659651)"
"(0.27813907696449214, 1.5512259476925057)","(0.250108409638322, 1.4950655829321629)","(0.22709525282446139, 1.737096730212395)","(0.2834391223772714, 1.4697918644771768)","(0.16720041903040078, 2.2886824302956654)","(0.34977330126474043, 1.2137642892135434)","(0.3298128342377452, 1.2789964172859873)","(0.23331584084916035, 1.5746024223584791)","(0.1687397643934053, 2.318639225212288)","(0.2856829685226064, 1.503332385515187)","(0.23823424869518606, 1.6996465308093995)","(0.15929018341583212, 2.40388178730598)","(0.1593182213282177, 2.5104737235373253)","(0.15897942926101533, 2.3941390638009308)","(0.16308546292776133, 2.3524178745008277)","(0.17010735033305976, 2.2585100643854643)","(0.16144960723544488, 2.360652326427281)","(0.13439747953873282, 2.875298107840404)","(0.1894974514704443, 2.111907205000735)","(0.31286719418810177, 1.3225473082841703)","(0.24701851182111315, 1.704210103488371)","(0.18149702903770468, 2.2204606033661936)","(0.23185989844363405, 1.79152470953565)","(0.23818706937230635, 1.585986569118764)","(0.21552855240339946, 1.913235115539911)","(0.1530436878395165, 2.504913888307307)","(0.20862992778698572, 1.9261743942396778)","(0.17632845583703424, 2.1244182622147387)","(0.22318259342011407, 1.807095173939187)","(0.22400917263173353, 1.861302467037754)","(0.19656338715333832, 1.9120854108916137)","(0.17255843277436977, 2.279872733717628)"
"(0.27708690848513406, 1.558105519065141)","(0.2572562947665581, 1.4980695421698398)","(0.24129584377041888, 1.6531271671456247)","(0.2773637419579443, 1.5276369142637003)","(0.1711320647715438, 2.2767128295649446)","(0.3451400588652594, 1.2399140513835847)","(0.333720313808398, 1.275205557628739)","(0.2074463027423362, 1.8011311359497046)","(0.1740140613235304, 2.2224905993326485)","(0.27560711521371545, 1.5655180498171668)","(0.22581845233697898, 1.8151843101665044)","(0.16037731079481768, 2.370507122870567)","(0.16345950072102475, 2.4245688421143536)","(0.1575972985765962, 2.4407412608474295)","(0.16133134855756673, 2.4511984056528187)","(0.16930730617309328, 2.330810955445835)","(0.16516448181895613, 2.3973615286707983)","(0.13365488627841632, 2.947123832023924)","(0.18914895061333464, 2.0993129104782096)","(0.30979187880365394, 1.343693398302197)","(0.23229986689192358, 1.8075173194118324)","(0.1612801989808624, 2.4044747255154326)","(0.22203968482143743, 1.8420731473937764)","(0.2243520545626667, 1.7137847251911367)","(0.21619222096881627, 1.9092720132647854)","(0.154836764602595, 2.471737070897645)","(0.20883036542979838, 1.9266412162252031)","(0.17803156167730683, 2.136876605866111)","(0.2269019775306983, 1.767808954083737)","(0.2326446781900656, 1.7813978002427389)","(0.20593874140317897, 1.8434676462114885)","(0.17294727395579582, 2.2477277557819506)"
