Fp1,AF3,F7,F3,FC1,FC5,T7,C3,CP1,CP5,P7,P3,Pz,PO3,O1,Oz,O2,PO4,P4,P8,CP6,CP2,C4,T8,FC6,FC2,F4,F8,AF4,Fp2,Fz,Cz
1.3458841265381472,1.2975108826527781,1.2811755462711394,1.3060268371336734,1.2270819089854528,1.3337004092543792,1.2771235228048414,1.2971431464552492,1.221987415593789,1.2433781092171738,1.2185593379589872,1.214805215841586,1.219103921711494,1.203392176003366,1.1949527145454693,1.1911562885295999,1.1758897776530401,1.208496252657502,1.2415639037532369,1.2961308972512173,1.2477426360515658,1.2288154820654447,1.248820835781162,1.300923320817581,1.3247451301495416,1.2737474496836922,1.3306411167331196,1.2597300860007115,1.3079529998375976,1.3295159259090132,1.2915069931117082,1.2024929307509802
1.307377469533141,1.2679079783825264,1.2229838908237838,1.34410160708017,1.232197601131382,1.3448255370794049,1.2558988362284658,1.2645910945321497,1.2317069544300119,1.2567699815805702,1.205039261197575,1.2113495825799503,1.227131506086469,1.209533155561955,1.1912151858982885,1.188978401541826,1.1783906306079113,1.202974341899215,1.227150137719809,1.2799687540102231,1.228491876317075,1.229621651275764,1.1597761986815336,1.25898640524297,1.2232398198431937,1.2048710485472178,1.2965992175497478,1.2190915346892333,1.2969713261799378,1.2890849983791193,1.2723820398784023,1.197750940100176
1.3209620005496052,1.2849961535434828,1.2087794000671706,1.3375030194762831,1.2941436749435897,1.3052273124628484,1.2742868549527033,1.2314653132957498,1.2344826891316618,1.2707043454364682,1.1815198247082523,1.1967329048457316,1.2179753331401721,1.181941376295635,1.1700586865636975,1.1850882580376505,1.166651894303845,1.1937911759937334,1.207352351343768,1.2945598106018226,1.2084498760583393,1.221968875645283,1.177348963632126,1.2517067516970584,1.2059125903978973,1.2370772363899991,1.2860758429276034,1.2324284798482232,1.2996719286333709,1.3072942595862727,1.3111297425706114,1.2073621769624943
1.3382694324588973,1.2673994039179421,1.2853604775506764,1.3509710718705665,1.3028635345852064,1.2993658981731777,1.2784065624250136,1.2268633120320125,1.2392679849065393,1.249035136264614,1.166362598461235,1.2018078147994196,1.2510755026420644,1.1963441384261468,1.1890915832427935,1.225975685047444,1.208125140354989,1.2263005941385463,1.2365151181315766,1.3116329117396692,1.226092047563789,1.2389034749104253,1.221283209776998,1.2781612137837886,1.2426095261228989,1.2782429120091905,1.3196995337492161,1.2632725322039082,1.3137179773527514,1.301043380792359,1.3204420560277261,1.2150948713810314
1.3216727077547183,1.2425806088425178,1.2823773535959155,1.3665838065867426,1.2505555407914284,1.2685951360311658,1.2690875530601589,1.2765567451539734,1.239288744454244,1.2636642155432882,1.1945000960387575,1.2323425630603833,1.2836290306640599,1.2236755219826874,1.2211340282184964,1.2283121609066752,1.2522695811585165,1.2325883354917448,1.2667595310569892,1.3343820388521537,1.2610518313373682,1.2707458989173042,1.2561313056953483,1.2834687406555316,1.2599774184275645,1.2467000970198991,1.29608853566065,1.255584983243762,1.2691141330500408,1.2911677630730627,1.2606961316335954,1.2365748089143769
1.2884102476252073,1.2749762836014453,1.260902126958536,1.3374036250910417,1.2209282317926828,1.2759723817607063,1.2617600387342487,1.2777618716745072,1.2477420697428938,1.2786382506670355,1.20638217122029,1.227940659383865,1.2659056262414468,1.223654316066901,1.2237240124477848,1.2033019804725151,1.2174779595547058,1.2063893631682272,1.2434192810958695,1.3020017930126349,1.2716386782948248,1.2591308032736666,1.2508177318300449,1.2761025108412354,1.25316246144709,1.2351157777321713,1.2627739739332235,1.2757764554832853,1.2327459120499848,1.284407867024836,1.1943636859500795,1.2370701161850597
1.2483805373709365,1.2742322901746936,1.2421946639376373,1.2883110910780577,1.209843297535471,1.2559219038410696,1.2078207404876795,1.256735438754014,1.2181982694298654,1.2549118974930418,1.178979148664113,1.1959151329743987,1.206928661165174,1.1797008733674341,1.18946265998818,1.1817268050285916,1.1877228560587214,1.2029636364393872,1.236961230429194,1.2848735550589945,1.2495181624864473,1.2183489848787856,1.2440240164451857,1.2880583222535449,1.2271342381442263,1.2589294696636393,1.2391919626743124,1.2768734240969497,1.2817046474452607,1.2674607288339512,1.2344853226742196,1.2514708929696046
1.2764462125680727,1.295262364457358,1.2678178241115283,1.3230294628996007,1.2142837896432412,1.2677017096912786,1.2463868717133906,1.2512397490660747,1.201051909678622,1.2155016854356855,1.1685838540198854,1.188241238728653,1.1972166649335771,1.1950176759492248,1.184407467000625,1.1946243234424825,1.189540255638438,1.2058283778185597,1.2403492580552145,1.302713886743286,1.2735605733348168,1.2378853052915852,1.2482818802482618,1.2822232591509628,1.2389616238724805,1.2662604158527377,1.30372666836723,1.2484997054747755,1.296166041165829,1.2810984254943318,1.2900318208489407,1.250397788950839
1.3207377222423133,1.2675353463821293,1.2920279406941577,1.335468997493019,1.2343241828003575,1.2781658540011767,1.2647870192325121,1.2289941881844502,1.2368928007264939,1.2454678419641199,1.1966288317256137,1.2197227576044085,1.2328553860636624,1.227542492442816,1.2183468196867755,1.2351456185154766,1.173875504846936,1.1900847683931262,1.2446009020181754,1.340398396115736,1.3050452151343033,1.267380538238159,1.2273980523163908,1.2939215402712678,1.2713791309277014,1.2399363802914058,1.2956523842981456,1.2665235682828202,1.2868329846386612,1.2649052983852023,1.2583979440277624,1.2552018253270214
1.2641322883718062,1.2604971319204747,1.2722576724928834,1.323201058088027,1.2453404812738063,1.2710168312863521,1.239179000532087,1.26759276426108,1.2119558208290924,1.2812259342216021,1.1931454118990652,1.2111131338789851,1.226015959927788,1.220047251823566,1.213105583626539,1.2206540804909034,1.1896639801539501,1.1892562684435477,1.2391279987872597,1.303143614567173,1.267819058412299,1.2493738798783014,1.2125987837396348,1.2758953119706524,1.2473050678083133,1.2009054939656012,1.2495973509218656,1.2406630037545248,1.304525068956672,1.2063782326496453,1.212578251935043,1.2095945962916927
1.244459727831755,1.2906975808995036,1.2877245620918933,1.3668049114530785,1.278147969751886,1.240741225774292,1.28798078789454,1.2660975620175465,1.195004653647021,1.2874165291411637,1.1881339186913724,1.1859294108814475,1.215211323268286,1.206689426004407,1.2032909495912292,1.2034293358298593,1.1979811728326002,1.2045967417352288,1.2239848686892083,1.2801030455524056,1.2491961230527675,1.24830219559534,1.260187162826163,1.2697046091648814,1.2599260267600656,1.2324585854074988,1.2469631171808315,1.2302537826802447,1.2982946930444172,1.2501986872525934,1.263986360968486,1.1923121253660056
1.2653941241154252,1.3258573539998502,1.2639425299004747,1.2888238967290573,1.256683527639705,1.240070069190662,1.2991610636325868,1.2735476373088919,1.1902861099920827,1.3132033223000366,1.210903535596623,1.191198992681117,1.204683844059646,1.1925032429357965,1.18516799858836,1.2019661155024035,1.178781101111552,1.1992768366462967,1.2090943484091574,1.2755952570911004,1.218599223743819,1.2117101849686625,1.216544525488318,1.2686328219703156,1.254190344785114,1.2835209245130785,1.2706089621503094,1.2229322821953996,1.2874477500025958,1.2731035302967033,1.3010905123184953,1.1898371445084033
1.2803613241021476,1.3254697583639652,1.24402218099061,1.2916814498464337,1.2207646474070037,1.2677551245944663,1.2630755684327533,1.2735934708254057,1.1818975154139593,1.2958685456061139,1.2128341557259317,1.185199120459107,1.2031465115061435,1.1835323067790458,1.2016563838054488,1.224689095139325,1.2209428395129367,1.2181466137095711,1.2484559283564653,1.2896020316642944,1.2141451659429054,1.2225205487154058,1.202420931225854,1.280608244745235,1.221888939164981,1.2442750455877514,1.2443795260669723,1.2217030120709846,1.2799340605633318,1.25099287497512,1.2591398937687932,1.2228046020826921
1.3205132973684308,1.3009686540768473,1.2953399993319075,1.320413509691159,1.250471673815881,1.3034310243987743,1.2890597534643895,1.2280788931681828,1.2247314531796747,1.2661522648436951,1.2010116053757631,1.2104335219292919,1.2461414567994429,1.2019139532286076,1.1944009788599945,1.2376313121949625,1.2442927531422898,1.2436398505356987,1.299073010911592,1.3212719500425314,1.2577924883715697,1.2569666097721757,1.2478431593953603,1.2829950252016233,1.2494144253598272,1.2259138867593113,1.2434762564352961,1.270761393218596,1.3294214025341562,1.2647694661246192,1.270032792709466,1.2111846182632204
1.3013870811439285,1.2901623698363107,1.2967614046466285,1.3082919108814142,1.231105024332972,1.2940940902319886,1.315700610191341,1.2064574906946421,1.2012357177949702,1.2582079905464767,1.2037015654179741,1.1972774543353777,1.1986696470973623,1.194983173650841,1.157124924961558,1.1850169756729103,1.1832357265185067,1.2103133946268787,1.2718553888510762,1.349810969966932,1.299877325497681,1.27140570068078,1.2529965788419535,1.2895765780483834,1.2651267501534778,1.2466196133197098,1.248859862838302,1.2706054706344776,1.3533350952925685,1.2537507020641505,1.2650172675688578,1.2227653804142613
1.2836901089838948,1.3006524717147336,1.3198259433268256,1.3312090803921335,1.2181226458954169,1.3213989685319096,1.3041830554936689,1.199186418648124,1.2080972186443217,1.2352888094133478,1.1973778267774877,1.1982876171325303,1.233008565042028,1.18498780240115,1.1731538224678308,1.1879885406162416,1.1879813487242086,1.215524679039438,1.2398761112186747,1.3343299661462287,1.2723493854269663,1.2702517543686367,1.232848488765712,1.2908254170204745,1.279386483118764,1.229591507354408,1.2523533017339443,1.2940533005797579,1.2973852111234014,1.292881256298073,1.2565090156514633,1.2637213375368384
1.281393586942664,1.3223014251643752,1.2829029758037385,1.327657688505526,1.232872437862028,1.326315105134944,1.2732363265721447,1.2484238069236089,1.2208214377183495,1.2276091987989919,1.1516532285905956,1.2021047124080348,1.263903231343306,1.1874918427812986,1.1703312273232616,1.1963324192168094,1.1977023280006096,1.2076334393919228,1.22529756743868,1.259144309341338,1.2487450621836889,1.249657973367908,1.2454646739553452,1.2878434635453402,1.2892156727450204,1.2511333249042922,1.2801932574325778,1.2932200673968721,1.2798856054919792,1.296887125911519,1.273355658459993,1.2618484038655011
1.3157288509846194,1.3020848665228213,1.3131820099748432,1.2925274870492336,1.2525870339719285,1.2904428382278152,1.2781618864563635,1.2832589635111784,1.2269695598146868,1.2128378984557349,1.168115159247019,1.198184210986747,1.260269248673429,1.189832492922966,1.1857928496725236,1.1992882807217335,1.202692681928154,1.2234354715589104,1.231374033983267,1.2742361403708804,1.2604070122691406,1.2340394007273838,1.255028440195782,1.297112350930855,1.2933499908564485,1.2665346100608077,1.3083414591164104,1.2818867633696804,1.3101908816098864,1.3360061854637653,1.2965536766344852,1.2427096254165393
1.3202746637394536,1.3012904023790777,1.298391425221275,1.2633228961127128,1.2692159497183453,1.281098454111015,1.2513438585917631,1.2989828137058155,1.2257513792741475,1.2253640128723018,1.2020428791225686,1.1894714440210004,1.228504526396917,1.1938088233172541,1.1967677084825872,1.2017496350555343,1.207416893772541,1.2020774241137024,1.2430594167753302,1.289466007636413,1.260031449171652,1.2404474442014686,1.2726308587446848,1.3078176168902385,1.2815988195827333,1.240418846989307,1.3048613557086035,1.2465426800958859,1.3272330954994944,1.32459745824818,1.28189740411452,1.2415690917421522
1.2781530793461242,1.2750482958453502,1.25546592471514,1.2470419524300786,1.1978955963966536,1.2714870179854032,1.2280035966291762,1.2850438258865882,1.2001688415631449,1.2411014185130242,1.1758894568835232,1.1787960501658428,1.2056878736609322,1.1751862756443774,1.181225197578572,1.1791820626175786,1.1807343537197468,1.1936683494943838,1.2548155207786424,1.313133397826844,1.287409065385246,1.2325588797215878,1.2370194177937277,1.2751364441075992,1.236956426970094,1.2316675789552978,1.2706146527120477,1.2213493300814753,1.2970380497428642,1.2522467527279493,1.2412431315786634,1.2694209336866435
1.2621718668905875,1.3132558929166307,1.25091394514519,1.2862601698681673,1.1916008257323891,1.2995710702758194,1.196790041369982,1.2570380105180556,1.1916897903638666,1.2494791478502243,1.1646914354495534,1.1863688721589178,1.217375824302949,1.1565987813117848,1.1735771766622978,1.1667425729911476,1.1826664461145038,1.226623900390993,1.2899621730710504,1.3422419365009142,1.3198899712079253,1.260434984878709,1.2482914249718293,1.2570177898533879,1.2460819631450126,1.2034976961427368,1.2233301450353247,1.2268580182651005,1.2913387901252011,1.2348300579074494,1.2454463078552422,1.250887065143032
1.2400877425861832,1.3266579870268496,1.2576519397979695,1.2913731530519634,1.2176111412268422,1.28954213382132,1.2167294070496621,1.25339729934168,1.1990252583261014,1.2449726300300799,1.1751183980500663,1.188294532717363,1.191078783720697,1.1755487097166804,1.1979196487674189,1.2114495335360407,1.21079262631574,1.22157321601479,1.2520865337717708,1.3285639454383955,1.316780453997418,1.2617375983838603,1.242856452277811,1.2379000803321678,1.2171994087750835,1.2174770072459322,1.2584888733415782,1.2132911543851603,1.2915886858951398,1.232682664743825,1.253375447573328,1.2427446055175768
1.2741024714527203,1.2808190675946634,1.2486923892969766,1.3268617806244358,1.199926340977922,1.24188220111058,1.22766806840545,1.2883556410313137,1.233383499543089,1.2365812675774546,1.1859126793133483,1.198852726434779,1.2095798431436642,1.1880448517015243,1.1740268023995912,1.2109103863185369,1.1938649633249103,1.2073298019466887,1.2197693042783009,1.2877637537420856,1.2500935419895363,1.2491533303449087,1.239810643767704,1.2446052386658946,1.2340216611733792,1.249612053040538,1.276917819465535,1.2372647511504649,1.3187506632373327,1.2462907679652955,1.2729847616479617,1.2636750340127412
1.3247642132435171,1.2962545331091024,1.2876027167771573,1.328348153232219,1.2356572270444492,1.304551959510276,1.2607551429827215,1.2772110716746818,1.187958597326023,1.2549831660417698,1.1553469879469977,1.1625113122223423,1.2089692215560055,1.160179742398673,1.1470928654025119,1.177590224110733,1.1561850422939006,1.1847289699366692,1.195255446903087,1.27071793255724,1.224619184674372,1.219190680640717,1.2247777927403756,1.2278233504714533,1.2716024346582482,1.2734709003064426,1.2971666386803058,1.2888617457746205,1.3050248956822033,1.296921292518423,1.266928431444851,1.240933409883574
1.2762173873863814,1.2748327849214196,1.2803553015071283,1.302069031134674,1.2416620023445701,1.315315108344872,1.300616669480205,1.2582805328391908,1.1925968841233545,1.2846677303217604,1.1520701123335688,1.173659539108804,1.1851271352306787,1.1584111795250656,1.1401038124007266,1.1464122286258336,1.1344418043370876,1.1590410353384324,1.1836929256979671,1.2687881132099483,1.2385480654248722,1.198970899158663,1.2251778596010001,1.2103631929647474,1.2752858940718519,1.2876336525373488,1.281734755354561,1.2833009219138702,1.2778933728316708,1.2538426298452825,1.265727676864599,1.2084447856220724
1.2400866517550926,1.255133642268919,1.3025675897545355,1.3442561905912205,1.2054877782811426,1.3048279659665987,1.321157906408783,1.2652087864671009,1.2381218008040562,1.2947949245736388,1.1965429663487726,1.1956526423844676,1.194821915699597,1.1838100100750961,1.1816824484780555,1.1813619542404559,1.178589898895981,1.1689190099057367,1.222875370519984,1.289671408715522,1.2706764941901376,1.2539248706187374,1.2513484352174347,1.2710774132115803,1.302850504605185,1.2577588149123515,1.2382601726680806,1.2858232704956476,1.302077500921971,1.213513929577323,1.2634292452580307,1.2570992468641258
1.2665648830292233,1.2529368332621882,1.3098241822133745,1.3201095250956798,1.226796123735418,1.3007808639545158,1.2977397514143734,1.2508599400023521,1.2340898551603008,1.2866866104592112,1.19710923620521,1.190064466153085,1.2042886982837195,1.195800192033914,1.1824028571744152,1.1861171398925052,1.2135352689733556,1.1859468057350555,1.23289002933581,1.287551266099056,1.247706768263446,1.2268170326291368,1.2536461213099042,1.3110787068669396,1.2941936117301034,1.2463337147033449,1.2763876269929437,1.2996296652845576,1.3146130459439578,1.2326203966159153,1.2678806532957383,1.288501574738768
1.2579764735027616,1.26393886749914,1.2619369820251674,1.313777229692389,1.244454260602502,1.296849455625429,1.288409181569848,1.250814524529198,1.2481795843715824,1.2543691331710012,1.1821776348956659,1.2056530675211454,1.2288805535801277,1.2167851656794713,1.1914915014788579,1.2269040566940668,1.2178808334431972,1.2215525120767656,1.2397411349902914,1.2954396584583916,1.2405281922392442,1.211528228045564,1.216539786246651,1.2977479236703962,1.2390145578433986,1.2251336761286515,1.2746832573946514,1.2500752513994051,1.293870724150104,1.246593610724946,1.2357692851469246,1.2332896430081335
1.2959019801300253,1.2917253691146933,1.233301052052854,1.3485115425617276,1.2432976335101498,1.2906647460194796,1.3082112376713173,1.2703032349578467,1.2364225283048444,1.2383465069573731,1.193834409518166,1.2227901379793027,1.245906610218943,1.2179248034279524,1.2057590920560275,1.2265909062194544,1.2319076502265378,1.2448739494057641,1.2667939488336915,1.2994095492184108,1.2601535509042885,1.2472273320855645,1.2220996052374535,1.2780992207531103,1.2495508243515177,1.2574446241067785,1.271258859920576,1.2334542414284566,1.31669091767242,1.2733430440315576,1.2322009297894156,1.2407550370297604
1.3289609619146867,1.2895805324368146,1.2507963696725428,1.3105314628181932,1.2530461766278485,1.295336743160574,1.2896579789262612,1.2412372466982442,1.2005794471094071,1.264959727278024,1.1918452308031897,1.2008689547260079,1.2261280951465383,1.1895495022189606,1.181175576794732,1.187175039912149,1.204541536028776,1.2046562993053183,1.2097280184406582,1.2705490511963815,1.229639760967685,1.2370137580153566,1.2107422515367285,1.2599592169791358,1.256758532789356,1.2735637706595173,1.2875557832252302,1.2459359755079051,1.3477286054674864,1.2915914583774473,1.2460456245048055,1.253793291860715
1.3273306940455687,1.283834062042677,1.2697822987814276,1.286591272273885,1.2831163179806029,1.2749912664398015,1.2572369494999325,1.2079932403171292,1.1971887770322285,1.276958569170116,1.1620069699441409,1.1895051859022097,1.1943581646259065,1.1700212502463538,1.1662300304764133,1.1927243450503928,1.201826883254606,1.1926042376564143,1.2327275456570934,1.310071136027675,1.2587662988326005,1.237950255250587,1.2465761235199484,1.2801728196292224,1.278922404236404,1.2793100884185264,1.3155444147940787,1.2896977910541925,1.310944208071867,1.2964074161159687,1.2828849307690304,1.2546680672525765
1.3025191715572144,1.2904470690050025,1.279039066623187,1.2753349583425524,1.2727942646073427,1.2709273907762375,1.2553630376615688,1.229988853708035,1.2078033198960476,1.2424255344469595,1.1449508837765316,1.1821802684740605,1.1820202327741667,1.1313284951531863,1.136745949672457,1.1606833383215251,1.1721965533546528,1.1845744228702233,1.2457276846709608,1.3110629445701496,1.2634182383999766,1.2316849968460821,1.2706305028386848,1.2839015042781257,1.2907460177042043,1.2597923832640927,1.307171776531002,1.2955181204889343,1.2969382059142538,1.2570044774270888,1.286089146078757,1.258086669214871
1.2767776981867198,1.2771946785306139,1.2747617125078219,1.2750616278270563,1.2503558805709205,1.2942741125216006,1.253776983668602,1.2586457000399054,1.201938857787513,1.2357749024991125,1.1365974955345595,1.1736454340499356,1.184233361860592,1.1503240203268585,1.1444230605621029,1.1675407297182459,1.170625541012766,1.1881003203557392,1.2404031769985067,1.307833100063196,1.2767578989872663,1.2388493397445575,1.2919206877713436,1.3000147784116656,1.2852718309325804,1.266920955964043,1.3086214719312275,1.2941858851343013,1.2664163374999107,1.2300677150610193,1.2671536781247839,1.255364333131257
1.2930464889369755,1.2889696534992705,1.2895931187304985,1.2518983027949453,1.216378713543592,1.2659340052497063,1.271500229365375,1.235820322739481,1.2501854624392257,1.2494920689238695,1.1624167789462614,1.2025718721842265,1.230761211485168,1.1971516843455723,1.1936786322714688,1.212939370827172,1.2127529490030995,1.213534832593457,1.2437507047973593,1.303408370462728,1.296628821249854,1.2825860643055893,1.2628742760676785,1.3093275329766196,1.2866186418286003,1.2642645120682616,1.2937807769790521,1.3184782787518843,1.2783722548988343,1.246970091535998,1.233338435400322,1.2777327566545729
1.3154563801241832,1.3049956548314838,1.255862946464486,1.265015153263082,1.2406984032674522,1.244885838474725,1.2838118991827776,1.261070527512709,1.2504381924148174,1.2487784667055313,1.1806542228927035,1.204164966956884,1.2619238009953697,1.1901960865627206,1.1860881773102299,1.2022655015027501,1.2004933452253996,1.2081785835759353,1.2431058631225622,1.3075833864856345,1.2711270849233216,1.2544084904289914,1.2289727001619764,1.2903226434153428,1.287278646962926,1.2440410349014757,1.3178397144061382,1.2712528529472416,1.2764998191469352,1.2818677880542533,1.2349884966056022,1.2600355292544465
1.2862147368107906,1.2779909319071983,1.237754398944226,1.3533659475892212,1.274940481240077,1.2370419859434245,1.2685812000987549,1.258308266181061,1.2142703267086175,1.2430800884280209,1.1903489773809395,1.217880830868155,1.2585813797495748,1.2005423724234892,1.1923946862421393,1.211571738698285,1.2159654933730044,1.228581883306677,1.2713123273215723,1.325769069038659,1.2822518150828566,1.260170479840689,1.245735593339391,1.280353817113091,1.2773439480712296,1.2313198562504122,1.3209692087551557,1.2707956302825305,1.24238774426473,1.297022465934721,1.2494236805931314,1.223174464441653
1.2495338935968532,1.2795857797267174,1.2540150943871722,1.3677959521093712,1.2093051257016723,1.2318148637274935,1.2316506110913534,1.2474579493962041,1.157346945317261,1.213277406275436,1.1643023948694289,1.1638327386667862,1.1721724894262957,1.183850347333164,1.188562355111658,1.209732672102294,1.212659483711439,1.2240174057145043,1.2257530095288327,1.3178315041011255,1.2369580968062923,1.2305724340275594,1.1961721963480432,1.2387920045116345,1.2179790784348288,1.1739881180495417,1.2332152342213807,1.2217618214970631,1.2754077654273872,1.2538776644965501,1.224185573739054,1.2406016103537323
1.276164169224688,1.309263813593406,1.2146601118454476,1.3314183861691749,1.160418221839278,1.2101567187682525,1.1691171235397708,1.2343999640980476,1.1585004858896286,1.2166141050758594,1.1458020092913057,1.1389712392189602,1.1659469175047419,1.1550548807616163,1.1723738141881126,1.1891659309275444,1.198240433981742,1.199229419633953,1.2153193970112597,1.288041708929482,1.2251129391906241,1.2143021785505241,1.1790316313624287,1.2165201289193428,1.2076031401906215,1.1842069162767304,1.2304637575474502,1.217186744662708,1.3163211364879126,1.261124431308885,1.1979042439621126,1.2480124516006221
1.314714627673249,1.296693325715308,1.293214553378362,1.334722500246061,1.1651732191504351,1.2647654365004706,1.2539985062539458,1.2789952471771864,1.1562653001009922,1.2410079553798057,1.1545922808088438,1.143234002717698,1.181097203234484,1.1477857095513166,1.1407374696904475,1.1711743081067894,1.169231112888751,1.1729808552223953,1.2266955107624364,1.2906412523441477,1.2480017872288023,1.2393577435387593,1.244288913303394,1.256786800925984,1.2891937608692507,1.247191987273667,1.2999613247005235,1.2994101184856344,1.2906891289491118,1.3117543474771007,1.2002025362107653,1.279948679242877
1.2606881378748565,1.2685177189495647,1.3069415505852218,1.3169203425855553,1.2062977156408616,1.3227535968760749,1.315467517038029,1.3089696329881508,1.1829284579721238,1.2448269004239516,1.1346301825184164,1.1313375338609044,1.1552261613279213,1.1328323483362401,1.1227283181481067,1.1533250763928762,1.1511574879878477,1.16909343567973,1.2198248367248283,1.293768469926712,1.2722110519507226,1.2602382066556275,1.254525826034051,1.3003773068582951,1.2779377861350099,1.2114428251591292,1.2313895353402946,1.2659699255588335,1.2857754548321292,1.2452961215691671,1.1867458644779953,1.2693613226968694
1.2322918321122656,1.2716105952839807,1.2921025090481417,1.277115413030494,1.234504136234964,1.3183619346776985,1.3223618762959206,1.3107556465678645,1.2178813630859993,1.2538463378914821,1.1790628248900652,1.17947656306574,1.186050567321208,1.1481744013124013,1.1620478075132497,1.1691848026422595,1.1752485901621286,1.170562111228507,1.2066508442467445,1.290142706723328,1.2710165522997174,1.256662312893556,1.2441631877614767,1.3107391419397216,1.3065176936864096,1.2280371067970786,1.258541300980683,1.3082011901529376,1.2756233788588565,1.213487021008344,1.209409174380303,1.223093730295663
1.246542662695192,1.2650432026155343,1.2892903134628142,1.2142001074980184,1.241629824722921,1.3012173303284809,1.311464419138499,1.2876434920306337,1.1928637787404723,1.2203187395810946,1.1653265171162621,1.174438421073032,1.2149001213716057,1.1572112647030193,1.1625638497890525,1.1822081377437075,1.1816536090386944,1.1824215453037474,1.1956572777153383,1.261989319694127,1.237004572303473,1.2427959051084712,1.2309075154858007,1.2671151045366313,1.2791467782619483,1.249731308241632,1.2888097099730207,1.3185679873205056,1.2730958832315824,1.2063174195728872,1.2243459647871342,1.24602239246105
1.26907627525215,1.2726119757897782,1.2436445610112135,1.237672355441525,1.2045050833721063,1.298219535771501,1.2601512731371576,1.2561695910748176,1.2336440986261725,1.241831866937268,1.1877070499636682,1.1999668139279258,1.2262787201449479,1.1940574825333006,1.19068044694406,1.2102311163991186,1.2131138118668934,1.2116732629963927,1.20921051075567,1.2568580460179306,1.2220441041514025,1.233346210781076,1.223995760433919,1.2482954414942493,1.232387611025406,1.2382916490951559,1.2563362988126765,1.2780704161183059,1.2948413695957237,1.2392614126833952,1.2224877873903761,1.2602793790334161
1.2663089968393897,1.2758645152865524,1.2224025473185727,1.2496313135171957,1.2304076514294047,1.2780070555666232,1.2207256037360632,1.252717131111947,1.2214187083570487,1.2451274783512494,1.140707712715396,1.1959732391097222,1.1913291093408562,1.1677223716430205,1.1640860626063385,1.187916583407329,1.2042892940420262,1.1785637234911903,1.1667527199973726,1.2312262720491094,1.2004916995808692,1.1806771796047975,1.1859306756332315,1.2283507042612056,1.2249612861498345,1.239355518730248,1.295394607525602,1.243303452021578,1.3061208728570965,1.276702229434896,1.2574965718908409,1.2370398962178852
1.3112939207150847,1.2780520404860072,1.214484395132021,1.3165557197569409,1.2239641668417085,1.2580096013355317,1.2318847138186833,1.2589748081476446,1.200576839702925,1.2511304192895472,1.1352841998742689,1.1730283534110635,1.1664067113072187,1.1389678719470564,1.1398707497618026,1.167464291652082,1.1751632146052298,1.1573376570611176,1.1693444601698044,1.219333192721598,1.1911343212599614,1.1609410283472834,1.162446739218185,1.2039274950039753,1.2009506293248005,1.2175993103237828,1.3030779382650675,1.2019113802156205,1.2972601450778358,1.3021598295229693,1.2656368858977716,1.2135120277260485
1.3395754848406614,1.3154240038295195,1.2447755506893499,1.337620168243381,1.2236005264414576,1.2545322880681904,1.2112636824455045,1.2419842721122687,1.1614355151954543,1.2504533633378427,1.1476827830107423,1.1640762955029444,1.1785515255372325,1.1544599568615257,1.155795567193625,1.1859717106132677,1.169735591211187,1.185122524382036,1.2105417566516923,1.278397814968805,1.2374041094269261,1.1988568124975205,1.2097037582386003,1.2471118598469162,1.2233386078683455,1.2130510022298342,1.2585317749601714,1.2508411160847963,1.30566190299408,1.303191900570102,1.2585648986618578,1.1917243092573053
1.3099464985369922,1.3214139689129156,1.3401108164698035,1.3033955277553282,1.20897846772935,1.2985544880757174,1.2557189367354076,1.2326641490357817,1.1744600074443805,1.2405440189094248,1.1631172891625245,1.1910918265096064,1.1716851380061377,1.1746781652599432,1.1827240074367011,1.1870741649210306,1.1843511433712532,1.1878614877328797,1.214357318001966,1.3053433555309024,1.2499131957304668,1.2061557771571776,1.229761183975538,1.2429268789928403,1.25460922856445,1.2118969965176638,1.2485368022025707,1.3010207356731387,1.3235451536564662,1.2836988294287976,1.2324206847982182,1.2234125968933967
1.298514173762154,1.28195858606754,1.4010699779536828,1.3166819444673075,1.1833824039220688,1.3609947369503603,1.3067392332919894,1.297859049229096,1.191085146177925,1.2806720936678635,1.1675777072723896,1.1861863172833702,1.170925694063757,1.1450826965485075,1.1534622140598367,1.1479068751607382,1.1698684116981852,1.1609273964997142,1.194597494598796,1.3054032353769234,1.2501962749932587,1.228635691648614,1.2431337073360358,1.1924113797562648,1.239814219881165,1.2313312688680271,1.2503869808448314,1.2468481660443975,1.3064638490961527,1.2539209691367081,1.2124386019413527,1.2763237053111052
1.328461321030596,1.3007705032818278,1.3607451422821593,1.3324956600356663,1.2042895000461356,1.3479869557540527,1.2890007981072635,1.2924650896576304,1.1763403732019893,1.26732243190672,1.1568307653817655,1.1650683823278087,1.1763488831886357,1.1421585395290066,1.1548132509890654,1.1503582709679365,1.1723456502315468,1.176619523868703,1.2093740125298091,1.312590470704141,1.250584027045281,1.2461798675004205,1.2107550567097283,1.2049472507589432,1.2059242249354492,1.2364864295639166,1.249650482995826,1.1710309697163421,1.2666446373732825,1.280083539757101,1.2325935180439511,1.2788164005281937
1.3057085208364556,1.30288373067449,1.23174239506811,1.2967242677061026,1.2364951672895383,1.2475253559293402,1.2492716660221825,1.241341705061074,1.1824797554721889,1.2683987008879405,1.1993355367723197,1.21886804994777,1.2087696840077788,1.180657292712351,1.196702329383887,1.205748001365675,1.211772128144007,1.1974330392016237,1.2114582792635682,1.2832229871232332,1.2290663803619875,1.2244270362851188,1.1959062692579059,1.2528620948117526,1.2005214305318692,1.2572823122626497,1.2658320328141277,1.2051755441164507,1.2950115064377814,1.2753987931893442,1.249104846249634,1.2538189062616347
1.2968082383295705,1.2652718015149624,1.2466863405400543,1.2730387946887798,1.2333336824929724,1.2318202734240984,1.2585243777570654,1.2608859637426724,1.1926443907943791,1.2578990101314382,1.2233128657177872,1.2513763019022406,1.237525932413715,1.201429828710687,1.2335214794879104,1.242681508180472,1.2303251348473454,1.2214105810531553,1.2289705010244136,1.3011868224480827,1.270471771522444,1.2389179074422851,1.2312599272223983,1.264796294848561,1.2390709433478517,1.244416193149624,1.2664665034914682,1.238956873250046,1.3062975069190037,1.270955515757668,1.2481612811054588,1.2455888382574993
1.3218722014712425,1.2656356900113934,1.2795287869156096,1.2689782936833849,1.2266449788763814,1.2708130234842183,1.2886822615875984,1.2313714584809698,1.221187331397833,1.2413330260759854,1.2357355594233175,1.2439642320706354,1.204964103830647,1.2170763004646608,1.249895997796677,1.2517874646537899,1.2055400226407926,1.2288985979559954,1.246898381619178,1.3049215877516653,1.2853641883162297,1.2332904890642384,1.2462887524899495,1.259764782333338,1.2454543908123543,1.2224168339876922,1.2573382596815803,1.2550009767946644,1.2844756284925203,1.2800737710222585,1.2471514596280826,1.237995497145398
1.305161008783334,1.2915473222359999,1.246014484501031,1.2728365096530514,1.2031372389744515,1.2908396535073556,1.2779791236769986,1.2343695459930377,1.2051744233568218,1.220230783733761,1.1803972265798406,1.181078663371959,1.2130184782199418,1.194622750567097,1.193830341672388,1.1987741868954997,1.1813978529171496,1.2099913036547114,1.2358331114997279,1.284060389915945,1.274693061921869,1.2283268575961612,1.245487719695293,1.2730282259891161,1.2390994864042144,1.2205398007316361,1.2900645655340326,1.2521516686535386,1.3171361978700995,1.2608990438542704,1.255684977589245,1.238387941527838
1.2951051045340813,1.3235147840869181,1.228285060483058,1.2471100606141707,1.2272831789086092,1.294776896292534,1.277679588135674,1.2500670245256769,1.180426039406587,1.198206663876678,1.141396823964018,1.1479529570778388,1.2016034303403125,1.1468290310874918,1.135698430253538,1.1475444256539469,1.142631675387241,1.1648113564634706,1.199192657557615,1.27050213438738,1.2598964410436446,1.2347037081507881,1.2457775301119391,1.271591042913768,1.2272125768995088,1.2397637686027319,1.3050477385061976,1.2343117846083962,1.2959649975380159,1.2967540551082446,1.2758872447349496,1.2018628109607044
1.2799171068886634,1.2879069028783219,1.2301923469582359,1.250165298132976,1.2170817855725284,1.288647401762204,1.2408289534933483,1.2402002648328563,1.2173414395154731,1.22698235173403,1.1617132459393793,1.188855845379405,1.2008209807046433,1.1645810221575004,1.1490851904620036,1.1665424097227075,1.150041760278722,1.184980253389054,1.2266861703775596,1.298894674628781,1.277037916620251,1.2480263950111525,1.2386503988275495,1.2761809616907651,1.2442451477299528,1.232352519751894,1.266239881290548,1.258932928206132,1.253774621718552,1.2859998497673883,1.2412855644491132,1.2404867157236814
1.2843955268707279,1.278681802822098,1.2693677757046056,1.2615092687253968,1.2157180097992415,1.259600827559232,1.2410942411508354,1.1878037410633933,1.2404178295003003,1.2654008299888602,1.1968417002803429,1.2086676485865655,1.2025367323940035,1.182878097126866,1.167523156000315,1.181103316036406,1.154660843681511,1.1851506215056162,1.2209770412782668,1.281224106440904,1.2540208551911498,1.2256875903709146,1.2001755662528308,1.246738867947672,1.2430610570033926,1.202389154988312,1.245624511663544,1.2312788195476332,1.2747355042982649,1.235200492269928,1.235969624675471,1.2499498722444051
1.2834159919634354,1.2994522285082153,1.312950867544679,1.2824326518371931,1.2407990844108425,1.264220854739836,1.282839799535005,1.2167099389154938,1.237574940616162,1.2862077021686364,1.186328231368781,1.2123695935411816,1.2124823326178664,1.1873783973033085,1.1768942202228347,1.1883035376541053,1.1789529117575477,1.2050539672715415,1.240338832112513,1.295841614578925,1.280610975414978,1.2632957808756262,1.2610054698661384,1.2772276004192598,1.315527821212163,1.2279383904062477,1.2663865119838613,1.2935852681679239,1.2918694165733655,1.2288521232902478,1.2506194521006577,1.2405858312119131
1.2430998853660027,1.284855429775936,1.3109724151528526,1.2716773159116292,1.2463275586238383,1.311239098415655,1.3297195792662273,1.2795075743309399,1.2130327279433608,1.2652356545887027,1.1896127103280147,1.1728103545504203,1.204472586380168,1.1881530086361052,1.1820425344787788,1.1998013008806294,1.197897885579519,1.208060786096453,1.263243231557047,1.3118551231347186,1.2931598065673557,1.2699885048396407,1.292814809059037,1.2953350231205607,1.3078482449176583,1.239551938267027,1.2541900207735568,1.2955720041842222,1.2831221639485804,1.2225494006239097,1.2162357107671953,1.2333708839191344
1.29638220705485,1.266450547956826,1.2606139363194548,1.265760984122684,1.2064624409527036,1.305464274389175,1.2985590265503895,1.2936135105816204,1.2008432612308535,1.2459570404665627,1.1638975485631566,1.1582580573816617,1.1906608599480382,1.1903975332672359,1.1757160615490418,1.2095637539019621,1.2072149651797686,1.1869034451308051,1.2169420239961248,1.2744879642724383,1.2308598741991226,1.2109182682426416,1.259652211243392,1.2521572864642008,1.2242966671126807,1.1716369024493152,1.2139299729185782,1.2067063295254943,1.2585727555040236,1.2770596747949066,1.2079912824900336,1.213347660918687
1.360909029653533,1.3078206320543266,1.1868522132617707,1.265509816141038,1.2243947985202432,1.2973877385251318,1.249533815211772,1.2408648463889425,1.166862980596964,1.2348138265310742,1.1477027852041046,1.1476481585406182,1.1529633049597436,1.163593825626496,1.1531125551259986,1.1794980553845744,1.160683921491438,1.1491949396890038,1.1608261453420408,1.2505890301386209,1.2149831575395442,1.1753547051277837,1.2504992037215468,1.2550977586873118,1.24917472627018,1.2256659584188194,1.2942122794214403,1.2180294812065375,1.284272084714139,1.322490378409435,1.2998249615368287,1.230947342260942
1.332449146092817,1.3190553010971073,1.2134576590982524,1.2558992443221735,1.2667827673937717,1.3102025754960465,1.2639444636505266,1.244826611327988,1.1934860484454872,1.2804453650983478,1.2164909746404462,1.2050820147382688,1.1759518158604894,1.1951331184570724,1.1973395518321925,1.1929597527688491,1.1924773039453405,1.1784815445502799,1.1781248297354774,1.2673963635938326,1.253210400513446,1.195977341445386,1.2434057957383648,1.2560930256049618,1.2772511409397904,1.3013421233942435,1.3388426371128541,1.2282203421660092,1.2964634826897343,1.3229939314604138,1.3158542184878939,1.2438996319813782
1.28177296063979,1.2933234175759745,1.2354941132925399,1.2858646266933877,1.2521065833544396,1.2970569089279833,1.2619587563025458,1.2339442650562307,1.215388641788499,1.2637117944910743,1.2157346111249452,1.217162748763923,1.2250633883340991,1.1994167784855272,1.2040933649952437,1.2043488552580757,1.2096202430430842,1.1887018847827533,1.1980666763738785,1.2805946216573985,1.2396213730699959,1.2150413857271596,1.2259304788147878,1.2653487735576208,1.2707644131482438,1.2564262874297005,1.2668963275923615,1.2595947714905538,1.3193496873058295,1.2755091950062512,1.2849088704065783,1.2601265213066308
1.2847794334274973,1.2871439798879731,1.2806720568696057,1.289794073790206,1.2252316221227149,1.320533796744111,1.2480675900646172,1.2369869761253436,1.218597719866561,1.2455039186655086,1.2187426153749972,1.2185447865634917,1.2376470889152191,1.216008162909517,1.203948507285541,1.2139202015554644,1.2145431253583334,1.2231855205377358,1.2314446555542067,1.2880121120543344,1.2614581595775938,1.2314500207172336,1.2408839070241346,1.2947892403951984,1.3018282540358856,1.25003108754267,1.266950424932301,1.294983919553783,1.2978779383071422,1.2628763688270777,1.2618698650480158,1.254744063782132
1.2837348870571668,1.2759569547545984,1.269543413417203,1.2881059306923694,1.2061139036896318,1.3013893558119907,1.2382293389894756,1.2636357957214963,1.1968995416465797,1.2041639547767922,1.1626229653910336,1.1701211076026778,1.2080164567808154,1.1687650401013912,1.157320065630634,1.1765030991404841,1.1794280566587392,1.213684161015151,1.2016799845951616,1.2381593546004346,1.2151319139768566,1.1952176480193515,1.224853281197833,1.2523842837088648,1.263830570980432,1.2365818114933935,1.2603928360211056,1.260539984797857,1.2695069485227175,1.273562180699035,1.242355071970709,1.209663943356165
1.2509811894216825,1.2717297726432222,1.222749286937195,1.2489843109637835,1.1897686389487176,1.2637530556697387,1.2229585250736745,1.258503768758055,1.203085981462538,1.2364268749413485,1.1554926193210622,1.1671766595123847,1.2015139619531596,1.1562713507817095,1.1647136732274386,1.1908133825672191,1.1683447840843662,1.1937394754078128,1.1685968813849512,1.2324342954289484,1.1824093589435758,1.172427139743378,1.1788764328023178,1.2214566902924335,1.2045862258286262,1.1871917101676353,1.2515595717980221,1.2189030300833983,1.2772176927441925,1.2416847919328977,1.212708640136102,1.2082606916685106
1.2767130394493382,1.3168121285509882,1.2383904884413712,1.256349596180403,1.2166729176075468,1.2570501849726154,1.2247448437914221,1.2549736445641893,1.206604191340989,1.2324990976166716,1.154388379021718,1.1614881755362816,1.190622544106041,1.1402072700766424,1.1452739403383103,1.186768444506189,1.156313492227512,1.1684469704521752,1.1583732622064724,1.2268657822776785,1.1886428710397394,1.182032588544012,1.1725676637892934,1.231334329735353,1.2149219540073009,1.1860037401478771,1.2787603580088138,1.2175477386181734,1.240713218100634,1.2747153461107728,1.2385632537045876,1.2445318739390911
1.270219781550556,1.2985102962394641,1.2719527693598462,1.284336955495802,1.2077404178640225,1.269623184142057,1.2015640863198518,1.2397055476143926,1.1803184300686982,1.2140385130974445,1.1250879081836316,1.15288554880695,1.1580010907343388,1.1322015958605292,1.1245937439745806,1.1523963315149433,1.13422445762461,1.142092362467617,1.151363684084283,1.2241679062512845,1.1742319978303173,1.1682775276324788,1.1528907943594136,1.244535363477457,1.2264069510690938,1.2142706519714805,1.2702717843697422,1.2138404855042197,1.253897582576777,1.267609587587041,1.2507675953967332,1.2173530746184364
1.272979610113868,1.3102196926535756,1.2956758470353844,1.2593865262427302,1.2033220784222567,1.281693457876619,1.2336938276400669,1.2601489354102446,1.1693848678443028,1.2714224437883928,1.1587851275603387,1.1862099219995035,1.1594057685863588,1.1752423634005038,1.1484136252602164,1.1483663660798966,1.1492250827179922,1.1590263944903298,1.188566957973901,1.2783837341284516,1.2383655215898768,1.1845718322364338,1.1856411458588874,1.2455963495345705,1.2635516714498327,1.2255776264450087,1.2623407749157562,1.2500239364759003,1.237588675952713,1.2718829686215685,1.219561960394912,1.193802324686328
1.2320293310272017,1.2812525018479335,1.3276254299075279,1.2382823227396855,1.1924371012442478,1.2849907968218928,1.2861886278405057,1.2442283441765267,1.1901268240096567,1.2167478480298215,1.1592576460070703,1.1726130704943505,1.207682980572246,1.1683828155916807,1.1559696250147231,1.1643584577645574,1.1837611904960377,1.1838294837538135,1.2024914982470851,1.25929724967404,1.2487094893161237,1.225276854628419,1.2209494892830948,1.2609073337500676,1.2495167324851404,1.209492286043722,1.265856204034334,1.2478294072997755,1.236446619409591,1.2599469396447323,1.1784026183622618,1.2136232732058874
1.2274958554069566,1.2293252503003846,1.3448827892289932,1.2609519276848618,1.1731040325505608,1.292913973349575,1.3049192423143374,1.250763261219987,1.1912664254687293,1.205523512773885,1.1446334747021407,1.1462284071746103,1.1923372497859848,1.1468015451643,1.1558872530981357,1.183915463953626,1.1961109719425334,1.1792519730151696,1.1781132050786496,1.228217255010115,1.2439935890125726,1.2056745028813944,1.2303077440624524,1.2572540032287651,1.2395480088689537,1.2034650623566503,1.2587958386529503,1.2224789330299228,1.2565639436323432,1.2427286319061732,1.1925923526432245,1.2294207027240922
1.233109422034773,1.2069637221756728,1.269567298612233,1.2310100309911314,1.1857423585926752,1.2749825338082945,1.2692180249509115,1.2318632025043144,1.1725938124139972,1.1993748299578093,1.1382367503542334,1.1376227613737557,1.164278594269113,1.1381685566095425,1.1544366296439967,1.1748489322134423,1.17587534815512,1.164324037329314,1.1768704874866542,1.2544709706140087,1.2428994555719601,1.1883045675013166,1.2276968893527798,1.248656356459248,1.2245469544846737,1.1856055663772944,1.2264388435142977,1.2083257196133423,1.2284704679735905,1.2339335229852522,1.174512492438397,1.2371653196416925
1.2317004427513571,1.2381096919898968,1.2289623215434524,1.2039846670998477,1.1734680871591725,1.257324217086121,1.3005207004815336,1.194235609873612,1.1638838025590026,1.2011757514622614,1.1667300477371907,1.1590344393784318,1.185647565786987,1.1618341842418196,1.1680747886470353,1.1807450951665464,1.1693903133064547,1.1695988074427255,1.1987026261726905,1.3079151675696823,1.2615843020053936,1.197787302695317,1.2304295854986038,1.2616973233119004,1.216253217444722,1.1891670945873185,1.2215407918290468,1.2344848816827632,1.2552510024145371,1.2128442763435066,1.1768906980509737,1.2459203423406158
1.2993600005653565,1.284949209576753,1.2790555758809001,1.2712652878126052,1.2618369226785087,1.3036777629013592,1.3033284506386977,1.2400842537805787,1.231822637537903,1.2854633992415716,1.2384851011479718,1.229701133685426,1.2271577388793797,1.2390170228377086,1.2270936857753774,1.2073374080841228,1.2099747836697015,1.2029826817288884,1.2392750492258187,1.3125698865871502,1.286207480263966,1.225706431738735,1.2374347000298265,1.2414501523655725,1.2659356888819109,1.2459486677944518,1.2985695643166666,1.2796604411513022,1.2735076188937715,1.282790824156879,1.273626897632207,1.2468981874175522
1.316625284858449,1.2981293513779082,1.3026784517809118,1.323864280647358,1.2550478967960932,1.3139458349805446,1.2687008270380036,1.2569391556182044,1.2383513306008502,1.30006313601211,1.2551004499351242,1.2567116861587295,1.2348466124204154,1.251645899347623,1.2600415699309289,1.2333270560016008,1.234821122294136,1.2226236502821066,1.2444503072988964,1.2968325181657903,1.2799358641103655,1.2069572946129605,1.2246425167884096,1.2514849243073887,1.2456182998555623,1.2287142887674698,1.2993126373484445,1.2810088149939127,1.232055970428832,1.3038264658798822,1.2811188362166543,1.2217296759465208
1.3276398498012443,1.3199844015681044,1.2375814701172736,1.3078456861135115,1.221167194607709,1.2794328464759963,1.248166308295754,1.2459549126692957,1.2596741276942056,1.315979754120789,1.243025502608633,1.2775576844101826,1.265053330917387,1.251377779479124,1.252854761592599,1.2413184968958861,1.2359138691905822,1.2405734573191587,1.252986013168956,1.3049423774021325,1.2615568007043696,1.2342932568127398,1.2428508679854702,1.2783646232276353,1.2256081051425647,1.1925049007222595,1.292899152597715,1.2610852264688341,1.2700025674438709,1.3108202980820616,1.258833938322375,1.242324798181209
1.3075344154087496,1.2925149871961508,1.2616954491548453,1.2830525349788306,1.2068494059085622,1.2822918115662618,1.2813946738771669,1.2383601138584568,1.2099402363855563,1.2698878839999435,1.2165056647552346,1.2183287702460477,1.235267622405248,1.2233606018685894,1.214057484370581,1.2247863169967785,1.2229831768832033,1.2366938876967692,1.2500370888264245,1.288153239141712,1.226107696551418,1.2616586869499375,1.2737719903378235,1.257036112664396,1.242201815863651,1.217834754973101,1.2841256969171575,1.2711471131815044,1.2883945806709185,1.319649176407088,1.2320620500422665,1.2492281393071032
1.2869220522145894,1.2945987352177701,1.2771903745230426,1.310377494063123,1.2310361428416363,1.267553025921924,1.2715908047482685,1.2365327121734377,1.2232588222795628,1.2427099644659483,1.2137370479206204,1.2030470495769712,1.23241034438136,1.211574728340828,1.2063842884788953,1.2075835536242099,1.2118819770199871,1.2269112361760535,1.2485425484090549,1.3165511341362834,1.2731239317083394,1.24811077699612,1.2665831510736212,1.2649283838390228,1.2499268465290823,1.2335618680736808,1.2659767363885364,1.2559911466841933,1.292528080664036,1.2973641105266058,1.2409985130523922,1.2490107447828747
1.283972197431662,1.315753653478277,1.2754911565340865,1.3207969840462441,1.2110411790034674,1.2757780734940567,1.2868471348934367,1.2649614933919575,1.2503394821547476,1.2629616640397667,1.2232592714732489,1.224675835910698,1.2461413339493548,1.2320352064332147,1.2311048741677495,1.2410559872170153,1.243629089339102,1.2466771245474981,1.24984093119857,1.3033875543341265,1.2768034932647205,1.2389023061700823,1.237542109634522,1.260677112935433,1.2721187484768377,1.2368614332408603,1.2545285817491345,1.228622630264037,1.2689228589133503,1.2777546588269502,1.2550816604423678,1.2182858213885903
1.2922674031957118,1.2954517100368905,1.2922904185160777,1.3297315049528744,1.2190997091516513,1.3014160762433444,1.315116542628271,1.2585040320705285,1.2533993529725673,1.2781838101963274,1.2365490407314164,1.2470036806641773,1.2689442353120692,1.2639684549797265,1.258065576708868,1.255294045057805,1.2677500113272142,1.2449512827626952,1.243098134102894,1.2823736407941757,1.2291634940050102,1.246743288798528,1.2274418704800867,1.27524549145541,1.2778483781681726,1.2523550679381705,1.29496460213328,1.2504887073893887,1.3226550140301163,1.280115444521927,1.28242978063388,1.2593139095779575
1.2849529647533324,1.3254218635491937,1.3541119394093817,1.3493516702944541,1.2265854064723418,1.326473754201253,1.3181962012282487,1.2617315854692086,1.2534455110577136,1.2925908401221529,1.2192730173699482,1.232356135657315,1.2621330876737291,1.2462062999258128,1.2522359228506041,1.2325171811119908,1.2682558249829439,1.2714865822614863,1.256796866051907,1.306819444878141,1.225047829495532,1.248019474633183,1.2471374690540578,1.3033631801497736,1.2833289785730104,1.2495104305909785,1.3089383521173519,1.2747207584909086,1.3114075191293375,1.272312904743004,1.2844764218082005,1.2984012323842582
1.3229408779049754,1.3152506685143117,1.3046235643801918,1.3450819907577916,1.1849375516387266,1.251114463529347,1.3078106894617523,1.2544131938215048,1.2327410229083597,1.305175254936374,1.220308914856918,1.1867071372652316,1.2201176555801783,1.1836103427676092,1.1936732983564284,1.1891496892656697,1.2073811477636245,1.2193557398360195,1.244993735350608,1.3332065509704945,1.2748864026467417,1.2393394985765243,1.2501069827504827,1.2895703280238642,1.2547477279766657,1.2093313935403547,1.2535039580102274,1.2462247158564566,1.2957912647016994,1.2828377790150258,1.2395976382305818,1.2615019889424122
1.3103449221595278,1.2896001915740458,1.2579036306796363,1.2960837583439921,1.1938722422780608,1.2569596369634968,1.2646603646842765,1.244196135258801,1.2735964765167849,1.2752926372759448,1.2196149536046894,1.2088685020714998,1.221323280905028,1.2022791861266138,1.1897791847505041,1.1775963945409276,1.196325596025216,1.2019456310859522,1.23487457329435,1.3293574171732376,1.292346704374424,1.2094373451639433,1.1885222139113478,1.2609989659037995,1.242043160349103,1.180460356803217,1.2366080478195205,1.257541093240969,1.258176413853375,1.2754375259028037,1.2212672643815832,1.2021649101646
1.2729153769608799,1.278371482923579,1.278789053677953,1.2836359174502474,1.1976817586948736,1.2584118623341614,1.2786438516829068,1.2326390636840325,1.2324108569474015,1.2649643486879154,1.193511088682101,1.1985307439152715,1.210333324875796,1.1807998897638108,1.1725836083835028,1.146517245255714,1.1681821757139295,1.1916984905765473,1.20513326818261,1.3057522864910729,1.256643267435501,1.2010438265428898,1.1854106280461034,1.2345432296988785,1.2560772002007567,1.1780540945980158,1.2241561747188505,1.2594366801574275,1.2401231419000096,1.2730621088248544,1.219770493963048,1.2098336858739274
1.2957189367757205,1.299440579693812,1.2775540451109464,1.2775275727476798,1.222898505625227,1.2395371450160213,1.3067926939555223,1.2180522708705213,1.16679810110875,1.219872055941823,1.1442591304049494,1.1569047320045012,1.1718251554086723,1.1415530087670955,1.1424672281308106,1.1478653016585874,1.1548353538207532,1.1854364748540243,1.1976254565069253,1.2471373734580746,1.2392175719220584,1.1923241783346392,1.1874666790039958,1.2199328991039138,1.2162068206364178,1.2191816374787388,1.2632473361778185,1.242615889783028,1.2788305805420461,1.264436494171166,1.2385846383504662,1.2058487197280043
1.2716056053701932,1.2770404523205785,1.3270358265852233,1.269037765340943,1.1904029295598355,1.2590778358166157,1.3097168563599189,1.2095119361216427,1.1661894922263847,1.196395226317569,1.1400916797451104,1.1411970134208205,1.163619706195754,1.1433664570838877,1.1418847294542047,1.1719205083873487,1.155499439001966,1.1682387177925697,1.192794785024312,1.2505474387540796,1.23536251129241,1.1821238013100208,1.2024322119505497,1.2447302769084796,1.2217625386938034,1.2007844287580398,1.2850867373092338,1.2735504798563795,1.2465286205788009,1.2283355414159445,1.2103684871598024,1.2032202913864904
1.314684554033378,1.3318104739729,1.387699143098488,1.323806699308867,1.2323686459455734,1.3608830075205471,1.307294490158046,1.2530092899059428,1.2391737592400203,1.251198620631223,1.1693410153691486,1.1910711265319915,1.2393150481301423,1.1889845604028626,1.186124962181147,1.2112064779513194,1.2355509836570044,1.2457619112936922,1.2678471449964042,1.2931992277652993,1.2881802182757212,1.2429085680852907,1.2652526743013386,1.312712665919653,1.3139252861782336,1.2355616905543232,1.3035733611124298,1.367000443015586,1.306642280969427,1.2705354653139855,1.2447910448042023,1.2118838311960356
1.314565824897791,1.3313385356320173,1.3902011041562303,1.308898212419394,1.2249685169534865,1.337538946037458,1.277568832605297,1.2465611014562192,1.2261940848510928,1.263741889949926,1.1632542734533529,1.1879632694754865,1.2299633272895165,1.1903625877543464,1.183902599543859,1.2210154210178117,1.2435137498126188,1.2589814882397992,1.2761923219417366,1.3038817776607972,1.2983998962315777,1.274110072752841,1.2694438762017317,1.3058739110520616,1.2930933796421225,1.2221083311817402,1.2674611187713625,1.3419041093207846,1.3241698994678572,1.2558941212645374,1.2088145107447255,1.1954247759330683
1.2988679752766077,1.2613109205387834,1.2854672502486397,1.2476665363256854,1.1696877688070317,1.254588357420378,1.2503417018801886,1.2225732640438645,1.221709414610286,1.279388628033255,1.199305024006053,1.2018945884865695,1.217080973460194,1.190518800093076,1.188528962275272,1.2048330912232939,1.2094609089777089,1.2091085905995265,1.231034820862279,1.2699521472711957,1.2758871001876848,1.2467765395811625,1.2453882204128095,1.2498540176467585,1.2452484680801152,1.1875396338947564,1.245693186186597,1.2242455056516088,1.2934345453269642,1.2483072348003048,1.1728465371235963,1.2639927609191475
1.3181255030493328,1.2843168597938972,1.251012202461296,1.2574283307021523,1.1847396151834069,1.2761540987123363,1.3129356254731526,1.2398169370643444,1.23273715819768,1.302655783192756,1.2131337369540045,1.2385094309380225,1.2333904311609891,1.212230576849846,1.2259770542046833,1.2369610643599358,1.2504083568221682,1.2289549956759356,1.2341408059930907,1.278837980150766,1.2561473243052645,1.2391759388880945,1.2478841879586269,1.2832988860253918,1.2470704691532815,1.2182459774886691,1.2732458562481324,1.2529957773175318,1.2940360611606612,1.2744837944872176,1.2345924553083902,1.2793234997894094
1.299261766340225,1.2792786330365389,1.2664248719430946,1.2372479735332707,1.1903112143791665,1.3160562808376588,1.3062043986292975,1.2788828037084037,1.2150871783443526,1.248934836648968,1.1951858459945623,1.1931058497668057,1.2268752136699723,1.2016047453568177,1.2270942698542648,1.2310794473393212,1.2350987174264032,1.227915704956334,1.233584305389142,1.2773056552046653,1.236459348383697,1.2238299344753114,1.2126779887600416,1.2843587488115387,1.2309016886357214,1.2173328737085682,1.250248943482579,1.2423436502917005,1.2846752741200205,1.2507851918743984,1.2065526138155986,1.2290457608533771
1.3054428613603852,1.2586506992761475,1.2592861009101854,1.2674625602523577,1.1796699868647085,1.3272953408845303,1.2757726758173968,1.2986074018724187,1.2082077795430066,1.2115071939119877,1.2019761858947189,1.1895684664278416,1.230263175014972,1.1983862585541074,1.222672986643872,1.2267101377791756,1.2287540012164382,1.2232621109641106,1.2537586490003438,1.279444847009811,1.263391909136652,1.2456816365710448,1.231727822683125,1.290223620383482,1.242990728990712,1.2001452637096333,1.264000082555776,1.2881277233959638,1.2430771452185991,1.2298898238317173,1.1783837515058229,1.2252927384616177
1.3117184633037002,1.2497143301963791,1.239353986194715,1.27824119389877,1.1512932206462523,1.3064326971560822,1.240846394700237,1.27502516687265,1.190037209415641,1.239628192849444,1.1711354449110831,1.1728698701986289,1.180705664842781,1.181966829682617,1.180375379763638,1.1827042524685725,1.1923045633407108,1.189415682479991,1.2213690156911283,1.2675200275140432,1.2376615322463174,1.2161846023418006,1.2112279967746746,1.2674607702063971,1.2156152411047447,1.215498186266208,1.2428091668690489,1.230692225093304,1.275058870533076,1.2505778141194817,1.1816823931636935,1.217215326338945
1.2932450034097536,1.2596671121600285,1.2382140086600526,1.2514045951258008,1.190810426235856,1.2642540290452178,1.2332077007821465,1.1979598854066633,1.1970636690446304,1.2195722663888562,1.1922044516972679,1.1719777101298086,1.178106902336138,1.1798034518505758,1.1820284643614154,1.189245348818296,1.1818270377306965,1.1782230956874993,1.1951873684585737,1.2859281526909019,1.2249401418482326,1.1968451204243253,1.2016267683922586,1.2632067278436145,1.1822466811009602,1.2103807476923862,1.212096919861606,1.1666155145624655,1.2776441993981704,1.268535962560017,1.1981518471928363,1.197288472185076
1.2791713459548248,1.2420453842644377,1.2379670950598323,1.23950617494305,1.1867033422462185,1.2330792635529921,1.2312848976995645,1.1665899160417859,1.2050331706549782,1.1987396082709734,1.165441867577343,1.1599429638153271,1.1763451571066834,1.1647637843714258,1.159132481275579,1.1767893055324585,1.1728800278255522,1.1761774831289022,1.192317143424108,1.3094922847099066,1.2197572060573294,1.1826987191402991,1.178589634020197,1.2469518920161606,1.1904542575304249,1.2010020640488253,1.2350119281927687,1.219989262810516,1.2008766011428955,1.24373546392509,1.203321663479075,1.173375056305288
1.2567811439429755,1.2298549836138446,1.231281118849311,1.2062412761772239,1.1776053048554143,1.2289645485832876,1.2105156177521452,1.1911616408410939,1.1845950185610694,1.21638592191046,1.1821166642476255,1.1709035317026169,1.17540317250241,1.1736959043226431,1.1803071093459077,1.1918947839665444,1.1815325295515828,1.1786353501757894,1.1731712896468025,1.294700198742116,1.1856353485062314,1.1512285020204427,1.1577582937101432,1.2142638988690084,1.2071085449926655,1.2152986792425817,1.2452123407678466,1.2366892815410062,1.266595133242475,1.2232973658079507,1.196013550496786,1.1676956946800867
1.2798532245912824,1.2870342365626073,1.3074510125848429,1.2158871444242594,1.2141582971815954,1.2385963151386983,1.257531855114893,1.2089526560722617,1.1805890391984832,1.2101890510238187,1.1651890846405126,1.1623885689751257,1.1900776356061074,1.1561442719308395,1.1584460726307917,1.1906228880130139,1.1745990596359985,1.1955001265727123,1.2109653336278037,1.306086306132935,1.2174583520605529,1.1942192492933306,1.1683052958898767,1.2763142074540776,1.2463156958706363,1.1961936268618387,1.2553256517581806,1.2676883586935148,1.3072194273654907,1.2147383837338168,1.1893984796988357,1.1979654735227236
1.2946251515356906,1.3214333821505917,1.3244731888592038,1.2792276998490855,1.2066132223581714,1.2774784857536272,1.2938654192272396,1.232493178735346,1.2129424740335808,1.2307921962097077,1.199235800071777,1.182914955290677,1.1795855942185323,1.18035350035864,1.1671050078258614,1.174534510068358,1.1851503029966823,1.1931953429785978,1.209056549405113,1.27211096204988,1.2309458241262792,1.2113982602060118,1.2006916800696383,1.2558530063922488,1.259605151834505,1.1800661458282782,1.2667676291092536,1.2471347974632716,1.2489482567311179,1.2775987200181684,1.195944606749488,1.2130797736817602
1.3247243357778198,1.3079654922564192,1.2923385699461818,1.3449150330187316,1.2351813444125312,1.3170634035591622,1.257361732539517,1.2486158641429284,1.2419678192386456,1.2735727720494459,1.2186109057666263,1.2186151156525065,1.2044026222653361,1.2119677459330864,1.1876001053051655,1.1789181226877228,1.196972732364433,1.1978265637600207,1.2112339823905496,1.2693197273625962,1.2129584662640998,1.1943351652341003,1.2068333893585623,1.2256968302679736,1.2540569110811943,1.219158799486251,1.2640829826588293,1.2465862138847557,1.2440344079355072,1.3227716018989872,1.2475240860539147,1.199543028250163
1.2972537239374176,1.2615820751131281,1.2653194767134626,1.3168467830264727,1.251324649908175,1.261949737821488,1.2401033067456784,1.22369042935107,1.2405298746682234,1.264908666677743,1.184883549238027,1.2101736569624535,1.212353601358019,1.2080478846471663,1.1797996378112547,1.204618526885184,1.2026778278524757,1.2178275205837563,1.2222720692154692,1.2803573850198324,1.2219144470594585,1.200977239130585,1.191219129994017,1.2328196146570127,1.2165420406050385,1.251206277484109,1.2673920485922427,1.2330835104703706,1.2556240013401025,1.2908607330609723,1.2756635283110138,1.211913887308834
1.2822816298667663,1.250157387065444,1.2717399206569147,1.2735556739056422,1.2169049659040017,1.263189377242527,1.2485639468521996,1.2196193392037704,1.1999229131753708,1.2415198434035146,1.1862375268164926,1.1784494142878317,1.188862371081194,1.1862752926173894,1.1920540378786393,1.1941836443632958,1.2096134180145934,1.2224800043065842,1.23811946742181,1.2952180472746113,1.2693789255393026,1.2294064068460613,1.1920965201409879,1.2500902089884678,1.2486204184624312,1.210970063908573,1.2408243460295294,1.2758817714291095,1.269465756358237,1.249011653642717,1.225067853274164,1.2039042947406302
1.2984422727366929,1.2646550508784038,1.2655832445697863,1.2574810541960537,1.2327598582436812,1.257530925846418,1.2276829380655236,1.2332934329050562,1.1988307841355252,1.2602610605433537,1.1747238025902327,1.1819113075096606,1.197745215034127,1.179236010800703,1.1815560456217165,1.1783320063350187,1.197881645237497,1.203576676835204,1.2213093037038076,1.272696114610789,1.2479967282059725,1.205518414162386,1.2047053453906744,1.2739017313989862,1.2431213010518944,1.224885320962019,1.2448440440700907,1.2664470283382945,1.286938179892834,1.2681467729833045,1.223718711618075,1.2048819289088617
1.3357400263528487,1.326967228361668,1.2685434192541196,1.2665441646684,1.2682774316846828,1.285258533407857,1.259324022647526,1.2483333335012172,1.2024554584198222,1.262625236195027,1.1702315043170022,1.1748279117778169,1.1972353463421515,1.164849408518924,1.1695529675264669,1.1736575031245884,1.1931027087998465,1.1782753625834883,1.1688581158261022,1.246221162320776,1.1768277565434322,1.1776092944657452,1.2004296561776862,1.258166725953659,1.229117419516378,1.2345939141882076,1.256316343564816,1.2530994120001337,1.304333404543347,1.2872542622739196,1.2504786316322354,1.2208506557283936
1.2893353963225123,1.2972631036079914,1.2690649053251601,1.2830957109730416,1.2070509800615443,1.297298555152166,1.2843710420352423,1.2277652011105138,1.2261420715180937,1.2301636115041663,1.1687604788443504,1.207447954938595,1.1879862555316087,1.1717405489152504,1.1810779346482356,1.1955318814069762,1.1953295370159303,1.1858647719934279,1.1788399025901524,1.249455195937938,1.195844963999939,1.1872862686566934,1.199060276474723,1.2366026663941925,1.2280232773728963,1.1863242355182977,1.242561873379087,1.2679015409338474,1.2882398454863315,1.2227577071886813,1.1828837996873443,1.2139695678641849
1.259283248481165,1.2349590538376276,1.2717801181414818,1.2738196749902397,1.2146713431026261,1.2466108382922003,1.2241041932342542,1.2088589148222124,1.2014963931650542,1.2079865129662597,1.1476811641846605,1.1725311150534867,1.1941624377006141,1.1415095871844645,1.1430059812090951,1.1598059338680438,1.1516694411389137,1.152304654203967,1.1849532363196453,1.2909296984850973,1.2159566472650425,1.1902701037532917,1.2052872601308238,1.2416688558272273,1.2476424190616124,1.1975922700775719,1.2665743958913924,1.2684429084505824,1.240179735346463,1.201577398103701,1.2124325963629914,1.2045883214483661
1.2733880733611873,1.3200781402280375,1.2484976922591522,1.2594191812447528,1.2142391289811856,1.2293667487559234,1.211560010680326,1.218367132895004,1.2259429582410137,1.263891660734964,1.1732389809554404,1.2014149719784,1.22223363679509,1.1712681582815094,1.155575093784166,1.1794359486686827,1.150459914884427,1.1585889068304664,1.1969477639907544,1.2757420499362553,1.186588156891915,1.207238030020528,1.1981689155624655,1.2263814047765527,1.224223143321806,1.2117508208667336,1.241953105201535,1.214591584319,1.242855770991799,1.2138040419831282,1.2294678444601235,1.2291292653901857
1.3054559501973648,1.3503283343642267,1.2327352493262296,1.262678914357812,1.198851268945764,1.225943233701015,1.2895596571464438,1.2428662109177262,1.2585711317974992,1.2710901279069025,1.19533747622797,1.266853066061192,1.247513319032313,1.2320536190972329,1.2227187644728397,1.2207384712424258,1.19158626890436,1.1956471002684625,1.20557030135031,1.2975615319094969,1.216181411399594,1.2277249566664992,1.2085901990579508,1.2671801312625808,1.2230037597639858,1.241434651994751,1.239637041604874,1.229811872364116,1.3149723079473423,1.2499329598618907,1.2385183552952734,1.25753079125937
1.3272513606119716,1.310333850233801,1.228570778607756,1.2620478451215582,1.2046089709851455,1.2480484335991011,1.3044995337632013,1.2308112557666944,1.259498746648787,1.2547794912832948,1.1901189972987554,1.2315030501844055,1.2545251516880032,1.2288072151400073,1.231865816448566,1.224353760198193,1.2189238223075254,1.2301780445034856,1.2174333702778852,1.321498596213845,1.2603691653558586,1.2558998394374756,1.2311364413213721,1.2723413701927344,1.2242293036988814,1.231879410307201,1.2639134947947688,1.2404748049929013,1.335400142114697,1.2978532159073866,1.2462697769818576,1.2544202385889882
1.317055237669887,1.2757885230386408,1.27585410739022,1.2520162902727365,1.2276453269843888,1.262234196192817,1.259540422634874,1.1899943685654495,1.192494854875049,1.2870734799326673,1.1820444475542378,1.175718637918308,1.2267603650068624,1.2066579850304269,1.20713162053253,1.2225473091438013,1.2038876194250185,1.2386033631845004,1.2525603678815247,1.3265432544795992,1.2654772863623411,1.276037453633387,1.252850393078107,1.2685708721986357,1.2446981949662839,1.2633628503841898,1.265021545626449,1.2569498209043166,1.2851517807523147,1.2903034104492015,1.2485698030348773,1.2507273238142815
1.267902462190355,1.2411747894067124,1.2737765937008099,1.22576061328387,1.2198881191981643,1.2699893294455062,1.233430241779055,1.1956460406659875,1.15397611839954,1.2802792323795393,1.1518133268549209,1.1470058444265276,1.1965639696811337,1.155716155156343,1.1544478531699875,1.1760834103374664,1.17426903797731,1.194489387867306,1.227585108994266,1.3038276783627067,1.258268236268193,1.2366065144450553,1.2306760957589122,1.2989089186449978,1.261311753627781,1.238569891036705,1.2829181078044438,1.2742466054367336,1.2840832708544625,1.2517775109138063,1.2394923598476784,1.2184580982814157
1.283874637866102,1.2592234498662396,1.2995948832941042,1.279714628039398,1.2152646456673561,1.2901186520032666,1.2318469192172687,1.2262143424023837,1.1745365578877955,1.2712869592604206,1.159261174089231,1.1690017371508616,1.1731105445844439,1.1649372158697548,1.1446418649886596,1.1736625056246963,1.171473060967115,1.153323778864875,1.158845140740757,1.2909488199607881,1.2183750023649929,1.176079606929827,1.228128876013604,1.2651614971875027,1.2435990996186392,1.2553930703450114,1.301549224745194,1.2576389524421605,1.3008192244595587,1.254346392193378,1.244199977878371,1.2327739436239185
1.2917006323200528,1.2942846684877878,1.3056617448641423,1.3052612188035424,1.241691996760776,1.264798285628571,1.215174174382982,1.2328698123136697,1.2080819943011696,1.2608551336504512,1.1659719805072728,1.1864057612461243,1.1836729207047851,1.1721843133657508,1.14342134432999,1.170894911632191,1.161688903597585,1.1450162835544608,1.171091318288535,1.2741801984420054,1.2263795242947602,1.1719911687950082,1.208794137931915,1.2332979394468488,1.188395194762283,1.2212947895010298,1.2361398994255404,1.2020301700552283,1.2886137629012195,1.2574841591622035,1.245619121544769,1.2264479879289167
1.27955803473874,1.2923566239523996,1.2760564636093743,1.2869814486825173,1.2333078000989715,1.2729794215401677,1.2150221424405376,1.244542232043625,1.2220306021107414,1.21428843809587,1.1563532311471014,1.1868589828315692,1.1842864531730686,1.176229910153415,1.160338627584008,1.189423349995092,1.1906461195985114,1.1733149050546043,1.2183264545992283,1.301185047267231,1.237861335158795,1.1910341009758019,1.213395199888516,1.249203978605943,1.24009780433048,1.1994409881318429,1.2404326528916687,1.2480631990888498,1.3266586005624619,1.2630484898498953,1.2565675612684766,1.2075152133011362
1.3139520396190172,1.293621345394063,1.2491117803263014,1.3029888920718802,1.2264556317677857,1.251803402166545,1.2420202261942852,1.2404091366668044,1.2261563058517193,1.2020843353589148,1.1872643426136895,1.2245815887322569,1.1974139784115836,1.2201453680093766,1.2081998778057716,1.2098134133178193,1.2096589655981518,1.1982333823924267,1.2360440315333834,1.2750561157433107,1.2388127160937976,1.228217616763688,1.2159672489471103,1.2665186176205991,1.2364514620529234,1.2246242999768278,1.2698290618730566,1.239258816015419,1.3378438945548772,1.3018919307695724,1.2879815884132295,1.2214114105517822
1.33699303725445,1.2943086789342368,1.2559801814087308,1.2868631169246676,1.222085777844328,1.259369803644871,1.2212541525931262,1.2264604060918793,1.2278136915141638,1.259992284286181,1.1596642081759359,1.2220406054158937,1.1938609282117878,1.1903015094857656,1.1693274231126372,1.1458862739391662,1.1769203670759067,1.1881007836547937,1.2000681218309497,1.2635664460439118,1.214776991077114,1.21511943163487,1.2062874058579673,1.2486655229294643,1.2201691685877776,1.2106877007566472,1.2545981431113056,1.2104383988641094,1.3288433082513578,1.3159749543575348,1.2783552158926,1.2466316794713328
1.3165005506714467,1.294276050545783,1.276117489404027,1.3035621642521362,1.2425993309471552,1.29296505525798,1.2602373875864121,1.2331498042787057,1.2383952419510882,1.237872638633911,1.1691206344605485,1.1983610722658127,1.224467459846689,1.1707182599349202,1.1587474784856149,1.157274696274539,1.1671534355142708,1.1952814276910242,1.2213357975063588,1.2854381726653978,1.2407583224152263,1.2342051256058348,1.1946276336750952,1.2826848374869406,1.246387756100761,1.1876918492529318,1.2633027987715544,1.2502252498933881,1.3216869432310574,1.2991440608158906,1.2781709568827202,1.2432290507430732
1.2574911044810353,1.2494843471918424,1.2799385743572622,1.3048254854189818,1.2600687977388527,1.297888496244636,1.2639674810462591,1.2333208551661226,1.2359689490877088,1.2453804663628418,1.1700156962779045,1.2142200212065437,1.2308285615152923,1.1866835359383743,1.1770825578431305,1.1663120451560423,1.1751260344226693,1.2135431363155254,1.2212193495718031,1.2761208387544407,1.2227302451670443,1.2135897090014984,1.2102682551948598,1.2838785129121435,1.269522169643027,1.2024316812459233,1.2199876188371594,1.2749931923075841,1.2921900812148654,1.2630628190698983,1.258267188958784,1.2042738765367016
1.270715262870422,1.2636412694364894,1.2612146206716615,1.2801624621404417,1.2184479003725892,1.2722382803329773,1.2317254339823696,1.2254179429326015,1.2117348825090515,1.2645290588319762,1.1913926562594774,1.2219388458474956,1.2063593050146582,1.2078010103889742,1.194842433315298,1.1996332775712497,1.207926831587706,1.2048811401697532,1.22532786722372,1.308722801128115,1.2653099984076905,1.238512754267544,1.2595225980453126,1.2944638403859943,1.2928864355928924,1.2101883725845173,1.259940560702405,1.3055155985732827,1.3342845995882326,1.2904689878253248,1.2250965060078662,1.2005424951445938
1.358940837105242,1.350331076335884,1.3241374952363723,1.3409133829092206,1.244304249585809,1.2870107675532816,1.2389264541322933,1.225459389985915,1.2237280005159537,1.2475286604412519,1.1993018709190386,1.1962229062030774,1.2096146554646336,1.202255196587961,1.195534190290609,1.1932556645429688,1.2100685329875096,1.1804437285803524,1.2111125852369766,1.3144248909351457,1.250806121130602,1.2340407023519813,1.2246787952670533,1.2822641133953525,1.298561682303242,1.209708141549541,1.3067812057386914,1.305243578882729,1.3423274612798088,1.3593801174705942,1.2591889664161873,1.2087549289753134
1.3766751048018067,1.3214143174220756,1.3263637204605174,1.3453082722629544,1.2123374171104486,1.2943439671482029,1.2796868825715768,1.2421122638890112,1.186840564293723,1.249407902016526,1.2199394954415654,1.1849604181631528,1.1951879412085398,1.1913569890516453,1.199989515552429,1.1819880446912612,1.2003138696525573,1.1971908184675644,1.2156345518599094,1.2931262741400344,1.2318642222047331,1.1894902104461458,1.1882607994536627,1.2396791718220304,1.2653002096244368,1.1968562401371758,1.2721001857883258,1.2674654363014142,1.2863133061537717,1.319512864671723,1.2421244804223264,1.212228610082465
1.2901276145907137,1.2549406758033328,1.2499442192995405,1.2939569998337577,1.161365432923851,1.2352073733514994,1.215802256079381,1.2098024828115654,1.1256332746252153,1.229035431565676,1.155437146890912,1.140694006073272,1.1269189495748064,1.132924629466121,1.1377098962790364,1.1449057008945567,1.149639687564521,1.1552769926359454,1.1602135460178504,1.2641213458944869,1.1816002042147538,1.1557382850791915,1.1418964503740698,1.2288100198439724,1.2001252878555668,1.1504157943978306,1.2186023904080376,1.2140677036131935,1.2463526117699675,1.256205207970196,1.1876100939880743,1.1997152896534138
1.2461193893823712,1.2520656649386568,1.2425913435900415,1.2464672732960171,1.1583140276378259,1.2190783792233484,1.2039428083332109,1.2164006262967446,1.160833597666962,1.2458747101916023,1.159078255176493,1.1520345471848914,1.1713785653991502,1.157680568111322,1.1558613068401717,1.175969067811761,1.1716030920683616,1.1925123011160106,1.1804652845147554,1.2981595810122852,1.1815460618011768,1.1777624601971444,1.1382446266879425,1.227866840352701,1.1892815458729071,1.1278970875162604,1.1789467094839245,1.2059278529528241,1.2674276657873025,1.208624974222242,1.1976163675290648,1.175133740801323
1.2308735115406122,1.2105792745152866,1.255878633724514,1.2153007140317156,1.172425846529449,1.2402798800863375,1.2327568764413734,1.221313012785041,1.1718082143139112,1.2141164130378237,1.170428609523348,1.1750950609187127,1.1935014260694434,1.185543360002521,1.170243478313257,1.1919424486403425,1.2071597070691522,1.214057154514116,1.2236718051142499,1.2884534695172574,1.205432675494353,1.199336469898889,1.1674705392091356,1.2552776215025292,1.2077945687903573,1.1622757279412068,1.182742368382704,1.2302651537528964,1.2449029370398732,1.2012077604268028,1.1892128765338148,1.165789220843442
1.2935676898824156,1.2525158452579737,1.3076452496088997,1.2828494206630372,1.2059163160833632,1.2982383525573356,1.238101597437546,1.2028924348360874,1.1847185010581407,1.1990331236229819,1.1364233955483065,1.1842867516925937,1.2234156469114994,1.197732857968803,1.1717100635397597,1.1847658788497615,1.224236655863557,1.244323520945453,1.2777990661641703,1.3380321317899007,1.296378656617641,1.2703410137041804,1.2421294593039214,1.3185823053432373,1.2505832339176952,1.1764869414291714,1.2236313515343753,1.2832353677847226,1.26259890985406,1.2611304225693436,1.222566501396464,1.1789731236281131
1.3585026926774222,1.3249143600959497,1.3741394727253051,1.3035974322524566,1.2398166958220107,1.3188817384600091,1.2716498020129865,1.2320743165507821,1.1729129195171653,1.23053206446268,1.1571585720796747,1.188410494884762,1.2036531990860782,1.19228338716668,1.184947105799091,1.1981325294641652,1.2197967710012572,1.227607639421854,1.2434618986990444,1.295713221874086,1.2841140391185544,1.2268865493863992,1.1940260279793797,1.268181136135324,1.2471748069714987,1.1809733636509534,1.259136217260736,1.2971553394491258,1.2489709767644404,1.2987103716314812,1.2777507640467214,1.2179187316067672
1.2885798409623217,1.2679015950893124,1.3404557831883936,1.2943837837961156,1.2067336223794205,1.2505063525093165,1.2647553043941473,1.226248553533406,1.1667692961747673,1.221404803433149,1.149080130738596,1.1640030160071975,1.1923774041558228,1.1506094410426837,1.1430743163144355,1.1531514904127653,1.168247660560544,1.1813897495601502,1.225096705503606,1.2757908966663516,1.240720184493338,1.2173913011480848,1.2151545136797932,1.236046146387146,1.2701707407765455,1.1897951956805104,1.2432201886811196,1.288521847186693,1.2695934514138536,1.2226437648249704,1.2378962573219106,1.2078406594350963
1.2582285160158322,1.242017191805371,1.2903374685368216,1.2829608249618814,1.1882667608663737,1.2700902448628062,1.227490706508807,1.2293722809260659,1.1870363488982643,1.2564660946214217,1.1563700283377483,1.1727921910613235,1.1585914221360831,1.1394608955398808,1.1350305386654638,1.1464605511407955,1.1579349793066258,1.1603843462387184,1.1936451748102417,1.2884540398987865,1.2366173934264475,1.1973775916260159,1.201712733919373,1.2210793890960652,1.2449463580788995,1.2062900156434841,1.2285998447347621,1.266005147654328,1.269121292446712,1.234427203777021,1.2119846489964516,1.2045296083445673
1.2467473233572035,1.2431044446701158,1.2353184100836612,1.257876340622596,1.2145491366047874,1.2302481899392028,1.2462494536932631,1.236963879674119,1.2169019731756676,1.2565614963977778,1.1856219445541782,1.187248807898831,1.1748364383277858,1.1662603196286434,1.1578245199220192,1.1633594405411174,1.1648231209053794,1.1728961862080238,1.200135447130616,1.2880397343198533,1.230983469080484,1.2057018285628298,1.1830621188048462,1.244911459219062,1.2273215618807767,1.202753237787814,1.2499356656026432,1.2402044344600553,1.2166732554213961,1.2547483498953047,1.228683487420323,1.206084349925283
1.2620132678572025,1.2801532960611544,1.2472094389024913,1.3044712618840673,1.2542870313566015,1.2705261244446426,1.264727229786858,1.2548033108541317,1.214758330486551,1.2428192005582985,1.1585452768677709,1.1698773527250845,1.2117933986876346,1.1688583406145707,1.1650693460174155,1.1936423995767165,1.1858825164214384,1.1975947419261277,1.2277276555410164,1.3137525556572565,1.2451045023126446,1.2227483425747572,1.2262246380266855,1.2748461905085842,1.2718349342006605,1.2156130221891037,1.2496780507113683,1.2735867811949289,1.2337800987051664,1.2438420307716387,1.2431644787768554,1.1991857385312166
1.2912711495274778,1.2913157310262156,1.2909900045475142,1.3047735531034674,1.2478708607579678,1.28418051440267,1.2565182202278853,1.2347661735590008,1.204363915158933,1.2478211648899864,1.1555452300763764,1.1725914073363963,1.1981152576928942,1.1690880951630511,1.1641737679545583,1.1830660595504128,1.163334802410643,1.1634996711732966,1.2120868914645848,1.2965716043806883,1.2465650877751648,1.1982840633988912,1.2203997706594565,1.2457429319707904,1.2313822778661305,1.2120502322829907,1.2526613782751754,1.2505971286491762,1.277644359213326,1.2360381693727758,1.2288941928308184,1.2092776552100681
1.2620896567934123,1.3177205031235883,1.351212768648531,1.3137948285304937,1.236320374349707,1.2842109444403742,1.265119859093973,1.2270045152635647,1.1987100579696244,1.2482744506538865,1.1831098793108912,1.169894624564851,1.1842084725571316,1.1809161511004629,1.1626724134158608,1.1629252887778705,1.1638317351533274,1.1559190535542778,1.1910123748567938,1.2727193627946936,1.2204124390890447,1.2130394839056802,1.2209750315029197,1.250744690719798,1.2363658579448231,1.2481462776336498,1.2754718919978825,1.2630880672918865,1.311298029339522,1.251328013875143,1.2264432590963068,1.2572041798183093
1.2958055794167305,1.3350386538232057,1.3890848148998125,1.3708432574077027,1.1842247130939103,1.317454735942529,1.2779803048793799,1.2253351226116473,1.1784410003035002,1.2428313185797757,1.20190163899885,1.161312204925,1.2030301973110897,1.2169661420139197,1.2127419101035641,1.2029435532496418,1.2093732573738407,1.2092193828179423,1.224683770289435,1.299196390294253,1.230406860031553,1.2141749653876646,1.2356043710067015,1.3076608453047036,1.2957474036761962,1.2356512658331245,1.2709931251726552,1.3272414400556465,1.3439632184601165,1.2544765371432998,1.2103528050994674,1.2618196853171182
1.3475748447345868,1.3208161552509037,1.3183479100286675,1.3006387375946906,1.248779212611659,1.3054596320402816,1.258447570462289,1.2288765490391313,1.2249500511656237,1.2442819770896636,1.167220988051746,1.1739490441376679,1.22763562281743,1.16824738121531,1.1590609634616367,1.1663709667955484,1.1736196022657754,1.2093014177607266,1.2344255828051967,1.2862982677952146,1.2355482457359273,1.2231928494290978,1.2395968032059779,1.300077414884777,1.2711248850957695,1.2322526021237081,1.2661643694300129,1.3022950646230036,1.3296898957358287,1.279600288506473,1.2613184895208038,1.2687033509159824
1.3225683869379745,1.2884198412910433,1.260343894973184,1.2687516418611635,1.2589930677990573,1.2868201514120294,1.275301226596541,1.2316199440248308,1.259915598904778,1.2614838058239164,1.2009144931177644,1.2415886474111317,1.2532832595425876,1.1981181461260997,1.1991599760957008,1.2112368418821702,1.1930712923616853,1.2183697739163817,1.2349818523109806,1.3119233735437252,1.284532383273121,1.2503148524884946,1.2619493520851464,1.3203258064146335,1.2513928894782884,1.2259371971429451,1.261379882094221,1.2470826769554129,1.3037147517222478,1.292315442215934,1.2493805140581729,1.2551969364017106
1.295666412349232,1.2654520565986727,1.2441176773020652,1.2287239287836809,1.1846488253494334,1.283653163098974,1.2763880223518727,1.251044577674181,1.2214907441067695,1.2570658581084255,1.2075041569328444,1.231837220704622,1.2180772164028426,1.2100468845743506,1.213774449700299,1.2283911964491954,1.2105996671905956,1.2131585396836346,1.2038537826150215,1.2992001112077414,1.2572047893234464,1.214747515655676,1.2540168012187831,1.3096834533420838,1.2419742017918716,1.2295194773838167,1.25732350928649,1.2588207555073248,1.2999143421223964,1.2553526108166115,1.1906823142093301,1.222380744604843
1.2905704573166643,1.2519789862783406,1.2168626873611343,1.2211821323809708,1.1889406522547468,1.2517543150313313,1.279327428070864,1.2179190708212506,1.1922316278619347,1.2586776684288146,1.2002083661229577,1.225824813807054,1.2290251138455532,1.186337279505952,1.1864653440776238,1.1997846594038213,1.2102457470284587,1.2197161585362415,1.2375988206743243,1.2926324458483596,1.2524037140732296,1.2315787538803156,1.2346278737982896,1.286714339851707,1.2769723187505027,1.2181785543871466,1.2543759212689216,1.296822285366224,1.289332149385889,1.263994138531802,1.2031455641172981,1.1917722154231856
1.2477974228097184,1.2666298333433357,1.239194726013044,1.2690556833114457,1.195840736530579,1.2882790520856673,1.290776206636307,1.192021514808504,1.2031106936759546,1.2448195104089455,1.2068168248399884,1.204259812722861,1.2293710490272793,1.1894607216237396,1.2019833731540501,1.2362254096551113,1.2401842592875718,1.2421753985391142,1.2377926778318196,1.3031330773396061,1.2743125492022473,1.218634283856656,1.235633873045423,1.3528942875875536,1.2947118644145346,1.1958258710150975,1.2491583953691914,1.333680981707762,1.297780383429727,1.262828644570086,1.2233024436884588,1.1778394261708653
1.3105145795807185,1.2821210151213482,1.2952278606640648,1.3130040937977674,1.2230473779085458,1.3131097861959764,1.287209249863969,1.1963883884646178,1.2024392040654843,1.2557264110101785,1.1687549368384798,1.1503152245233106,1.1757479453826942,1.1618301815682395,1.1667842614993758,1.2006920998283923,1.2003977297484834,1.1994676545881011,1.2310572876404176,1.3310066649046821,1.3250755848732019,1.191288674069263,1.296690940189282,1.3383885163086229,1.3294476575321195,1.2216501092551935,1.282864743450825,1.3193935558216716,1.3138449342431364,1.2980615111434204,1.2601961474720658,1.1839032954520392
1.3421060450578741,1.2978009943066717,1.2353841796219875,1.2792620170266364,1.2207756296345078,1.2602508361110538,1.2312913864190875,1.2195509468184225,1.1883320992647883,1.2474220238756815,1.1582993183222943,1.1719751541981334,1.1793427604976137,1.1671915278804068,1.1618397728215217,1.1730464111070382,1.1688163055344107,1.1878104678344685,1.2070609419082599,1.3050884590970713,1.2873076337339922,1.1938047741150923,1.2805310228067421,1.3028088556036272,1.333465499603824,1.2193528088852048,1.294223836230222,1.2904078841835256,1.2983257337554603,1.3308916305114744,1.2577388779925338,1.1677803932784034
1.2996334869734574,1.2925572524026996,1.2314203177384262,1.2842550384117908,1.2296440108544526,1.2277536618505176,1.2279384201200796,1.1895363917321513,1.1971978333906663,1.2121388721747806,1.1818567705247343,1.18751827051903,1.191893578901459,1.1837602652627917,1.1756020504828322,1.1860234146352187,1.1839391422810854,1.196785910241643,1.203292792467385,1.255042589577688,1.236853417516234,1.2157216991793645,1.2067297441678977,1.2806937249478312,1.2768008491704725,1.2122540509456836,1.2772664867017745,1.266596603402254,1.3349886712543944,1.2775818452191874,1.2533849461586222,1.1736581960916748
1.3157889455319771,1.2702513269880304,1.2419998152017708,1.2921118009168011,1.229271645603072,1.2511362511584094,1.2397044518234885,1.2002617217882356,1.17979539348395,1.2431501250685308,1.2023343678340304,1.1827347548549376,1.2036065355036407,1.1952103772555338,1.1935346474001722,1.1943867635977525,1.192834835713369,1.180681512039105,1.2157341540832045,1.256702940474698,1.2730177552592468,1.2283674821435233,1.243080817562237,1.2504178313672947,1.2918256064726183,1.230497326461222,1.290257623500228,1.252449794333887,1.3180196874898442,1.2751149800410135,1.2530855026974703,1.1967974431461759
1.325651911305651,1.3037965807095062,1.2953747042455663,1.3150890970974598,1.2370648708434517,1.2853267397259573,1.2440883237757105,1.2394814552601845,1.175986591240902,1.2673258662574836,1.22466379652161,1.1955911983262477,1.1992620763830408,1.2120586429446987,1.2240953797447465,1.1970065616599423,1.193452255181626,1.1820635339863013,1.19485720683104,1.2461430208135047,1.2744555319570845,1.214408055592703,1.2266167262594896,1.2626578715186443,1.2824489622958937,1.218561806966912,1.2844764169272078,1.2624962438045628,1.2916398422762352,1.2981074620169062,1.2525227290123655,1.234685335815385
1.2849498353076017,1.2940099215129541,1.3342659834280484,1.346449064726387,1.2320597932513522,1.3073527507433722,1.3228799070952597,1.2308809682009232,1.1798877553749472,1.2733725102366504,1.2118087715736114,1.2200678115917745,1.2116764420694728,1.2080497938030268,1.20496219630182,1.1865098612164982,1.1889299982520614,1.186727288803216,1.2065104811011487,1.2574606621800082,1.2678455791694103,1.1930641955104127,1.1992333669421662,1.269024005461168,1.3288394696609231,1.2214292618169336,1.3002798824276849,1.2957140909186808,1.2968432663655973,1.2830740437007935,1.2532130371929218,1.2529344003826928
1.2723247498742187,1.2849440454157812,1.2930905816355052,1.3311536133068809,1.248976838198615,1.281107342422696,1.3002531784446156,1.2295153237911933,1.2078666699821765,1.2665839994703805,1.1780315945753164,1.1889035392983012,1.2039231123076217,1.1819697415870993,1.1650494163461484,1.1694014655949165,1.1808288433524359,1.1758063886341528,1.2407760690872462,1.2863310485245225,1.2700304754998062,1.2279449954922395,1.2443561418798887,1.3056925165197766,1.3620141704715338,1.2705184791851807,1.3262735335428497,1.2917999149417274,1.2845233567791645,1.2689079689171594,1.2554445630887312,1.245311280534245
1.3061877662902208,1.2710850262569406,1.3034330521500535,1.3298372495027901,1.2546310062800734,1.2739460590421194,1.2786339919723044,1.2153285474578086,1.2098296538962747,1.240870324265186,1.2081770083459127,1.1912455425611845,1.2106324172833538,1.1883991388986397,1.202056415867408,1.1937835610479832,1.2045306117707002,1.2095516236029487,1.2325854619276306,1.2823224314834658,1.2734723903393088,1.2363250491226225,1.2273516819569759,1.327351807566394,1.3010947155868964,1.2625045010115907,1.2896764440003294,1.2840456575774033,1.2626428279381878,1.2918199812753994,1.2738294172048248,1.216659087923977
1.3445054684744953,1.2793197407406256,1.3186712471623299,1.2953928973480229,1.2435993233759528,1.3233079235190512,1.256000185637894,1.2135129197330474,1.1975416419047307,1.2124517121269571,1.1552217260911941,1.1638245957257722,1.2099803979411152,1.169279105242216,1.1638893471375882,1.1917410415440748,1.1943819644353093,1.2206145252067964,1.246781118746566,1.282828234412684,1.2898672709804229,1.2607643517362483,1.2574572216084774,1.325509980098446,1.302390407107883,1.2247079185445946,1.241188652950963,1.2800242114059868,1.3077580465572536,1.2985344365205147,1.2581322492152385,1.2188140490281612
1.2925102603797214,1.299063084758881,1.332017491167454,1.2770962148065776,1.2407903761749568,1.3132223796812226,1.2431673049297907,1.2403277419662257,1.2239869726926662,1.2249630152705513,1.1342554012189718,1.168542135836046,1.2328351772838106,1.1695396685789032,1.1504132835152825,1.176007866546257,1.1846705055226912,1.1892078861431314,1.238839641357227,1.285537509774125,1.2999312771444729,1.2495444488423764,1.2709521459672937,1.29742304353418,1.3275131008187908,1.2051781914370772,1.2421951147194734,1.2971388482838777,1.2999276619137372,1.259691819812121,1.2414935696939522,1.2427694293490121
1.2465588469118107,1.3141712478874423,1.295388085312503,1.2638805539544842,1.2243591050216986,1.3082313051670271,1.3212843894037518,1.2201610312176423,1.2153609154107834,1.2478664498410883,1.1478868252183276,1.166400681642222,1.2198751882401697,1.1806389607079941,1.170748488267438,1.198939171268869,1.2063188572429278,1.1902905680282179,1.2117934755034383,1.314943710260382,1.2425006067268982,1.2078227599562346,1.2293965087006415,1.2981288139306135,1.2955462232652841,1.2193747270637731,1.2163340252300465,1.2873073682621692,1.2589843465332535,1.2610446420809691,1.2333175591860956,1.2406006390741886
1.2602868097221567,1.3118691785816454,1.253757420879905,1.248104802292674,1.2302991131870613,1.3076276491287204,1.3082053409806331,1.2313681180788347,1.2095022683079004,1.2814866138505405,1.1531643753338658,1.1783535564635481,1.2022767464701414,1.1785325794548953,1.1724553089918197,1.1821771941481656,1.1956235414934153,1.2055448508342341,1.228990113252925,1.318884945688411,1.2474375258307506,1.2008834186617887,1.2511780386409135,1.3445708061318686,1.2666251915979145,1.2214286615001237,1.2249450552027215,1.247241886247215,1.2757627612186573,1.319466100988691,1.221945904619071,1.233692912218396
1.260071833419282,1.2681122694250107,1.2136016488188894,1.2712954947262443,1.229235171593165,1.2341341854477945,1.286392238215129,1.214125494699273,1.2078370133354166,1.2920486013635168,1.1719168994569107,1.2152545280707394,1.2288471884074466,1.2186875144771578,1.1984398746440454,1.1900107758210783,1.213041513429301,1.2240422256846295,1.2321928419755204,1.2864848715048551,1.2624509811108675,1.199675524091899,1.2281917314392943,1.3128586543103837,1.2472706768884307,1.1880913841049408,1.2274148215620304,1.224812217211365,1.2635786235541615,1.3035752435561347,1.2216687790415783,1.220865450135814
1.2865302630527764,1.266236477645779,1.218067708994549,1.2708177007685701,1.2067974952792127,1.2315490942174967,1.2966570400992588,1.2460584437963764,1.1942224566627153,1.2824697732736066,1.1998721946137811,1.2069140695044762,1.181173364530691,1.220578161772206,1.2045873912337586,1.2021693120064838,1.2080050475036157,1.2143328677725613,1.2306084982443506,1.3190927472493752,1.2836507897191172,1.193575641245329,1.2410342458552523,1.2703241003337393,1.2711524215976715,1.202534382365942,1.259020411321667,1.2369330048201428,1.289955079642662,1.2559193045112282,1.2386751995857175,1.2100518441180237
1.3251387275780164,1.2917714524234898,1.2501135277060886,1.3083466383449727,1.2304265883313703,1.276407134885661,1.3258670246987965,1.2601388965018978,1.1907699992916345,1.279809179234482,1.192119765950569,1.198193966250067,1.1663913570032554,1.1900954841129134,1.1902529107820563,1.1902832242993182,1.185987949262135,1.1933524879959496,1.2031444268203286,1.3254927664133296,1.2477546316149508,1.2072886004809067,1.2251873865619316,1.2649007255985734,1.294836027118792,1.2444262711345047,1.2719396504789142,1.239449588712404,1.3289959959325977,1.2899251367476694,1.2572200186397602,1.2153177564585775
1.3134327135795585,1.301342136557471,1.2780116379333073,1.3078742282077838,1.221284159200525,1.3075207861249996,1.3514927014758094,1.2509469700717113,1.1940515902302806,1.280569093345773,1.194250867087158,1.201793876918604,1.1844120012609072,1.198258589314917,1.1848380285218671,1.184547990325712,1.190043882676983,1.20907771712513,1.2160709611557232,1.31059581099962,1.2478927356282632,1.2299065395512665,1.2421619787394986,1.275111804836193,1.3137571253577889,1.2438262280054013,1.254596400806584,1.2675630289357922,1.3127452789262735,1.302744669689395,1.2437011511876794,1.2290078881217648
1.2813468213056987,1.2782864525491164,1.2953283427559574,1.2942159761281447,1.225184746377013,1.3023829702293364,1.3035367975282433,1.2404164023598845,1.1779858531748357,1.2462587850256661,1.1889452267840306,1.1879247689598702,1.1712753905464905,1.1857839624913036,1.1766472586402217,1.1687031162529853,1.168770476687827,1.1678336789176342,1.18583184285231,1.2742981700516354,1.334439860744545,1.1896758509961303,1.2309217834444495,1.3059934376796487,1.3375186935857406,1.2159925949695254,1.2736152614384093,1.2988859201253937,1.286665863697784,1.2769208365483549,1.2444286153312278,1.2257893973598577
1.305222694417149,1.280159673368544,1.2369885753290744,1.2893360584566655,1.2405868890393383,1.2662524544970977,1.2568340641698843,1.2118145842178927,1.1654033419316274,1.2510135195684058,1.2106469675470861,1.1769987202153351,1.1732209750348896,1.2021468867566358,1.1853418404484135,1.1861714498913745,1.1865630248793753,1.1708256457157766,1.173755440530327,1.2502417540271165,1.1898363284056384,1.1889530401324433,1.232296623511488,1.2791032427149314,1.3211925584128947,1.214892215505859,1.3019681093498598,1.2642210491745802,1.2867022064015055,1.2815502000931072,1.2593965157975586,1.2117520866859275
1.308136472874731,1.3058945616318816,1.2322913086378293,1.253784131500351,1.1991878757872754,1.2752746776163368,1.2715382956126013,1.2089125036798145,1.1726103512771053,1.2564754749151963,1.2136853792313336,1.1710192086661588,1.1749268067398435,1.2049030559012475,1.187152752911563,1.1994776270143321,1.1857483199305248,1.1679271115957162,1.1966667105207518,1.2436752446534385,1.246553888894812,1.2149306786460377,1.2413631815958293,1.277671089591586,1.3094676150569324,1.183906487516737,1.2490165809544307,1.208286916549418,1.2745990868406616,1.2832879403503887,1.2087172534835877,1.176372747366591
1.281160912911547,1.2907066297344971,1.2054602444551734,1.2636908672143676,1.1716737320955706,1.2578407522138826,1.2325798915619675,1.2119515751958096,1.2011988919621,1.2303709218059526,1.1633675568250335,1.1640368068718017,1.1885485550362571,1.1704256987315114,1.1642265361916613,1.1710441213825802,1.171187594955,1.1766456599182014,1.189925211554734,1.226003287030107,1.2053706373425117,1.167911862768112,1.1503476835622124,1.2773385610243753,1.3091184217093583,1.1699089229385489,1.240909881503565,1.2784870750566086,1.2912399527583795,1.2405722806111998,1.1792114857357485,1.192507905300137
1.323451791351046,1.2977287400973339,1.2068855761326363,1.2692707248382895,1.2108051644204354,1.2581249943629134,1.220757505113691,1.210098371789009,1.2046147457573504,1.20999037375587,1.1504874978160793,1.1703472922774876,1.1934164407833912,1.1585744679902032,1.1505509999356134,1.1560534325693397,1.1647039780914341,1.169668703642243,1.1970555397259295,1.2113826867846818,1.2061844622219289,1.173654127987022,1.1609770668764676,1.3079605456208088,1.3360023978298141,1.2000596086100306,1.2960535376499522,1.327306555089919,1.3240464092536286,1.2697879697000611,1.2294277125180466,1.2027760871857491
1.3382441994812015,1.3373853800696303,1.230021871771043,1.2555699506343372,1.248313756685098,1.2509065103573,1.2813556494586844,1.2224007683221119,1.196340744301105,1.2412383710752883,1.1907061878775462,1.1960677465404894,1.2053155386260965,1.1941315359072553,1.1883387779240266,1.188297350489265,1.1911474579522965,1.1842828204111462,1.19489823888326,1.1891772784540953,1.2135365742339077,1.1891925420833578,1.2006282966311326,1.281115056746759,1.3063856255411868,1.2102636362976276,1.3034312024474577,1.2642538286333427,1.298685250708641,1.341827568340835,1.2599413767352075,1.226047030546785
1.2837590913193628,1.3072331196162092,1.1773869522462161,1.265328754228044,1.2578138143027984,1.211185763561823,1.290861280071344,1.2193429936669598,1.1975365939889833,1.270584864671297,1.21937007645408,1.2249350955746916,1.212073062883157,1.2282337654852198,1.2316592258756114,1.2081533771349677,1.2387889212188326,1.2113540040035522,1.2112403308536577,1.204947571658892,1.2315904948726415,1.1830610006638262,1.2090251441245734,1.2825363335339097,1.2908974098823922,1.2488027957192631,1.2844098353665812,1.2327763509534044,1.293088745849248,1.3000512171813734,1.2528828652644715,1.2432002724987998
1.2718681106891168,1.2626655402766018,1.2157253498866432,1.258515415902488,1.2237056630941432,1.2263681041364831,1.260579519947496,1.229721205037011,1.1963247702765616,1.2930394694970517,1.1815966310813217,1.209813841767425,1.1934851584874684,1.2169768524677003,1.2043665485953858,1.2071950657344783,1.2027719283690916,1.1917738175967005,1.2235868710033322,1.209504147688242,1.246259603535305,1.1948032789294594,1.2133789531371577,1.2686871559604396,1.3195364898334636,1.2230120230070387,1.2409633083166483,1.2124623546125142,1.332011715750298,1.2332031658226685,1.2258941700496035,1.2273703284137907
1.3201036141998743,1.2719445801805473,1.2703035264720155,1.2949949243548358,1.2749571296083788,1.2706666034810385,1.2812145655981404,1.2258595461780666,1.2194192657147198,1.2467580057784582,1.1945324009560756,1.2581255809185148,1.2415424846377465,1.2503246489130428,1.2223001433675897,1.2533428990973066,1.221573634316404,1.213712044813744,1.2493166380579108,1.2475072921428094,1.2632942547669153,1.2486921406292586,1.224382020013966,1.2536711215597638,1.3310723134819036,1.2278348737474933,1.2505301838795997,1.2081884570238142,1.3335643255340632,1.2931152724126418,1.2626260980265553,1.1857364484102741
1.2804385746908518,1.2706481038202937,1.2698420709316796,1.2830571115321137,1.2690423173436955,1.2496979666008758,1.282300558150847,1.1988835966799432,1.219784214223329,1.2478969234005166,1.2142935570167146,1.2656821040514428,1.2453003133725498,1.2055193907913506,1.1999347058205219,1.2171776652337487,1.2204054555379482,1.2070836969736762,1.224380906199915,1.2319548569431369,1.2808071259891514,1.2205988429119135,1.2338918033185027,1.2687819190324545,1.3202063065606164,1.252412123758281,1.267793915345492,1.2189096649252886,1.3244539653044227,1.3046982731782146,1.282512679742208,1.1994547183814777
1.2704964236762881,1.2892065860848412,1.2601467673675604,1.2997664686644481,1.2335784716247937,1.2584583029169427,1.2661876577049525,1.1639577700987624,1.2444417255205091,1.262457393003279,1.250984239728239,1.273027621890155,1.2410465417965608,1.2450896150887916,1.215690957489455,1.2116124837778328,1.2141317554505104,1.2065809648940473,1.2136333139682929,1.208583217137259,1.2208955056434334,1.1923410430313488,1.217300656961548,1.2878090623663963,1.317389267509415,1.2327371716398636,1.2764170863650426,1.233863264076912,1.301057930735045,1.3018928519961719,1.2605964278558948,1.244873759039744
1.2957251976490771,1.3241477685817382,1.257804632133069,1.3046716391529651,1.2186245719585147,1.2541953877356835,1.2568118425614732,1.1934192805978712,1.212177647079833,1.2267688879926917,1.2039839157006365,1.2378666175550763,1.2095786685457142,1.2314538550160237,1.209698610747766,1.2282084050352147,1.2058309561067406,1.2116463086857485,1.2323160515060665,1.2325653587510388,1.2490927505499823,1.2168990777550008,1.207737457874555,1.2776229558726806,1.2844482696701607,1.2080786566039958,1.2617683185739692,1.2317843858344337,1.2948553027066634,1.2931961699164114,1.2617128254176002,1.2007510592841835
1.2994694716454818,1.3197058967749118,1.2844165216192918,1.3002280520621547,1.2617367496256195,1.2500935267069668,1.2835727782012343,1.234088803010165,1.2309743695805777,1.2977839681850096,1.228446851692747,1.245501620076525,1.2201310574505366,1.2444014610795582,1.2231771098314128,1.2288066404843334,1.2011532154395428,1.1983337810253414,1.203453788859827,1.2251693795356842,1.2734822175476004,1.19053956516207,1.2354331590286987,1.2743169455566428,1.2764890406254326,1.2841670326841619,1.2864036664323069,1.246789967995024,1.3617312912311081,1.2977138430098853,1.297928453777139,1.238230341723033
1.302893192266859,1.2836871329391215,1.2954210174646676,1.3024091008455485,1.2629167306650388,1.2460842070121512,1.2520147157142016,1.2210636535531874,1.2438935642986348,1.330222327075992,1.2271410103849738,1.2275101870821443,1.2260737679030085,1.237296947864143,1.1986018735489012,1.1823153892122356,1.1709691933040958,1.167955893605252,1.178227788764041,1.184121682379612,1.230654417076299,1.1716227075115158,1.2165163377430965,1.2980821694517524,1.303290607226843,1.2632612013767537,1.3095690751507065,1.2438422545280967,1.3034350501658205,1.2961385344232106,1.2909887461102743,1.2633576131041109
1.3301443784811633,1.27968171524818,1.3025565533821504,1.2866895854152283,1.2599832867344678,1.2496635371765288,1.2419762396151615,1.2618305973884298,1.2349596752110399,1.3265002912209711,1.2224791832630013,1.2247995890442052,1.211414583860923,1.2257699217441944,1.2080025234463911,1.206049036832123,1.1901282284132029,1.162897598410443,1.1909856740900695,1.2145075793403612,1.2427024356848149,1.1636051505630416,1.2164899227269834,1.28103185391122,1.3423102430730511,1.253493987841011,1.300836506608216,1.2635173577105316,1.3061368748343531,1.2845674055551162,1.3077447324921054,1.2178976201454772
1.2984997963864793,1.2723908283444845,1.2670411497143055,1.24896017767042,1.2540339767539062,1.248887676393607,1.2225686158735112,1.2668134074298005,1.230858145504941,1.2713789067134695,1.2190693164889759,1.2135628234024747,1.226144468018579,1.2150889522968198,1.2090628461353956,1.2304301232756194,1.2234331277119095,1.2051901336285709,1.2057998498450164,1.2031357367861306,1.2389919417029072,1.1880011476822967,1.2020389056417464,1.2615561052070394,1.264287442787284,1.1993390580602243,1.2263256344464342,1.2359542857045978,1.290968449581474,1.2292476107089199,1.261088785684169,1.1755584224468894
1.3003909998694971,1.3165553394180252,1.2782531020523167,1.317071478805107,1.2307295516315147,1.281248279132614,1.2413724228349288,1.207250834349767,1.2157448420248271,1.232428755362041,1.1978958239589363,1.1845129322602703,1.2217704329265138,1.1985181836263996,1.1974494815199739,1.2158136454113262,1.219776267549142,1.209616544833525,1.2057692662582817,1.1823979533118187,1.2309524413643074,1.2090393037431415,1.189871036973067,1.2787845619514915,1.2267489191082432,1.1937106860350593,1.231052466902602,1.2484839782497108,1.2702808655682647,1.2369435900243144,1.242552803257908,1.1907744740473603
1.3307546918407611,1.3636804211206497,1.3059830258644751,1.3379419647788904,1.1830729546855345,1.3102702636971244,1.217484463081769,1.2256053677635033,1.1916055405339843,1.2126315169896067,1.167493562974874,1.1642148241583403,1.1689455922549907,1.1745179493154276,1.160313919141181,1.1668913627098167,1.1717223292827894,1.16917866155725,1.188374139990167,1.197925592693911,1.2057125458073117,1.2110432687472825,1.182283418629292,1.3087925246145469,1.2885179661882333,1.197879846465558,1.253401363638665,1.2682117109827789,1.2790253249982528,1.275710960887347,1.2664105749926085,1.2570046991760035
1.2877740959118955,1.3309520754330386,1.3094933704584113,1.3047766005777948,1.1845378343064885,1.3119115804881003,1.243502899234816,1.2120551767825352,1.1762134174240573,1.2129862314873416,1.160126313962045,1.1789027346476755,1.17661966947215,1.1654099973294572,1.163293669884,1.1719887238114202,1.1777022156676231,1.1865535821254265,1.1938467702530247,1.221765565399046,1.2392637083030318,1.1954836189873062,1.2107117178700848,1.3122164849807811,1.271803267806797,1.1796258806258502,1.1933221237740685,1.225172275043122,1.2269160201891187,1.2594635406882744,1.224757261593237,1.242378770500906
1.263372696110297,1.2756167088993657,1.3170162908201355,1.270714349736341,1.2402980260657017,1.2721837692754812,1.2528456742515,1.2156102951360004,1.1647167365276296,1.2464302527830264,1.1439760078915282,1.1584957588692035,1.1618714367732714,1.1496737083256348,1.1432870375198607,1.157971008531551,1.1459961617518353,1.1651698661057885,1.1768252895450584,1.1553095463486251,1.2304264919853232,1.1801553688423378,1.1922528099831693,1.2817211013164302,1.2430639691156462,1.2113890523553754,1.2045718066994975,1.1976848559904936,1.2470199152572032,1.2374141246493509,1.1780529925200593,1.2466755216178866
1.2970085217581924,1.2769051461707943,1.270330618509832,1.32965033513645,1.2403046829784747,1.2635463468574728,1.2292004516676502,1.2329711233576788,1.164601020278513,1.2554009067589051,1.1519516916101358,1.1614277393126922,1.1712726998343648,1.1642554035093158,1.1655944440559418,1.1736706854456378,1.1579236763253697,1.1789629244832758,1.1908195893199747,1.156595381542488,1.228197911933648,1.1873088790078052,1.2008860855664232,1.264182302872839,1.3125195597929291,1.2257113358015985,1.2546324510151357,1.2197080753425504,1.3016594742040666,1.245475073569988,1.2148770855731148,1.242213386489606
1.334556528691346,1.3012790735610698,1.2812715652115774,1.350961898593136,1.2254201883756561,1.2607486741249072,1.2596262406282437,1.2219055884963885,1.1957336449613585,1.2586394037276434,1.1880355175939579,1.1775721742385048,1.1793886706128411,1.1909094552884754,1.2121159100907914,1.2012817592515899,1.209139036242765,1.2050542080009168,1.1822527560259113,1.196241292735256,1.2392818190478907,1.2029490406119943,1.246508889475534,1.3041718829778979,1.3791556365323536,1.2252224573911006,1.3086817116579512,1.2386988188851307,1.3121132858074793,1.2726186871949592,1.262241875370801,1.2112240738527356
1.2759682628385967,1.2592238473735629,1.2445145154840482,1.2818296294165419,1.2221132660152245,1.254675138818507,1.2525571077495887,1.2142158764597846,1.1977868703946226,1.2293602301103541,1.153736321845398,1.1697906419315276,1.1834698007733144,1.1714126135646896,1.199046641590012,1.2036311676212088,1.2253553135031612,1.2331071228178163,1.183715718571088,1.2072516064378507,1.2509782840097812,1.2114255302385304,1.241698037842706,1.3429493303019435,1.339471519263077,1.2255699617623765,1.2977580769151047,1.2526428755774253,1.267779929280832,1.254133485156292,1.2539913057863297,1.2149518764926734
1.2542213650295233,1.2847938279092435,1.191231654415563,1.264797629623651,1.215848751860353,1.2502624339497703,1.2256369307344352,1.2347009092896712,1.199368697636745,1.2719293281200292,1.1778929703546448,1.199288640178078,1.2165240882193564,1.1965468999506803,1.2060413039537679,1.2356754862640986,1.2327842351682354,1.2240576738400497,1.2045358926598289,1.2227638630698485,1.2606669462837194,1.2359458578257625,1.2183269997303634,1.3061919368620194,1.263683458434684,1.2388581976564839,1.2275936157235963,1.2375969515030598,1.314281007640433,1.2354146809585553,1.2170575166440922,1.2563416881618374
1.3017562402175178,1.3182781495931026,1.220198753381067,1.2763099819385622,1.222729385219384,1.2540836406713483,1.2464098473483014,1.2038735916860588,1.2143802170136717,1.2883889038577314,1.209906632146126,1.217949234778676,1.2358564593596006,1.227415418190762,1.2297017656269564,1.2315355078261387,1.2242004989445956,1.213091070596425,1.235690560579635,1.2473938593933542,1.2575798168483303,1.232014590746904,1.2364328895390742,1.3097690434733245,1.2631087696091212,1.2459130023918505,1.2551933105557262,1.237200276861751,1.3189981482263615,1.2878504817313956,1.2379525369083955,1.2630676941120322
1.2819614388057488,1.2831317243590228,1.2472032978520582,1.2351392120960534,1.1960815163020653,1.252241217324131,1.3062442052061916,1.2070273123801254,1.2178377255180484,1.2568406428855765,1.2101897218926347,1.2232814195965624,1.240108240028058,1.2417550573565566,1.238819525785451,1.234601151080305,1.2157465467929107,1.2328809239162524,1.2495034957229652,1.2341459806118018,1.249840966959006,1.2379192103987977,1.2471086117999697,1.319600943376569,1.295120285336204,1.1694116917699748,1.2670112290099873,1.236936501060469,1.2383800822539586,1.2643735147610808,1.2002382915159333,1.2276841324285137
1.2780488489719477,1.2598269950631706,1.2701633995703856,1.2573389913152342,1.1889278240862142,1.2319573330026787,1.2737834010252016,1.202333212929268,1.1609650169889136,1.2307608732656168,1.182496807903314,1.1910275630973528,1.2054752948855738,1.1927665398927427,1.197703985117484,1.189150323595173,1.1934883150082705,1.2087080028609198,1.2021176300229683,1.1791979556645835,1.2067963424390076,1.2026290898761314,1.1916422544695788,1.2888810582226955,1.3329972745619967,1.1549392520359374,1.287360991737785,1.2343499301363579,1.264886758265768,1.2445225051955593,1.2028959032799122,1.2095596638953472
1.3093466127705868,1.2806488441758133,1.3051317813474574,1.301636548764291,1.2224288068433915,1.260978605440655,1.277655451044145,1.1971712772086844,1.1861452909961228,1.221463070807221,1.1486865449067047,1.1808952634032384,1.1713896338296843,1.1632155081706528,1.1688634922238363,1.1723030663398608,1.1689544160773635,1.1713097348179622,1.1588172213824512,1.1711705010292581,1.211276877884955,1.1882547320219659,1.2111563087586414,1.2812491066050786,1.3090902768742967,1.1899476059788283,1.266079446856761,1.2772165901988988,1.2939768886328895,1.2807224273962183,1.2369075650233048,1.2060623825215124
1.2641743607567317,1.25056676664371,1.2753732436798564,1.265461541785199,1.2209178153866018,1.2683182935030939,1.3338751728045466,1.2119257864827087,1.2266214175334431,1.3129837611072255,1.176112495412679,1.2003239199915716,1.1965799765984888,1.2135918269512922,1.1961990384956624,1.227756829613921,1.2161966760229332,1.2203625692200921,1.1994395403140223,1.2056993727799374,1.219634271292789,1.2019428940755281,1.2120515581565896,1.277480462971159,1.2883283919218202,1.212536941401384,1.2524088741010861,1.2957142396282775,1.318761350651346,1.2594084200037479,1.2177409395218415,1.2299210517261896
1.2744979413615751,1.2870829024605814,1.2393929664175076,1.2407435667921056,1.2376324724265861,1.2715234725030478,1.3380661206171098,1.2306816348663905,1.192999749236654,1.345695452380006,1.1872332643812515,1.1795337761270732,1.166717863617845,1.2091868942944433,1.196319815584481,1.1988740446385115,1.2042280671878298,1.2172362148848344,1.1975209987578552,1.2126445588942965,1.2523974093759473,1.2051364027879417,1.2341619734722309,1.3089568906437887,1.3099724291044659,1.2833193837626977,1.2976873602471481,1.2977349364114013,1.328663635732043,1.269650914776817,1.2621996198283234,1.2706409137801848
1.3316698972892467,1.3246968014830933,1.3005031501885014,1.2794461905738974,1.266451871864088,1.2753565111157528,1.3039368841719723,1.2394823402011697,1.2021502499224646,1.277919297389186,1.1918480317596367,1.1790693236516112,1.1983780611854336,1.1989521410635129,1.1981723165817468,1.1865608885342516,1.1917835742162275,1.2071856603726256,1.1993023434109764,1.2207043387112098,1.2890164845955476,1.2164210120124317,1.2837118637111886,1.315712880485003,1.3429543557748747,1.290320394210928,1.2997030551756845,1.291306838782806,1.2866785051002119,1.3096971958104215,1.2790202037188545,1.2193611247723806
1.309952587609468,1.2980054306593487,1.272889914518678,1.260215817756932,1.2273530087900417,1.238836674630028,1.2820340130677013,1.2676038748731828,1.2156060526831507,1.2606067225054067,1.2129446683999323,1.2142466320651535,1.2209253880624884,1.2416175214391487,1.2178065950279071,1.224831886838731,1.2113988642394349,1.203722862434061,1.217969361358651,1.2301002851454808,1.2906890641886104,1.2403288240689492,1.3096276947940337,1.3367207688030083,1.3535198819299676,1.266898341077039,1.2881171975390087,1.2623423071645565,1.2840309685970956,1.2831958024855996,1.240280413488873,1.199339419484951
1.2655014962845146,1.282702160851456,1.2263562080952288,1.2706325336872317,1.2110220820800937,1.2063652537550111,1.2808311995455406,1.2596711973163721,1.1780790173388707,1.2599218214759451,1.2042434923205878,1.1849086837375118,1.199705030748695,1.2496780078942518,1.2256376456885765,1.2063947006637645,1.2216821085245944,1.2085003279988382,1.2250761538993358,1.2270191903532386,1.2982514536951442,1.2539327070207262,1.3181736509449231,1.315792509679869,1.3714090354817963,1.2514314912764959,1.2915118103252319,1.2881706261322903,1.2834648010286998,1.2439659660236113,1.2309644963385566,1.2304897536272994
1.2929984990155954,1.3215964243115306,1.215382285158749,1.3078920526162847,1.2373542527307317,1.2211425256961523,1.2500341853567964,1.2406890587806847,1.1836003424925272,1.274553528307676,1.2202304990571655,1.2046000989196197,1.21703849026965,1.2358214590187335,1.207247176724947,1.1816656791213551,1.2043217024236466,1.220845758866809,1.1832147008044571,1.2193974743459066,1.2639883197343842,1.1963715553678507,1.2587839204070859,1.3114030494669038,1.3606953504077441,1.2561897517735632,1.2953235044375913,1.3065994783631374,1.2849119491367489,1.2887433262393344,1.2588046025531696,1.2532757759755522
1.3233381776234316,1.3060084991965422,1.2718700811133372,1.2867546158440055,1.222376508779877,1.2317449261485007,1.2133188262036652,1.252275926716692,1.2452896569576302,1.3125387660791925,1.2105253370004658,1.2437426628679875,1.2519837814487595,1.2549074355631777,1.2133230298290953,1.218560230922768,1.2175282037163555,1.2449800600342191,1.2074280644404924,1.2253192342689945,1.2412400202448304,1.2241508274075064,1.2749198570316331,1.3161180602594802,1.3364896633794419,1.2556376060883019,1.2743268988651686,1.3003761272047145,1.298698011420254,1.2920569513898266,1.2653970775989918,1.252908365895038
1.3517715297595418,1.3167514675102685,1.3344000632506303,1.2998731327116755,1.2504599070861235,1.2946111671774254,1.2547229485190845,1.2490599130054838,1.2421649694814663,1.3229597276800693,1.2562907794036795,1.2584487345005275,1.2666343210933122,1.264583377488982,1.2264712205928547,1.2200468473058934,1.225130795939037,1.2387666715601136,1.245212342332676,1.2344240490166465,1.261913363531327,1.2316220874790176,1.2838955702786232,1.3497246647002639,1.32878538250666,1.2772186451742857,1.2968406526066376,1.3193822784065758,1.2975328294916102,1.3280031696890664,1.321160761474801,1.2326484632264003
1.3427060230394026,1.318714571830766,1.29490390906257,1.2541264300079762,1.196722744254986,1.2558867333986776,1.266296102792566,1.2173882996218868,1.1845838253002587,1.2933947440570153,1.2019713801588054,1.1936694244775357,1.1945388957907404,1.1838436445267413,1.1842808679697645,1.1951524382041667,1.2061300256834686,1.1995530332715836,1.2194080557472862,1.222947668173965,1.2511501848451279,1.1898331133872957,1.2550530571244634,1.347048098786767,1.3206648133100543,1.2231625369522623,1.2919508858778046,1.2605307447028626,1.2585384391029373,1.3387745330919072,1.2786323868767047,1.2405804879990932
1.2801693422570266,1.28799584064462,1.2633755699191855,1.250217346950168,1.1781519043142792,1.217817865205624,1.252943390303343,1.2461590427429885,1.1794355034033543,1.3019898339683824,1.1929356601374326,1.1959679228272342,1.1531599049475425,1.1758541980440997,1.1874742171243975,1.1882868990131796,1.1910337891826186,1.1710301588629113,1.1847946297444272,1.1908166817022845,1.2124446841850047,1.1953829611947286,1.2535455178200416,1.3078803106915695,1.3189200995251364,1.2470456109320092,1.28144472436551,1.260735780309655,1.252859314342552,1.315212750457108,1.2582200318803956,1.299474582019236
1.3092114948337596,1.261735102553707,1.3098398469740804,1.276834797352059,1.2109854078561295,1.2523396202489827,1.2753594962926764,1.2292045059207455,1.1889350182035106,1.3359884332518088,1.1960670255429602,1.2316614776047123,1.1785736321134905,1.1567035505534118,1.1656515160383654,1.1651860309515965,1.1771465377237404,1.1925195522625551,1.2251032898664729,1.2236862344095565,1.2840177909385335,1.2573110243607253,1.2671489739570754,1.2803507856939,1.3225418267598967,1.287189874799306,1.2634247036271258,1.3083859486261569,1.3184373510775722,1.3118453494645355,1.2459287317594698,1.2773154784349532
1.3178221849463463,1.2811231650826844,1.3057442598102582,1.2576160507034326,1.2154809797555282,1.3194918729866023,1.3060680690217028,1.2467131413898966,1.2218651128557496,1.3025636363512711,1.2306999901952396,1.272882052007103,1.2231649111827871,1.212656859555609,1.2205946445412295,1.2528046901751415,1.2057150781867032,1.2285691474194778,1.2600753752775602,1.253181569484147,1.3226573051258548,1.2728106333880247,1.2635037135353617,1.3273414079222616,1.290048066331766,1.284878495416984,1.2668381436474867,1.3255528668224457,1.319513808376303,1.2985133519246723,1.2464059674075991,1.2314207461225926
1.3039207072347714,1.294908631668451,1.2707959772269977,1.2691691735929895,1.234745793616585,1.28559712108251,1.3215656229241177,1.2523933699371064,1.2166768006055895,1.2635886600004966,1.2729274240083905,1.2609646129826495,1.1919516883197754,1.2282438504882125,1.2536745119008301,1.2565501197835298,1.2323139382203538,1.2220012014677595,1.2410299347264593,1.2429872639127957,1.294585160073372,1.2073724587799384,1.2516902344108554,1.3572722539710482,1.3139553343758972,1.3078183755528392,1.3170392874863253,1.3257148147155864,1.2947132000536596,1.301446244310451,1.278656738256238,1.1940117285882654
1.3229064285664571,1.3149005368713753,1.3274963214369515,1.3180918522654101,1.2602588899003835,1.3003132473353085,1.292890170488262,1.2184161621079153,1.2079759191406627,1.2701735418835243,1.2311975043931485,1.230800933822971,1.183769604009412,1.1964610671739986,1.2046952288425057,1.2138456532571467,1.195835815682427,1.184702096178279,1.1894975520119864,1.200332650080375,1.2248921023495347,1.165311588386071,1.1860825094517813,1.342309984967107,1.2920085614991397,1.2504514373319364,1.2931399715990501,1.29169420291348,1.337469741151146,1.2867460500074326,1.308135929335587,1.1953851942699731
1.3099193670952485,1.3262280129325315,1.2984211528646545,1.3142743580407188,1.2822459180025365,1.291228414431365,1.2904722624100053,1.2375119497285232,1.2362532897132952,1.2928027594544025,1.2289990090594118,1.2541129341587196,1.2197087762129701,1.2250324025923691,1.19485980591945,1.2330801654880477,1.1966456652910626,1.1951331969214958,1.2075911674113404,1.2176483021763067,1.297385433262798,1.2180386323763361,1.2363876648082324,1.316573072525954,1.3124343594001207,1.2497321883604293,1.2764470953694653,1.291076755227626,1.3252948548071597,1.2939972293969313,1.2987460836679368,1.222912014080039
1.2675066946170246,1.2936246961132702,1.2930503705677199,1.2836667202180247,1.2250232604745557,1.277559935092566,1.2897902063965268,1.2360919473175491,1.2366467551492015,1.3033739267269384,1.2224230737369572,1.234927593495982,1.226148517222659,1.2103196528558797,1.1963518838117528,1.2358149020776559,1.2272572589510855,1.21899924083653,1.2654431328778393,1.2354444050027578,1.3000786816043974,1.2572579490760583,1.2685571356130687,1.307183290419261,1.3314505666406284,1.2303548617172413,1.2414832391179942,1.3057272441893004,1.3127359658543067,1.2798958629787052,1.2361380142459268,1.20756092850943
1.274825554140275,1.2934711145105835,1.281571704693338,1.2891436917238304,1.2156844759400758,1.2811156825387637,1.3318009267704742,1.2234995722699489,1.2045249872067156,1.2788041717455247,1.1908256560082744,1.2056230126540435,1.2078373126335173,1.1966953836261074,1.1723538938245601,1.192066218883217,1.2003929602689156,1.2011058820264968,1.252215998971782,1.2238098663180013,1.2647049721140413,1.2424887335309225,1.2336222483793278,1.2970304992402741,1.3176283021967796,1.2206067024552278,1.2564845083756675,1.317834882210794,1.3036129915985002,1.2804990912047314,1.2165176548792962,1.2089782361900228
1.3340849910832198,1.318114656223421,1.3032203528225736,1.3041414702718561,1.23352368239114,1.2589315026955568,1.2931297783632854,1.230139544779215,1.2219202906440145,1.2838994784595754,1.183871602427643,1.2199088449422912,1.2205814085228743,1.2096090349672106,1.180849076527547,1.200149229121582,1.2039161850610425,1.2372043886086388,1.2396643146834867,1.238961013803639,1.2720235881119897,1.250931421841566,1.2540628458045346,1.3297677863911748,1.3137975723625661,1.2479046039643147,1.2934885102291949,1.3127364771131196,1.3148802306167928,1.3311594023015987,1.2566218012292194,1.2207799531932544
1.3223008665847042,1.2701211566855215,1.3328363390563898,1.2605909654448002,1.2058763397717154,1.2817848221905705,1.2779375351465496,1.2302813186103831,1.184854039248616,1.3024035623865855,1.2327716334293524,1.2186816216010155,1.2031707385855388,1.2374141008925261,1.2171117251847026,1.2491427004051052,1.2511627125306808,1.2476815610955327,1.2545497471670373,1.2589172176828665,1.3001515277148505,1.2431947617791084,1.2747216681123672,1.3341189384016598,1.3153578459493513,1.230240873251423,1.27741912693392,1.3177897475979068,1.331853843948012,1.302401589056412,1.2405899320421783,1.2429873822999726
