Fp1,AF3,F7,F3,FC1,FC5,T7,C3,CP1,CP5,P7,P3,Pz,PO3,O1,Oz,O2,PO4,P4,P8,CP6,CP2,C4,T8,FC6,FC2,F4,F8,AF4,Fp2,Fz,Cz
2.0533972847663953,2.0804384628840116,1.9293190362831456,2.3017700069914593,2.361658265481213,2.1995505268509152,2.288106215715547,2.063713234210653,2.1379429889808645,2.0312382374427043,2.04964399952668,2.078510207946297,2.1198531864927155,2.2017469731080026,1.9507748592595022,2.010285947460551,1.8720745177979379,2.0273871502089555,2.0142263803051668,2.303214483197411,2.2078632824199422,2.0939619035149155,2.2201514204893065,2.296206812822035,2.29069055795748,2.289140405794157,2.4100881785687642,1.9285476462777116,2.3309011631667143,2.0679693887085655,2.3481433754059293,1.6791092089088213
2.1229164724836513,1.9594169812210933,1.6032720746315983,2.1535603444506703,2.1775902334235977,1.8330545845618265,2.0051820905432067,1.7924310073414698,1.8738155509358854,1.759670909582529,1.8605022435784886,2.0773164837788034,1.9450256899138356,2.0870493188593664,1.9569941864657658,1.989491132500287,1.9290702698743025,2.0450665840335884,1.9437074514715673,2.2161744914803343,2.166023587819467,2.023257852454282,2.2880406803614197,2.3606178482735767,2.046169885326589,2.2369236062053384,2.345276843095951,2.033391734570882,2.0979175170702016,1.980982865500626,2.361623591782647,1.7032843534431965
1.8895907351590577,2.012618424319067,1.9500205907613002,2.406799363846328,2.1110648146330044,2.4661476271833966,2.387892083658593,2.199612577521802,1.9340893214719386,1.9601332284250883,1.9251406719226565,1.9540823716866091,1.8641439918438536,2.12960201817223,1.8417857610448904,1.8304009243931159,1.764806697423467,1.9063704582034078,1.8699537670192474,2.116707682026397,2.355568348663183,2.0975025540992167,1.9340127102777764,2.172722091573226,2.3789256778152255,2.1144168807162926,2.4205045839388526,1.9254347995451524,2.182510611873129,1.8829777896631954,2.2351491951848876,1.640821535374967
1.9977775862085791,2.0262893151731833,1.887715247290845,2.1268503120738425,2.262224952205017,2.0495557327002065,2.2926839039821436,1.9400875968552314,2.0353670644572412,2.0537308296954664,1.9552847254191446,1.877922001294965,1.8993367800641907,2.2154564530754843,1.887161879414999,1.8358585945879755,1.9082113437451211,2.095874054228435,1.8536902008429559,2.3422088044799394,1.974631963441663,1.9698621026734868,1.7924453565538658,2.1889411404315484,1.9702482136123118,1.8792148580543255,2.1835880251615674,1.7257067782574738,2.4691664563800844,1.9806463677670998,2.4240112363430257,1.988050977108337
1.9122091337612848,1.9801807370023863,1.900923303815748,2.2112314583166572,1.7812060873379536,2.1956370617851553,2.025733700090378,2.0480104120001785,1.7828816990953902,1.8005395634372918,1.8752751438859865,1.790815890482052,1.8272399888223003,2.071209121768984,1.783550444953302,1.8080519848742005,1.7459950221865688,1.9835789464522229,1.7839529233919846,2.0977759442660773,2.0164829003505016,2.0016110693631353,1.8758656718071303,2.066604452829278,2.3546177631970147,2.115032613156147,2.3245982464496096,1.7112232897549269,2.279278182137543,1.837773375268341,1.9536496975637496,1.8944228412508262
1.9117519605655366,1.8974440774092418,1.8519797557322786,2.181685613328351,1.8043920933774988,2.111908627302401,2.174611160385521,2.087036705779014,1.7800568155848557,2.0476731014349574,1.8930970433841872,1.9033634863487217,1.9396519988746264,1.996295826178467,1.8362096442995681,1.773474212434096,1.793538271948633,2.1953733132801485,1.9023769628056635,2.0969697835621637,2.0478522313514747,1.939799882324304,2.044078729442074,2.0622103585161518,2.0363905554586648,2.00409703229469,2.360129557024474,1.908990042087693,2.257678281672926,1.9785287131224247,2.048563879055458,1.983931281210188
2.0616950655214663,2.0136650534146914,1.7000990958176512,2.360562176752296,1.8696876092303025,2.0984166060638074,1.8193716022183806,2.0135367243590543,2.0073304564091266,2.2392318596350544,1.7722370343506244,2.0498561086527145,2.091497351162649,2.011422875098365,2.0570991265507206,2.0032282443187186,1.9613855078380877,1.9534116644113722,2.265279168862451,1.8933900897579135,2.103582612607027,2.3017845418789507,2.0351749202170053,1.864516400235299,2.0521413411553806,2.0642744066436682,2.1937734364174566,1.8409054209519338,2.5800465574350953,2.07876023159944,2.266235562653341,1.8773165025130232
2.443522246652079,2.2185317793358172,1.7902582620536036,2.5205977598665266,1.9780048088795326,2.2334721718222488,1.884497566930582,1.9580643570144498,2.2878989306473203,2.2557765549900135,1.8223252002544355,2.083236484927703,2.1646611693293836,1.9644148625197182,2.0068776135888906,2.0206213410084404,1.9671357186607645,2.069245439019693,2.166358375847358,1.9888163871735702,2.0401328693026994,2.229145505108322,2.001325498269997,1.928350373192083,2.1442897643751087,1.8946370219559345,1.9730883789840403,1.9278793186476548,2.3510687739405256,2.1648317423104846,1.9595153431536794,2.1699593460151134
2.335531943020713,2.4726799978746237,1.7269391215621457,2.534802481012658,2.0811198126243955,2.458589920792776,1.818863536292963,1.917521231464779,2.1902718175229325,2.3251264415572033,1.6699681256304728,1.7934404940566784,1.9782176166199998,1.7458655141720427,1.6649118001541185,1.674314408762417,1.6305421903491297,1.7939449050432006,1.9714983456399473,1.9444085007452296,2.0515430202723244,2.362795988550527,1.9765796781651594,1.8412388528925379,1.995641072275325,2.0718503485181605,2.2206214781806026,1.8865539414080528,2.3004475970693266,2.048136103590402,2.254460468569204,2.109230482309068
2.2188157774438477,2.3306052162901523,2.023910395227316,2.2922464582435493,2.0558849299049466,2.2947697530032745,2.307129700973076,2.1103676833263774,2.177716348913561,2.3611279645907937,1.9329237293090495,1.9735960961801913,2.2824539623865605,1.8108671925348232,1.8962214733911749,1.9208412320670136,1.8363514973752681,2.008713170908805,2.0453154967445517,1.8026115378899101,1.7636708930870486,2.056436772450887,1.711539265414427,1.7248264502999668,1.8157045075986333,1.9544531824948423,2.0187220411412454,1.7453410200529849,2.6010255996559843,2.1477215359989246,2.24739768947738,1.9818340012597764
1.9694502733851562,2.066289603271309,1.919531511374476,2.189469967331291,2.1067702174080822,2.0470710431530876,2.2658008296577656,1.9481371867333988,2.263799718646197,2.2436158341666825,1.957684463708582,2.0381568931525362,2.2270680690754805,1.9713231295085445,1.9849183829173518,2.0063744546842,1.873152138021007,2.067858652258169,2.0980893754284335,1.9076471554074315,1.946999646026173,2.0740531496643624,1.9655946858784357,1.9410886137646783,2.108692217656493,2.0200812871572364,2.1065951337941353,1.8743457207346967,2.5483588198141955,1.8840596131372014,2.1131090841769304,1.9082972122991053
2.2196615034280804,2.158559851660589,2.094075411596523,2.5121762096827362,1.726473455132048,2.2133941596652096,2.269195473453578,2.0208113655909665,2.095732731175663,2.162981536939309,1.7547145384856466,1.9454378960574745,2.2270175768686946,1.8618861813891514,1.954089466721928,1.9607462321392348,1.7678083113022702,1.8548219309508607,2.063073384651804,2.0436585729573564,2.019164518084885,2.166444602868879,1.882804933148994,1.9266110827337593,1.8715028178656128,1.7386591367178883,1.7896134198587146,1.7583659168084753,2.5238136371959143,2.233033853004397,1.8580419117651414,1.829188427319235
2.0625953372715142,2.180495818938186,2.1320230602715986,2.548476451576298,2.0031295660560438,2.2969442038008383,2.2783702510102906,2.252034818374896,2.0931648184230167,2.4358871445750716,1.8234505082889072,2.1697820792847025,2.2402659263102964,1.9516889566643243,2.0300609732934483,2.0552858671922603,1.9032121622066156,2.042000964371966,2.315909243646985,1.9888723871923375,2.009336304969941,2.063585147352382,2.1076685847118184,1.9840059506328698,2.0815158568781174,1.930647931388632,1.9588746559381607,2.046131173541543,2.230748401656554,1.9673652654163385,1.9392760587964808,2.08080908506737
2.1930614092642653,2.0205609313007704,2.01528118814931,2.471178883564888,1.8534947223443616,2.0433249627854706,2.4771190400057974,1.9400440507858014,2.0849235569877336,1.9533859458754976,1.7069109066652777,2.0759699211383547,2.2447500043262636,1.8745041258390511,1.8429602887881302,1.8205410408846274,1.759516999057309,1.9937934540202777,2.1414392653859733,2.1217541720485618,2.1937595017872225,2.2275615213038638,2.0902998200863214,2.0258027625899158,2.0383623206574244,1.994157864643809,2.0775736862134746,2.034867012638136,2.4317538752162227,2.1175106572558735,2.172374921720028,2.1473475771508426
2.279421860680338,1.9224197809797499,1.9858981984670554,2.160681324366598,1.9447403584784229,2.2297133226847676,2.272285587823322,2.1770607440931373,2.045142535817289,2.1074868403230878,1.7775138878235017,1.8985279133680044,2.0054261634140205,1.7936595204361057,1.7605746038773962,1.8040341855741986,1.7715632413491524,1.850808768766504,1.9296250769022392,2.055570899488577,1.9396743417157623,1.9627301813258209,2.0295133270250094,2.1027014467770315,1.887747918444565,2.2721970620052576,1.9102485182553077,1.8743749851102864,2.076844518200193,2.051406136654609,2.1258776245809505,2.1178947721573893
2.197510821711465,2.067725120703782,1.8678729440304356,2.454723873985102,2.0841212706881036,2.153727622896104,2.163470555932195,2.2848238432585344,1.980573354428469,2.374673136018578,1.8199741564603789,2.0920974362870393,2.018062561726438,1.8556956728547032,1.838879439917044,1.780341697565285,1.8211404525767207,1.8513270598044524,2.2676921919537225,2.1661467361656626,2.1200032496433927,2.2755254347051395,2.2029144244526715,2.0235815904399903,2.0598498806591037,2.2301323268517317,1.8957617388164494,2.0197794860046105,2.212304642112608,2.1968923169665597,2.163410726772104,2.1217553831386957
2.2162150594008216,2.0012163935992,2.0114336451170476,2.140706746254597,2.059803905784163,2.442805682210865,2.354098174319229,2.23924138684119,1.8188356733188165,1.9781907778276893,1.9893146205031416,1.7897527951371206,2.1486545981661305,1.7691661319005596,1.8946445329894581,1.9487013603827257,1.9186863814601867,2.0635650114584863,2.3147669102158503,1.981439168309728,1.9684733653061322,2.126434921737476,2.180360182892134,1.9940930755779522,1.8790826719459972,2.041304950944541,1.9825635249637208,1.9193748050404225,2.1448071056864926,2.1663167073504033,1.9519097784709878,2.12739905784366
2.23013280940845,2.0680038179243185,2.0520603640109396,2.2896846671552886,2.1295114553718735,2.4097064586824444,2.346852390866698,2.344744506467711,2.1057881094911424,2.0211851776227134,2.127566361459525,2.1694870816376053,2.2463359617888647,2.0435623019828713,2.056226164750658,1.896410119733243,1.8513011964726749,1.888548012653192,2.106153322941649,2.209015906456045,2.1050778604232914,2.1096390114460317,2.188705339538343,2.26383975106729,2.0247127001947196,2.1158551500114764,2.002365559830997,2.02510387113886,2.1036291179766162,2.2345765233182187,2.11943776687118,2.0442162427210753
2.329525126700942,2.0560300391069988,1.9995302467503682,2.2492614919075717,2.139735713008554,2.2255019459441914,2.2703651308072916,1.9577488191362318,2.0292789333284103,2.032533935251464,1.9084898405169584,1.9633976535218014,2.127359409067371,1.8556983771144855,1.9696093634816456,1.8499882718383605,1.9478085674402617,1.8531958777986575,2.2483792776392195,2.410012940757792,2.2649150751330556,2.0469025600727475,2.1889996526794526,2.1286502687622386,1.858801101379944,1.8763610010843763,1.9729084671888537,2.081508760567046,2.1329476157512346,2.1569916808720593,2.0035909124915414,1.840244837059079
2.070327992384358,1.8838553429526168,1.856677988230505,2.0135875609826273,1.973250780001254,1.9882932980222847,2.1623084485564235,2.167795671437954,1.9067450460235134,2.2854327618675945,2.00538896930263,2.0319584985388324,2.037177047536424,1.8240054919430737,1.7878739803626278,1.723069186655986,1.68386591449679,1.8083655086441834,1.8225716031742425,2.1824397444458135,2.231829284556523,1.9820200091672968,2.0601035474811398,2.0676258624425663,1.9297140774099588,2.080229437310794,2.0297930224968237,2.2462849163659144,2.183936541722516,2.149420989812018,2.0229973993784816,2.11437007009926
2.032779911442431,1.9683520522601454,2.089674203873057,2.2726344216434864,1.8810747432664339,2.312129495806799,2.3325673742310093,2.090383954839073,1.9530462057078575,2.060302229823657,1.968349339112688,2.1151477761302466,2.09202642236785,1.9351875906899627,2.089558812862734,1.9247603238688547,1.9308929752119939,1.8881454068771624,1.9645073774371384,1.9930569793904978,2.272818682039693,1.9859612729760008,2.2802086776918316,2.001512728449308,1.9967965716996612,1.9715778826511563,2.060438461673109,2.2135405874869263,2.0478746744302203,1.9994453727844823,1.9650369820264193,1.991785218392399
2.2005289417943423,2.251518226088625,1.8705022960048998,2.0296141437282773,2.185597134758719,2.1659884139105965,2.354464261294799,2.3403362357624724,1.7876435190495372,2.0708187448779753,1.885011644637183,1.993354690714245,1.9410376507209623,1.8448799334830999,2.03701316955102,1.9232711473273723,1.9072279623063042,1.7657709989528851,2.042746002018063,2.1758458360541706,2.0861873786447815,2.049411582521585,2.2698031230743823,2.1220213498549363,1.9601499592118985,2.1149585929744483,1.9401130441555285,2.232479263250738,2.244567515485727,2.0554833314631824,1.9534856362616442,2.001555930827139
2.1627682137649313,2.38247052249948,2.148965938987111,2.0409777755201595,2.122859094878646,2.1029034576837615,2.3349706531756027,2.1553072496793533,1.835194858484886,2.0666811866157526,1.9192069464640946,2.004272097394488,1.9706495633745456,1.8057594126508658,1.8706339061524506,1.8001194918438654,1.9068772488323658,1.9044660029306095,2.120788789572783,2.2859063409040634,2.313313533915771,2.1124449653911306,2.313080586228808,2.1872561951925076,1.8793799217088811,2.138529289815242,1.9868820166959344,1.8513632847788215,2.003935074276082,2.0894411282042653,1.9298593824629013,1.8987310128495662
2.1599058319760465,2.2455359890741065,2.125320204847142,2.355572933756286,2.125578714361855,2.113892194155526,2.1754988533458097,1.8968093181423642,2.121913070647213,1.8894033077092929,2.0711221656931094,1.9032317882939926,2.003732846060796,1.9400103723423578,1.9892033157265785,1.849241006862795,1.9179370925821408,1.9185721376525873,2.0643438175588535,2.118226530722894,2.242096028810087,2.104579286056854,2.0016399734857906,2.27807701641722,1.9566711847245268,2.0963963495284768,2.015577576378539,1.9166329569257992,2.0787080907331323,2.1170429067471574,2.011556361706128,1.958873004600662
2.2420729321115234,2.4364410558432676,2.023634171606478,2.2716512187838176,1.9348830052493193,2.0723015087166363,2.0756019708051143,2.0877146501430612,2.0497310050231037,1.945968148815221,1.7976244898920088,1.7410876399131117,1.9005992438620287,1.6911370670265649,1.696183996971149,1.6482383481079317,1.630341156402712,1.6906202642168517,1.8801484959054957,2.229631463742415,2.180628596409013,2.1594391105522295,2.027242026087103,2.1187233717065834,1.9458439281022573,1.8961572843950745,1.9246299362677637,2.0461648243318047,2.0372279577983265,2.0812647207556116,1.9535159266108777,1.8926715062183557
2.0128657340830545,2.1672766511392174,1.801882120625706,2.350625245745319,1.7719602534934533,1.9486607434480323,2.075672282114421,1.9797304492213357,2.098405997785428,1.8644691635370945,1.7845069251399381,1.917468626471803,1.9227858786464103,1.8440034139925996,1.9362059466639099,1.913283419844942,1.8961955854150467,1.8960327839302744,1.9483382163113556,1.9696102620105893,2.2608461380910665,2.0346480313854336,2.1263653096719737,2.3023323313067268,2.0646415534765126,2.164219623733342,2.174961988494939,2.1808652521302716,2.2353414553802082,2.1425786864960727,2.2464108057188894,1.9348202705883912
2.335764263890294,2.3554716429649414,1.8824049865523562,2.4804514083111737,1.8737461952231649,2.0568069466965975,1.8707045247277965,1.930862012886444,2.1507155390237385,2.057667557416484,1.8523126623016346,1.8943735822739243,1.886012235951373,1.8324495956873859,1.7724291004125583,1.6639480161994793,1.6692643440202148,1.6740221895658132,1.7734934921404015,1.9883717139594452,2.0434733059159047,1.9142365770058023,1.9182508708991797,2.0830698357090913,2.2109083655043507,1.8445378159718346,1.9759695944542655,1.9028641518536804,2.133011881545496,2.268277923273001,2.143710600253821,1.939116489031643
2.0419754575550764,2.5039400108256418,1.9905678226397532,2.467159263453946,2.0961835091645726,2.198797781326504,2.1331016905740285,2.069007273755179,1.9832428747450466,1.9843133432265716,1.9395131109522783,2.0122918373056815,1.9744375444249769,1.9161184937126194,1.808105552745871,1.6920956729970051,1.7285166956724558,1.822886088050826,1.9582545377930956,2.1863995031533228,2.096733897206377,1.8203506299681966,2.26231605146882,2.010096914012266,2.3188118865814498,2.2051130970236565,2.3189475217128392,2.1109833789576125,2.2534082778387226,2.199090595523542,2.309911617392306,2.197716823363041
2.1312041133376947,2.1425007348516134,2.033641112529567,2.353414371552824,2.320616762611715,2.2534088201617752,2.2144085325909106,1.9223275088395562,2.2219003805075856,2.0640547630495214,1.8890677464371752,2.0541454995495623,1.848651441064879,1.7289323068055278,1.775312394235446,1.8530440439104219,1.705882269854802,1.733181792734197,1.8612866206274494,2.0900674218885826,2.12052543421397,1.7938427768483658,2.1223677990822587,2.003285890095761,2.3624794954431887,2.1694341865916633,2.1294503196195107,2.11289285580479,2.3103030742342305,2.313206138954925,2.3304095538147545,1.977270886361415
2.529150724880901,2.468842832138036,2.046503073636777,2.388582808196019,1.928376308168309,1.9121132539291967,2.013134108163056,1.790263960348834,1.8574204851547875,2.0318552669515206,1.950885223062956,1.9316064583877093,1.9344336892733354,1.8293089735201427,1.9877742153036768,1.8477663955948866,1.765163899748932,1.8247385200111863,1.9825195492994347,2.1340564386828422,2.0298971015069758,1.9716808587821906,1.8897124093531803,2.1686419167724775,1.877125321356191,1.8849813639735877,2.0733772719264767,1.9130879954155524,2.181386113474705,2.3257061453216723,1.9761165549780897,2.0013507787043556
2.2224219808889747,2.127832479782162,2.031069220283677,2.29724435442863,2.0676870041387136,2.0855991426834826,2.041896255106791,1.9079581249560709,1.8411702099096177,1.7905887833842031,1.7271260981165766,1.6968635833985537,1.7379088764298167,1.649671643572078,1.735009156710835,1.6381423703780211,1.624971974162638,1.6646308534166596,1.7893901036939353,1.9862186364020886,2.0416068940486074,1.7873979968285594,1.9034383086908013,2.0064681055013827,2.367308646498204,1.9904792636417774,2.0392557314780078,2.0985892176328957,2.3416978518066167,2.155919887637973,1.9370866254190668,2.0482090739661367
2.3094232185308803,2.2912269088817565,1.7411461563834711,2.4162423868921357,2.029936053163662,1.7891908448942921,1.8502375668733753,2.101253956910309,2.1078799091082163,2.218066939823793,2.077048835755443,2.1893523748924193,2.0611724268766483,1.9094330913998263,1.8967007722538263,1.7954991455674092,1.8034447995769958,1.809279231875363,1.869454669668599,1.9437912541486242,1.9517404048360005,1.795347695044709,1.9405845116923628,1.9340422053148623,1.9240754079524927,2.0128224466882654,2.0689384455522584,1.7644477332935915,2.2190207528543264,2.154147367673153,2.1458909834016766,1.909955629580831
2.4118309604176034,2.47462836952609,2.0271810388052787,2.259803832040674,2.036674705710992,1.9944073167176317,2.2206045938928693,1.7983002638304757,1.8764662257124916,2.1007062519801876,1.9532961815326755,1.9980904991965853,1.8847706090644298,1.8356200653521115,1.942499265771644,1.8130531606660505,1.9332961355253349,1.9914830737750115,2.0400599156989734,2.082636807948853,2.1054501194670716,1.8937700886568756,2.10813884202309,1.9431025454014168,2.126559052413223,2.1078417295868905,2.1359961202481883,1.8635344698014826,2.3794830935931723,2.329795021595783,2.05206830468883,2.132846474329108
2.299632616498125,2.3950436596276576,1.9104952779009872,2.3191992860660418,1.7389852686177194,1.9328555201361726,2.069738395260864,1.9898335446596422,1.8487001831297278,1.7891968491494026,1.7323077859722567,1.8088493502189296,1.8060117416400072,1.923358171783443,1.9723905753609037,2.0338090370325936,1.9959488858878955,2.141279027891882,2.0883854445586842,2.1043501406644807,1.905108583083117,1.9063975080748874,1.9949954568836008,1.9911442616843398,2.1012567928474266,1.8089330716117322,1.8949324828390939,1.7766044383084802,2.135265750538205,2.1723974451773937,2.004710792120854,2.2032015030012526
1.9794497501044976,2.305284225839951,1.9824473206260762,2.4134819330122177,1.9117820075382128,1.9367128644397167,2.066970557669753,1.8777439908385833,2.1546171164697023,2.205714938603049,1.9080675942358536,1.9882987669127685,2.089424102565804,1.92085297443149,2.092175444839137,2.086078745468521,2.002009028112344,1.9978304898555725,2.1352833381864396,2.038600886756826,2.0618480538059196,1.965738388230458,2.107927666599296,2.0371256695533106,1.989500211257899,2.01912241092382,1.9009093732623918,1.9570492023630106,2.353625826017447,1.9752050450368177,2.20071020739989,1.9393017630763625
2.163905907587593,2.1622623445738998,1.8409857413807424,2.139399556315264,2.140275079177223,1.8493862860775176,1.9320213569048001,2.0949993159358034,2.1110223463994333,2.1187795514005354,1.9405592607959026,2.1525083853557603,1.9916038795402018,2.03231293982979,1.9929378659698482,2.0675294650365448,2.061692879160415,2.001435900008306,2.1258245958642035,2.225580661715025,2.201822956798032,1.9665905479327226,2.040034304839087,2.08232437853467,2.0985610436602866,1.9794032104479178,2.1069665467263703,2.0228467345712158,2.313470691149799,2.3426091898189574,2.051251990237067,2.025177679119029
2.147232038810815,2.0012929148960836,1.8565075171850458,2.412517976395604,2.1437978271821327,1.8195133179928387,1.9111374575981281,1.9210865647635234,2.1593346900629116,2.1493409609609833,1.7908385982472332,2.037706235064192,2.030301718878711,2.0319465419934555,2.062711833594614,2.1117618211368825,2.0333416757384644,2.002360552362495,2.0179599877524574,2.1420339934957795,2.019155171305772,2.0373773161011095,2.150199311433976,2.225146033627724,2.1711421120131753,2.172839319183766,2.044515696791347,1.9295303583786139,2.391179690195867,1.898825974605956,1.9444023740309655,2.0022027700848306
2.19586720633486,1.9698893704601588,1.934891663715121,2.417969126998922,1.767030149936973,1.939321959495473,1.8599419018639398,2.0761628655802475,1.9355374478103582,2.049971241091407,1.961399616063829,1.9751830407438964,1.8765000270147452,1.911342396478358,1.8552216264743182,1.81585424354157,1.7711701123539156,1.811069415388157,1.750098838098059,1.7842845359667732,1.8130346615489024,1.8520402249756867,1.9410315893711658,1.8614704870118137,1.9638293232148838,2.220254019103787,2.207886700661747,1.9302997323469506,2.3477190413874514,2.070634195854775,1.8513862753634478,1.8598871883602404
2.479055450632497,2.195798741530804,1.9537191010348944,1.9970353614432725,2.0060398752992548,1.8784243858184175,1.7626272071290328,1.8293750797299688,1.8596880519923074,1.8491008019719553,1.6909162458383895,1.9058224726592459,1.7360528131034108,1.9042145992178592,1.8867240302315522,1.9057819099541298,1.7857459986659028,1.8377159070647733,2.0096545352895094,1.9973884051957536,2.2275092739628364,1.8611198625368912,1.8709307935748554,2.1484777637829766,1.994968796470063,2.0622069868037745,2.3811143472531744,1.997847091450949,2.370549719278587,2.100062836893393,2.23615014878476,1.8545205469819663
2.131527388244289,2.132575762759793,1.8979609748768689,2.1850145308471833,2.0674663712882135,1.7752828563257552,1.918793959343962,1.9441578552906198,2.032681372143633,2.187683062545913,1.7839540424218099,2.0049809860015797,2.0709893094491822,1.893164054903265,1.929768078241444,2.1094898262132644,1.8500706465417778,1.8398402423282827,2.264489483205816,2.1958880522961666,2.211925725921872,2.311288405999502,2.1150853024343568,2.1132445660886794,2.1400315538560135,2.1074606522063144,2.2359400971548165,2.144230945470456,2.1270715904604467,1.947049981670051,1.8262134158937395,1.9786965414585593
1.8934660314103728,2.0577687649250125,1.8854590074371476,2.4548709275371103,1.8508813922044642,2.081737770355102,1.9652634449774697,1.7513271438850462,2.0722652291103603,2.0394656149680928,1.8086310446605578,1.9169472481288135,1.9820459787537714,1.8766545779741637,1.881914184340529,2.088254806391968,1.9031155443230559,1.8684339397399548,2.3429068077355186,2.076994628920499,2.3328954000876183,2.335978004942357,2.414506165973212,2.2674289844048916,1.9547945537407476,1.9448471236723484,2.0842825099267364,1.9995958953404633,2.139483953149219,1.799889828081737,2.003758714150932,1.8897425433226445
2.033304191367911,2.1675834451737765,2.0610088971273317,2.3637787378454522,2.1200547637992844,1.9514479696129918,1.88190282696599,1.8347957669484214,1.9119660258077453,2.052576497044634,1.744783107828461,2.0807917516780767,2.0956409910195455,1.8862341320934635,1.9174915708732079,2.0591834415921664,1.9113943002139995,1.916806190167076,1.8644369871245432,1.91728331012788,1.9738753952866956,2.1310239756124765,2.305923156711084,2.3973164047248168,2.2024938983195703,2.1442646866150263,2.184254098885742,2.153204721756933,2.179069022834698,2.030124405676406,2.1429672667496082,2.0950874927602716
2.123480103411902,2.164323174195553,1.8154019774780106,2.650297775172769,1.9731922734807,1.8720504956608013,2.130740822953748,1.776271892379735,2.075010626043582,1.9877187740905142,1.986739778090068,1.9420649796865463,2.0033200515757166,1.8447214289587215,1.95194045669343,1.7918124991270876,1.8665925569563606,1.8670081053568097,2.2475556918973774,2.2324452958901775,2.1745881999162817,2.348413906314795,2.391421835991305,2.292784116942634,2.3137083019204665,1.9627786066763724,2.2121122366185193,2.211822179065103,2.1845761065356992,2.125069547153687,1.8582465576216405,1.8894989016992974
2.360591221282944,2.034113356087265,1.8724544405861823,2.3158459100213005,2.1806714123796005,1.8086830219166008,1.905270235954817,1.6860901436314313,1.9505953190017404,1.9136809030143973,1.8030124244323993,2.084309961771416,2.0228526106711753,1.8942411008369806,1.8614988269766457,1.8917915885756638,1.8968510771252172,2.023299344215424,2.1619831459990206,2.199558572678315,2.0853238499471622,2.0821206810552164,2.211360742976969,2.2846953035992734,2.2428376987205336,2.1523867277132207,2.2391233518793414,2.0048109513244023,2.2394155102887257,1.9125965169195407,1.9900464861227072,1.9242514673903914
2.248571133262247,2.189113135864689,2.024389927564265,2.397567765072071,2.0070067841444015,2.0939280605977357,2.045701319833124,1.9243622786370072,2.1371413702820594,2.103372493652571,1.7124876360600712,1.8441308446584186,2.0713322203092286,1.937141786090834,1.8165785473520668,2.0315780502679948,1.8084467590107782,1.8295462780024119,2.270379489039029,2.311281982507313,2.17407132931953,2.1671462269353174,2.281090563772665,2.0959407149513716,2.2003109098666287,1.891421158671994,2.181229040907424,2.041596397906485,2.053055637088224,2.068968249938313,1.8063141481085483,1.8223793831107375
2.1599969753606745,1.8321814701732593,1.9801915039360651,2.2841775735847287,2.0493673268917623,1.9167209967041816,2.0712026316448577,1.9683789365565942,2.000200974479307,2.123844326428656,1.7799749391984572,1.7392367430384368,1.8476535124113747,1.8376682616897753,1.7508186071284055,1.7520345878304775,1.696468673582763,1.7125852698908555,2.047541651242449,2.0929541478040834,2.068938816410395,2.2811305574344996,2.223431565500222,2.1501477981322066,2.363793589084514,1.832126528777483,2.2849853376432883,2.147556891560366,2.0578803257950624,1.9648429922924007,1.774642261079576,1.8861169804749531
2.112642656194627,2.3845665487399237,1.9462859728128692,2.646777604987413,2.0898553312996144,2.0303431508819783,2.0557414378601258,1.9986628180850234,2.1442899883663893,2.064232915327166,1.9255505255410155,1.9963017280184776,2.115417953770441,2.05202371431718,1.9843256260757745,2.0274360179458863,1.8972706709984115,1.930496860716819,2.088695698421492,2.2749520716274607,2.3149519117558053,2.467169112768492,2.306083155378239,2.154115104121062,2.433016334853729,2.0533688962547747,2.2580470870390514,2.0997440493302864,2.1957294490242276,2.004554376373631,1.8065621278201651,1.8498319208257603
2.2891280140096977,2.3067722885464783,2.0970751541200983,2.48858669390794,1.9783222992290665,2.188683773905821,2.0288237604457433,1.881365147057858,1.971418344962212,1.823729618171478,1.6662095477684296,1.7708489972018695,1.8649074208836596,1.8685353238002513,1.7131514090435203,1.7748615773208973,1.7021301699472977,1.715061636234381,1.87309463590918,2.0592344852546822,2.0138221885521146,2.027121755762321,2.166657156306598,1.7877190288798455,2.146047043888249,2.089211550998394,1.9606215442131802,1.8485867018309592,2.2252486801532485,2.307638238456143,1.8683449853525296,2.03006488749049
2.2060393805467085,2.1546991037019545,2.0143459178968453,2.3293246631382933,2.05699164632608,2.214662350870288,2.138120802788401,1.7851265997519716,2.11041898778195,1.924149611562366,1.7908885191516346,1.866217656823382,1.99088939601715,1.9503676627047424,1.9441575094384045,2.001515372773581,1.901788432975119,1.9044961646364629,2.0975502826661208,2.3460900988685145,2.0142604663818253,2.132579204207562,2.1640293916248092,2.0990567579769617,2.3561552069687077,2.1184893537931306,2.13008760660524,1.9957343122081606,2.216133912920459,2.1440986787349168,1.9132513688903634,2.0708777893290478
2.3347108525765954,2.2481207834551693,1.8936873766348403,2.3057123144375073,1.97296287592873,1.9364255637653,1.8603695883585734,1.6933315357603327,2.082984756158091,1.8562088987051695,1.716240583302602,1.6918402702636888,2.220726148169055,1.903185614535489,1.8490997707018602,1.8817555814491305,1.831011729383822,1.868923971743806,2.003819331038099,2.062453858954268,1.995140134689354,2.26663917955864,2.3212155836043435,2.15188313048649,2.2992958022478023,1.9781106741834353,2.1588838647810356,2.035952825045916,2.313171024625348,2.3867081829087775,2.2330016817609595,1.7074510854980536
2.0293641678648355,2.213195037520277,2.2007897719653275,2.034406226878573,2.1549915931499313,2.179645618726245,2.133403821831818,2.0319230564721047,1.9851571974187705,2.0224307597676177,1.8292814949693583,1.8898282027755062,2.1535421283754914,2.10928826888049,2.007329161933744,1.8461870096954844,1.890504449678766,1.869977710110536,2.0447513649600144,2.3896240421507233,2.096648698840763,2.020947426137357,2.306922870487107,2.0019258827076167,2.025704309169394,2.064550911223856,2.2037921479069777,1.8162129726989127,2.2424546368344345,1.9957836229677353,2.143209365929016,2.09092406927731
2.010019029938609,2.190233713404895,2.126034808427482,2.305138414526889,1.9277842379128491,2.272266043098722,2.3186270776122715,2.143169654201839,1.8444740135771713,2.042194929086713,1.8908608240799976,1.9398298168813064,2.1306961819852637,2.1332815627016553,2.1141235938330443,1.980804087212263,1.951991122359653,1.872603165291052,1.8858340640877451,2.070449043008285,1.985770584211876,2.1937823882104555,2.0600392751033056,1.9847004093681049,1.9979567484222058,2.1587415423648126,2.291192967089721,1.9725879051120743,2.307373474253935,2.1338289341531955,2.1181619820634854,1.9789677630514653
2.100231869690656,2.2791154750441085,2.0322265964366983,2.3797112462825645,2.0569324376861555,2.1747639230918936,2.1504842878568593,2.067168683872104,1.7583103011915904,2.209912707749505,1.8994423207269848,1.8889871298642817,1.8134525506143848,1.9719700863862242,1.9384011359185371,1.8674739187437015,1.9627255495057117,1.9980451072920278,2.092607103753082,1.8031859415937121,2.1463789603849914,1.8656279723993094,2.483576287588324,1.8951966679726702,1.9542771587515637,2.1397775730439683,2.2533342936204215,2.21324375834783,2.2416508556163786,2.1826096028733732,2.0822598256079394,1.882604496576785
2.097074532682732,2.458757736821383,2.090530446273877,2.4469454073684687,1.9907401702985636,2.145461536814217,1.993860508099434,1.8708236770045823,1.9768151473895421,2.0532946562546703,1.7937712931418226,1.7661139328131634,2.175346631668444,2.015492976579623,2.0452602712897647,2.023089741380357,1.9298562689662133,1.9330963448783829,1.9662785949746646,2.0104155816002898,2.0576767493775843,2.0782967553482923,2.3921791478322616,2.245612669349648,2.2305021922219157,2.174441443248294,2.1265094439512624,2.1719088353254397,2.425370854524764,2.001353911261618,2.2597854465260845,1.8943616227035747
2.122150991318726,2.1382192970643437,2.2278834447253075,2.2547576528420326,2.018143974343987,2.3904291491219434,2.1559578826641106,2.084550163160075,1.7689099943381767,2.171260260382197,2.051945417053759,2.1061750142987896,2.1062099213643415,2.3004438969394894,2.173558730710409,1.999606752990358,2.00765997425447,2.020019955900807,2.1795499039852415,2.1710186267275073,2.127551413571084,2.0921122052611967,2.401608407515806,2.265708213690211,2.0576774151812582,1.960929250672042,2.1805305969576994,2.0232681352980606,2.253193550827022,2.1577829760879457,2.178361099659593,1.9830129519309487
2.1982692561862955,2.095877240538042,2.021394112154616,2.458005989057358,1.966026511878233,2.264197772676398,2.0172959760456837,1.970235631454714,2.06942226730458,2.0877437901097733,1.9849149066561738,2.0918753019655796,2.144799879300989,2.056065733513631,2.0333593188179715,1.9380736579303908,2.075426989259388,1.9927584054088079,2.1103289849427496,2.273591821341699,2.0063427341351554,2.0728370195718053,2.1656885154975565,2.3317953780292036,2.140091589391167,2.0571454497605277,2.224105745800508,2.002326358819579,2.3895168085135516,2.173697626201963,2.3893744503846484,1.9643266535165909
2.0956071468995554,2.4332531979656364,2.1418901144524773,2.371717909613549,1.9819913837068828,2.186903216663849,1.9300684030076733,1.804642577227722,1.842910708717398,1.9512682159375816,1.7560495909808473,1.8832623675657214,1.9813086225964827,1.9197835508232937,1.8898752889806385,1.705350864977399,1.8586761033865962,1.996831145088921,1.98980406183586,2.3120350364926465,2.1959769275699186,1.9380793931234324,2.1284723676940644,2.1734255441753754,2.040532186995754,1.990790864972911,1.9232400244860446,1.9848432741431015,2.425572515762438,2.0775485924395394,2.4264972762412564,2.005766265712414
2.337139902494256,2.2211886646584857,2.1438307258426557,2.369294337937657,2.062460962752015,2.299118072319451,2.16929675018565,2.015297578075327,2.0090385661386487,2.178052297908363,2.073232223743894,2.290012096007736,2.0656490015634987,2.2314861241087223,2.117704196739332,1.8677926334985226,1.9970623308573119,2.066970584030576,2.110095131281568,2.2041628070199746,2.0263541061681534,1.9957489098631866,2.299170245692223,2.22187703731058,1.9510226691758115,2.1483262628827124,1.8793364174531155,1.9447302427345363,2.223688769379006,2.1728657347779783,2.4115896184536254,1.9765962849993473
2.0624787720685007,2.335741393528575,2.1511419586687706,2.441964258499198,1.9044512133624754,2.273281680916542,2.1962155157475443,1.891594377872448,2.0662532772782356,2.1560437600426265,2.022243597355897,2.132323918970391,2.0216693088500195,2.191430356630318,2.043722781436228,1.8129200723123982,1.9456615228488636,1.8606054854095753,2.0578682108222903,2.157815640445565,2.0095746905503997,2.1417164635423176,2.1568850193489104,2.3548167842352035,1.9418863927393974,2.1063370557076064,2.1524086933908744,1.9526016208069432,2.297145498680141,2.253896390718237,2.2586023099420807,1.9632115231904357
2.3021013840801148,2.401636700854408,2.029669151106069,2.437007945656112,1.890235699079218,2.057631723866134,2.2683549187659677,2.070789984779317,1.9316769443047546,2.3293860018447945,1.967695600581144,2.02465386916127,2.064606551479222,1.95588897978248,1.9188563455100884,1.7505821377984974,1.76822159569683,1.8079086114085043,1.869517485367314,2.0573453054532838,1.951725377817618,1.9527214211194588,2.158202517405579,2.12171679426937,1.9932236258258205,2.1360071623367562,2.1074269333700983,1.882630402503466,2.20275456403696,2.2135473592788832,2.0793114770947976,2.0393436513756806
2.15473921343632,2.3029719329965324,1.8340777230597864,2.1643983020074926,2.006021959360054,2.1337572119460386,1.9653839689946273,2.0403951937845695,2.003505938932536,2.228687031332413,1.817183367971977,1.9300463045574054,1.9015959522341168,1.9455305410098058,1.9991454502931125,1.9275869484953916,2.0765981964876805,2.0469537647143277,2.210525263287192,2.0552511612449824,1.9512903349972535,2.0714671015373356,2.1743329940048244,2.325405949626745,2.134432173805993,2.1132547606527545,2.0743157453541663,2.065007694644643,2.2580321729209056,1.9198118827763233,2.2329745142089896,1.8180515181536323
2.5190950482088406,2.1184534720335013,2.0732823875045128,2.400208774842792,2.048789814031779,2.322337731161608,2.1559441820590624,2.0577223357811882,1.9476709174357738,2.2024686528994724,2.112718810420705,1.9005362893701958,1.9583960514203984,1.9541590590432292,2.0102361665996393,1.9633612750936429,1.9554032424837717,1.9785821403999237,2.1686505010782313,2.191190606336448,2.1224951915147865,2.1757361089183127,2.0793209181222694,2.2831493423546,2.06145673040662,2.2093922734501357,1.9853221365206597,2.053711957239304,2.283880258184567,2.2154545210799763,2.1583132125662696,1.95044893219522
2.039511987535766,2.2925236156065654,2.028838720207476,2.092527546624327,2.0469399645350297,2.288531293056835,2.1183566580804105,1.8912973969759461,1.7962443563943014,2.1549270745777114,1.8655013185018967,1.9036051027511396,1.778490345068193,1.8553623732311753,1.8435696801191601,1.9065209202177498,1.9222769883996254,1.8824321471638334,1.8706585366116166,2.242838397537413,2.0602718529015482,1.840997214137508,1.9467706033347147,2.1572640052247056,1.8658423494742837,2.2086750194270803,2.0822191692836243,2.0231898080160167,2.356841759046949,2.038551704539263,2.13839345271185,2.059485807886377
2.0304501454682784,2.259796170321313,1.7397934438946703,2.1508010957306287,1.9475963346649208,2.1258569301385304,2.0153091677635806,2.018694755946372,1.8647537391401203,2.196471251766086,2.0723615541193774,1.7520646664638078,1.7364250767869185,1.8066847027584723,1.8401458400730195,1.8499837397929388,1.9529104484655473,1.920088445116358,2.210642605913152,2.4631617717200256,2.1477428308571955,2.0754961055141137,1.8968373647395131,2.354006495274808,1.9009046582457028,2.024045156764315,1.7979824776242082,1.9310379342716126,2.4014759263677297,2.13095562690049,2.2467425154662113,1.9634377193051264
2.1058703670929715,2.0445472294619362,1.837588365884653,2.0663345631291294,2.1543096209873847,2.111946405688586,2.0698289890842156,1.9935061506791525,1.9930725509258844,2.095272146650513,2.0697731023608044,1.6804790098985416,2.0306009126650393,1.8368033445687453,1.885119732925968,2.005068604497548,2.0553941597935474,2.062247176076198,2.189924661810326,2.3209005255823603,2.280482475073645,2.1297948923996834,2.030289118732501,2.4563368384912474,1.9182846291518467,2.286429835766957,2.0442420171325724,1.8998811129688618,2.2754026172573534,2.036384598716226,2.130769306954005,1.9266746997201165
2.4258549696709983,2.385396609895069,1.8528979241120669,2.3315358094780008,2.000083291672842,2.057037633462104,2.2615139571793668,1.9271749256542683,1.7660553349597683,2.1460295041336854,1.834346342055596,1.8176500125768071,1.9641241622643235,1.8046151243189634,1.928268750226608,1.8316951981749285,1.8863429363585595,1.9765691558717557,2.2708117252002573,2.436613967081898,2.151085602686033,2.3614096681639634,1.950689417942037,2.4514003664580413,2.138360168941387,2.158029148014741,2.0062383935138786,1.9435743609035252,2.2067017096259773,2.0759865186196955,2.1170130716668405,2.0667890473487756
2.2771866282470845,2.148802072140016,1.8509782589211101,2.414739739613125,2.1325181095788284,2.1563511084063327,2.2458774821029563,2.0667043392803284,1.8536334753192956,2.24151977352872,1.8980990099027883,1.759693873862501,1.9141876255358958,1.81318423288019,1.901031996014448,1.8018956369092929,1.9072481620934179,1.9623863860987385,2.237385856813664,2.3317230127599746,2.3638966147239215,2.079391322485271,2.1849842054299344,2.274296251119121,2.263564912950602,2.0289373911301665,2.110873508952679,2.038211535868679,2.266454263613378,2.073571561333992,2.2599032548095264,1.9356088526615969
2.205681093612921,2.1737046260944854,2.042063791862419,2.415503187007362,1.8716258117464228,2.111062531025524,1.8888992121613342,1.862183744915909,1.9106612838658317,2.0135208265715914,1.767433661586787,1.7560171920354937,1.8735457048142614,1.7108123409277753,1.7421041797613883,1.8390543897428178,1.7626995182301162,1.8817656625445818,2.314954608618809,2.30930220136958,2.336622622115798,1.975509119272731,2.125775998447647,2.0208044412105446,1.92112613290195,2.3590799470481656,1.9956788061473674,1.720464679686163,2.2889105555202804,2.0437507147305727,2.1154589587538135,1.730087343845088
2.132583877243686,2.3251163335341696,2.028779572160026,2.1362805680876105,1.9559141780166118,2.110327187954104,2.1751972932724573,2.0604551732933034,1.8275983204100645,2.170081808772521,1.81099806311918,1.831451932766197,1.9132487460249772,1.8400659228427798,1.8821928224999231,1.8989651058228385,1.895275778894149,1.7957392997494903,2.0770043485412577,2.428454972129537,2.2394130283682507,2.094638919316003,2.1904474121442457,2.410409977054697,2.115796922265017,2.0498411515361084,1.8751209065662404,2.1227995223326395,2.198955595340808,1.9903687818432279,2.053885368035097,1.8740195920923444
2.6125050920605597,2.665667759101544,2.0742864829905416,2.139140590328735,2.249212849659209,1.8188342365329513,2.0271429716497322,1.8602283683474996,1.821284019738024,2.216668391652141,1.9520342818888643,1.9162955135972837,1.7486212439537858,1.8638446040619228,1.8539114092298787,2.002261697609092,1.9495782753660384,1.9571202722488474,2.1673552542953187,2.4251085556559713,2.2657020335929383,2.176557496592708,2.218455125460098,2.259136770319759,2.2301437564282094,2.284919582768692,2.166826417697339,2.0350224560932317,2.229760578157658,2.4498897594891376,2.2611613021124817,2.0631986742580573
2.3443730788492894,2.803110137843594,2.0109293409998488,2.24138812931355,2.1637521165130127,2.0309594482053575,1.8934010111692037,2.0791006607340186,2.10513723096521,2.3395643720302712,2.0080484966060586,1.890422671526748,1.8682825137049617,1.92922311319916,1.814530958593917,1.8498193790503181,1.8450477344728373,1.8945397198206402,2.047400003543262,2.3340360167768677,2.371179672067891,2.131003740422469,2.3242831146412093,2.17908515774681,2.0766054622344328,2.1951886768085997,2.169407166289942,2.1238649568565,2.1296872705083993,2.2460008829262277,2.2157055644334718,1.9112707688877486
2.452609197090176,2.6349470580408623,2.113594496681321,2.362933985248462,2.103191179933487,2.092670160729866,2.4675860201174995,1.8283802691440005,2.0060868725221144,1.8185245056595252,1.920587246800641,1.892738389840755,1.7728074171398491,1.785353700144346,1.719750331894277,1.8914005742548718,1.7320870551358518,1.7641172920871053,2.025324902823862,2.4348490765653685,2.1930680245831633,2.0803379089324774,2.29969490460794,2.313651651644791,2.377716537121794,2.2326324209168167,2.045978563219902,2.207984349749617,2.4482249914816907,2.419409512098579,2.154319068789069,2.0825483299802996
2.1692844663355553,2.4576190139034573,1.9270101803273045,2.1463189469260673,2.1899692245215614,2.052074461963148,2.3530962726186675,2.059905826312198,2.042208054337909,2.104119070529055,1.8804633858602176,1.9423868237891306,1.8382033600899403,2.0292608479724685,1.927582219796565,1.8544252371225114,1.8625972395055708,1.796404904060906,2.0250390866959016,2.2548537641421946,2.1335091174520224,1.9818806835209697,2.010502343039922,2.3895882377487174,2.3741150948525864,2.2583357468805967,2.154939790484457,2.0614520002281593,2.3328734268936264,2.186411104187603,2.13164276361975,1.923086486252115
2.2989563381889946,2.4093161114578394,2.1167735659122084,2.1972468964765266,2.03164481175047,2.0128850521799193,2.3973538938714767,2.3179224393326203,2.134460831104373,2.25331153364886,1.929674469598639,1.9655238208297598,1.9023069134438408,1.9642315263365513,1.8513065728377893,1.8049376808503925,1.7768344470296042,1.7621454005586812,1.952525164796055,2.2007049557074296,2.184296020216556,2.1216435348237503,2.124915204861006,2.13988438375065,2.3335476441243195,2.354873174121836,2.1054895919302656,2.2312771104675826,2.2986848140201017,2.3152030166663353,1.9874212601527006,2.034833264365669
1.9411156367416411,1.928038127140159,2.0798108561509143,2.5504043184015726,1.7479833349492093,2.0428381908732978,2.3702248910770995,2.1651248562401735,1.9894407379743955,2.0443762860901105,1.9682952975353842,1.759275382421891,1.913594864922174,1.9994247019001135,1.8921299126946327,1.8197247663949596,1.953406279321747,1.8246257768689766,2.0157213204367945,2.1032886015137082,2.155869171670143,2.110149745609705,2.3084176500041407,2.3663845343938092,2.279180135117419,2.047726632054342,1.958982115748306,2.0371564175659973,2.044732706477539,1.8460862924425923,1.7119834639246883,2.0774283205977255
2.17763477796477,2.141094629890209,2.0954654590240094,2.0048241687155546,1.8387388297909517,2.252002931633131,2.3259455304865173,2.167181713148927,2.161604294298573,2.0493679363610187,2.0551881962347665,1.9408394456977567,1.736430694608138,1.8136892256712278,1.763899329243597,1.929115152242949,1.7306967867833305,1.8220619592786773,1.9345777405211135,2.2673358476690315,2.0320943234936113,1.9800084107560747,1.959189136500309,2.08745139656482,2.020672325135385,1.89833192887172,1.9256588810540118,1.867961860178266,2.214962173463219,2.0244538281512785,1.9361808546743482,2.0246501174287523
2.04767156581231,2.1966587676092098,2.0081788329155965,2.078229847093484,1.8081407795089834,2.2940567597726957,2.190484636724609,1.884482161278506,2.0111231652271435,1.9821510883979678,2.132482745317829,2.09827981189176,1.8491308702533522,2.04021851475884,1.9519445460188023,1.994353768439757,1.9872792155479413,1.8735438043343704,1.888045480266786,2.0312246583604825,1.9717076089599106,1.8920178166854458,2.0619099374585175,1.9182730358392712,2.2145319290869128,2.0799149412075764,2.139635989407415,2.0348251506397754,2.2464501953392904,1.984184217549946,1.936142813714629,2.0664986135930423
1.9942601516360128,1.9075602521339263,1.998571729557172,2.2626550985282097,1.6888482809299228,2.042219185216365,2.2716237855917707,2.036528907994082,2.094279928757444,2.0477013359909475,1.7686306307299822,1.9725552222634182,1.6411286299020922,1.855543129330466,1.794333244951999,1.8349368758192983,1.7024363827451958,1.6661409241360465,1.7859483891713466,2.1940471585578787,2.2838163672751572,1.8516646618351666,2.1611905289323134,2.4461543985603034,2.041407643476749,2.3060513223008328,2.0837323097741662,2.30105504873712,2.187001120964288,1.8172874033859394,1.7362064905719867,1.9477993017217201
2.12295473395938,2.1504813858593383,1.96966245319467,2.070181243506107,1.8988525637326068,2.2379210133832084,2.464630513756309,2.2158633213378875,2.0883441702826757,2.116053309718733,1.9384306637511997,2.3645505601196812,1.8043698294294563,2.243129764633256,2.1466271349493518,2.1953794178815786,1.9530350652257196,2.0112892649013396,2.1432919463139157,2.3113076161945614,1.984300950808998,2.004686369848654,2.279206989782806,2.3561443511464404,2.078702972794114,1.9959354153400402,2.132062526310532,2.122858016098888,2.2314941781276176,2.121282433141464,1.9589157744799102,2.3291385258543853
1.9146472951452498,1.8581432901653365,2.1006555482605127,1.9712550708687808,1.764145266689015,2.2830749889136635,2.4435937342043506,2.0487779823568855,1.9366762319469417,2.1430462261599517,1.7641602762319275,1.993610369301153,1.7145340753702996,1.9685347870233516,1.8915779496600424,1.9602549238385554,1.9225888941204066,1.888201215115876,1.9378756706055567,2.1676875239952564,2.14080529984398,1.9714464227804098,1.821504484241089,2.043635071875203,2.0365841205128925,2.168944423819374,1.9611926707807987,2.1930587550216196,2.0553904974481636,1.9120347719087507,1.8988126780655712,2.1577234580810685
2.033058019762559,2.0308829684862575,2.1227777999234445,2.1640601409170293,1.8523407340155578,2.138837103564959,2.22772127291275,2.140721421458518,2.1304852394976512,2.080393073949307,1.8565866202375243,2.290599704731113,1.956772580269317,2.0732589096995344,2.077597275508585,2.017323555221148,1.7871843148874933,1.7976860851436807,1.9744893183663697,2.1538615097513496,2.0300884926605156,2.2362760751829978,2.2541033073404386,2.5098066178829734,1.992245290514198,2.2785784606885087,2.107887665424897,2.223303397873834,1.944411122843635,2.043237512627385,1.9147823125790708,2.098967919288949
2.186131106687875,2.097094006091117,2.1209557401939954,2.080894699515503,2.0600032798213697,2.0539150885638513,2.1586964496826413,2.0539796120330704,2.183519949621285,2.070353261909114,1.869785306249605,2.131913766416121,1.7092938280332237,1.872811181176892,1.8462374897934357,1.7935445050484573,1.7044703523766305,1.678611899494488,1.7496347981543365,1.919080188451097,1.8829417892414217,1.844601172070503,2.1222989810293744,2.0159000622916508,2.266386796674035,2.2447165971346323,2.13459164278474,2.139516044781222,2.1516102257732594,2.086474191853125,2.012905177544672,2.2406656617072853
1.9771516162310727,1.8988159464822552,2.151105130824505,2.174459540706627,1.9288623172462505,2.1890115248952067,2.357965127537913,2.0476462048374677,1.931014857300384,2.0938766813504888,1.9290359789978095,2.2062086373218412,1.8752872061748227,1.9426400892681652,1.8815519618416834,1.8756194625300635,1.8599970156278904,1.7981751817133504,1.8045225490582888,1.9581247993441058,1.9715221727296774,2.074377071781875,2.4033217305671877,2.384662300217729,2.182399567302483,2.102426518093745,1.9307047841989409,2.2142242870596145,2.1898959810329104,1.9607126206334644,1.8074877823560684,2.207941990366692
1.9333252248632562,2.0243748869049285,2.0349251194344595,2.3897061393681436,1.9140980637435763,2.2135953691932095,2.0955521510959816,2.1228954366778665,1.9777950329969778,2.0489772632680054,1.9359744120648554,2.4436740595372,2.1175894467581804,2.1142034219088672,2.139354040361764,2.1179470906925,2.0484484198099016,1.8891015960220503,2.126443746136523,2.0989980270222763,2.234753954155985,2.3808467054273192,2.2578512533204975,2.3756721679177875,2.160611174023429,2.2753606883122135,2.09832171903495,2.1067417630302936,2.2008380224893394,1.9144094463194004,1.9519074601338835,1.938141927096236
1.827512389585385,1.8295465429698516,1.9425014093447268,1.987823576095893,1.6657106262482844,2.178420714661587,2.0946065565040044,2.0041643638760465,2.027340151151428,2.0385383433004263,1.926549543346281,2.232533528496492,2.026843153223061,2.197114502099579,2.1359615744602207,1.9770749556494849,1.89817263332877,2.1041108039640193,2.0017178557585655,2.294682752004795,2.2368092168345783,2.3696777985201303,2.177344428235406,2.435930347186869,1.93326254044381,1.920486996708791,1.829522237089085,1.9756037683593448,1.8577008847906589,1.8140791751386658,1.7200477166218775,2.096299159679925
2.104074521423692,2.182530202957858,1.7268815242662665,1.9031958895043923,1.902910591343552,1.800852640928888,1.956329897520823,1.7451004467505713,1.947607328689011,1.908944750401566,1.8760592174169999,2.2741905788516164,2.1231910382069565,2.122896657508686,2.044826261216511,2.1529886711831177,2.152147578303444,2.183093363904028,2.244429536746663,2.260076519471666,2.235576097179898,2.2638284213846305,2.149843158948353,2.123121568379435,2.1719470048760168,1.9560214737408967,2.2488746399096997,2.137048160269167,2.1984051678823735,2.1092601272774707,2.001834133283801,2.008267510482876
2.0905842166748063,2.0832922752330125,1.9098925349195475,2.3135061953313016,1.846495211894383,2.229586002430143,2.311593133361626,1.77712991199888,2.229135776591173,2.039723686752498,1.9499894483970204,2.2598644471492904,2.2416378777995085,1.9037740198580844,1.9124778423029103,1.8122012422818283,1.7934236408342743,1.8898019107436186,1.8890580576164056,1.9687771526561972,1.9324136160367176,2.161339024779647,2.086790255105525,2.0509615936710066,2.09155409879499,2.274495076708645,1.9268836734303159,2.1237784754502917,2.1328773515678847,2.026757927608297,2.033206466356841,2.0486661438980756
1.9337968813033797,1.941702334275439,2.0970147581191054,2.262061346920256,1.8812286868351935,2.253645470975656,2.1856044038807867,2.0792036979914092,2.1266527604608134,1.7881335428459533,1.6623954900806168,1.9606516491913772,2.222881976244864,1.8067574799908033,1.7220296933740364,1.767798840591662,1.76602781116385,2.0156799270236947,1.9097574256016472,1.9691732052572477,2.00668352870142,1.9703746803532582,1.9963804526606364,1.994291304247353,2.0105297037962475,2.1763954489629342,2.2368866060933748,2.066035958316401,2.1383441802651477,1.9017934643867136,2.0878921362166367,2.1171379037356397
1.9262698596977217,1.9686720241849207,2.077270674035361,2.3089180794662436,1.804759996998583,2.1728148812333847,1.9034258463385612,1.9682114266350537,2.1695414775122726,2.066539928365793,2.0856267900375083,2.256091214786051,2.192427460210094,2.106808643030029,2.133408780800173,2.0026163536326647,2.0221655372858285,2.147944954723188,2.055587308347773,2.1491337565829745,2.2577871185130616,2.081094020120898,2.2929590383391294,2.3042015765572366,2.190781626326323,1.9456039842457769,2.0190541551501267,2.020444017889961,2.255395454459326,1.824110226720797,1.9210715114116543,2.060716897358258
2.1062651715035536,2.150990349222284,2.0001609864891887,2.408101263449028,1.9501498462650326,2.297388771681511,2.0294965220579013,1.8141668834589293,2.0653171405570165,2.260979384384836,1.9229108202341239,1.9983367139164316,1.8868848447185336,1.8820110424661256,1.9537836345277866,1.9812566476849551,1.97309638628408,1.883107695403544,1.8667654773432785,1.9652547517009573,1.9305572543519873,1.9439399460516995,1.9269832401443947,1.8797189096341291,1.8939391372480372,1.9045821654997643,1.8084721311194072,1.9385714073713218,2.1067448085977842,1.9950705315913515,2.166221428729799,2.027750462715619
1.8829668321271253,1.946510235764981,2.0343219038103593,2.4007766492135643,1.8460183271277433,2.3661866154122757,1.9968000235718641,2.0807832207917603,1.8905016606583869,1.8869666237353382,1.7309195726895217,1.8837400803066362,1.8230228914908992,1.737518037380824,1.7571948814353557,1.7598854793085579,1.8240619448454216,1.8021353227060226,1.853260269387296,2.1942150725620015,2.0451440735302566,1.9349938587744426,2.096459454132936,2.1987367997924583,2.0271645584604836,1.9390098023786357,1.8252579585720692,2.0163227488948943,2.057002111585847,1.8693436351140922,2.057901472124257,2.0420048155841592
2.0038343130283676,2.086724435889363,1.9805883896397956,2.1726561544177545,1.8423093723263042,2.2249692939581704,2.2606283254243618,2.0475436380560263,1.938584232244084,1.992870501722425,1.9114012858618676,2.1531053762536683,2.2371400805708967,1.8001645564894393,1.7837199692638577,1.7793664863536267,1.7948942275072892,1.7960828745983743,1.9297612627774328,2.201240484790384,1.9282673707005007,2.0051428566038405,2.02623662831151,2.1463529149271565,2.2507190116364892,2.0555531244853125,1.9571816258689898,2.1275262823143515,2.3084627372422055,1.9023485358069308,1.8265117671938431,1.9282269861384778
1.8561315776205993,1.9237706935767904,1.9221422392194827,2.0579375726758227,1.9696320055740373,2.276968016678941,2.10608951505347,2.1119233629117096,2.0673985640308428,1.9222446528581156,1.8833905470945755,1.9851053037389768,2.0201584261715477,1.998010910183611,1.9312000394270565,1.8867901993046658,1.8472025858443357,1.8299300371036598,1.8020751544389566,2.281128995275415,2.1572979175433864,1.9566917294902766,2.1299278422907664,2.0474896929872473,2.120662084732573,2.0285401547722053,2.0066875484942583,2.078696933194864,2.0365731514642382,1.7369051879931954,1.865245137808195,1.8643786188248195
1.970486375667087,2.0407028597059202,1.804029062356085,2.3364304585948883,1.907525735361887,1.8530310072584202,1.9547771955198399,2.015240516678554,2.0107303800244107,2.0570989946397122,1.7565807716513862,1.8517015144917623,2.1780669353897535,1.9074167909023703,1.7954601175192837,1.690159681289628,1.6902827698093275,1.7135708225991884,1.8321370100786487,2.3286366332878545,2.0446877443457647,2.008706823761462,1.9692164996270194,1.9761372331049774,1.959150466030799,2.2879753406370376,1.9743227519587876,1.769317997159883,2.0761991656183882,1.8048939776916832,2.1186476601990347,1.89264966102824
1.7412273339094382,1.8817954890459532,1.9448881457747833,1.9724708539187026,1.7666912975409215,1.9456760342975141,2.3168885018065564,1.872082863313231,1.7755964638899966,1.9046052534098454,1.8075718405917103,1.7085402344246607,1.8234523545774899,1.7191195273574535,1.7097870047674224,1.606628009202642,1.62943871240206,1.6532444915845674,1.7317323634736488,2.124793605667317,1.870581986312739,1.7381314124841127,1.8019766885217252,1.9499977226116756,1.8379224916652757,2.255872307573105,1.955356330479144,1.792674696403007,2.1227402441198753,1.6515129087665088,1.9015501220122006,1.7430959750249264
1.7179904154111725,1.8515464112166726,1.995136199169655,2.0989786285653818,1.961239408972593,1.91575335828539,1.8883539907277676,1.976517122632461,1.7427515455617868,2.189478507449163,1.9184688507096535,1.9078841789508199,1.885865390477737,1.8286835115367157,1.9322989883148536,1.9174270206048918,1.9934279535640829,1.9246362386616593,1.8290195079525091,2.213549019056013,1.8676300381483208,1.8432285257442262,1.7726237282889339,1.8793776903661283,1.8937859103298393,2.0095686749612818,2.0448669112287305,1.8553567427019442,2.033863013837723,1.657339340510306,1.8668093901752678,1.8063617281091118
2.103616867723381,2.1245813444533144,1.9080700364264302,2.049504957193149,2.021503502113992,1.9815126760028885,1.9538416959937919,1.8560672545579429,1.7633436084127627,1.8419658631709623,1.7318203620731398,1.7624732122910816,2.069741900945904,1.8369700472918076,1.814131897000853,1.842046021008036,1.9228969089472783,1.8424671032121254,1.973017947968497,2.18212125438979,2.1563784977316645,2.0349502749180304,2.117571617189301,2.1361131366521198,2.119940563473379,2.2108697380393942,2.188088055436833,2.007387122402832,2.2895073605041087,1.9606662764639042,1.9412961911167625,2.100861769037592
1.9785077580113253,2.0925764393917197,1.9773850842330987,2.073698444835887,1.9698858864460622,1.9503621346589113,2.105479421948893,1.9962683243209254,1.8517903686721189,2.0486505921170797,1.9429496827678832,1.8453722075217818,1.9637649505043266,1.9615478495553171,1.860924384944461,1.9070206906861045,1.772696050605382,1.8522159590447504,1.8156353132759253,2.321565128715506,2.0437563238334833,2.043000948799928,1.85163889598523,2.0297305011592153,2.121382339926349,2.241915554792985,1.9219847129651104,1.8953315807496394,2.2383098265154477,1.9651643095166562,2.018872790143997,2.053629935563891
1.9807763868002577,1.9781553894308412,1.8520956401277404,2.011931273149325,1.9758756283638679,1.9441705757132297,2.025447531519467,1.9804317840762093,1.7434774768765093,2.150099860843901,1.8727985282185278,1.8813755353471742,1.7724618728962138,1.7585976646770687,1.8066332333368458,1.7126644918103417,1.8334844543034494,1.7242073064104346,1.93361951527361,2.294204864884005,2.210232326494742,1.8499643287706549,2.1224200620039224,2.064344286783859,2.014066993182353,2.1706805333247776,1.8687191671534196,1.9027929026555668,2.2966829476208046,1.9917842506115342,2.0077814192835346,1.9546832037468334
1.9083137379851303,1.8606081567180226,1.960358517625627,2.0988600621484186,2.0119784686518507,2.145834571872369,2.034448853166292,1.9204133793901217,1.9903898855661826,1.9778456442273704,1.9433096715708944,1.7532212369859494,1.908233195759212,1.8905747852446977,1.8412379170914455,1.7694093204014254,1.831159719818207,1.892229290233037,1.9132954034483087,2.399340975922286,2.2453163952871495,1.9294510633746025,2.0639871841866433,2.1739072405685023,2.242654125938704,2.215892115678358,2.166089094997239,1.8741071109648417,2.4262550144085617,1.912702775679016,2.0990286104046185,2.3798882788959124
1.8982643900143181,1.9368305761960336,2.0114927635367774,2.0287895020830304,2.1033946743997256,2.045720429558447,1.985593582039854,1.9636764225225507,1.703710756585406,2.204283764399728,1.8803807390370346,1.9170338609385424,1.7838125020010542,1.973878785633331,1.934925814732668,1.7857293123020215,1.7902790075043902,1.726821116747433,1.79726942728924,2.0478867892064527,1.9524230880081372,1.9184137109138009,1.8618894221468072,1.8480847552257802,1.925419019999312,2.0145067947873274,2.1090427333534167,1.691850682549478,2.15857326703642,1.9056718796880645,2.1935300373657713,2.079525274071948
1.8014830411295848,1.92804156123878,1.932121523206142,1.892283169411377,1.8809091303480643,2.0283925796951974,2.1210475114993788,2.017222328063382,1.8585116386128746,2.265112033379277,1.8032431390244879,1.8285816536527042,1.7510839277666608,1.8131634619767742,1.721233285403518,1.6305850774408004,1.6835672443265555,1.6309404037103064,1.6878412834645173,1.9928242162512346,1.8571549618221996,1.7552491289519467,1.8078952002843673,1.7653519835386182,1.8841328606036403,2.0062576064677526,2.2987368802445793,1.7641783235237687,2.2170110288076605,1.8403391937299967,2.0344574580972696,1.9375313690420644
2.0806881366899224,2.1774651795638538,1.8214181944311634,2.108737551871538,2.1018088552712477,1.8495166752344174,1.7212520459482055,1.7955699500175184,2.1194162627588065,2.1324761925116738,1.7386631950772773,1.8543531709182328,1.9630540304930708,1.796981330873018,1.7341677640790838,1.7479269178043446,1.9062501154592042,1.8662687573060328,2.079518862152104,2.2795755333813266,2.212496986419776,1.915842687554179,1.9824214558896822,2.050285800749035,1.976839794854656,2.01162183453424,2.264275865803214,1.8733954342910861,2.058587007311878,2.130373287811829,2.167722074000258,2.2259291232315057
2.2158095174917625,2.2867986165327467,1.9481386559767757,2.1090607298648467,2.126527424118833,2.0872362676655656,2.043566346857459,1.7616662319460656,2.0664932363223207,2.1893598645073533,1.9249400647103516,2.015724014649866,2.022337695931815,1.9843181949433129,1.9455965292222588,1.8746372076415827,1.9670907820901877,1.9385190325022645,2.1056096619203646,2.2807794090395848,2.216954157334601,2.1269754142806327,2.2202804328244987,2.018343133320272,2.3280457960276855,1.9415337032416755,2.091337390968739,1.7288499396947863,2.1959208400303885,2.2462942534807215,2.2794807507490633,2.0523288094154757
2.1588017194728644,2.0872858974804984,1.8302832368447945,2.2411046516089312,2.1180773464206877,2.0908518653083283,1.9570748210616558,1.8988704337521063,2.1439510841919724,1.9227024072563608,1.9301083690368703,1.9511731826991692,1.860711839418685,2.094944895320085,1.947968042169371,2.063869036814104,1.8373455931898077,1.8292033286837734,1.9084469225816396,2.189438469571343,1.9911501702182228,1.9888123208666664,2.169661057123959,2.0053731279223537,2.1622545336183485,2.021328151319117,2.10617079350564,1.8241369296361905,2.048709236716821,2.207494338278701,2.343661899338367,2.168138159751242
2.0140316644141634,2.298464299208382,2.2001555483530337,2.1126231099590247,1.9440251761066838,2.0088105378694503,2.0965202984301907,1.989616249871872,1.95622535112723,1.8271712984938684,1.9963669810487001,2.139158197494244,1.8052872798417698,1.933951888824473,2.185223918100677,2.0638797290158646,2.078523891630219,1.8804593305984716,2.079558692032492,2.351624682320837,2.175275900339199,2.0047159015263727,2.2207842940625278,2.012906496896387,2.2036042068291817,1.9694968461332747,2.2025195610132204,1.8165514943987098,2.139448712386506,2.046442911057504,1.9711372802972915,2.0409214822756425
2.002808013080573,2.3538591402444813,2.104746292220616,2.1586652963306063,2.057381293914409,1.9936789985193246,2.1085371078075217,2.194667262131278,2.1097273454417627,2.095357136261414,1.9123536648901889,1.950368510702276,1.873849204474611,1.79410565054636,1.9100404150200843,1.8108419300957426,1.8882668258272537,1.8135448608101892,1.9892495959092142,2.2275228547454584,2.1390360803250186,1.9268416964120878,2.148407170206436,2.214142516353718,2.0512075683641777,1.8722626060107483,2.042455050538708,1.922467706070965,2.164246160526324,2.067332550617278,1.9724035779798668,2.335999756284908
1.9553350096419992,2.227766992424988,1.8540228230463476,2.2697565091504734,2.0537821713480797,1.9813739674931978,1.9063324013457128,2.1046522769577822,2.151915411326618,1.8967944260763354,1.930038878960704,2.085711704366142,1.887032707337194,2.019336811031901,2.075084861633394,2.0334838812029394,1.975368022318354,1.8217681403251176,2.094241974373152,2.210841785734565,2.088753561249103,2.209298938711348,2.2879625356564595,2.17550458405104,2.160054789638615,1.940053975946966,1.916740850742192,1.9927294453029376,2.4651442194663,2.063994361820847,2.099664331011986,2.2628835469404067
2.1450908577236514,2.1039126451633177,1.6530463109357147,1.9439379262937024,1.851570666579124,1.8638787576584608,1.9956914262266592,2.0745282012242408,2.1105742597861377,2.0035121719321034,2.0110028968779017,2.0344208119571863,1.8669402881856703,1.9595421276520089,1.80661961832568,1.9611471981120894,1.8478835938383396,1.9983927131087063,2.061687573683532,2.11126832261914,2.1204047052005834,2.031772909193953,2.0706399683393717,2.11588060425978,2.091513514994006,2.044773057858811,2.1327603917420226,1.9214369317276512,2.368612650816668,2.1782911203008455,2.0308119125557837,1.9022336680033505
2.2520340391425426,2.18215990026493,1.7970066264532762,2.172648641555599,1.9265174274666865,2.0568356464412254,1.909226166436455,2.0887158416076805,2.127192112792995,1.8110301790215932,1.8665773459720088,2.0186712319207842,1.9062744104506284,1.8429595764415565,1.8105873463190325,1.8882459393657982,1.7379986131832716,1.7563740777705112,1.9335678940263887,2.1904140272446004,2.0618077207233796,1.9390103999071966,2.241957229541706,2.0861681321758585,1.9920396287653384,2.2002627994096833,2.078911161531649,1.9092470549209668,2.4650530958403523,2.173338542684763,2.228280931583343,2.0793992487305446
2.1914503871518423,1.9878546268630433,1.6313470196127906,2.1698734521377454,1.9964642615616548,1.7564092717205473,1.9705904107368668,1.9193297384097023,2.085345125808164,2.0722499803770047,2.3061866503946633,2.2016397686820848,1.9446062756227178,2.1129683148885436,2.080372414583661,2.1404306360604304,1.9958880535484707,1.8805922222225828,1.9836341280918457,2.1870376838144145,2.0398741056934364,2.135499173160143,2.1782119439728467,2.0826927432670472,1.9997664874643144,2.1223264386315357,2.0901801614065922,1.8474742004295752,2.274767992264092,2.168156158210406,2.0850352518452593,1.9959671615950536
2.142264983891041,2.2090607558811537,1.7924722593920301,2.167315936954356,1.7246226515975778,1.941544411041491,2.1186738361910162,1.9685112192346441,2.205167322004349,1.733029047489768,1.9900878863872373,2.049363849733854,2.0087807677139127,1.94833274491823,1.8607408012894797,2.1795563189829976,1.882088104890609,1.8638151119450437,1.904916480179606,2.1049216925947896,1.9387468164606072,1.9859828164316267,2.2281234038422486,1.9497813822011416,1.974897461708928,2.097033236108087,2.1102032273613562,1.8402998319331194,2.1611544927959696,1.9412662792020288,1.9260673336758682,2.0119538979460225
2.0518881518865255,1.9721991315819831,1.7178361233515684,2.238158032334015,1.9433466025541517,1.797837183048127,2.1607959025778465,1.8637174742718239,2.2541713925223776,2.083239775429703,2.315967191878688,2.1079774454870255,1.7910358608976988,2.0327693010082184,2.018478969464457,2.2998443739534817,1.8505801671582562,1.7570489681804609,1.7461146549831228,2.097366649658946,1.9967925182961626,1.8551013471282694,2.2115675685603233,1.9105860791789617,2.0374368363717283,1.9155770103021141,1.9335564802490584,1.994887010316157,2.1670191490766024,2.0585849181989153,2.1149502780296126,2.047848735861511
1.9347892724876097,1.765341051102658,1.7559961002868498,2.1374940945737286,1.9379243555279355,1.7330085073460026,2.020623115479914,1.9480758781736236,1.9842423966802494,2.047126731537856,2.42878265942624,2.0502793072241317,1.9056580494432287,2.04295420327036,2.1467600901762096,2.3221071002612956,1.8666330163859852,1.930623057680728,1.834882859412125,2.022112999071959,1.8506480214585004,1.806406872633792,2.1336039424718876,1.7888079592650652,2.01456066452289,2.1011963954141977,1.896555390033574,1.9312297246940562,2.089812516578103,1.8488315187466877,1.8864983511094693,1.8966267773504222
2.1984378379437777,1.9932454896889311,1.8611534531812233,2.5225260649858567,2.14110304558295,2.099604509106051,2.1530666393823172,1.9116730956784496,2.0305477463553503,2.2577555214983125,1.9101625520718315,2.0139495317939553,2.1294653517292264,2.0135199015182392,1.958467391012636,1.8788119366835954,1.936186535280623,1.967291665916505,1.914736156876659,2.0802531833431583,1.9282974421679957,1.9626118101706527,2.1979923710101796,1.8553373852981845,2.186100311039737,2.1425044851701616,2.025452202296569,1.8102412588796608,2.2827825097749104,1.9405149314908465,1.9138502626328615,2.0901184051412485
2.213698332884706,2.0423326806086726,1.9834298084835102,2.4092234247057007,2.0888483789239243,2.1206512042182717,2.1124016465553876,2.0293400893530955,2.0430657675001114,2.2373879260300615,1.8843388397809486,2.020983125887466,2.1310903260096197,2.08181442667407,1.9538255800929292,1.947637832557269,1.9272219501235561,2.0485911166057176,1.9906075969668215,2.020831368044291,1.9637219474388634,2.080215869187874,2.163541223867736,1.8112482570863262,2.126065948786999,1.916807903641495,1.8831055920797561,1.8997221266126185,2.0854432845009265,1.9565598473134842,1.9381443399248823,1.9412568539016994
2.1612936951102983,2.073241907137183,1.8534844352996607,2.3122146066057843,2.002399567404486,1.840230027604736,2.012483541397296,1.811318072138163,1.971493722241135,1.8205892809796658,1.9158238215559136,1.763286290247207,2.051640555162173,1.889731319415985,1.8964896042758737,1.933328419092685,1.8546560710779536,1.8335065490447957,2.038754297191988,2.0770533901695947,2.1012586642058175,2.10385864148276,2.2689227256273528,1.9529068383909491,2.0558124813523517,2.023472174519853,1.9036097022549183,1.9043370676313194,2.032194491261964,1.938243061547722,2.1856690101273717,2.1236551389061353
2.224454848135056,2.1206490620832446,2.074947609280563,2.271840617330985,2.105283329382172,2.3045091186341025,2.3516969655279736,2.1706579836646505,2.146531315280771,2.0691909412816125,2.02192406173735,1.9649525163659993,1.9205009047680988,1.845879085332824,1.8094608862481427,2.0031650125761025,1.849287688762711,1.9366482607662223,1.9459442259670054,2.182124728552718,2.02909488160557,2.0006050280351615,2.0766625683091644,1.7927523239772394,1.8990172686320956,1.9824521444674126,1.8624547052219504,1.8386855030259535,2.40100108044542,2.2055734040893618,2.0805290469990436,2.029856771210301
2.160232326812299,2.0631927452288554,2.0638416455159185,2.023369464851182,2.1930453497211286,2.162348704439165,2.2648348048508824,1.9949831902328876,2.198461696197576,2.1889023678826005,2.123459442495348,2.0881299482087816,2.0719235781555287,1.998019414189987,2.002729801773822,2.182911318269004,1.9771832164771137,2.067910965169519,2.1107584987545716,2.198445061900715,2.167144153574819,1.979477394149923,2.1166146333578677,2.092319354240371,2.24501806660227,2.239577548331301,2.1272632568025696,2.1048300333970866,2.337750014003927,2.0530828342170664,2.1161956658794345,1.9777019896081853
2.295911291259405,2.019948053286061,2.1944157698297855,2.1997145499088373,2.1467474155178343,2.3240718656302657,2.188478407299403,1.9361557722431781,2.0222458197958226,2.174253843051205,1.7725534959735496,1.795086672260556,2.0395033476586044,1.9903575313669948,1.9335680563000934,2.0053875442425086,1.9567880505386828,1.894859204924023,2.0839568052697377,2.067602841773354,2.2280150689106764,2.00659078001496,2.247994943422074,2.044811101129227,2.1906163044775253,2.228221542575805,2.037044337232457,2.2159390014254536,2.3300038801822205,2.0498834271029747,2.050871469220017,2.0035379581076787
2.164523815707306,2.1943475051963492,1.8907631037806352,2.3834579648859213,1.9778783403372835,2.3188536286412242,2.1831236693269487,2.1491591364997387,1.9160008054611934,2.1197788282357095,1.963690532564736,1.8139672241076383,2.0875325049242917,1.8217792290682615,1.8202427997864095,1.8910860606035331,1.7887566517134237,2.0482254257759873,2.0149018079071563,2.092157312124823,2.238943752826768,2.030626288734259,2.1291347538626018,2.0815545459877973,2.186934089521069,2.054212555542569,2.169114723869481,2.0653038501960825,2.12796152748344,1.994628423563271,2.0268714432280577,1.8731036134277588
2.090112211541706,2.1663240359816114,1.9834888369083008,2.2936567289478123,2.0415878626918844,2.2813489226157637,2.2086307042781206,1.9622296135605524,2.1326576307738194,2.144744852440023,1.9284654463069513,1.7820745025913696,1.855860891610581,1.8975341522527032,1.9127988106147247,2.0062421364659913,1.7735231717680926,1.8374056750602221,1.9817297889719214,2.2858875900726714,2.154340768706336,1.9476607218397322,2.0690061606014436,1.8884690597531435,2.0138955831142007,2.035742442305163,2.003861520661256,1.801298765380664,2.3053185150214004,1.9933440372564049,2.1821566859946366,1.9743337604603686
2.201412487734525,2.2445757168855707,2.110394520471789,2.184156969226321,2.022203850344302,2.090260040275921,2.2536423377463244,1.8787011387130161,2.197789957585179,1.8186972903466758,1.7174542528615702,1.8488679587430723,2.096702132214546,1.7575700236538512,1.6984304500174787,1.7907454113915646,1.661578596661193,1.7421733796254881,2.164492630820872,2.237698497636454,2.207034294201981,2.1457702946132775,2.248501338089882,2.213154513477256,2.070198233394654,2.2736347971843314,2.0171584569599013,2.1478781093276265,2.3827401743753107,2.1256229266197924,2.2828565298307897,1.996219807215125
2.3629735180005462,2.473611695114839,2.0206701923130925,2.46605944359732,2.176450005052394,2.1742066266742666,2.18018213067778,2.0062563469695904,1.9426252119569491,2.094767451201096,1.8567221030304109,1.9789850821935178,2.0454968247450016,1.9715144573827963,2.0336734814136843,1.9347395217284367,1.8871839506016368,1.9294087077804922,2.1008906188744723,2.258484534933199,2.2915273995799708,2.170567100528099,2.3112914739714543,2.046678760532871,2.2137207133405865,2.182722514065247,2.2051997391454705,2.269089843274049,2.3868254315239557,2.2422499196286836,2.0720518923050926,2.336865195749426
2.170675267691584,2.3105801376300783,1.9462062661197637,2.3704839866583547,2.0892939723310153,2.113123615015541,2.0147650636577157,2.0795125206014893,1.8767227549093435,2.0202151873756446,1.805608410927768,1.9388517456430983,1.8783916096426507,1.9728677793015494,1.7927893508514747,1.7440547444272614,1.6697896027133718,1.7209217907006256,1.8752614683903923,2.044147832762613,2.2500847227084324,2.1439483603789506,2.2000287151445104,1.9774444144298633,2.2224240263999966,2.1483928623409665,2.078520943088099,2.089022901601972,2.445163236241002,2.0391121077023513,2.301929715451996,2.308429182474021
2.323304347755877,2.574488047739612,2.0421967664979688,2.3451691183907624,1.9543183902788193,2.211652616045782,2.193770852751131,1.96757481347047,1.8223951126265112,2.03835677156696,2.0360929875626232,2.0652958836339574,2.140017531015133,1.799700404112114,1.8004510752819107,2.1669549698777764,1.8440187710384468,1.8560703684220257,2.0630091048874615,2.238410263706069,2.150093316212767,2.1062778852492214,2.0873823184992624,2.342480425680344,2.264890208315473,1.9225182856541692,2.0225327456495306,2.1940346918274196,2.4158973892334403,2.1425618995788134,2.0501239704160037,2.1532121271552414
2.230300673605962,2.567379074279059,2.103694955510002,2.3000616489090913,2.005524646225652,2.12780360521757,2.1387724954446186,2.010177905286029,1.961947384233953,2.0403171555584256,2.129366250909658,1.91734436047467,1.9978131623714173,1.9363611493465613,1.8696254825027632,1.9180095726263469,1.7942744725190725,1.856129100205169,2.147201798188351,2.223333365298875,2.1513209213763114,2.150855581376607,1.9437106874013539,2.342358180394025,2.3047585591465176,1.908270542853886,2.236095677640109,2.3793003264392363,2.3746965719321307,2.1378469206808046,2.0280211948907505,2.2579877363118714
2.1231165450948795,1.9990607692950058,1.8337734236709518,2.2940066494441536,1.8702881415351353,1.7669265619566163,2.1321207144708936,1.662595221489604,1.924083117126223,2.1189261563013364,1.9741261147700135,2.0781626187918167,2.0892655301520393,2.070468154071946,2.0378305611008503,2.0877308967819865,1.886053443713193,1.8801981638115295,2.208626458013174,2.030565920106526,2.226389167916101,2.082242169915165,2.0830125991240087,2.3328615553862764,2.090424344615771,2.1447944415370634,2.114932510912218,2.227221300661153,2.3023754226415813,2.250599350380431,2.2660365733402696,1.8828697262381722
2.008547156203261,2.358951675257339,2.1775118409976764,2.4460367077130116,2.022495844211543,2.06720651100727,2.0732630193338033,1.8674702220693404,1.9086772421342006,1.9546100190277926,1.8576681686076477,1.9159040768421218,2.241935219086869,1.9604488548950936,1.856903961821693,2.0907515411196678,2.029055143371542,1.9615476504894884,2.0495701271799045,2.206539390975113,2.223783284216894,2.0767037165113518,2.111544696783346,2.370591417575056,2.0469779308485685,2.1092595732048376,1.8333560137478284,2.1027215019892327,2.261790156986474,2.0315522918705136,1.9415493437986218,1.927251142269783
2.1660009092305472,2.2437910352547394,2.173157614235518,2.264764615467844,1.7806927727918487,2.091628102812411,2.115400301300308,1.893810648065617,1.9069042636951872,2.2424336073526336,1.8504893481001845,1.9056253899570719,2.07602751268247,2.1597939053271,1.8828971610460774,1.9509862934638347,2.104751950742526,2.1479814595145403,2.303238553164441,2.2376124117539584,1.944341207094436,2.0737982102845405,1.899876864417568,2.380379306456193,1.9185057425607253,1.9974479782584231,2.2323979256788857,1.9986616225145626,2.4115107940928375,1.9903204680828896,2.061677271502058,1.9585414304447113
2.2166837293190236,2.046243768499408,2.18931506601347,2.2862892593208746,1.7899963326125445,2.1575371265810515,2.0196706424757274,1.877971976920598,1.7642949578314948,2.17778321762847,1.9946202755709657,1.9282774772560622,1.8239019483596406,1.9004201798949647,1.9481474685464542,2.02799286035594,2.0933561500885296,2.168211661680599,2.3178726027078276,2.1914899202285967,2.0765113449689827,2.21425398220089,1.963582815680711,2.070467841254124,2.0288968547913027,2.022226428296291,2.1345649404589597,2.0822831272521967,2.3987967147054765,2.0502220420077513,2.1720063357244017,2.0005832775501924
2.0141071628293714,1.9718156120235872,2.027685082155732,1.984487801918021,1.9692727795937663,1.911375268571378,2.0819952759165514,2.013460742971803,2.0244473985925526,2.1490951037732278,1.832399222268852,1.9356412364538165,1.933186503680146,2.154472846578101,1.8835290811382301,1.9810023484961716,1.9742802443779155,1.9349740475784518,2.1513004503654622,1.8989971512501245,2.1212250377963557,2.07564217751852,2.1248270622260703,2.088788903261987,2.0942947910357748,2.1244710418457635,2.0732790542192,2.203222951373414,2.1426034986898,1.9322636116910779,2.0540551877779922,2.3160680396785054
2.1701581773417344,2.2907384628796383,2.2381409508212786,2.008101333784618,2.026647805538416,2.192697674647093,2.0961804362271725,1.973752251155503,2.019330587074,1.9520044003496169,1.747433394461729,1.7887380686300045,1.8370219515452002,2.018742045637421,1.7865287428719239,1.8890643483727134,1.8774878867714677,2.0565349463845677,2.1429539919611007,1.992979450228992,1.9370470132350617,2.0257210700505115,1.8737442824769164,2.1272731819098056,1.8303812746695218,2.034385648662089,2.0482177107301607,2.0803024519414057,2.2147882145098134,1.9291202742541547,1.881812494575457,1.8689768851872268
2.2590880171085654,2.222448366902744,2.233903660959842,2.5087747853466413,2.0579281876715805,1.9314118594485181,2.0148951514765097,1.8727697375543446,2.15934134098419,2.130817292104498,2.0372208596921713,2.0258240685703175,1.9728929699037012,1.844932254267919,1.8712541394140938,1.9496352867296702,2.1152969891050897,1.9566695010168487,2.1188865777346866,2.3217971391632535,2.194942414226515,2.145264686184324,2.0854231749509573,2.041333477201645,1.8333020899120256,2.123762471231165,2.1373460469421426,1.9280389773599038,2.380967232584932,2.059990914284158,2.2338217240518077,2.0639275278801006
1.9734883146733087,2.08000765964716,2.205166860900042,2.2047073662789267,1.7831427985424122,2.0047474221275894,2.1469309617635908,1.8381808900374776,2.106919843753009,2.2706627311281826,2.018727737302514,1.970001113742484,1.8755897345667434,2.1450487100343594,2.024690808226531,1.9639270447134716,2.2379068882935393,2.242796498577408,2.075139587391775,2.3760293254441147,2.0060158086345057,2.0561126823992733,2.133978157170456,2.081328824988165,1.9884742719784128,1.9416799304369572,2.1233969562803905,2.0064681366998216,2.280840396750171,1.8941070296810445,1.8919761639218575,1.82719041070847
2.080952900709502,2.098288973259524,1.8837799397751656,2.2977394798966313,2.051465644793364,2.0057556518135873,1.8368276209012513,1.744545182061942,1.9183165566413694,2.0242465152286395,1.763108851933973,1.7795382639804531,1.9181444111781056,1.9024770494953391,1.7940082726319222,1.9751444852842073,2.2742872730528405,1.9449624616975827,2.1114516835497184,2.06051260230883,2.148812368190617,2.100142025977352,2.274710752686636,2.231279167679364,2.000105133809156,2.1803800324972777,2.180287064861856,1.9609508585182198,2.189316093419738,2.1328497609714243,2.2280909698312823,2.143461779218117
2.143498990613186,2.2150518116562727,2.1152748433149866,2.413376487793839,1.8700090727658452,2.018837002836343,2.0784322637893564,2.0204701453475966,2.0220801566889754,2.37071437280208,2.079927959039322,2.065823236783774,1.8670275052956877,2.027871375257297,1.9670228396620861,2.0858582808682398,2.119526143951935,1.911542959411261,2.13851118341336,2.1080585297302834,2.1092099568101523,2.058176232203729,2.1979759531991565,2.3024052114699267,2.0114678674108446,2.053548183200011,2.2740926385260107,2.055829109256384,2.2658544138492562,2.0185178810816744,2.025441218944697,2.225871300099103
2.015470562601154,1.981618271101242,2.0000364813273492,2.505865691339789,1.831212083129558,1.9445779745757379,1.9320425714642107,2.0433976314436526,2.181708911964511,2.368556234590245,1.884695674913397,1.9877341055490043,1.9158789125101001,2.010315023311925,1.8815434624732121,1.8255819611035862,1.9317774244059032,1.7581809204292882,1.771304579871748,2.063952816059572,1.8519113479971494,2.0098840666051663,1.8895953099685865,2.0469265560131698,1.7453100171911435,1.9901983094381832,2.057917868528154,1.8781485182243771,2.225797631869682,1.923694362046335,2.1223602071648395,1.8636137851675778
2.147578535249201,2.316360067678792,1.9215835581524572,2.0691691961740393,2.110235718726632,1.8992327391555723,1.8359098214018181,1.7543646916503275,1.8018528503114712,1.9571986573172513,1.6808919950726668,1.6856200696748513,1.8108815814298134,1.8304512496732093,1.7258132594966384,1.776444162335314,1.839415297071363,2.0281177010479476,2.227142668208213,2.372203364646507,2.1064867775886014,2.235994981425663,2.0483978692723985,2.061368009362652,1.898055435539992,1.8837866901227076,2.251834453324863,1.7515895723399633,2.451894459850377,1.9795375049137078,2.029936263493865,2.057111294374217
2.441328123696932,2.1584605722385657,2.0678805199717267,2.218947819353687,2.091238495387676,2.028271308399155,2.315341426209464,2.0526021224080107,2.1226780279491693,2.3630610486670873,2.0850956270212713,2.144866190125072,1.9654799797304265,2.1431685763059365,2.0783055292685906,1.851639870108285,2.191060042602556,2.0102616101922037,1.989668554817718,2.1396806849077947,2.087711585200479,1.9942157974589947,2.1031875775384936,2.3289795319228817,2.25893970996524,2.085398908160897,2.022108935960872,2.088634001113255,2.192994502064622,1.9079308613426285,2.0739474037773102,1.961688953419793
2.128051141971998,2.244560592330056,2.187788763713348,2.304795717136513,1.9859423411096917,2.0681446762201983,1.9235390770601195,1.7905646763461924,2.2676029615859745,2.142468237887674,1.9771399470904902,2.1791593259093083,2.1132388537027236,2.0975299946026023,1.9378720112625063,2.025732314218829,2.0451278638907895,2.162841359618727,2.196567964772401,2.3788560573971615,1.8208566822047065,2.159716553490461,1.8985739107765658,2.1879274620218196,1.9157424005708346,2.139237650881342,2.2838207166415674,1.9290300339693414,2.230218608687959,2.117771042994808,2.15285418168777,2.0930461451995255
2.4032584829493957,2.196606504004308,2.0106333420055797,2.5694624415146836,2.0941021347096753,2.4170192049045447,2.421659204914632,1.9882998475699554,2.240173255302778,2.1301568252861154,1.9868844886842414,2.0364959359613963,2.021570912118458,2.2223782137629406,2.1021405158009707,2.001649336150995,2.0184959594140017,1.8936667651002397,1.8901045247732273,1.9602599264512932,2.1156914000151126,1.9960846606626141,2.0866736519874904,1.869554189033432,2.0564294252577717,2.3734305582794457,2.2059854985881286,2.1640448175132447,2.4416910278537047,1.959422666039862,2.1559979962154032,2.16381771004533
2.42105696091886,2.442638262878653,2.162100047071716,2.4717570717123816,2.03142616476328,2.162072306897985,2.2178375917727204,2.0163110355782585,2.1463715478583354,2.0740187082140875,1.9322802562245793,1.9724323152730863,2.1055045462796245,2.0813961845484954,1.9785549813569185,2.0551432018283906,1.9915834208716245,1.9296233857700542,2.2350916485985004,2.3603180166429754,2.2276091918125642,2.1572815136874004,2.0123572432407095,2.03823698078719,2.1187381051928984,2.1142487329724022,2.012283351248663,2.0067193666771574,2.2154951332674595,1.965633379693739,2.06290304821588,1.9677002257843477
2.095978195617844,2.034935169878178,2.1421189786397994,2.613904573915661,1.8148755664608718,2.392841557773637,2.3553495590537015,1.971989615432576,1.9464516127356293,2.455388125306713,2.12995701691147,2.206507961848164,2.0505341755057143,2.168737098339351,2.0393483118121183,2.075811650453254,2.025762060160417,1.9635072320355735,2.0866079446266608,2.300123924893762,2.2298352631275575,2.0844926696000963,1.875430051938101,2.2116188249648636,2.2021532451410892,2.2139737810323927,2.106209877101677,2.049653656389042,2.1755224626896523,1.8784547773142803,1.8504870780363931,2.0487837691258983
2.4780473442030027,2.1260609263532797,1.998002774124106,2.391559866907459,1.9620153047207223,1.9516921674865542,2.4375936408775156,2.123715229093009,2.1196795737491385,2.04460965985844,1.9921261935539063,2.0889938307844216,1.9701596124639889,2.1363875863652724,1.9726230956655204,2.0641615318326463,1.9323045779791936,1.9293907561492485,1.978697627251707,2.2636000475421336,2.089476206016406,1.8913935706680296,1.9929775259115778,2.1310856905379496,2.2577162660169794,2.3368067219732134,2.0761302202515983,1.8793187369090634,2.270292017037355,2.1906679805240152,2.121874698675173,2.1510995583828008
2.1711709529731955,2.116265557409402,2.142180526594338,2.2116259707747057,2.0949026330129588,2.4251713924310785,2.06085967147669,2.1254243436426603,1.959140847268135,1.9664760103344638,1.9206709228690018,2.0069676839416397,1.8881908553175968,2.0104113128773844,1.9679793445182088,1.993094530890795,1.9094410072673518,1.9318604267633361,2.0210564272332405,2.4228259754473607,2.1623809094767608,2.005644642700394,1.7958225071239249,2.1769085980269516,2.2567852400494783,2.4604457569791567,2.231101162992676,1.8094599888478549,1.9674808926855902,2.0471912740874374,1.879155745493407,1.817503180420263
2.2843099849722113,2.232804308260654,2.033833422511996,2.3256418964466268,1.896965212598649,1.9708049065020845,2.1319499506958395,2.154903404206484,1.9153455916297664,1.9080019796707302,1.8909674374361407,1.7775944117512519,1.749624031473857,1.765425627937094,1.738346035836765,1.7219448809241575,1.6957261956114247,1.7478606794956653,1.9300283314185342,2.3861016132641946,2.2201813563332764,2.1541755200086135,1.9443021696386824,2.0449788392392216,1.940144450706643,2.312204978377803,1.9410115073342373,1.9371426243469823,2.1616834612998943,2.1909048583543917,1.8811230228155504,2.0345061452364672
2.487545650963883,2.383252543031443,1.9355048342790313,2.3045751307279523,2.1454104250370225,2.0486420181667104,2.007641235166934,1.941357091697253,2.135240201599349,1.8538678498259211,2.0893494678669655,2.0141861210861114,2.1876242115427504,1.9920360444202467,2.0291050893034766,2.1500312254537515,2.1359011074296657,2.1878679268961343,2.011098246675066,2.2473967793898444,1.92263835149664,1.8143207602057372,1.7191353752528107,1.9398057340819372,2.0837290945395903,1.979962522402829,1.9855633174525245,1.9390671823701011,2.144196260228255,2.1712674894318598,1.987286576397246,1.7799067673334275
2.2183032004743986,2.0655764154282545,1.9400833015387755,2.1050115258952644,2.1114906410583965,1.8923801800971638,2.150683212540531,2.251395848046156,2.068037667960989,1.985221413304692,2.1310504681314377,2.078349118997734,2.1053594166101033,2.030108549352013,2.130818906760988,1.8629894962244231,2.0891578648227234,2.1627831723835933,1.9277635684224024,1.9549980145347332,1.900069424678827,1.8156163706557746,1.8992835726208837,1.8608640063163815,1.9183635446000897,2.009247520471006,1.8937941850536861,1.9424689873323866,2.2024731411657767,2.053667166630191,2.012058761715637,1.8514759512613697
2.207050707425617,2.15069568315234,2.0288941127357587,2.1304042175218654,2.0884067253448135,2.385955509505762,2.1034657016164116,2.2661775699738302,2.1376762709652204,2.1712972776792645,1.9882763001572403,2.086838410644072,2.1898016953356363,1.9149432606150143,1.8336086965722493,1.8826613814769018,2.1364849229695864,1.9420989804034945,1.9437174889465105,2.0648176601968222,1.951661704274894,2.04381231387775,1.838874505140275,2.004157127078066,1.9020527741001276,2.1328942308353356,2.0677319872085405,1.806807599640931,2.15763771521789,2.057835219453219,2.055951221436042,1.821877887343377
2.447167369866913,2.5689132280157674,2.1068311824152515,2.311316773098813,2.1067267810144936,2.2536091410621704,2.161618015249446,2.184963459139323,1.9922447162238897,2.0918113057260004,2.1635477997990606,2.023850086087951,1.9409662038522721,1.9202425423327165,2.1065391516828513,2.130032830265797,1.9354199426784793,1.819273711113394,2.1013388897236234,2.402319815191693,2.1274139793356617,1.9600058696938782,1.8690554401470023,2.0235381687860285,2.0036490774030566,2.0812976286565674,2.222705927306653,1.9558556378670007,2.1283723284270786,2.118255682280099,2.3161644561694374,2.0154100653663365
2.4292140697108744,2.4059040291110922,2.164028875593577,2.361696505130638,2.242631244762879,2.3409915335106755,2.025513376571754,2.1017373056831437,1.7977678934410235,2.159227805015823,2.052838461464512,1.8243715427721015,1.7148563247646995,1.7808285986271837,1.8412879836299554,1.7978598522810156,1.8322789542794522,1.754599952889649,1.829319268769433,2.1815930937728267,1.9920546541164286,1.8843535200882617,1.9995146685484395,2.171082938981386,2.099318575064704,2.0017123915647836,2.416713889521831,2.1051190384017024,2.4627012625857256,2.2154142083992316,2.304455965826073,1.9829394512154117
2.4495492748619494,2.249937987118457,2.11185610589354,2.355218743969247,2.057324373735327,2.242562341257484,2.215629486566832,2.0860342575950157,1.7767351507549722,2.166790922275083,2.16709893844207,2.104577419102571,2.1466900223041474,1.9630613637772831,2.005660641200961,2.025754133897083,2.098648351608247,2.0290095493676934,2.1901195246065788,2.451323604011451,2.2597399334091937,2.193291191217523,1.8588544725829532,1.9941210927009894,1.9308696018633598,2.02573965571466,2.228471834171403,1.9063461533922221,2.4530148692139235,2.151437282957233,2.379220148697659,2.135634584893564
2.661311979890799,2.2642959232276687,2.014575475178079,2.362254708231561,2.1501807470855083,2.185528534043946,2.245528844803796,2.0344570523057315,1.6606246392887083,1.9565320376838873,2.090130116265558,1.85429492400187,1.8406602275117223,1.7566911385323645,1.94373455645137,1.9351279575912057,2.0437891820318805,1.8896171407957107,2.01054662580591,2.2032802475455435,2.314649448863066,1.8350133621609706,1.9174852261421533,2.371633542269386,2.23283875794673,2.1099466404145297,2.364815321322378,2.0649129963446424,2.3543891298541944,2.2369089990725293,2.5155471107957554,1.8196506348371622
2.2494990777611137,1.972948254021814,2.0195093088102096,2.1677624152705746,2.1767310045115527,1.9815689279121158,2.0226541966904885,2.1079161239279767,1.836243098054439,2.2389367496785613,2.1977255955981474,2.199535666272349,1.8306945170619533,1.9224620787708342,1.942107188857503,1.9949053473962302,1.9566316452806205,1.854162268311076,1.9240466074811602,2.021521583395506,2.031821143788179,1.8945837738424594,1.7331907423089143,1.9495758507605083,1.9069502974873624,1.9761514661504243,2.0482624226815407,1.818535559632502,2.093676576678539,2.0971920906635093,2.2189941306237357,1.9311977043350017
2.2410843879086815,2.0948836509696678,1.9657265277847586,2.243177000721355,1.9233506582806785,2.209676439225721,2.0947059835168464,2.0610310009431223,1.96989220859266,2.3379770202549324,1.9729207360878562,2.0929873867508175,2.14272487444361,2.0157464205412703,1.8217824459240548,1.8719879159923676,1.9897741447418804,1.9444956738956642,2.037084696781371,2.4721533822206867,2.3971127830233345,2.0335467032634047,2.056072500588676,2.0239612849502744,2.0713213698373,2.1457645709215827,2.088478784511741,2.05201403320826,2.3422687021051756,2.216764709586096,2.1191014658959957,2.2558531766874736
2.3214305809800853,2.0784432505336135,1.8774202188585296,2.151790554492602,2.1140867602484783,2.183161701167458,2.2708104531561064,2.1470979107424863,2.0405739378941945,2.415048354079112,2.0832259912570827,2.1595342177065713,2.1324536274367993,2.0282784475287943,1.9692699916843401,1.8449583961937774,1.9943982637189441,2.0830972333676043,2.2289133992940133,2.153833212824897,2.221880443423685,2.026393293662588,2.069501769506457,2.3078892660929697,2.212047192965672,1.9228690797402137,2.3877856625406917,2.182028323179006,2.424610448696531,1.982024702876644,2.1330597047972395,2.070530012469656
2.215461531517413,2.2079253135615295,1.7911366881490678,2.032440879567801,2.0010718166567947,1.7948261222078854,1.9406083928287874,1.9710101579012138,1.9778529211908842,2.135082955162176,1.9587548374736306,2.3559529281002867,2.1101161925684533,1.9146303717690536,1.9350364837666094,1.8083532561911235,1.9395870145502478,2.0198032650317614,2.122589245074586,2.379264020902293,2.3510921777598943,2.1829006538016182,2.19504702266872,2.0242311667666244,2.148133776888973,1.9814247491387798,2.384435935045537,2.127074016743143,2.359586345498721,1.937653031263781,2.4314441574857955,2.1505244080774553
2.4625637233240303,2.0283533826955726,1.7762559611733684,2.0079483753411145,1.9596481802473347,1.8604027009966972,2.0561740193307667,2.1644941806473734,2.1454453094812673,2.3522925260884517,1.986553008688754,2.3931161514077353,2.0995294736848136,1.808141100466374,1.9531090592707527,1.8582952454087969,1.8949055139521773,1.880004642744173,2.128118890370771,2.2694737046088647,2.180628087365548,2.135353188898541,1.9455837016090116,2.1695672106059423,2.1973347037612543,2.042940995112688,2.2464520962195125,2.1700571796204686,2.3402635650942063,2.0959610847100087,2.345893915562603,2.1429122228545823
2.3673436134546275,2.2270788459409214,1.8717362130517123,2.305956609543525,1.855809387804989,2.196231498567036,2.2520014836782214,2.031689332569162,2.058712409881194,2.439789470101122,2.163973061093537,2.240868712526935,1.7748560804256588,1.873547388241866,1.9680788456092975,1.7782778437757047,1.8965995230019284,1.971719375949775,1.9818586677044097,2.411356250894512,2.4322175086108597,2.1848202647289297,2.171064182124125,2.1343650715397167,2.1556475137067994,1.9582321898444677,2.3715543956047793,2.191407463030255,2.1440677920327187,1.9946228518657103,2.063268833456468,2.1809452084696694
2.537959495798977,2.2290676648221903,1.7792324219591185,2.317586838661387,1.9511824797922745,2.001515336304496,2.1167638597827687,2.006911364617969,2.0689167907850283,2.316817321371122,2.1898087670013138,2.374845347621586,2.08305918750266,2.270017424916429,2.1368066497149756,2.00657242859299,1.9976380489736116,2.0299471321782057,2.127580189796857,2.399861193094579,2.381745108553406,2.046692838123307,2.082081885609536,2.363026098119149,1.888582872400792,2.211423639577071,2.179828299989745,2.127063210098154,2.4309245788005547,2.0729301960933464,2.3646991253181313,2.106858250200442
2.078115187024261,1.8647885711803904,1.7883024698827055,2.3336943929094645,1.8391843701040083,1.918174876301297,1.9676415966227612,2.0755914251437924,2.090736681405319,2.2417056332485523,1.9843182237537969,2.1299043505977053,1.8434066209780813,2.0601448697730977,2.1345883698829495,1.846921103380494,1.9569788485690698,2.057560965368687,2.0831541237868243,2.3448020965363385,2.327171049779574,1.8218328401817867,2.0204882160040287,2.361220385207443,2.137786689972264,1.9598312263848021,1.9708001634541361,2.0767323883514437,2.4604122498864367,2.1582599147614525,2.0564426817080004,1.919761876576089
2.346240776294862,2.2935940309241816,1.9167914046887133,2.296141277274226,1.9061996874255982,1.8625841216512105,2.223105792147771,1.9880046852485975,2.0936028057635276,2.4209672665582462,2.0885684592239735,2.4024280583259063,1.9031384659720798,2.144454414411322,2.1275534316639666,1.7908420916761325,1.974661851742145,2.2303394265944982,2.325988596230966,2.0602784052925185,2.3220095058800725,2.0179025930879093,2.079786803673698,2.183842411895529,2.06182496844815,2.126079145411094,2.1486779166542997,2.2325681617467676,2.0954733329368636,2.2081531119365914,1.9457217541860774,1.7779480794958642
2.178991484078581,2.0668590456932705,1.7670287778598976,1.9807075077498146,1.7845045262800068,2.2003672234715412,2.169173581541535,1.8924112431573445,2.108332068482357,2.621793477001585,1.939625867214553,2.3209098175986878,1.9479482369086667,2.2835535029651717,2.1737379263038523,2.104793559084988,2.0742102369615916,2.0654990671504767,2.2891068840370385,2.4242711622869213,2.315688224348847,2.086500748517751,2.194041484839493,2.321139891569886,1.9572278129597944,2.0606344850840794,2.2208756174829456,1.968858672551006,2.3385324695713003,2.1768417295855906,2.0774007749506893,1.862672830862774
2.2145379786033357,2.188112561614076,1.6303794056644043,2.210676802379528,1.7364696086850693,2.01805696461602,2.005250609875527,2.124143510671883,1.8082592289991175,2.5093906884945163,2.190501418915468,2.20238220211409,1.969714808878373,2.0782964003254767,2.1466001013006486,2.2413443142264406,2.109899143261928,2.1928486713058164,2.070672921758392,2.4996557714790595,2.097831374809179,1.8841790631890332,1.9238936175847483,2.0395527534973197,1.7643267323580054,1.7834603082762976,1.9391778503687853,1.8247726092291514,1.9880984902234355,1.9934219465595393,1.8299964333144614,1.7636812910337594
2.1094309662634094,2.017767085409715,1.8655100116086891,2.1819786488880366,1.9652899366685814,2.0385539601025484,2.3208623846573846,1.8671924643195423,2.2418153178612643,2.3387028913667534,1.9675265066108125,2.0525276803495562,1.801665299300118,1.9808092041351675,2.050040299243708,2.0181563497315067,1.9406900116732444,1.8617407256904,2.053686968247959,2.461638570234651,2.20015588834831,2.01810468206333,2.1312829255471724,2.239426469524161,2.3141312192110997,2.1501089183427746,2.195750200032901,2.1041168561908417,2.341235887946936,2.364573784093376,1.9552726463515417,1.9340450777498064
2.1661060613960723,2.1054215712758433,2.0893341988493943,2.4658911456631794,2.0010100072159145,2.0383414007883136,2.1623902275250795,1.9896716998511539,2.2270175467980384,2.316505580793983,2.0736445896038487,2.3309611892827835,2.017732732110537,2.19426965132879,2.0567540166415976,1.987650397797229,1.9646994402978004,2.166932719818049,2.214365939366139,2.3692262187302147,2.1401796882515924,1.930218873818076,1.7801779159657114,1.8441771274335457,2.21812885217857,2.2257973491804055,1.9796037381350688,2.163092507323568,2.387941243940102,2.300349588338633,1.9163927873600521,2.071549309931285
2.390208717519164,2.3796239467662765,1.984040512722739,2.374014044999537,1.8848571544990371,1.8538918085716607,2.060260036293381,2.2040864541715615,2.238459135945088,2.171501585484142,1.9510204824599935,2.1806604023261635,2.0910182659413286,1.9467486479952363,2.0545727969040004,2.0106266188262434,1.964890453733779,1.8470885753885646,1.899268834896097,2.153729808058383,1.9957766872866618,2.2051914477378722,2.0415044751337397,2.3116555673049843,2.0378126348975374,2.1799390258091034,1.853384695782914,2.227577823850618,2.192308220786944,2.269349445095954,2.0017741333628205,1.9685977165667028
2.163686832547022,2.2893060197128206,1.7308044769036959,2.052071445753836,1.8307279070491969,1.9581588343200038,2.0540087005187653,2.0438150703797247,2.0275490675773797,2.3161728311753773,2.1703771100525886,2.2523882380481224,2.1801047011356243,2.0778800362756,2.23205189993829,2.2259443400008134,2.17637745304257,2.107085685872697,2.1103501290799462,2.371845978361585,2.2049758562475574,2.1391562888579854,1.9435196520388889,2.0136246574700634,2.2713879875566376,1.9793905127151843,2.129204146145225,2.453233891090399,1.999719825058196,2.032979936785991,1.750797849010054,1.848363355156482
2.330802617078958,2.4208779525105815,2.1878300773560224,2.2911937500788317,1.9626893370438763,1.7875333024986888,2.163938638148899,2.2903940112843397,2.04130314771726,2.0641315333013677,1.7985301397717053,1.9936431336048428,1.9742999519360613,1.8128221799959723,1.8056284885783453,2.0176182764594355,1.8280881239283522,1.8450945850157878,1.8364082892124836,2.104096579510327,2.085156727416349,2.1270771700391773,1.9389013215185826,1.9116494650280946,2.1049935657064385,2.108493374163028,2.002832826546921,2.2922168777402545,2.3344676995462947,2.2159910790140604,1.9206523874029557,1.8225781389365636
2.1517057804307336,2.348426114315516,2.0812620575495226,2.021536545798865,1.7995183772061698,2.1295382508266623,2.022781822526385,2.2984734925312242,2.1445354414847184,2.1102272463206075,1.8886331679076962,2.0642914251431828,2.0294865475885846,1.7803288340639438,1.863166749230193,2.0798380618460444,1.8614226387309112,1.8606227097553183,1.8797987973197292,2.1014775642813905,1.9734218752547625,1.957889827014229,1.9127959096921348,1.8467425870782275,2.016781660510675,1.9920677007893797,2.027412784146156,2.114957381180267,2.1550617178629756,2.0205574390450733,1.906723137623336,2.0314571090356655
2.2762257144245956,2.487323976615974,2.049643556484498,2.321383370256632,1.6022961173918184,1.8663299253509134,2.0322508701546895,1.8907503017145855,2.020597104058978,2.1919723588316278,2.0770624480425126,2.2206461763714405,1.998790154679154,1.9845473353808964,2.1704214540663442,2.2159862756457693,2.140357185637236,2.146983124996535,2.2687235322261263,2.3055624424362855,2.2605966843699608,2.2992912721117054,2.0255801030767135,1.8450199613288614,2.2879588940076783,1.934453363215448,2.145347334537846,2.3291240949528556,2.2101243813532374,2.1903824755523282,1.7390740653189465,1.8833471985480281
2.0209104827982896,2.013766922923665,1.9791648190558053,2.3295878431578783,1.9084123130533477,1.9255629910184116,2.0429170055051165,2.076700901035296,2.1329977923574126,2.1432995065863736,1.9461797026240606,1.9249719689475673,2.2902347882178216,1.9523974879118728,2.0139744855540753,1.8862727756187032,1.9364737942344115,1.9945192080175307,2.0247231177656433,2.0455380012465003,2.0161231380881346,2.011742944045761,2.0937313097356767,1.8268432584526388,2.1164931007096133,2.252854694769811,2.278907618693725,2.3769543517825267,2.100078259871529,1.9450011032426806,2.075063520111854,1.9831248798208307
2.4790210897532976,2.4500965751238564,2.1913974220766064,2.3525542801349566,1.8323441972982852,2.0139006697694546,2.0615596951367463,2.0797899223607383,2.0928607411457563,2.2733107079735912,1.8998106658409488,2.233540345891069,2.0904956929207743,2.2601479568620237,2.069425699656247,2.0529616851434285,1.9405316085493396,2.090657668989217,2.0902028003718143,2.0715404749078647,2.0051489774672193,1.9843447128113387,2.021666249199673,1.749683748620151,2.3625013797714396,2.2365723064767953,2.1870245911222446,2.0592401467735044,2.410762145876774,2.0165144036115628,1.8546741121606671,1.9756158718555001
2.1963558745066023,2.2688080695617847,2.0620532623936967,2.342815139752666,1.787624374236968,2.040970399589333,2.150669739344526,2.0644474242037174,1.892184159601847,2.2600277263330932,2.1505974796439413,2.1804724973828176,2.068257809446794,2.0595962576282014,2.094993641072647,1.9571240618062076,2.067862823277984,1.8486460881079163,1.9599818458705243,1.981653481294973,1.9786292419845195,2.094938332423182,1.9227536399035816,1.9332660993725828,2.0175686303910725,2.052096603015121,2.1100728208306583,2.1809123074505767,2.2276289871341817,1.9013205710964087,1.9025446153212298,1.9125975198645278
2.1171061960744804,2.0354796026362787,2.043636037769639,2.2181837573079535,1.6561638759382307,1.887132342544288,1.8829028928857707,1.9279534572602535,1.8828773870243873,2.044439851953053,1.8573086383089754,1.9464690406642764,2.022479298243549,2.2255339397287557,2.0825717466935547,2.097309787069895,2.1388947397704543,2.0018425082737576,2.0577632009796756,2.2061937145880575,2.2199468991125566,2.1963504702297314,1.9824202896009022,1.7693384569643262,2.125613965400505,2.0105302982867466,2.1078876535729476,1.9296587363208373,2.2562332387419195,2.0149858512815473,1.8662798602955348,2.019051876045673
2.0676461746726407,1.9900878442567733,2.0117640315859764,2.3231180422827307,1.7367347824198154,1.802057188179431,2.0735270286992784,2.0500079192633,1.9954142297709698,2.046642235073359,1.8682309933728116,1.9092613689468272,1.9400912455096209,2.0152221233571743,1.9245942956682682,2.0464056970842335,2.2134924122849844,2.120751337377247,2.2048080704870334,2.1216514511456412,1.9901656992420924,2.1147620213181857,1.8227638806490447,1.7020190815473493,2.196717663361353,1.9196225104510398,2.158941343474145,1.9617096286102915,2.441540270540505,2.164525241048228,1.851022362635656,1.8921293879149863
2.224999940697131,2.0648914084165653,2.022608126854915,2.2094903200065414,1.8232487591523636,1.7672415511969084,2.0949789491507853,2.037795168902084,2.02233777951959,2.1019224877582356,2.0174379242430485,1.9553252013604794,1.9673332236453338,1.9936933593250399,1.9293380532558473,1.9469191516764353,2.1049917577519635,2.1856269994477397,2.01097358120184,2.3246803861675542,2.0194263830273673,2.12207132383434,2.077871757026702,1.7416694936351365,2.141699317813652,2.153403702783135,2.1673979752639254,2.1630848016943856,2.3359321000832107,2.149299164172603,1.792327924159665,1.9644325920398567
1.99586053296908,1.9763191593037015,1.8363621645141595,2.2484344894415207,2.0339372633854556,1.8700127212360182,2.2289229097543117,2.0770459975631845,1.7118212035979476,1.9240729993219803,1.8733738438457825,1.800181653961641,2.0008258242295067,1.9309421940722473,1.975361810710396,2.0552165480743523,2.0313667315510298,1.8208377819519497,2.1200100731145355,2.228187808011225,2.0940650853473364,2.0688599766023157,2.070510290350294,2.0074661676891092,2.24575856875462,1.9563234127202946,2.1059693012324106,2.0878838818817167,2.258389960137663,2.029197474001065,1.8945638982294124,1.941880869037853
2.111805486679713,2.132232740793836,1.8466882760007208,2.291133288958722,2.010791892296888,2.0247354979589742,2.06668402481784,2.0717756996841876,1.8174827900136696,2.147574760693577,2.064704411607366,1.8609775474606596,1.9663256991554123,1.9768556870501102,1.9873315885141212,1.8818658538366329,2.046758304832056,2.0940641036524306,2.2951118808661466,2.319911451302938,2.2105232842248217,1.9959899083684558,1.9991879895260571,2.0193858394822293,2.2360484865216677,1.9943937993146028,2.033653460637152,2.1354913321447553,2.3099109931444906,2.129672649441209,1.9906377042578878,2.1732458315496035
1.9806301071977452,2.0666734780687004,1.8461922006166083,2.1260040706992975,1.7024979320239977,1.943858875108391,2.221759822288029,2.0976496402263587,1.8329006783470565,2.068753551663736,1.927486015482584,1.8410521863759761,1.760920060817861,1.8173035565979951,1.791647142387002,1.7636067196637846,1.9830838112626137,1.9818414954762522,2.1255756848780174,2.1194002854549954,1.9446150825138369,1.9432953740809107,2.11012870410463,2.142027686744897,2.1978102983489887,1.9923479964671358,2.0528577086340163,2.0247662165298723,2.1218915247025842,1.9051210761014905,1.768640039970488,2.2259408488511463
1.952042623819802,2.032007508964574,1.9101579799430755,2.453825938150921,1.718899635362914,2.0419091877459707,1.9491870961743356,1.712739323388666,1.7181484559327274,2.0212238993653115,1.7819590006500952,1.7619866291084643,1.90959390934892,1.9566180434088392,1.7131530956600176,1.7963710781749878,1.735422494495122,1.8966538636938783,2.092318515721209,2.190721747012329,2.108484081146364,2.030625985274413,2.047579677902512,1.9360105481483985,2.244277070361602,1.6951423950493936,1.7172573909482338,1.8734599373763652,2.110541929162608,1.8700108512333276,1.701647194392,2.0555503650722566
2.1519908996987507,2.3305183269064735,1.8664875828105532,2.3374430711528533,1.824898909203134,1.8999710737457116,1.9793610113168605,1.8699098825075446,1.968088577345188,1.9664105140887598,1.796289402232332,1.7868407900734742,1.956825529784832,1.8669683090645435,1.6927458610750163,1.7245472069003251,1.6961507586593,1.7829302936191775,2.0495097691833277,1.9778913131776394,2.0378153898010782,2.0798820081442155,2.059477414045305,1.9351463928977726,2.140315442121824,1.8633294560296962,1.95783106466297,1.8271761524934664,2.190001068765113,2.101645505521488,1.8263792235435503,1.842830435113874
1.955942696545798,2.0061331539065352,1.750461952488347,2.091564097989454,1.711171893879549,1.8164630175842322,2.075313558605787,1.9821737699605855,1.7767024700668708,2.1508497846120225,1.959293847084418,1.805935325848238,1.7350487043163119,1.9489998348936035,1.7916844814572244,1.7849401782324943,1.7571442086137912,1.7545708846898833,1.8982315125366327,2.0932075260697425,2.0263209837420133,1.898853934462638,2.004499748588905,1.9950956892554497,2.2271745089450987,1.865073058387075,1.7067552618981667,1.8043404560143184,2.030132261206072,1.944701150945811,1.7370807953371814,2.1865648910269497
1.9308611697710227,1.9671976354567176,1.7075725999126747,2.040237845903576,1.7000296697981472,1.7857572062489386,2.0676023512691666,1.8492305602312216,1.832684333216878,1.9534821901971458,2.0365233715773012,1.8748478253426732,1.7811434681232088,1.9492729422852437,1.8815579882360054,1.8484098510333113,1.9076642017058723,1.7734118313201923,1.9119326875578018,1.9299413236581477,1.9390051100311276,1.8174373542216118,1.8750615813175429,1.9666575482596684,1.991020287415481,1.95282486600875,1.706402223720511,1.8268552525689719,2.299123095247074,1.8864534345944686,1.7225245229725021,2.1840796427242943
1.951730079364366,2.195289577876603,1.8315795430442878,2.229600339883177,1.7046038041086045,1.9402110872603646,1.8620530384348837,1.808188410582227,1.7252408222883633,1.867994307261333,1.7749743269072429,1.7023640188020035,1.7839190190878862,1.7096899088299906,1.659917551719782,1.771060850596783,1.7741583928171216,1.7786907508765584,1.9750788183093877,2.2110661360026564,1.981454792469446,2.135511628941766,2.106841793212218,2.1286695044307,2.175214832088738,1.7310119153684456,1.7582443417309157,1.8709635322294336,2.1565711196040405,1.8210504267927727,1.7256773388772164,1.8578324121618688
1.9737777474361393,2.191332700607818,1.7768471074060357,2.4521921819125887,1.727785056420732,1.8006153059442438,2.1183736208424864,1.8546302456293684,1.8525802621347756,2.2486780188930746,1.9182419244136648,1.9686709363484003,1.9091387863306517,2.2031938947654357,2.0487134092549026,2.167440398540427,2.054235614269927,1.9758585681584975,2.2042689697680538,2.3505022634667148,2.2082834151774158,2.1584043535302384,2.020802724314134,2.190890364780432,2.2963454559542624,1.794548651695926,1.7548346972388353,1.973610865102477,2.176908010208775,1.9436361311776362,1.7416785333132572,1.969555489598338
2.171568032025154,2.3985727155183985,1.9990797861132426,2.495040064236389,1.7864838690184095,2.0310044372004987,2.0253443375622835,1.764177689682932,2.07700498135704,2.0104300849478056,1.7753308385587883,1.9858420691076337,2.11646674888377,1.9393262777973876,2.010926421946085,1.9542706043806104,1.9620037640337893,1.820620806297949,2.0475014127488684,2.3119489791838816,2.0654621528160604,1.9179794433597166,1.8310860568795495,2.02533770179301,2.2693175825711953,1.8858426683642215,1.8957874213726222,1.9824999130671026,2.3919428091344277,2.059075220399197,1.9319352753929369,2.0789054189841685
2.2993424291515505,2.380634089674739,1.875472746350784,1.9770815936286446,1.846193037184487,1.9059185159965637,1.9985152806673554,1.9033638769061518,2.025412741028746,2.2111257353925877,1.9656741457949247,1.9774725887705824,1.8869356302829325,1.9589117289666897,1.928467442714463,2.049255271525674,1.9453931251458745,1.757474115042968,1.9034740919844833,2.316647288672692,2.0594195462993343,1.7961011589667895,1.8475170761595574,2.044191780317453,1.9246188914635853,1.9690258220388592,1.8505789141085685,1.8598250019505993,2.2816398186146705,2.0234800384165275,1.768036453464633,2.073745739377221
2.1977269040538787,2.3078165788891907,1.7493674056136164,2.0256155732418137,1.7838277535124107,1.7136967680022748,1.7801478081453725,2.0250486299112773,1.9381850784157133,2.058364589903258,1.7324444459321844,1.9050825165585974,1.9849188129307695,1.9108931810322827,1.801992755025574,1.9822935446837069,1.9747570101592753,1.912967430939793,1.9914847396967508,2.192035875710046,1.9675454814852502,2.0060721219504947,1.9612217742452778,2.0356152312239346,2.0367635352330202,1.9514304846875512,1.956071499245367,1.9792088466777715,2.247092847095773,2.1249446123314337,1.823710214300576,2.114582267593351
1.9263550746175677,2.0714944794346346,1.945679068858384,2.1900494243882784,1.6895143305232379,2.088800287882151,2.1815886377088622,2.013541683777392,1.9270924700093353,2.2407444999835833,1.9165184198107372,1.8598486533679333,2.001325309700995,2.0988513179077914,1.7573878678483874,1.7683559138244627,1.8378113470428474,1.7646377929144168,2.000430446804654,2.018049120343258,1.9057467553432343,1.8604030386910968,1.85028171898753,1.8487798145834733,2.0510489571219277,1.9881442823073585,1.9684972367039484,1.8360908233031763,2.3879799459642714,1.8573579200247967,1.6968451694657718,1.8238366833519433
2.3519250784502588,2.1170469421239635,1.9390433884328724,2.104794126126248,2.0008898946741174,2.0317152516099743,2.092143534300372,1.9898330803428599,2.0246801577128313,2.2048559184914436,2.0469622250602577,2.0514043595291036,1.8621614191735942,1.8834349423697816,2.0707949138602895,1.9985651030572802,1.8751132715600567,1.7911556385196898,1.7584754098119397,2.272059786501876,1.8919460834462078,1.832716577423031,2.0065495671993143,1.8581840666330622,1.9838353696712565,1.9638650302709404,1.9444658521186569,1.8530082875519092,2.1247023404178123,2.1194530203714685,2.0155309473682266,2.026708883135431
1.970753178109174,1.999883109467057,1.801797895774058,2.120931311631216,1.8041618590527264,1.9363664497734678,1.951690017939658,2.1008824160484183,1.7382849583059217,2.2869704471173686,2.099025254554759,1.8904344297663784,1.989853546462325,1.8919860683040348,1.9226142978820562,2.124750156746201,1.9825827599032557,1.996018839071068,1.9957294152623286,1.904894158513921,1.915559435592363,2.1833717638277554,2.213059482843788,1.7951181118083086,2.098985709507078,2.091701169101571,1.8546309156412455,1.8534966756474358,2.137615819270132,1.9551239097855446,1.746336797295163,2.10444790463861
1.963582911568842,1.9574988214668338,1.9415292288680206,2.3532386823998097,1.9716739532309349,2.2070320263618775,2.199667933265633,2.12713486654229,1.763273973831289,2.04307455400227,1.9001437693181407,1.7560899972066488,1.8350000113886953,1.7557010158903932,1.9430626578744215,1.7712542935188273,1.7674030188712144,1.8008355497584183,1.7682541222138686,1.967658395376899,1.776283612881099,1.7579996328257772,1.8235347369812775,1.766070281293543,1.8900624009480127,1.9840817220327276,1.955989207844661,1.7115944512467176,2.4333766053979766,1.9254265331211384,1.9312845355387063,2.163034784330834
1.9587876835743065,2.097696522583037,2.015182265176818,2.2712646876675753,2.141584931131441,1.9475204538299844,2.0434590779766673,2.1144659008302042,1.9897450028907786,1.9547727319602397,2.0382947076891247,2.043129128181981,2.0402928338046302,1.9696619374971898,1.979200127854328,2.0423269682688083,1.925191427630902,1.9422853812624608,1.9680021802003522,2.1572664632814313,2.011846073638576,2.1994892950183904,2.082210374784397,2.073199534030937,2.5453526778924687,1.8794405933148504,2.164785116436789,2.1481039483025617,2.2790248603199736,1.9033045013227243,2.0022693535352794,2.2029824912296587
2.2467284682343696,2.285507292439122,1.8609855246676463,2.2326719315807124,2.1281947310268197,1.8397945435036946,2.411818592234454,1.9706783402978643,1.8924184141074696,2.1495328562734586,2.090494627788771,1.7988258092283929,2.0824571476299543,2.0007005754473366,2.059492768930623,1.9910845530914851,1.9896011236390403,1.907940660702167,1.89611288090273,2.093078869425916,1.933157247384595,2.1580802285347613,2.099354794298558,2.5706485468532168,2.5062102678386537,2.0139531752694895,1.8763451260728696,2.1555128867032223,2.36661428034902,2.1563592240909912,2.0360471843800743,2.0517631066947315
2.016419738193609,2.140629491241553,1.8769261369007773,2.398288279719829,1.846583962947285,1.8217937483497946,2.3311024319052582,2.0039413914577597,1.8395680268217278,2.036320205907028,1.891380490912684,1.7253532439823978,2.1191973555520778,1.9872882829344791,1.8828704696710914,1.8602787386006485,1.8539267958896921,1.9283062155707902,1.8809745429422078,1.9035010922431461,1.879195301138589,1.9828888332579426,2.20137626240322,2.3421685020284118,2.1270442566379257,1.8227440624384539,1.8744492004602624,2.2737871055190784,2.1434047969016667,2.119023372016298,1.782691721019048,2.0942654188672476
1.9055410920609122,1.9393284151866839,1.6763805448000149,2.2558983312923044,2.192049276968229,1.7939718661531308,2.3839622642412124,1.9397758170666914,2.003270362210264,2.2885536786142224,2.0383938745013808,1.9023913409938138,2.0472970565345636,1.8719286447588162,2.0090835467827675,1.930960760386111,1.9339910114374526,1.8742860101421162,1.9998951814759625,2.152064075078086,2.0736466282886035,1.8710586461684056,2.0359355404221144,2.269550624099862,2.1909062237605945,1.851672585516762,1.8707311077643671,2.038449006092138,2.1172038257678447,2.013633984435266,2.138577365867008,2.159314366544008
2.0289077320237556,1.876647018851888,1.8201305580256057,2.0096429414955366,2.229551527210971,2.05617745192046,2.3169775323151254,2.1445757215100856,2.004484691702283,2.1778529720059465,1.8629440904800552,1.830349801843084,1.9455376183855022,1.9311350324200685,1.8888703642749491,1.928623008689666,1.886166828186977,1.8046968340174325,1.9772465887075317,2.195023181263828,2.176858301155807,1.9164037803478415,2.1879198066439076,2.3110699168040347,2.4832091812721164,1.992020671854961,2.0444815751621035,2.279446656344559,2.012859113727502,2.1122941817924334,2.047495737357723,2.0998448317013616
2.0350654104995716,2.1746365935303866,2.104267488302959,2.3066615664113646,1.8958309069860342,2.045713569666961,2.3411758641260265,2.107291105059984,1.8679659551089014,2.05472200251667,1.763163700879223,1.685070784286568,1.768329121569436,1.6113923275195285,1.6468772103838663,1.8433106078543273,1.8082277377840406,1.8308884987557033,1.8078319302378483,2.071452682951133,2.1586031578309437,2.0761995353610483,2.1664420631928554,2.346663886199026,2.208042867458912,2.1666658748419128,2.1033147799633904,2.1461091189964177,1.8837959617990392,1.8312602288341155,1.9105831165548635,2.3311386626155697
2.1215602412490218,2.424088674156077,2.1863214306061387,2.1292262527355867,2.000946628573292,2.0296194966033014,2.3561395049611504,2.102940713115141,1.8375570078940922,2.136358046943174,1.849333347545246,1.7272980174605856,1.7824537835111736,1.8413520584516514,1.8382344794320449,1.8195374922256817,1.9403251001262887,1.8154916884124919,1.9910005452386805,2.2505009192778465,2.165543650480805,1.8571716890166998,2.2804644472930162,2.316276581709598,2.475364608910697,2.1221751587526576,1.9043792678673213,2.3453640744654893,2.225193987116483,2.08744847840279,2.151910765252518,2.1707276157146134
