Fp1,AF3,F7,F3,FC1,FC5,T7,C3,CP1,CP5,P7,P3,Pz,PO3,O1,Oz,O2,PO4,P4,P8,CP6,CP2,C4,T8,FC6,FC2,F4,F8,AF4,Fp2,Fz,Cz
0.581994614583776,0.5591010788127191,0.5909430559753641,0.6045625067616114,0.5936397764165136,0.622920908897838,0.6081351830687095,0.6112000658212655,0.5669137487431546,0.5840844697069117,0.5398183734095987,0.5279384503814852,0.5263664407115892,0.5154806878170439,0.4677193918292776,0.4866085351641349,0.41620515289988536,0.42824009544258385,0.5186954264009813,0.6190308642194156,0.5898489752140412,0.5336788742410836,0.5933519747290763,0.6216863117462589,0.6046246061958016,0.6351222584754618,0.6258491127749454,0.6081577186935283,0.615615903550799,0.5476669874494154,0.6124001792624265,0.4534345988439218
0.6201216495992669,0.6172999733790284,0.5666680535497278,0.6070252093518353,0.527834352909899,0.5805543293193511,0.6055024147448986,0.5424618843130451,0.5825246846326656,0.5945605078227874,0.5543606109497266,0.5336212320389665,0.5854929883174491,0.5206203134994926,0.47977439392378657,0.46270427727627145,0.4239997873871704,0.4491812163427454,0.5152944755371259,0.6160545283535941,0.5930855649567471,0.5537110057105983,0.5483253401253342,0.6111383484149331,0.595904509297024,0.5568554173941122,0.6140870618816147,0.5712339825277777,0.6177439470187872,0.6175899299595756,0.6006551613146266,0.5511511196446861
0.5900661064015307,0.6056311196919005,0.5226690062612248,0.595178384384913,0.5238544397174358,0.6023652262394044,0.6114118333784347,0.5485603451796488,0.5839342636922809,0.5912310884104711,0.5544673738326659,0.5722731205323783,0.5955491092104921,0.5115505056440496,0.49435665451588107,0.5067522999558803,0.4421595578730763,0.4805706085202475,0.5285697619984459,0.6131205230643241,0.5638046012940078,0.5226262408141771,0.5708640656364189,0.5687600453101889,0.5466994688494121,0.5774879213307832,0.5708222532143062,0.5321451666690707,0.6041720845182201,0.5833466495509027,0.5440324809587813,0.46704517071888246
0.5581316924397008,0.5730720185331835,0.5296766359666557,0.6173105295753066,0.5981988970834695,0.6245884708129421,0.6077951414588677,0.5817610357881429,0.5387783952664027,0.5755950860765782,0.5645629673039076,0.5433244095259605,0.5027968478901893,0.5094878457327989,0.5132630412851545,0.47064386268498815,0.4484479569007087,0.4943664718917953,0.5632252787541494,0.5977159182073312,0.5702159667743146,0.5504330661460525,0.5727490645740382,0.5790848685147485,0.5186071254924445,0.5958819621216995,0.49913815792281385,0.5407716060869082,0.5648495776136934,0.553435464898427,0.5521206087367504,0.4475215038240425
0.5905236251632333,0.5884469061268542,0.5294781187323461,0.5873434323177232,0.5493986705339785,0.5828911364627014,0.5972980296419163,0.5679898319947192,0.5006759373449072,0.5618319397031849,0.5193243718172129,0.4933734263454861,0.4543443293727469,0.4402330441284672,0.4720724393970124,0.41844194707172516,0.4113524180795267,0.45638745702019456,0.5334412457837114,0.6198114267032648,0.5875515112482445,0.6078721286342834,0.576688483075267,0.5688319384791037,0.48421382292141685,0.44971780555952007,0.4127886696151707,0.5472413656057086,0.5250458116113145,0.5442973164118605,0.5054754330389247,0.5323590929536032
0.6087173230812447,0.6033675729175639,0.5993142334063871,0.6115849090058613,0.5300370839298456,0.5833517523461669,0.6044786857514122,0.5371272715073371,0.5533337752322756,0.5809897749923428,0.5245152761478258,0.5275582285097813,0.49322511005125175,0.46037618440665545,0.48913477769389047,0.4343022973617449,0.4158610736098091,0.43422548402858624,0.4983951751118849,0.613861305878534,0.5912196696872586,0.5314040161056908,0.5779054625978894,0.563048320643954,0.5179937643844835,0.5443306543996543,0.575099588693649,0.5319308428223135,0.6022926264531342,0.5868828399253473,0.5594714869950747,0.5218600946445427
0.6055528375213771,0.600246911114314,0.5527187293447515,0.6193013809405652,0.5304835912769114,0.5589529315441346,0.5340682312978138,0.5156438080182799,0.503655135940526,0.591459875816042,0.4684603163769105,0.5253111897169506,0.5245110979410396,0.4843108165352023,0.4760875763616178,0.4772173606972095,0.44189895419487396,0.4807210501385316,0.48518600946088997,0.5984718148299363,0.5565522055247434,0.4550754392891234,0.5524678983276116,0.5381071375663149,0.5403723619767853,0.5976016616472066,0.6072052831084609,0.5191516223834509,0.6107254790105597,0.614998279396419,0.5757906308319303,0.4677289979003692
0.5812002522481503,0.5907407067673673,0.5556203863322262,0.626110381866672,0.5001351572947546,0.5108696500439868,0.47851140713068335,0.4891119300846011,0.5105169668786992,0.5422673352334105,0.40906506077778665,0.48762926310877935,0.5151524118330365,0.4867242025754522,0.4934692123555659,0.47611177850957914,0.4831374382732558,0.5022755956371533,0.5083919343803718,0.5831081878650632,0.5671539863553378,0.489545996744089,0.5538566283949384,0.5024463121102298,0.5413728177586119,0.5265407938907858,0.6081467540810094,0.5499749200551525,0.6064959291345117,0.5695230740434516,0.5090173752446759,0.49680491505747054
0.598470905958993,0.6189283628120538,0.49710881408140845,0.6044946073910621,0.5671753919077706,0.4836610893162546,0.48920601433878713,0.4732555740338029,0.5413263756951963,0.5627865211963198,0.46639786866092575,0.5315803575871497,0.5240585356318747,0.49311316827220186,0.48253636111951953,0.4785754703974869,0.45573213093289827,0.47450432737549614,0.5208431092190277,0.6203489743249246,0.5418019479104093,0.552081122694914,0.5684430618046972,0.5855655079879972,0.581442570018684,0.5603109358744987,0.5740002932798517,0.5448058038756349,0.6177476508345038,0.5642417923126022,0.5840636088557994,0.4962745069762952
0.5949428540242454,0.6020742294156338,0.5795536394744079,0.6319083161452261,0.5209256262070904,0.5502039631165925,0.5365072820658822,0.5386978031337809,0.5496786430434288,0.6079601970321052,0.540764810225106,0.5209610931084115,0.5669375991714968,0.5168783546964797,0.5086418697379138,0.5086049155093312,0.4731817343602671,0.4726610056755693,0.5437771957356138,0.6250662748286212,0.5369371789523927,0.5887153670464363,0.5883547012623566,0.6036778525063432,0.5897144333922789,0.575276897961745,0.5341579550881929,0.5666304563623692,0.6111965889655984,0.5557205308637068,0.514726854969182,0.5023773974577823
0.5635723695171351,0.5479441112101985,0.5668211380295439,0.617964988606687,0.5141670503292476,0.6127253657433923,0.5865840186056602,0.5902780297873372,0.5633266411635365,0.6037303755932193,0.5453664548080849,0.5596738674311533,0.5609743495392207,0.5732176835039976,0.5808242260081369,0.5086945288323059,0.5421906653345068,0.5817890185883959,0.5433780455962137,0.6096434689830235,0.5285407239862928,0.5781666730329389,0.6191386908602061,0.5395107405100018,0.5789438429928465,0.5839103326229453,0.6092405637825614,0.47833126772367784,0.6161743939295404,0.5753057197976129,0.5317556279213882,0.5740271671057882
0.5839288348699834,0.575537260187684,0.5475889214502895,0.593444759221363,0.4954175946686659,0.5937762940162707,0.6146005111908738,0.5470792711243345,0.5217148979867507,0.6040958039717548,0.5574815546973174,0.5647355972440157,0.557077456939227,0.553109553296582,0.5579380960666905,0.5156980122532279,0.5105182331673248,0.5487527377558429,0.5589393392476676,0.6099772803914678,0.5588893975347377,0.5802653816053176,0.5733557134777383,0.5867057307177969,0.5092386450351543,0.5614025349180904,0.592764129447092,0.5081490671320523,0.6127606668964262,0.582265325316256,0.5900385786591709,0.5066863124738011
0.6050947692283293,0.6007787804529305,0.590626416218762,0.6078650373119968,0.5098140714839788,0.5736645641936942,0.6095034087133961,0.5432036960389548,0.5525784788931489,0.535864697068387,0.48903722138456307,0.5459786664824912,0.5718048260774135,0.5093829982246226,0.535550725553369,0.5550709821765004,0.5374047453683058,0.5767263961417873,0.5988010673128242,0.6240004702374761,0.6121939746287638,0.5848801933915951,0.55626403629932,0.6148144267682332,0.5419838148652835,0.565876649144583,0.5597309398848392,0.5653944015565893,0.5870352312764606,0.563647461314786,0.5698713237532955,0.49600949194704824
0.574587961143565,0.5971876466905447,0.6081026696909574,0.617689785870408,0.511896876110444,0.596735168986998,0.5878014707447146,0.5782827814654585,0.5283227088851047,0.5334749341691152,0.47454448806551097,0.4614623521575809,0.5608859663410262,0.4167354097975543,0.4379212092487212,0.48314072280262516,0.42929917647352517,0.4541917855240945,0.5216652068836665,0.611182507949629,0.600853403871688,0.5828485018188736,0.5745547485590461,0.6109128834985674,0.5651349375378291,0.5960756306185274,0.5661235042569163,0.5750272386937313,0.579066417497252,0.5509659950953265,0.5400832821741931,0.529154249714865
0.581645815869464,0.6001477341018048,0.5998876411173629,0.626804155489866,0.5179790213677062,0.6086156697520158,0.5907992211810237,0.5698480169226917,0.4881883969768068,0.5817012439928793,0.5414535056989132,0.4210196101812849,0.42892397283218636,0.4170154333465834,0.3901499463789345,0.40658650692668324,0.3979492357138649,0.4207668402537357,0.5125829579899664,0.5908709206207129,0.5941547617368463,0.5314254693653703,0.583173525602903,0.6161111590538347,0.5833760246204062,0.5941286593382418,0.5626273139031475,0.5947149027991429,0.573923215698909,0.5638815611041622,0.5053375436938188,0.5195500768693232
0.522511201327853,0.5496598953443983,0.5609457857274726,0.6092327454116536,0.4657696644565854,0.6056316200218178,0.6095218078898765,0.5783392875274064,0.5599121642246133,0.5778091549222636,0.5278043291607278,0.5189141320703841,0.4312478224774739,0.4849130179106875,0.4125462213476829,0.3936698579737502,0.3833970071886176,0.4200756604135805,0.41515637658559223,0.6018064546679356,0.553303281005473,0.49200968393491007,0.5111110386469813,0.5826344635430721,0.55668739261101,0.5687886734700976,0.4701980083698354,0.5639773606296533,0.5861983830948353,0.513028338024324,0.4512212010741437,0.559922886816643
0.5274550271017756,0.5240382006588395,0.519969665404612,0.6100447326643741,0.5199388511776006,0.5686963504543059,0.5678182997834034,0.4988478347959627,0.5937052427556427,0.5285810924518151,0.5001926170646067,0.5287750524685088,0.5596739065156512,0.5082696851072579,0.48719269838054624,0.4312696868093127,0.43114434306032984,0.48766313839156983,0.5216567331905236,0.6036256462514791,0.6009766603542761,0.5902202058757895,0.5918146810595158,0.5725905153041647,0.5759502804541559,0.5285477599715191,0.49562753974575957,0.5368618552523003,0.5761200152653148,0.5180259988046106,0.45180649279989704,0.6226197093161251
0.5891455106411067,0.5784903576213175,0.598319578567105,0.6251208574558066,0.596827389729658,0.5618497141585476,0.5598020181231956,0.4347547016826608,0.5361476336687298,0.5765490602721285,0.5207985802993808,0.5694920780058405,0.5142786773482975,0.5637652738239799,0.5607591529671774,0.5356155207236345,0.4824638967101096,0.48672122894090775,0.47181658657783654,0.6152060537399031,0.5657006866102519,0.5363092179803169,0.5877706786834107,0.57554212974972,0.5439523647895357,0.5732772261822586,0.5797300074588627,0.547279922813159,0.6144934268319296,0.5934891186528777,0.5917414890053629,0.5797812635476912
0.4443781376392128,0.4873017536818514,0.528127333187521,0.6093295587020585,0.5228795983698549,0.5141448825068247,0.5967795459451806,0.4737637729180325,0.5067819517394265,0.6032294127621828,0.562620653562278,0.5782471683607245,0.5365070773441805,0.5364132145455154,0.49809090147482277,0.4322327578613576,0.4238419970534705,0.47027079445439945,0.4691280905456095,0.6068701985183076,0.5366672614057254,0.491306691066333,0.5224305798194073,0.5523178574934285,0.5095028742007175,0.5454817231843212,0.518662437732594,0.4906073915742645,0.5742286236745436,0.42635948599164786,0.5679896217865987,0.5248011660654491
0.48590631016138663,0.5111787648833497,0.560643833407571,0.6016388132185686,0.5732011488613181,0.5472337415901526,0.5655950719669316,0.4929146119560608,0.5114089662489194,0.5828578135968807,0.5132414795704803,0.4959816280409665,0.5508403726462576,0.5268416022715102,0.46181432389263216,0.47633943764631353,0.4637050089350823,0.5010327647092374,0.5351746758199684,0.6082271986500744,0.5556518034207969,0.5644689884016509,0.5365117077626584,0.586382654326085,0.5921037679119272,0.592288367655166,0.5699393506825958,0.45740379472863885,0.614602087832694,0.49601230903784443,0.5667911457511278,0.5715246986518169
0.5760334015959593,0.5812733680314013,0.5814649564066305,0.6137551423614852,0.576817864348846,0.5992950682591044,0.5790703943283159,0.5536043884625331,0.5317643129038728,0.6039343532707406,0.5047061624926404,0.4952829752601159,0.49844584496235184,0.4962465347079126,0.48914672702827205,0.4794304423662266,0.47513224522026637,0.4290122330963976,0.5397261673188601,0.6101572915159673,0.5422658602536425,0.558545662981272,0.5957038059348287,0.5841177316064775,0.5818972123159929,0.5480096151132172,0.5227275206014215,0.49237044207899505,0.6074660411713503,0.5694873134421017,0.5688712523604764,0.5641539149746582
0.5938430262159662,0.6139938632867953,0.5631856122753761,0.6108485046396981,0.5759568664843676,0.5998507341240784,0.5616253172329977,0.5635422777790164,0.5657090632392493,0.5704992513421824,0.5131231628248881,0.5442499584323004,0.49348174681897033,0.5506304754250002,0.529015303168883,0.540584540064504,0.5227856186818494,0.4590037094091815,0.5754894582286536,0.6229462524922053,0.5773826153528648,0.5842387385647992,0.6076278426711408,0.5512115478643884,0.5668105077555861,0.5901000860557074,0.5941628158866226,0.5395705435091445,0.5918365681500484,0.5920886266599826,0.594976105527909,0.5513532717508367
0.5632983589715042,0.582592953145308,0.4921526941596597,0.6231773022165233,0.49122337356873996,0.5173365154459917,0.5285473096580774,0.5446142809340908,0.5796404535949726,0.5652882286339985,0.5632732835668194,0.5605621790505434,0.5577121085689409,0.5560720734899319,0.5546450146072421,0.5740386650650008,0.5560341251194011,0.5438217860515541,0.5609401626087893,0.5846851927354038,0.558362738360425,0.5747798591575021,0.6076745765035118,0.5613966807940528,0.5227518043166838,0.5395965357781762,0.5767739141588821,0.4754087775028515,0.6147707088680993,0.572954017775618,0.5285772190083097,0.4688074083600658
0.6158324998407031,0.6074970795270891,0.5939992041250977,0.611063880936913,0.5159205698003742,0.5563941715067405,0.5775186910579304,0.5581733432772216,0.580539237555396,0.5181944968981226,0.5252147792549865,0.537637686915298,0.5791705393676767,0.5242512254655131,0.5166300967079824,0.513309701600085,0.5097815048851452,0.527516145471779,0.5906818985186602,0.5967041544639383,0.6010892226606026,0.5950793908994649,0.5928508541482466,0.5794326567505733,0.5638385051183636,0.5710452333489973,0.574864160538794,0.5450552629487632,0.6101718230592061,0.5814220475076038,0.5793998005896532,0.49499832930311244
0.5925438328029091,0.5948259930061939,0.5853177056883523,0.609770018851634,0.5552736820756559,0.5795999927870147,0.5719393467875538,0.5486130291396544,0.558669338336304,0.49915459629978115,0.45607096081837567,0.511131326130356,0.5290229655498874,0.4805927436849806,0.4566503017951343,0.49871478121191704,0.4344499706632372,0.4625245617361433,0.5145431321943125,0.5800757858758625,0.5834169136692026,0.5682308489691822,0.5582021244329608,0.5487164502052507,0.5628089367511402,0.5931206217108909,0.5597257867027287,0.5829219743457308,0.6225352207782072,0.5768346896526138,0.5848885653150182,0.5337065768117383
0.5746579561326739,0.6023958932982326,0.6028887031219982,0.6106966041125874,0.5272253255866206,0.6092127833965982,0.5931870997395259,0.50859431565921,0.5644218252402571,0.5890800020897601,0.46784413634845795,0.5616740849972031,0.5676326897527316,0.5224106473922164,0.496119427700315,0.5012911398170437,0.4801406583612307,0.4799591519603219,0.5489998886301357,0.6117590334594982,0.594603093678095,0.5905380866385859,0.571080675772671,0.6045316604781348,0.5819485109150931,0.5703477536345667,0.49821437542552255,0.6089223272606984,0.609224722309955,0.5683941618812403,0.5402292860793686,0.4920049838482289
0.5434961346391062,0.5603455123072301,0.5902395199027707,0.6063843566831064,0.4806104034070974,0.5377895463367756,0.5930984391021157,0.5050424035747832,0.4843196285101173,0.5579688953776195,0.5233790152986609,0.5036022318514032,0.5668376139820679,0.5045865069448573,0.4860704397547982,0.4979086235102223,0.5087693631907827,0.4989870809137991,0.5626948626334011,0.6146428762858542,0.5552757580143505,0.5755080129065772,0.5600879414793275,0.6043414308633621,0.4584450371976236,0.478017421773112,0.5454015093409258,0.5649664678202613,0.5596502086186782,0.4998419762548201,0.4973669061980348,0.4948953888838037
0.5459602364822187,0.5604361766832993,0.5428568021046604,0.600459577127225,0.4870428833076241,0.5516044828122085,0.5613190950893917,0.5462540703862907,0.5042311202098309,0.5876040618885143,0.5428593195332259,0.5451670660447833,0.546898428847104,0.5836644833582716,0.5703020626840941,0.551147487985486,0.5639221200821978,0.5724779590866216,0.5901996487497065,0.6156979710468415,0.49409073522435537,0.5570717535728067,0.568591537563516,0.5773129301304604,0.49706942301181906,0.5807447076467599,0.6039051582018209,0.5414110026271892,0.5727707294314214,0.5351486125166574,0.5310462484119475,0.5345236246826209
0.584844393332309,0.6012801145913572,0.5839462366363695,0.6155679014714951,0.5378753694245957,0.5640216951986643,0.600943223357455,0.5484386190809533,0.5537200941030672,0.5899594499205363,0.5566487263447437,0.5573426634963546,0.5703012431276917,0.5660282310310516,0.5532192212010539,0.5367295100762967,0.5273031635771058,0.5818215861703138,0.6082410235673287,0.6173355024596765,0.6010529386102589,0.5508383806925926,0.528531544956408,0.6004496257134738,0.6137518986997964,0.5646802179867053,0.5566943219354002,0.5940618059538403,0.5617856739600899,0.48537423850225325,0.5081514691609542,0.4654995021584724
0.5815738513123188,0.6067684123282666,0.583459571949351,0.6149468909572309,0.5911415449240799,0.559200918107671,0.5832810585148626,0.5706086136031524,0.5162719766663539,0.5993420873608768,0.5630400386131955,0.548831240723942,0.5386135631603839,0.567519458564051,0.5530687820035113,0.5660605649641285,0.5492678144988994,0.518884203080887,0.5873931414046549,0.6228163908466341,0.5782087817260554,0.5226821433230918,0.4794731017490315,0.5613241946806758,0.5543793751085331,0.5513159692374661,0.5564598070992068,0.502502917033957,0.5646926389392114,0.5315838068487406,0.5364799733160879,0.4590405685703707
0.6214507650096787,0.6186221369898822,0.6181376054178269,0.6143497084201107,0.5599774579701877,0.5958634174053987,0.5757926941266761,0.5694343865548049,0.5026666878830001,0.5908320119981786,0.564487032953777,0.55438239237761,0.5765923313062492,0.5213459959802659,0.5592179031905373,0.5847550948538609,0.5698437569423686,0.5486717879093528,0.5927922349555417,0.6224880989127585,0.5802982377486773,0.5947834520406093,0.4722793492743092,0.5699931095537906,0.5725737007619397,0.5401994575793267,0.6047136135039662,0.5004095411662541,0.6146659600479953,0.6004403341999848,0.5992490977098494,0.5040929040323979
0.6268006070699751,0.600639631307764,0.5157777648238875,0.6024596013937173,0.5239965248641285,0.570649128682666,0.5664322531354395,0.5949865997429121,0.5525251965550347,0.6051114693883795,0.5287326841590957,0.5774882127645126,0.5140249997806083,0.5436362583995646,0.5377890576357713,0.5062302834003299,0.5143764417040029,0.4973570579047565,0.5553531115657935,0.6041628453240075,0.6032759348952592,0.5657749047541065,0.5719344056008239,0.5840897102619632,0.5449874275653169,0.5432571696326512,0.603483409405001,0.5227772367017576,0.6125609221366378,0.5887386595845698,0.5873298049857384,0.5258340404474287
0.6087118539785505,0.586520808320232,0.4577184261834235,0.6000770461424138,0.5644081240182952,0.575150565569104,0.5795621117851655,0.5873670381469842,0.5651923087322746,0.5902035038075928,0.5189716353187114,0.5699828148220732,0.5472277271400299,0.5460486261357478,0.5391413574614716,0.5070645840876952,0.5441483263904069,0.5496522437154324,0.5775349615477093,0.613428730766571,0.6095436912189864,0.59124293645654,0.5745286230228334,0.5708770653942257,0.5119793509721255,0.5650238195914279,0.5965905648660726,0.49712667705570684,0.624553163852833,0.5983816148616979,0.5658020808812235,0.5405248115365118
0.566783661695699,0.5757096744066007,0.5082925693872014,0.6104168838083385,0.5229520270810798,0.5868156444471575,0.6075765823649676,0.6020007217086313,0.5930910078477221,0.5998254083133273,0.5582619969357623,0.5799362600598226,0.5771981696935751,0.5451722483265441,0.5662833884667932,0.5632221276555649,0.5590796232766658,0.5705391218394023,0.5844211162607827,0.6212474089524974,0.5985861375301543,0.564662141526892,0.5620994933747403,0.619337860602464,0.6135317325800977,0.526511573915339,0.5253797794780292,0.6118315415202916,0.592820983325587,0.5820926221213634,0.5023588894621189,0.5232335968338436
0.5895257477379783,0.6019554556872031,0.5986468698699776,0.6188806726986239,0.47315834828754266,0.48979945575985373,0.6218844045295191,0.5745661817037082,0.5560475412051364,0.5950988286077673,0.5597332310118114,0.5842393756014144,0.5859535115099277,0.5235231617165003,0.5602793492224025,0.5331393740508239,0.5479945459194554,0.5353199019966693,0.562584032084802,0.6214783443699698,0.5862707306021749,0.5417943723288953,0.499534130887607,0.4727747034133249,0.5765691829207388,0.5377490300610555,0.594164297855539,0.5741122814415889,0.5709858758004558,0.5306894284612875,0.4936601672656686,0.5338919490162349
0.5877905977830354,0.6012370781084133,0.5760815815080443,0.6067616404838924,0.44201526750918785,0.5861352747963527,0.5700702643430063,0.5444522325733037,0.5212732909960679,0.5570613801450062,0.4898006674080113,0.5296178161849994,0.4828208016730842,0.5273870354465899,0.4945421674560479,0.47022366496504425,0.5127636320912087,0.5049810367974432,0.5351045663843047,0.6157141877306637,0.5610113001653435,0.5070205501711459,0.5385029978988354,0.5356305987920464,0.5673773991132761,0.47239639815190065,0.6165126781677622,0.572459288603788,0.6001808491125439,0.5120800244216122,0.4937872019880382,0.501024371882617
0.5094134595552201,0.5741046082254732,0.47243397435910045,0.581389423344119,0.5386203833724363,0.5205750815576258,0.5687910941645146,0.505126741404403,0.4781270348589122,0.5730923349237719,0.5220243185518666,0.4988307539119436,0.496408723410097,0.5275002761700681,0.5297814270665254,0.5484171686343731,0.529838401597161,0.5271007869211572,0.5496203528690038,0.6073733897918207,0.5715871131535291,0.5152071170741445,0.5256696522054971,0.5802280527497112,0.5622489277678219,0.480568735305013,0.5821933911419713,0.5709492755588267,0.5959525699161269,0.5202240627355077,0.5201093571548754,0.4347593070238881
0.5523293722629354,0.6097322134090511,0.5244297293022145,0.6067355945338159,0.5185565327970298,0.5314661678767579,0.5666646907588415,0.5087079221216048,0.5372019685960269,0.5806713825631684,0.5630402552443122,0.5403689742758223,0.5362909925741598,0.5695326501698454,0.5611625320145589,0.5586472176299387,0.5229043934180945,0.5469540428659887,0.5390381530017728,0.5657688108435803,0.5380360806672289,0.5247019638823965,0.5380540505117573,0.536101982438696,0.5539079511901945,0.544883455337292,0.5816067578019494,0.5204992058319264,0.606745390149016,0.5650942836564915,0.5507895609414846,0.5486269371078858
0.573721763186035,0.6005222071599444,0.6240555469721489,0.6050818392558177,0.5268710093809735,0.5978282245948752,0.5944048587906846,0.5632578222541988,0.5155441264763236,0.5956233193034854,0.550094071215943,0.5361819888812227,0.5392475257683866,0.5261485922881297,0.5273846052761959,0.573471591186753,0.5738332963861307,0.5540269380882477,0.5663669342707892,0.5819774175569796,0.5542653886609832,0.5423194577057432,0.5293601244404967,0.5625831660629639,0.579967416357073,0.5386866186694053,0.5721995268908326,0.5421705281712047,0.5935873381278095,0.5221008691302903,0.4955570235081792,0.5538037545859953
0.6052092121227305,0.6005282594177266,0.6238378165768164,0.6196133523608175,0.5605375413071435,0.6150111864373482,0.5915758964870091,0.5578602003236149,0.4672804158282814,0.6017547550276995,0.5120469556894046,0.5004940843079441,0.4566856260721188,0.469682560340308,0.4405777096358996,0.44831802230136775,0.426033539232605,0.4203639209912533,0.5036566096666668,0.5982885844627716,0.5202591748501509,0.4692371351394168,0.5821576355254615,0.5984075176131749,0.6121012782257073,0.5650427125345218,0.5774484296677808,0.5904651643388211,0.5905307849314488,0.5491449677952643,0.551171717839324,0.5578724429024898
0.5884591445690489,0.5978937720970371,0.6109649809587131,0.6179782363213546,0.586768793025487,0.6114129002557214,0.5630886171739335,0.6088609071576336,0.4844220757366789,0.6087969537302542,0.48752788876754855,0.4783446519343264,0.49625591717584655,0.4462081029501679,0.45386038717287647,0.4316489865747546,0.3935294542661134,0.40790256915426837,0.4943768746594309,0.6069426921860155,0.5381773917640736,0.49371881881924756,0.5932963906998404,0.6158720901631592,0.6075221313656041,0.6019342094414055,0.5923399029848063,0.6180288330256138,0.6108197190050064,0.577276374134083,0.5653357404121533,0.5478067371978426
0.5697927214195929,0.6025983131828275,0.5626195081212784,0.5926614504175701,0.5780029146613963,0.591708380219776,0.5710138950525008,0.4934556612260942,0.48720788568565265,0.5214345977379083,0.5198540615285809,0.5434426855866072,0.5551419754963834,0.5327148107324254,0.5234392450007264,0.5188767439225981,0.5244676185906882,0.5400617025512193,0.5763519492440885,0.6086747223038932,0.603259749046373,0.5896916273809945,0.5535913247168058,0.6090773945993887,0.5697780346967055,0.5217048894405106,0.5328301447013853,0.5744265168028329,0.5757480069567613,0.5252344028535857,0.5867297901349023,0.5748536946154518
0.5937873927742274,0.6060105258424233,0.5364902366882541,0.6050790105315929,0.5389331592730898,0.5587465546989936,0.5962495326352205,0.4878900328562303,0.5766487241847464,0.551646666444758,0.525526169585671,0.5604284089010061,0.5942979784132917,0.559352727434685,0.5255690506861334,0.5337998685061808,0.5534284382666886,0.5711833344586428,0.5773440180756955,0.6214848863209554,0.5870313824401435,0.6050409538145872,0.5476555053918463,0.5885112608872047,0.5355662661343665,0.5324128729543698,0.5235922813383638,0.5708606228647339,0.5720494749400624,0.5163334119656544,0.5315780214791915,0.5269698669218759
0.5966133612516828,0.586632289406229,0.5792383274031141,0.613118145788967,0.4916467178043055,0.5426119863277077,0.5738136434157116,0.5945620628547702,0.5155794550115428,0.6033617344642231,0.5424972159193316,0.5325650540284724,0.5255655829680815,0.5362711909700146,0.5491883409955511,0.5465837235735617,0.5501219698170681,0.5627150302657865,0.5558631300294316,0.6133968230313396,0.5752248971577627,0.5619198270259285,0.5707537918028304,0.5759280573953002,0.5337262201102155,0.552123790331061,0.5552607877238888,0.4849818676572859,0.5745275866513034,0.6045697231203818,0.48344451844666225,0.5730834400245568
0.6019798300472544,0.6202211849760759,0.5562913348344285,0.6009335433572763,0.5439306726883072,0.5370296588382384,0.5561657858162191,0.5812326057858391,0.5255101519411645,0.5952169856762547,0.5202026215543358,0.5027372722500392,0.5034523285616148,0.5420214445560545,0.5428136406641841,0.5387034862768022,0.532461009598059,0.5159524097358145,0.5613853165417874,0.597794929211311,0.6014281466030572,0.5737305612597161,0.5652362132390188,0.5712580013067915,0.5581148295433795,0.5376552995902442,0.5687174388977214,0.5156731656575004,0.5890234409273599,0.5807973536985204,0.5538460703981364,0.5447283550397667
0.6153352790114953,0.6239788213076211,0.5228168479885068,0.6187535816428454,0.5341284812173648,0.5264938869721953,0.4707210336128473,0.5615846542535501,0.5118536177755914,0.5761206100660516,0.5205783664544001,0.538830547223841,0.5255837100786452,0.5685539685518619,0.5616170962356848,0.5778977651688825,0.5828573921756549,0.5720236086445276,0.5676884456769987,0.6201088301254883,0.5968495961887399,0.49654352676107,0.5570910539935796,0.5512474455462497,0.5367560930207657,0.4570384278059073,0.5844828887604956,0.5861806785316485,0.6253291329768146,0.6041406334350496,0.5733278990528009,0.43912558420221404
0.5787758752300235,0.6105067789595011,0.4966347189943529,0.5972213537336494,0.5134291501424829,0.4622241326033407,0.5053643577380147,0.49066619863848354,0.5212250893639264,0.49937738180247226,0.5274937635993048,0.5448655192472638,0.5157958544419987,0.5465955651465138,0.5668171070376504,0.5436049746638967,0.5691789750094385,0.5562946443669357,0.5612131031541419,0.613870868418776,0.5458557759015465,0.5067828393922938,0.5468178754295234,0.5748727699025504,0.5422466723032939,0.48058448875775767,0.5614069860277184,0.554604913405954,0.6161381824500883,0.5763938704661952,0.5625599749798064,0.5110049881714188
0.4311926675486978,0.4711443539211025,0.5255480714543296,0.48546517710184506,0.5296226805422976,0.5573647697635555,0.5892314852307493,0.5217260426081017,0.5577912369038793,0.5941720019553268,0.5462210054869601,0.5452518974795341,0.48268261026312975,0.5391314470629643,0.5474765390296413,0.5351891604185515,0.5103693374445964,0.47317830711178543,0.46969173342915954,0.6004107220681664,0.5212922903271726,0.5019053919012609,0.4836428869466187,0.5371279027969194,0.4537379482597436,0.5549313957054237,0.5278233852058463,0.44344169089450275,0.6169195406246704,0.4941101711566514,0.5359386595979622,0.5234614532799243
0.3795048078377915,0.32399893814708164,0.283041198864247,0.3534562667893479,0.5034792880426927,0.3878801765568544,0.50958536530047,0.5393034859445585,0.4986884050148472,0.5629555338747646,0.5430986476838512,0.49922274344703155,0.43988694067609524,0.5186844317173341,0.5168108490024654,0.5063648737867249,0.4824943180058591,0.448935981178674,0.41741439983626927,0.5872754242399557,0.4535577097413397,0.407182486059955,0.4341651321146998,0.4431705179487732,0.31505683408809004,0.4880191697888952,0.45578013916449955,0.2665762801092063,0.6126424988400306,0.4823400890658903,0.5353330257443722,0.43972757332805307
0.41414132492185746,0.38267986034950946,0.3087062123774338,0.43643008144987405,0.4656088746050575,0.39143260423316895,0.4737362169042156,0.5693352080851578,0.498983854808877,0.6035965050314929,0.562147991399716,0.545095342062759,0.4762416771212473,0.5222760589663491,0.5634039966725193,0.5184248532086987,0.5328880123693831,0.5680652828552532,0.5233556951036451,0.6109067480470303,0.49545734850238804,0.44841675045454443,0.45708814539333725,0.4816373194224161,0.33206755344726757,0.4896426597765472,0.5150081209652375,0.2915957177156322,0.6167275914856426,0.5038401354799806,0.5645160173194976,0.48060849675393946
0.6170592663992597,0.6123047843444112,0.5968925203265372,0.6070210286035744,0.5871275822203232,0.5508796030865597,0.5906559390241148,0.5847301894188682,0.5490673576013314,0.5986513438142654,0.5051957729527022,0.5740398276471256,0.5451087263565465,0.5320753935349299,0.5318065856809453,0.46788372576894866,0.4413894720271533,0.4477530889776912,0.537907032804191,0.6192632741502764,0.6121173170941707,0.547421150247752,0.6011546986565829,0.6172150894628607,0.603210727185441,0.5929781943355614,0.6124753990347157,0.6178931884128477,0.6250458364887655,0.6205109020805909,0.5816845623306178,0.5270365849142431
0.608804458056284,0.604854385037448,0.5997497180562157,0.6098724830382262,0.5813692612058385,0.5950836014822137,0.5941302926222817,0.5393560566165517,0.5576122643798499,0.5900097228585421,0.4973735114844201,0.5661103389977399,0.5176893198288385,0.5234179803994017,0.5019279235661726,0.5097407041732035,0.46468542320645795,0.4669172702450521,0.541976165539156,0.6136647100608914,0.6076203060858849,0.5594686607887158,0.5993413268440639,0.5879296558011348,0.5727894186644072,0.5619756898063827,0.5741268738860822,0.5988260498049257,0.5963201264060876,0.5676270152482336,0.5850599595055869,0.575274054167628
0.604728197266263,0.5848472997868417,0.5755826882162728,0.6026222839104833,0.5790114942536994,0.5946086741375397,0.6002613056022478,0.5643523916968157,0.5105948396676409,0.6049810964772705,0.5550088678604717,0.5613821532144893,0.5126995034445215,0.5690019918130841,0.555216429288936,0.5570019503910434,0.5299302930085664,0.5051321468956673,0.5350004903878945,0.6177284161513323,0.6009313237615904,0.5052810664976735,0.5759723179384981,0.5593684478692004,0.5631012182424397,0.5635435847975286,0.5946931778369151,0.5155705474947505,0.6228380873365869,0.6043063853901439,0.5850776563397656,0.5780412431741436
0.5962277143569553,0.5850163592264994,0.56437497776302,0.6121506618451561,0.48923950324679716,0.5749964850129258,0.5932884308495862,0.5738163066585538,0.5567327505129219,0.5637350994851901,0.5185724970374697,0.5498779477536596,0.54298622648772,0.5445185549978445,0.5377901503943704,0.5404445659390534,0.5515172775604806,0.5563257974598236,0.5476181485894708,0.603928415741873,0.5565852273527762,0.55445064076173,0.593135681401603,0.5739839884255189,0.5443117526728781,0.5517529198532987,0.5704637005972857,0.5170947862760272,0.5987363440881466,0.5737737544875499,0.5494307977518434,0.5748004374152613
0.5727684817048895,0.5959345004323627,0.6059970269946172,0.6111407066904442,0.5104891696316746,0.6024881274638589,0.5844078708833987,0.520754755912162,0.579024324836257,0.5864250893125442,0.5439108499387683,0.5743696243409833,0.5234677447897268,0.5659616210786947,0.5484398584171497,0.5486427361814505,0.5234140202709849,0.47041180101772184,0.5238546536235009,0.6077472940267356,0.5433828894824669,0.527358501225796,0.5986732979488465,0.6049636110634453,0.6112088035470561,0.5091367243181482,0.5487342645054094,0.6062650003932534,0.5898290673634982,0.5177802808091647,0.5348304125990626,0.5953390784353737
0.61465942132211,0.6238385484757155,0.5676772952110916,0.6009100286636238,0.4936928124022781,0.5219826955927955,0.5783535527679617,0.4806765712541411,0.5883451554390154,0.5684301095925005,0.5526138990517213,0.5647192458473261,0.5318702399039815,0.5340663022001476,0.5245087062396101,0.5571688018099493,0.5414759241844095,0.4983030596842993,0.5702204903896533,0.5974856461102293,0.5673481749569405,0.578815155470182,0.5457500715299448,0.5877170144932243,0.5865566943040731,0.5567702323748036,0.6147808606893757,0.5592568556526428,0.6101418690948225,0.6112859093513048,0.5627491533771615,0.5581447723897742
0.6068597383974736,0.5977464792256861,0.5842962939024579,0.5990377512696989,0.5499639940975676,0.604370566674533,0.6144478841661378,0.5937209990101601,0.5645743007323248,0.586013342098017,0.5463984049089832,0.49790462500414373,0.49233410248476983,0.51597338137959,0.524748540973772,0.5472724101084484,0.5531607623364359,0.5139549495458329,0.582841887069513,0.6130364977916246,0.533371326003968,0.5900505822293166,0.5743587129411029,0.5816213915767814,0.5887891096564583,0.4847009997384082,0.5960237947273656,0.523736675869094,0.6023654290398798,0.5586149643827315,0.5212379105975814,0.5652987164406904
0.5433423454097714,0.5460250115728141,0.5604136169495831,0.5706259018353783,0.5275919853083294,0.5407038626086864,0.6095791163695656,0.5640854246658269,0.4882354605653892,0.5857102596288032,0.5632819150285231,0.518125069486863,0.5887020676822488,0.542242192440329,0.5532059589397865,0.5463083289133583,0.5513840468488246,0.5232262456938581,0.5714472871940955,0.6063590704781638,0.5773740202388895,0.5723307635145667,0.5756459423889265,0.5510527318151248,0.4684477077675404,0.5862418084221906,0.5912877003869271,0.44149488110657353,0.6125920953192008,0.5393255201343271,0.557485733746493,0.4927739938880778
0.3326680057595675,0.29266114926443365,0.32441483528075554,0.3925024291266295,0.5398304893042514,0.42468650007301184,0.5570383365924183,0.5669492766679148,0.48695122272247227,0.557327624501963,0.49793617831623943,0.5099899227629798,0.48030156632825893,0.5155280168551443,0.4989286484519731,0.4399483175705328,0.4781626528993606,0.47066474793024304,0.48253450898830047,0.5874719229541121,0.5350919958313226,0.46192642464775036,0.44094057780635626,0.4686249199110455,0.35367838280816916,0.5111607574646075,0.550684257454364,0.2470683424987594,0.5969139196667154,0.5141071327084109,0.5302800592829955,0.5238855382288479
0.29492009257683593,0.2536079872705578,0.17775277039202841,0.30862605692226586,0.5424892788084408,0.27477976376966773,0.49145500714901785,0.4882165366301085,0.49200741150484356,0.580515667438756,0.5580692364205335,0.5342015835858609,0.43004086391654567,0.5167610160981623,0.523130019789844,0.46829456713108,0.4481643677485452,0.47405781721363044,0.466442468781736,0.5699229354838058,0.4179096556936787,0.40218112982698595,0.3391677619758204,0.3721154632654539,0.2912484818955905,0.49236689221931146,0.5287250359277024,0.19770832383974676,0.6060055717760192,0.4993633657909316,0.5450774633855899,0.38413825751080427
0.3287950728473391,0.2732264659853213,0.17399833421470168,0.28099948758042503,0.4860069031388757,0.25469064540669034,0.5141838560645271,0.5174313124116378,0.44896992066721897,0.5663921018896115,0.5522581968484744,0.48647336251330825,0.3859959962315725,0.4672828954269565,0.4869973992264285,0.4600880704452826,0.41924716738741497,0.4297289803063225,0.4246967965898675,0.5831826700193848,0.449062595424093,0.4034051955295204,0.3999019710952418,0.43966483734843953,0.36277106774349965,0.49839580845337916,0.5751108367559661,0.24527527781762373,0.5969115788619268,0.41461858003195734,0.503103437696197,0.3999934655637713
0.487113552667204,0.4736895995245165,0.3591659007074923,0.5431485233164044,0.5119466414719059,0.45540924897094864,0.5595354361512672,0.5333278434379101,0.5326795918031739,0.5488921266561708,0.4823823774430573,0.5104611997835681,0.4783977407603862,0.4863674469141632,0.47242588683168574,0.4396838399132491,0.4307300768042487,0.463049824385512,0.4550800846220926,0.6080995187165658,0.5561491750746623,0.5190965392829688,0.5553917082045419,0.5024576324640887,0.591080834917388,0.5550263626119998,0.6095145360524568,0.5613488499950338,0.5908063310941981,0.4532568085364937,0.5113844406512214,0.5946052800012629
0.4911209743190679,0.43571404345161213,0.33033201215967317,0.5148682571677308,0.6054184671059253,0.4179281422783823,0.5170532225990215,0.4971939167810759,0.528198968072299,0.5214742506490474,0.47119874562533526,0.5227223618940589,0.5320504478121718,0.487616238522411,0.4825971766746052,0.46343824357645497,0.44427602202819316,0.5031850855303613,0.49279377174043354,0.5983891411681349,0.5369710581805877,0.583293000940142,0.5723400017208269,0.46637506666377837,0.4477425168677844,0.5878944837966974,0.5708701425270506,0.3445988329385198,0.5912243506593428,0.5711870336224489,0.6026560628043708,0.5715922347059084
0.4722693575851691,0.4127129835483418,0.38684682592599684,0.5041747230038652,0.5581146399677548,0.433617759311411,0.5177150569054962,0.48946207350880555,0.4671433349752202,0.5420956719930302,0.5414041912630589,0.5300522943818224,0.5803169124808698,0.5561415009340732,0.5444612674259445,0.5147002611835674,0.5542928037787496,0.5567866776889635,0.5874233712852693,0.6102650284098331,0.5791729296753768,0.5593248568705098,0.5704808356571724,0.4962221276300635,0.5097721759590811,0.5224433622657416,0.5492036027968829,0.3998271410251462,0.580221315760269,0.5192029266561143,0.5146493360449191,0.5439655375672149
0.5606430333909568,0.5607281124425993,0.47092809866161195,0.5751013633801326,0.539366364731198,0.5245643144942783,0.5815745657604389,0.4861817405539805,0.435688555444264,0.5917672525173377,0.5376417084061432,0.5423972102867356,0.5458384126806745,0.5447443663100366,0.5554552021461845,0.5585782654920525,0.5464182993743344,0.5515515877637206,0.5619579963421493,0.6106362800805866,0.575421459666357,0.5256910854526797,0.5299724308469903,0.567429438598351,0.5536146706311126,0.5246330975866977,0.5341209245939667,0.5292349810941027,0.5676656518677096,0.5288728172042202,0.4953938478014949,0.5289455050382795
0.591132222978744,0.5572899938602343,0.5604104600448055,0.6130920641760386,0.5593264285847116,0.6121856978527024,0.5773062373521306,0.4531648420202536,0.5421847065995562,0.5996657965047418,0.524029685047147,0.547825355142048,0.5741081224238025,0.5003319362305451,0.49969687686795144,0.5297162768550764,0.5032350886219974,0.5066325430831771,0.554349695931351,0.5984565350651806,0.5697502123422795,0.5744647910302418,0.5521057891443183,0.5971638326076965,0.5889498438871126,0.5537269348739092,0.5812497879909466,0.5745954258199814,0.5957666012373755,0.583156768206155,0.5819603606763027,0.5173643736253741
0.586610831651501,0.5304908266232159,0.547639213833528,0.5898377518872323,0.5610576725245288,0.6105769642255875,0.5632533225226747,0.561863806583954,0.5558391427058951,0.5758437051716275,0.45772552655286614,0.5205772416407164,0.5384513362726794,0.5092790963584841,0.49210377969655633,0.5099241263779526,0.5028062024903689,0.5128197039919865,0.5088050618024031,0.5861924735108962,0.5372770335416672,0.5549851712399183,0.5112764824544048,0.605222971220977,0.6067881190966582,0.5703694620050522,0.5756216924839513,0.5644549496594643,0.5986307400314296,0.5709554604682244,0.5571183514023512,0.5735573418895692
0.5365132954722975,0.5176288825973703,0.5507263795915658,0.5735289004044363,0.540447668140889,0.6202706618524557,0.5861854489551444,0.575349407809048,0.47681460266070763,0.5616089301778192,0.4961675517770887,0.531696159774319,0.5194098593982274,0.4684654900395006,0.48507899863726806,0.5158213193099259,0.5048039330962408,0.5349060923757353,0.5379044922227204,0.5976308837708036,0.5797272442090958,0.508647244233668,0.5457371602910916,0.6006749736551925,0.5769396628870798,0.595724471609042,0.5840636858022747,0.6150562750599682,0.573528965561575,0.513704353552867,0.46322870097633384,0.5609950002613865
0.61237799059159,0.6205156066741325,0.5992177117443666,0.5980510324823767,0.5060281936813633,0.5884842361062513,0.5681570753515227,0.6045569354245662,0.4894669319499822,0.5552886988887424,0.48017091793854827,0.502654700408043,0.5627772337255786,0.5083234122450959,0.5072396213178864,0.537373977502407,0.5364414672243176,0.5353430792706357,0.5625500964367847,0.6104245213759222,0.5846568201270322,0.5718626609215652,0.5476181896557331,0.5860902992257159,0.559430444217731,0.5719298767521038,0.5582843405132688,0.5622265488238257,0.5833808346733336,0.5626053900420618,0.510883200588143,0.5057997529221723
0.43023490253391666,0.4437572276046656,0.4571734451238193,0.4505107394853597,0.4936529873821575,0.5371870526955543,0.6038132608883038,0.5941601163672419,0.5004839498210382,0.5275626391375892,0.47430721317357843,0.4858748878352125,0.5487500348361621,0.4960743296639271,0.5205616907564854,0.5427718940935481,0.522124387034358,0.5065130758506972,0.522362774920625,0.6021032976675742,0.49880383830968167,0.48607442945607937,0.4805207538214918,0.4903292389362009,0.38643044141247096,0.5084356163181477,0.5290186952269949,0.31660854424639834,0.5764548248813793,0.5344171727005274,0.5337323720969526,0.5027865811980455
0.34986061708498856,0.2883563082398687,0.26066512319801544,0.34111142494850244,0.46160139270090705,0.3525252888262243,0.5359034531168319,0.5608363593914595,0.49775465529000534,0.5275876294245807,0.4867717963332256,0.4941701799888122,0.46695536462611426,0.4847381759192896,0.49976753681026476,0.49344624335972853,0.4553034451921635,0.4540880668265994,0.46849925392066977,0.6058390288323499,0.46443860062164455,0.3989421972040326,0.41057135661246474,0.4440770615937341,0.34408753033464756,0.4514795595757622,0.44799088330865217,0.26049010192928485,0.5939810434039857,0.49133470819669606,0.48824556775532063,0.42374932221149486
0.4415832633679026,0.3852542532839902,0.41023470653375993,0.4350732783762956,0.4406142679724723,0.49516052229504565,0.5500806985294819,0.5910589135556803,0.5256307891207382,0.5218672110471481,0.510006932016286,0.520175515315722,0.4811560660193858,0.5111352467702664,0.49727533281552755,0.4799033250719469,0.4743536193687346,0.460277251593682,0.49641532745788264,0.6099861746006188,0.4903803027263423,0.4731371032867393,0.48314995014702977,0.48045448167082383,0.4393854760102756,0.4452033788706093,0.5035755181807504,0.3349014181390034,0.5655125196918553,0.46896989722987176,0.45641412776997625,0.530722778510643
0.5891862135439666,0.592020647558802,0.5405011032895346,0.5939851142541276,0.5032682620715061,0.5714036761027457,0.6128374004122965,0.5561258231309926,0.547083803046862,0.5724665178206163,0.5431206587254656,0.5326784157024341,0.5250028800892165,0.5516659268000741,0.5595630941457005,0.5367653279144037,0.5086330837488017,0.496236998910437,0.5222811521818669,0.6298713476141087,0.5951791269211572,0.5304770397466851,0.5775117451415565,0.5893332164829881,0.583776650800981,0.4793644865526616,0.4746855000971188,0.5524065227451339,0.5892233141075065,0.5228526519759065,0.544253751104304,0.5445350562146539
0.5981107743658866,0.6012043022141027,0.5804386569312616,0.5990081878029971,0.5830165731661032,0.5496593747765804,0.5266237773959779,0.5616244265457221,0.5819798546825411,0.5731903954212098,0.4473207971767152,0.48039083152860695,0.5750477568116961,0.5312395074535642,0.5260848321359721,0.49343148100474055,0.4655533594191205,0.4883567718205542,0.5611412178792792,0.6115529394533078,0.5823249436199733,0.561546909272039,0.5189130607135529,0.5783889933078682,0.5290092396191316,0.49719965089050977,0.5135538104522425,0.5137270779461595,0.6076435999811504,0.5455479953256589,0.5486587953507439,0.5397916637582724
0.5610161648103805,0.5410890575689422,0.5757659459252976,0.5995638562792601,0.511830392644977,0.5574424349550997,0.5770093241563914,0.544364423871317,0.5855993287559392,0.5963886569061561,0.5234705553983262,0.5486370802346339,0.5140894662736898,0.5459046317680987,0.5213506329893131,0.5591053557077208,0.48691477444998205,0.5209550844188172,0.5546552674389943,0.6235418334076653,0.573271236074106,0.5739730248357433,0.5849316444156363,0.5912504786698539,0.5515880652222233,0.5869243853286801,0.6255104125054398,0.5443853179929131,0.601902707367796,0.5457123965122834,0.5772179322307719,0.5112577129756907
0.5162347793303591,0.5057403037697434,0.5697453543428183,0.5097074969141052,0.49584154524332485,0.5731262074810896,0.5929661004299144,0.5155932308045764,0.5713642380163994,0.5916265588112333,0.5676108665062752,0.5611899506759971,0.5570785740599549,0.5402239635526569,0.5231930591017911,0.5713372609157639,0.5333161292216885,0.5775213142693754,0.5952680591963805,0.6171245322929382,0.5785578291492832,0.5976447341511634,0.5857700469772641,0.6097755007417643,0.5620042268813102,0.540388476250147,0.5898765146500632,0.5499188755784017,0.5471729828619464,0.5068005666358354,0.5550956979762774,0.5017594004017071
0.5788940325882647,0.5611705909788306,0.4955944750926486,0.535401872064271,0.5105909513153295,0.5586410028361968,0.5844692837460083,0.5019554502200476,0.5794350472569205,0.5616062702607016,0.5121314880991843,0.5110896682519727,0.5047303923107663,0.5073501913523305,0.47442920032672187,0.5177103298363654,0.45482668099715035,0.5159872925400998,0.5405396012168228,0.6067151116343852,0.5624143813552397,0.5781909201917647,0.5807326033595501,0.6027250492492354,0.5542204377739172,0.5348904371034257,0.5544992776891393,0.546434326869376,0.5939028738718426,0.5355796352995206,0.5419792924635534,0.47636735686231824
0.6167483723566838,0.601050499840371,0.5044183156475411,0.5884109114475123,0.5320978954381363,0.554506489953038,0.5804310097590519,0.5044190942975709,0.536242501341175,0.5905342385115196,0.5556649059759351,0.5299790450201057,0.5138500211434228,0.5003166115898166,0.5339125087872515,0.5559427715970352,0.5402914818643718,0.5473191364103297,0.5398060663125541,0.6214373023301013,0.5695996284876681,0.5467560184039038,0.552025950488365,0.5971462916537187,0.5756337675333276,0.547322102861041,0.6024910723913525,0.5517246837164413,0.5953305771358086,0.5763397456378473,0.5560802432350901,0.5319326444564628
0.6121341637475887,0.5540546372379365,0.5254553837640334,0.5624852128817611,0.5585756645216351,0.5293728251217366,0.5030192215108794,0.4992851440839612,0.4773475199564452,0.5478223079781364,0.4835640132715666,0.4695972452208112,0.4341896868696102,0.4189998476330662,0.4760107363224888,0.4911487215441576,0.44442347566679485,0.5012510037331241,0.5014652750275539,0.5931087128880153,0.5007105008107384,0.4800834193577198,0.5206836583263246,0.541650759934056,0.4531086042657018,0.5840663540532269,0.5476681864604687,0.4488474152602529,0.6227134425615021,0.6041973248634327,0.5891486424041293,0.5650976932652071
0.5870095181782847,0.5812675728992003,0.6072423133258809,0.6147926794913706,0.5650684800401883,0.5687990064128708,0.5830814624955342,0.48499867541517594,0.46901213984967693,0.5730750209160591,0.46489358197392633,0.4920506984627087,0.46436385799429764,0.38112715291334087,0.47491946504170024,0.49151563806442383,0.42102187519854756,0.4950130608562056,0.5008777166331303,0.5962412658466604,0.52476641279906,0.4750675982554647,0.5149554795538036,0.55218605328709,0.47175906592361827,0.5262575457234893,0.5628220545140568,0.48996242366897436,0.6207458463669124,0.5948935090217742,0.6031454268721106,0.5321227250561975
0.6171160754030705,0.6002964290712303,0.5893569803939848,0.5968623738723585,0.5686064221818637,0.6148303272943891,0.605775306423746,0.5010006627215117,0.530577455121395,0.5865809037229653,0.5216604292886576,0.5066348664463012,0.5754083612583116,0.5008644700126076,0.5338553170804499,0.5607836640242148,0.5329718230648761,0.558287935970001,0.5828609572990757,0.6099157288893066,0.5816287739127534,0.5831316192503814,0.5634765538231596,0.6132618778146463,0.5620969976241253,0.5708484196392104,0.5990580540115948,0.580495350348833,0.6220859593601024,0.6047014428816996,0.6008037014248552,0.5422122099239174
0.6171184169985718,0.6114104084493776,0.6005560206560905,0.614739702656215,0.5677129712497142,0.6013966636808556,0.5940154168245417,0.4916388975673508,0.5136393409979416,0.6005148270139133,0.5196401687016681,0.44549702852334394,0.5568792344071141,0.4736294499190734,0.4491301136796218,0.46744895339390674,0.5007220631341478,0.5087354204268627,0.579544100769568,0.6168261113227276,0.5874970250927163,0.5971858765263975,0.5725048851450739,0.6138910817203936,0.5814501449018061,0.5793387450530753,0.6077388251425189,0.601990419207402,0.610567023641824,0.6041588259800408,0.5994148353822717,0.5823418197769284
0.6128674193872766,0.6120593375771968,0.6127323749183476,0.6007134434563826,0.5998424957789087,0.6176948855310783,0.6221194012973641,0.5871680477323781,0.5703158195101341,0.6193335587123733,0.5859423447243576,0.5753027896299786,0.5354385061967063,0.5077251959765609,0.5288032723874352,0.5117529218682062,0.44182749610673994,0.42750060003804446,0.5180202699450251,0.6122586612307701,0.5945218287555267,0.5687621224613061,0.5804460729764052,0.6183041081959406,0.6200516274111738,0.5893894989300817,0.6170195400107181,0.5929542846414034,0.5845289992517448,0.5807066251049037,0.5934820485531803,0.5658698637272948
0.5097001545872873,0.49695840581042244,0.6065444169515655,0.6008497672508791,0.5897120018414632,0.6125294579592877,0.6225662340919415,0.5915114894994228,0.555816969575697,0.5594661114324591,0.5200859176838387,0.5348046836576071,0.525230208333272,0.5234788000718931,0.5244548149129954,0.5309526117853384,0.5105813275101991,0.511964381755288,0.5253245594421576,0.600115470958687,0.5733858150242308,0.5738391143818024,0.5707362856593224,0.587418789440014,0.598195436350775,0.5837936559704728,0.5942923091493206,0.5393863779757273,0.6157804788898912,0.5430914586884439,0.5830540382703817,0.5886185740602311
0.5403830094106566,0.5687894543623231,0.611239178956631,0.5649934444920349,0.5477108478611336,0.5498857915925485,0.5636902423263773,0.5447468167346406,0.5600921376107955,0.5485230518996836,0.49723680189378044,0.5234354593234282,0.4769007153237465,0.5182862600243978,0.501326976486569,0.4804398939737859,0.5094250297603895,0.5094423416447561,0.5333161128895392,0.6168315580829777,0.5667175442523256,0.5395089698722372,0.5846232940200817,0.580448701707017,0.5729341923766562,0.5630494790074739,0.6096550500762341,0.5628731409425216,0.5886725547273421,0.553449048129967,0.5810864529587286,0.5799595971575717
0.5763307954917964,0.5693445185265033,0.5822751038124753,0.5626812636419827,0.5098211378085876,0.6052477347099349,0.5940604239292182,0.5536697992150711,0.4864313441011408,0.5304715667590338,0.5215958407983441,0.4596899918375946,0.40810022980109917,0.48929558720332716,0.5162073759781528,0.47145376610094825,0.4935710927727581,0.46980057951389176,0.4809148658018913,0.5965271986157316,0.49725078437313686,0.494833684850613,0.5606156356515439,0.5589829129299833,0.5968073895747288,0.5622252487150065,0.6053883932620814,0.5643152249797163,0.6101984793564691,0.555642614926082,0.5382749007551494,0.5818632406006307
0.5988061797502706,0.5804022753362498,0.5820791294777078,0.5928350012240998,0.49226093287129835,0.6096889458227204,0.6069416577662305,0.5250329962671101,0.5242247128299872,0.5597081484940905,0.5320911405203581,0.5220387130191241,0.4765402801539186,0.5113312705877042,0.513898026441497,0.4721159504643507,0.4939562334558201,0.495696411292386,0.49334266736497,0.5805890723993696,0.5550283226260687,0.5486974595376671,0.5077763647009372,0.5387738733118692,0.564215703483646,0.5050610971945434,0.5612382191731217,0.5226425241715903,0.6096032100695653,0.5602131211458852,0.5275497440054153,0.5589024156838984
0.5654859860452296,0.5330554591266894,0.4153169615607022,0.5557066197335904,0.5227536838313126,0.5597768998796252,0.5174820421344511,0.4301241560144755,0.4716283297879383,0.5515702557711241,0.46923933286317043,0.5543535886948314,0.5415104615995429,0.5498000625355215,0.5170281388487008,0.5641824826147067,0.5336612541119974,0.5595316441403336,0.5565635515956889,0.612836150393541,0.5271885312449993,0.48833762465699915,0.481854054040524,0.5210481449725768,0.46949540494021685,0.47571806399584426,0.5665892546518098,0.45500872043446555,0.6033165307605441,0.565072838898518,0.5578039648911765,0.5371464403692191
0.5390547753369951,0.5637798003432083,0.36833662646192983,0.5267649553379904,0.5450682163981172,0.563220663008615,0.5283110547394333,0.47152164502450944,0.4492256774579986,0.6006867115828862,0.5175899672762428,0.4831030325812797,0.5071555298518017,0.4717303785917263,0.5035401593579981,0.5033393940535297,0.5038875597298406,0.5485632053071337,0.5643878189253494,0.6049034517362528,0.5058602154369056,0.48829353385962204,0.49498908828523597,0.4988467257308159,0.4161410358495577,0.491102403918034,0.5857921680713483,0.4642190304611361,0.6081808890706937,0.5983405173172138,0.5534982482411901,0.5010332060235564
0.4827267066704314,0.4847763440050585,0.29285443085982427,0.4885757064456334,0.4978468291004687,0.43808497424640735,0.6134346797896585,0.48877013323054413,0.45627601251687644,0.5238174017702592,0.5443244506501524,0.517427623488884,0.48861722961433807,0.5197574610418727,0.5209850787169066,0.5710532508412882,0.5329752626246357,0.5367512769141476,0.5623413203751075,0.6107135606714562,0.5371597598248093,0.5768263883134879,0.5339301091941943,0.46375859106926043,0.4586674318788516,0.5219810757725794,0.5874234667539425,0.4203661670674975,0.612126762639557,0.5852737365157574,0.5780154456115312,0.3847111770983988
0.49003992783114647,0.4774061560668113,0.3448490278246018,0.48770357539639236,0.5355633198784758,0.45119243561249694,0.6270922883037258,0.4847248936717432,0.5181654732262003,0.5699063453477649,0.5829402022990581,0.5545826103175849,0.5418701072660704,0.5891415444861478,0.5646630918001264,0.5570921705854968,0.5537886793194787,0.534298991222852,0.5748515494142035,0.6301026005475329,0.6090784456309822,0.6039547477167007,0.5926965147967048,0.578884850728897,0.564812077521535,0.5736823468145071,0.6018979403343794,0.48861012909807927,0.5924741166722893,0.5935763287069089,0.5716875481966873,0.4791746670518623
0.4293437350877071,0.40019946626832287,0.26763932974892835,0.3875453878650734,0.49098858487164315,0.32397112911754833,0.556375001004644,0.4552860877091107,0.4968090261645467,0.5661049698086601,0.5178342739383894,0.45578244948798435,0.49679420198078106,0.4596581215220471,0.4743767862622002,0.4074377984076393,0.4391099992476554,0.4228250618642398,0.46066675813733254,0.5887782475134209,0.4750136036493651,0.45753663291318974,0.47166630546275895,0.4634619697911971,0.42440189887882523,0.5078618415228298,0.49178443333150895,0.343366025927022,0.4961655376068411,0.5549308277053785,0.49459253268165104,0.5251831492723097
0.42109718996342577,0.38782848049568397,0.3099590378762936,0.38848085772861,0.4315604210035339,0.32348945202329654,0.4495293584945404,0.4695367483938979,0.47309017119111957,0.5865342739323928,0.4942573939560639,0.4516052453580271,0.42777546024793656,0.43080345232990436,0.43342669921753124,0.42311100103587646,0.4099549025833244,0.4278807676784279,0.4681290954752588,0.6161878009857528,0.5315939266890077,0.5015222093477406,0.5128913192412692,0.5399239612497073,0.4900912055415331,0.5402035246542148,0.5106173287356197,0.4184699649907139,0.523025619910952,0.48648957277759913,0.4404598845861734,0.5817626681245425
0.5719721041380029,0.5608795834724262,0.5801457002831426,0.5952136588034762,0.5511328051199598,0.5854658315961544,0.5787860465095537,0.5329399151528598,0.5670261380456793,0.5661800049669721,0.5203523572419705,0.5273059608180596,0.5562721855359898,0.5318778655587592,0.5225013346544352,0.5540479916436609,0.5058322928249205,0.5071946916347575,0.5640798399097403,0.6250693628332252,0.5831204729351213,0.5595314819730972,0.5628665764301181,0.5850238524212669,0.5661832180963473,0.5478816957952799,0.5892137324410094,0.5584107863824764,0.5676434895533278,0.5767643695095627,0.5611761379400436,0.5500947124404759
0.6040470463693414,0.5928791420486186,0.6130466075446902,0.5913377547428288,0.5758694931618329,0.5687521124631135,0.5977511097767473,0.5634263283076932,0.5502899985622021,0.5763639150370512,0.5827026145178488,0.5618118526127555,0.559070838879362,0.5473259484072471,0.5342648581367657,0.542736555398964,0.5041692131853438,0.5260597096369886,0.545997450987311,0.6187887509027963,0.6069746678288825,0.56094583401283,0.5459750024996588,0.5515973224018692,0.5513070931241393,0.5818099935922363,0.6049396223348711,0.5710217478447939,0.6301520379231399,0.5934956091662932,0.5995827600867482,0.5647542621799108
0.5936660070489271,0.6070755806827252,0.6020907570168119,0.5913114031987782,0.5415972428439814,0.5437766407805332,0.5803984495205735,0.5987258334445498,0.5436262787628003,0.5821559360163099,0.5634491737207686,0.5662410425286644,0.5908228836966611,0.5444073090824116,0.5561858599044489,0.5292103990148999,0.48287633400370467,0.49724326221980586,0.5197864121420004,0.5990007054510635,0.5851696128505909,0.5323281676868665,0.5492817514336491,0.5639557944796939,0.5453469259771542,0.5485500322346275,0.5838743234937899,0.5796975263263927,0.6166911812817847,0.5762897840214467,0.5804107998522593,0.5023451837600714
0.5908982996953904,0.5966386783842379,0.5401043782347391,0.57650028948727,0.5519454583498543,0.5988281697105025,0.5852649154527205,0.5427647752898227,0.6010086696125319,0.5514934624604819,0.5556377640079867,0.543029433518293,0.5458717313834233,0.5081378558284434,0.5113748345190712,0.5343106765042869,0.475520717986899,0.48653059474959426,0.5003053150457905,0.6070694037565991,0.5324604225484205,0.5136009372322307,0.5782327281285137,0.566477687211741,0.5431297567395846,0.5310022999546565,0.5678634730953555,0.5445053840465183,0.6102122789289312,0.587170044434493,0.5318533594143562,0.4728279724896753
0.6225293626539992,0.6084465761985934,0.5941210746300898,0.613581640711988,0.5311129271512275,0.6002710314473907,0.5291785700414698,0.5700283472334408,0.5127066010517091,0.5870003595565217,0.5444137930189171,0.5457044083670318,0.5356580035317202,0.540212395014565,0.547113703990344,0.5341857378612981,0.5181191064295816,0.48818269307374007,0.550627801961402,0.6131920174871843,0.588523050660341,0.5775595073505395,0.5811783256071682,0.5685760867305607,0.5662474638657953,0.5571943153755008,0.5770899395263902,0.5554551403985473,0.6102212934964321,0.5945015606062826,0.5685722548908279,0.54339874905561
0.5869652937813364,0.5883700584659664,0.6017821863146072,0.6189427111096997,0.5728265676690496,0.5732679436155105,0.5873687594368024,0.5650078382221595,0.5230113507305268,0.601108493993859,0.5648716509301732,0.5351792598160942,0.5478206329104617,0.44416582157345247,0.4687692378252005,0.4204650075782884,0.41904633857153556,0.462355494800567,0.5421882593380122,0.6163192736477565,0.5596296988780801,0.5139519518267793,0.5281619001603567,0.5443277480727285,0.4983044161810486,0.5504534782346143,0.5971130946471014,0.5428910541264197,0.6058769632646454,0.602837140762381,0.5954207876213419,0.5590847317476998
0.5548462046065278,0.547936940866735,0.6064262507414278,0.6200340811950386,0.6034946881917322,0.5511837425313705,0.5787325375903124,0.5822163831443932,0.580131023599381,0.6024832273460209,0.5761079582142832,0.57621218036084,0.5803515798097393,0.5376092740758939,0.5536517084335092,0.5102334022699461,0.48588921252425404,0.4902745058807908,0.5637397113791165,0.6309688186854101,0.5754822516366971,0.5363682635716959,0.46990862210122875,0.5346084756023641,0.4981048680572979,0.5082214924954599,0.4965716038922,0.5400160971270802,0.6278734794647356,0.5600215204274054,0.5343190754916367,0.5720171965453351
0.5401103402436679,0.5397331071163519,0.5669455240887532,0.5652304715814387,0.581888289185487,0.5460461386535944,0.5647273374733912,0.5839649538758561,0.5802385244645651,0.600147840489698,0.5760312000495399,0.558226999719267,0.5594810670422161,0.5622331946592516,0.5627353053519986,0.48462051284724345,0.45221253317721405,0.4393058945413461,0.5646797695516063,0.614927030900678,0.5194476742778928,0.5275971405204863,0.5747479397641537,0.5857400318431923,0.5562081076226242,0.5609048111605109,0.5732988379449858,0.5237532016429853,0.6061087475162451,0.5483536515256913,0.49847550815789754,0.5727538750219616
0.5562822585350283,0.5356786789830815,0.5790474294930082,0.5593626900719972,0.5523510179816401,0.586488466112222,0.6124751150036946,0.5306985148784585,0.5608767692180928,0.5988207407726592,0.5424598562935774,0.5343790662940011,0.48548753577899795,0.5004555019045991,0.5235369929828207,0.4642975835048247,0.4542645108965521,0.4926713427212164,0.5643935719357966,0.6158893522090411,0.5324136125968613,0.5085479087700587,0.5737894263302586,0.5805929412691564,0.5092316688577782,0.5334332242633482,0.5501188705392593,0.5332378677742636,0.5625908426382561,0.5193779312124318,0.4495970181852773,0.5837367717757309
0.5495873894242583,0.5582787142546056,0.5777663255335065,0.5931589710132954,0.5565881479415792,0.5966803940735895,0.5501911405362084,0.49336148911338995,0.5723941564316778,0.5437524793812291,0.5173358725005179,0.5240221694989015,0.521465312140106,0.5090052502591136,0.4619750787130426,0.4749200004630362,0.4192194333245697,0.4389038206361688,0.44003760204954134,0.5739983420710862,0.48720226570528374,0.4867237536184798,0.5667533691990924,0.4972202232406645,0.4756231711689078,0.534787394411096,0.5783162923237677,0.4663853257342517,0.5899329336185708,0.5232689309646156,0.553817248906148,0.584776180173147
0.5975658960911363,0.589858686707759,0.5628466482975389,0.6096846267190187,0.5426362764615459,0.6036331630019109,0.549562486467724,0.5143521674029353,0.567170443352928,0.5731031934883147,0.5459929766610596,0.5496774213614668,0.5923643496813336,0.5348394949185067,0.5410592795878572,0.5515521549721031,0.5150414717556321,0.5207992835632701,0.562730440294386,0.5991597297900361,0.5854443336895003,0.599340791025383,0.594502662506705,0.6038636232770387,0.5719024380319601,0.5606708919524276,0.5931747233114707,0.5596227429884337,0.5929873068476995,0.5599178476529492,0.5497795746618986,0.5933982103455993
0.6094383973502918,0.5894663498332134,0.4847362460693157,0.5691259675638913,0.539605262553342,0.5673681080976289,0.5647577833436621,0.5710322973739543,0.534455541468969,0.5735907481061278,0.5123971211013786,0.5287344181449828,0.509868165940127,0.5012551420297426,0.5144783076523366,0.5396397264936224,0.511814284683821,0.5118240534009202,0.5145914696538669,0.5930546493304157,0.5570441633928934,0.5169856885830575,0.5606692768234305,0.5750681771337041,0.5789274592916444,0.5963960863257846,0.6094204753726887,0.581668678544149,0.5761602029849123,0.5786098034299234,0.5524324648146385,0.588321611743173
0.6188391890954844,0.5911571791777905,0.5326596235761121,0.598512931478588,0.5388480931796042,0.4876896993935855,0.5510910009959226,0.5021765037303223,0.4636570071771139,0.5655508508796029,0.5240931980526995,0.532692217495102,0.537404650487081,0.5250846601262892,0.5451691108288584,0.5493630781153528,0.525036599533741,0.529222643539666,0.5254174902096654,0.6222018880883196,0.5634535480206857,0.5506828332635014,0.5715068674865083,0.5862128182939517,0.593108451789325,0.6109694012424522,0.6244417913691775,0.5956418158967602,0.6042525483744244,0.6156259350113666,0.5683718417964014,0.4901680695937982
0.599943871210843,0.5739612743251185,0.5539718148766011,0.5685404004091096,0.5562647801817571,0.5043474216799528,0.5632472596698497,0.5152886074115101,0.4933061700413915,0.5778354536056267,0.5769029603269502,0.5322428935979959,0.5156428923553972,0.5519865010528313,0.5648854718341583,0.5563006355273705,0.5087239294994108,0.5278448171983459,0.5413360812460986,0.6085190892431125,0.5959737508596088,0.5949204608817288,0.5929257260322383,0.6009859552350296,0.5999114061472478,0.6028454762448513,0.6150546172669608,0.6105105600373094,0.6145015926193031,0.6158424795041882,0.614258694386298,0.4260144408507963
0.6106219639434992,0.5801104057207918,0.5534197011954689,0.5862299852079436,0.5810342954374171,0.5532964716545318,0.6183687050583897,0.527270647934148,0.5566445268440375,0.6075701710455124,0.5723999170566132,0.5397919495541741,0.49217217320765,0.5379777315892955,0.4943259942662044,0.5197512961894816,0.4553459987927485,0.4678410334528958,0.535387040793286,0.6307773202821018,0.560626096823209,0.5402394854340021,0.6054720514996333,0.6077413060699032,0.5305698080788691,0.5613502611346638,0.565535691370757,0.5750674864893971,0.6215775818554011,0.6247169127982959,0.6121034972741111,0.5106540578827976
0.5589370884152403,0.5391090249219341,0.5869658279126371,0.5598363267615694,0.5818094802621727,0.5465783438253327,0.5912189849888707,0.5667197827816318,0.544441418949565,0.6165472297441333,0.5385972847874808,0.5349181288366182,0.5014543337961326,0.5057708452589221,0.4658996142239508,0.4920006073496586,0.4616928323218383,0.5068321206716241,0.5250776302157435,0.5960416938905614,0.5415687977700798,0.5453102270982626,0.5959702436413267,0.5982751297620001,0.5692069144336397,0.5802465709637178,0.5791019735203236,0.5807506704677562,0.6166472942339822,0.5820835952014759,0.5621412809344286,0.5824012667920653
0.5620693504233838,0.5509934474856967,0.594007511655553,0.5802023227617125,0.5642000365185862,0.5621002586239445,0.5927260130112904,0.5720761982418343,0.4845563103268141,0.5943129129800003,0.5071738173839911,0.5316210168394556,0.50301072470283,0.49957446240146336,0.49070577238475444,0.5234115996241872,0.4812152989347031,0.5165610251850704,0.5391794434964061,0.6128076267059761,0.5482862051473599,0.516508114381642,0.5219684131142003,0.5765633525852774,0.5267867711939588,0.542477680973115,0.5929684448677348,0.551730596511671,0.5856919429348334,0.5411062668913094,0.5388753681794621,0.5679094210806325
0.6164128498756722,0.6017725554156215,0.5790007870906445,0.5778023116936611,0.5228600354029566,0.5461201368962997,0.5361521678792969,0.5535209677571116,0.49849590551103606,0.5634356312369916,0.5381845684429684,0.5262888011617013,0.5089547289596006,0.5100940313938703,0.49668982266192396,0.5103690406076965,0.475762408652454,0.45864522674620156,0.505377289481573,0.5955413056791552,0.5038056856466424,0.5060637462626959,0.5282100595597125,0.5580034375377237,0.5798671827296129,0.5373727280266359,0.5711652133649148,0.5919102048793834,0.6099275912815953,0.591035206050828,0.554068494044853,0.5430619914317765
0.6056081718225313,0.6346241394067847,0.5937141699858055,0.581833687861005,0.5640999264217575,0.5239286517040749,0.5481076068336845,0.5563502293019646,0.5389749209827527,0.544282551284461,0.554726549330235,0.5267433306773055,0.48172401001679677,0.5288946160573503,0.532634544532261,0.524244906622428,0.449042885835205,0.41447480994978264,0.4989155288714029,0.6120781077593749,0.5672583676668228,0.5046338058977756,0.5836893549898899,0.6056982492732575,0.6019919762036904,0.5456735718750763,0.5774246784670882,0.5969414224069527,0.6045900455024354,0.5976231460831718,0.6122768937258126,0.5195740623727337
0.6263522745289098,0.6183963298798664,0.5760156600380736,0.5838736197336134,0.5638709765899841,0.5398403391294931,0.5520338743065488,0.4758650635258619,0.4659401598909149,0.5689048325215862,0.48469003439590536,0.47760138191943713,0.4552424757010981,0.4738412325219242,0.49652330527238075,0.4626188128898747,0.41297411282606644,0.3951870675625914,0.43266223461935793,0.5908888961508154,0.532463689108814,0.4310628490440065,0.4714443145187582,0.5741060311727739,0.5437435972540444,0.5362377714897723,0.5778147439313398,0.5470718165306426,0.6143744904567546,0.5656197885252063,0.5492754476243998,0.4845355660639819
0.6065559022483981,0.6043597657779065,0.5672692347635786,0.5804589685903774,0.40073036074670176,0.5592270297064836,0.5792011315800175,0.47754090127504384,0.5395105185518956,0.5226005878216061,0.5210700654447238,0.5647461001716368,0.5234532059043682,0.5175525930121906,0.5309909776633992,0.5059953565692418,0.4925612106757081,0.48735628277962467,0.5203556343167965,0.5990715196349141,0.5767864476049976,0.5519076118347416,0.5726819138031296,0.6003892401076598,0.5409896986318234,0.5477999545629142,0.6155935707523221,0.57038907272554,0.6120033567066232,0.5299263301654802,0.584220242032747,0.5561541907571482
0.5456128991436524,0.5551235073918936,0.5836344707737839,0.5163855605668388,0.45714391423895506,0.5611599547223382,0.600760341430391,0.5613748428888661,0.527553033417885,0.5748713061081201,0.560275923395944,0.5553675374865054,0.5573832336457907,0.5327645056003915,0.5585656048475679,0.5402846201519057,0.5256233772142811,0.5103850132397556,0.5440080120111083,0.6133878984053108,0.5673450440033175,0.5827270058886438,0.5842410870558301,0.6067875528385278,0.5003108770097926,0.5573795514627622,0.5834407132403654,0.5975956477202282,0.6277984125179761,0.5435233160479728,0.5552888127673391,0.5776413718521712
0.6073582354351303,0.6005347167902091,0.6083771235781985,0.5988454028411898,0.5916576743812275,0.5577316157667611,0.5966181865071143,0.5480660477149476,0.5649859173416821,0.5972369193676941,0.5633766279657084,0.5727840606063697,0.5522711271669423,0.5329333070419969,0.5482093820889661,0.5510446160152862,0.5405767576969385,0.5286273348624086,0.5434350930572932,0.6114593817331467,0.5777258569973872,0.5706971678099029,0.518355034664725,0.5732581958363556,0.5685321570100463,0.5765793687464567,0.5810591692062538,0.5611747756257143,0.6177189393142705,0.6068320845584543,0.6041105005882893,0.552054078549059
0.6157789277732841,0.5828271072633171,0.5396284204107628,0.5513010834964748,0.5606194591223246,0.601677027788041,0.5986259601661708,0.5376530921476088,0.5268598292340663,0.6161908302883597,0.5569385093205818,0.5861440839030139,0.5587797001032286,0.580877196088242,0.5659887492810405,0.5764726705100486,0.5350351710936352,0.5572140338835924,0.6006898198527741,0.6231485082533826,0.5993241957466235,0.5736634349601115,0.5557572569336994,0.5812697743096191,0.5684978240554965,0.5033065496423197,0.5999183503847079,0.5611054264531321,0.6178756190328663,0.6230061772875389,0.5840367578122767,0.5552096961491879
0.56825147917942,0.5783406697533,0.5161012133156054,0.5530349024661736,0.5376275946225793,0.5754580291464095,0.5733040963477907,0.5566856079301677,0.5639541392210702,0.5823933705086123,0.5986081934267136,0.5789508542317416,0.5867334526503841,0.5812885468650302,0.5793173222119193,0.5707423463450862,0.5801700334970527,0.5791135867208004,0.5924604853007501,0.6249615311552026,0.5984043539632057,0.5899995003896389,0.57280486584579,0.5868503957407055,0.5421467124435997,0.46006557179271373,0.6203223534503681,0.5607218874348721,0.6115670286226005,0.6190193767097796,0.6028816097008038,0.45811264112274164
0.5458779931666482,0.6123718868138301,0.5980887363218554,0.6148232939712394,0.5791572745163136,0.5853866899196036,0.615168578326219,0.56096945142377,0.56183750571972,0.6114635557064795,0.5551215286498975,0.5550191589008354,0.5578635738341184,0.5497420410306845,0.5558335279890679,0.5581525717139817,0.5593277291360474,0.5632452718781871,0.5920899074010698,0.6169544984484711,0.5870516602645925,0.5671904701425666,0.5804223273052386,0.5927281477724667,0.6213434121308757,0.5663248775425612,0.5884548657200648,0.588871314327638,0.5982496397683973,0.5995587325947238,0.5902791314344008,0.5068488838951213
0.5775220291308137,0.5808082315884335,0.5553774730852844,0.5629618626857863,0.5170859412843709,0.5364202163940157,0.513554856988538,0.5374517760199902,0.4893495776799829,0.5504933333033606,0.4988890753801919,0.5137466240219699,0.4973577898499851,0.4943144789213888,0.4810261660508003,0.4682218819025716,0.4798465030464955,0.4880160824130476,0.5303915788835242,0.602576023397404,0.5276707060783057,0.5417918478257906,0.47528075204008263,0.5732343067621475,0.5427218150404131,0.50011507308699,0.574384307967601,0.5416568946913126,0.5943443011135772,0.5518586834420327,0.574411201017222,0.5602988655126431
0.6074720778574352,0.6015920575223546,0.5632932182932213,0.5892936329400177,0.5180756833119463,0.5540787949232295,0.5313750965550046,0.5283488142681624,0.4889568905569283,0.5522461555051872,0.5351853284601109,0.542801952373767,0.5328452973324896,0.5396031525982345,0.5343616961549321,0.5384106895785484,0.5564134787513306,0.569655277226597,0.5496851306591847,0.622969320050721,0.524349891083919,0.5305007276091385,0.4725295176979847,0.5530079030610606,0.5097511587785504,0.49126651916138325,0.5473012762036954,0.48340511206397707,0.6012192256216811,0.5742881307928769,0.5737290678830235,0.5400475543719359
0.5815332435806458,0.5761197483557222,0.6268333446661593,0.614379118848853,0.541285440252815,0.6163556712570852,0.5946075207352994,0.5844529930425625,0.5607834572042012,0.5992805267466889,0.5664847237975746,0.5895395914199906,0.5798488282171629,0.5963682606686905,0.591319689790937,0.6021031073316621,0.5975287650109224,0.5855661312593851,0.6037438907309065,0.6263500376869668,0.536599566856255,0.5890237429095052,0.5458951719013921,0.5964179289617165,0.5770765893605677,0.5539756209307914,0.5556610475056071,0.5814690929688064,0.5714285174302669,0.5679839854593096,0.5696338850682584,0.5562390322888049
0.6144754606268719,0.5978819099780055,0.5951840762548469,0.6103389979837722,0.5771712322105235,0.5930692770414311,0.6056800616822624,0.5653198401514171,0.5689170921190956,0.5898181299638559,0.5646522747334799,0.5927828206289483,0.5334686497528006,0.5770430130560612,0.5693286919022157,0.5882194819005409,0.5828914331264701,0.5770152171031798,0.5970268226575735,0.6267720836051528,0.5988771300128117,0.4913014246646241,0.547458531275136,0.5953144382571359,0.5666080757394182,0.5900239990949654,0.4466024654492953,0.5861459498156651,0.6105887440645343,0.5994536927474041,0.5688226763160653,0.5461748511447171
0.5514760889842232,0.5762796885429196,0.528074638349278,0.5719653013532099,0.4987264166968182,0.534543909782493,0.6009300773335198,0.42009838153838513,0.5486131139642606,0.5676533748448873,0.5331353776406985,0.5237703790435239,0.5487653559240206,0.5240984628641784,0.5740815500181378,0.5523152524674462,0.5914209678915888,0.5770547170126595,0.5943629273114497,0.6105884343577751,0.62116850528382,0.5714786326506935,0.5593745278497757,0.6074730079734488,0.5818538226335296,0.5411932747445762,0.5224442838164081,0.5839024204143093,0.6063847452445301,0.5153774433707622,0.5497593411849265,0.5784504260270817
0.3424156407045129,0.3756833041355697,0.4077643444397171,0.4432616097536262,0.35210846170854077,0.5428866960300355,0.5814195364082166,0.48724234457363924,0.5259243180117323,0.5736643851428114,0.5094124962403367,0.5453813443722567,0.5107292535921063,0.5026149969984228,0.5203214670361891,0.5284358955633163,0.5752212680133348,0.5272542267625888,0.5654117812155288,0.6176914712623374,0.5639346020236634,0.5668810872441677,0.516609351753238,0.5183927493985896,0.48569041394217466,0.5290433453765078,0.57612789702172,0.417396577812748,0.5920698044623414,0.39233438626084627,0.4188786399187065,0.5343501994692066
0.32130968014242617,0.3080856954777811,0.40155849676866107,0.3620460525258183,0.40794107845568334,0.4860638123226715,0.5894297969823206,0.5954519652420173,0.4277315912650417,0.5481908221131091,0.48959333100315977,0.48071842677716364,0.45333325154449244,0.4585278043159558,0.49165537293248635,0.480128685848131,0.46303196294883675,0.45851549237775097,0.45609277197205406,0.5635124956594355,0.39428273749927767,0.40086078550167054,0.4340103242748829,0.4051378350677662,0.4078958040233818,0.5947527743271803,0.5920302453354318,0.313478220089832,0.6015573602349452,0.3536559610849643,0.48450754970661675,0.4736559429106526
0.5289034721514945,0.5150037337238886,0.47300299758167,0.5597781583305116,0.5242483617709268,0.5036172985997425,0.5832568982496743,0.5450870434738533,0.4394264377564491,0.5785247422445249,0.5123894471138805,0.4737844576021076,0.43815167921524567,0.4582307103547353,0.4625846875044577,0.4351052206003159,0.4279414591485661,0.4005865530683513,0.4325591077787585,0.5922951593007124,0.4433429095355911,0.3691088786082584,0.4692492213286057,0.464976063834869,0.44377072260566985,0.5689045502681224,0.6136067777588771,0.3321176440418859,0.5670901255641037,0.5621275129617075,0.568498541042572,0.5075191927227354
0.5936145241901106,0.5864082165840694,0.5943408744761112,0.6011582804894344,0.6043674174560364,0.5896800748672003,0.5884530034029561,0.49239456461938447,0.5303796472464052,0.5761432125750489,0.5006995049736058,0.5199716520983126,0.4847550846822995,0.4952794612175245,0.4751333169729052,0.4632159463541963,0.45354518113833997,0.434367004546017,0.5260999386602452,0.6234128370213075,0.5731156195366838,0.49105153887848263,0.5485563414282992,0.5488069486342261,0.5815929168309084,0.5853050081946347,0.5826046839474683,0.5292297737926546,0.6152083836330794,0.5757631214454426,0.599492042643207,0.49471020572997965
0.594083465815594,0.6151030921731752,0.6209426356927714,0.5893667923289718,0.6104876352026698,0.6293772348259999,0.6015534982988882,0.5298797803371684,0.567776262573994,0.6056731039241179,0.5470100489329013,0.5645828954228419,0.5618256187831769,0.5527907760185902,0.5255986334500249,0.5124189797442943,0.4626883550597927,0.4685181532011356,0.5356088379295553,0.6177286712769889,0.5545760382880102,0.5065476760806172,0.5698990905948688,0.5969662184345207,0.5910129742186753,0.5885794529184604,0.6082361309354275,0.6011182681774991,0.6133930255992988,0.5634301778718006,0.607166284588049,0.549788753238709
0.5966579858396551,0.6104393212211982,0.57355333200363,0.6199319315423808,0.5715558986521494,0.6211723570470011,0.5827141877942806,0.591784932524063,0.5803469990283947,0.5993820473957999,0.5465581106041489,0.5598686810551677,0.5688872650545693,0.5400833400740639,0.5628014924351311,0.5323335166975971,0.5433191647593386,0.520973340802482,0.5671630596784532,0.615942850402499,0.548721429870793,0.5720870755057985,0.5713269342314751,0.5912146172415044,0.6069090137293858,0.5804466323746993,0.6170535543850624,0.5956214584288161,0.6189320099948405,0.6015857609954148,0.5710749587530305,0.5888816984919945
0.5937576200242611,0.5175953208919083,0.3903562232922989,0.548154400550118,0.558635546227127,0.5174659664347302,0.559137295707089,0.5709991172172104,0.5714383132538945,0.6040070754788937,0.546034646796661,0.5841751566634297,0.5841295132191964,0.5709769090312029,0.5626719007130813,0.5685291763358109,0.5687630823508739,0.5874617139524118,0.5819545612165276,0.601418535069487,0.5453242859940376,0.5669076809565374,0.5466241987028259,0.5759885118945056,0.4867121498913517,0.5370060645450666,0.582086262032524,0.4551212905549913,0.5978885117838786,0.5985829142890228,0.5494335720070928,0.5166093045774196
0.5711031418945284,0.47577905070910975,0.38012025987462444,0.569448939928945,0.5800876841381917,0.5068372064762922,0.5617683285456537,0.5780607883432076,0.5524729600614033,0.5869585622234571,0.5345660791117076,0.5533237643440475,0.5417142999450212,0.547099921292219,0.544032649307517,0.5430918235628378,0.556719659306861,0.5687682118126792,0.5641377074416655,0.6170960303413942,0.5576263608104234,0.48444454737458237,0.5260153622828927,0.5587139761141451,0.5197423336256889,0.5406441530600602,0.5374142291807849,0.4344071049900933,0.5975852679441207,0.5755813295811872,0.5575844418305905,0.45720502321186124
0.6199411973667734,0.6178430105228859,0.6034796594031107,0.5867602588570848,0.584167893968708,0.6014870797189401,0.6155339266738036,0.5940829550333646,0.509218986427142,0.5650239882222832,0.5602871487096961,0.5274948678087312,0.5281665027313402,0.5254343099589398,0.5459115870627677,0.5757874745459302,0.5442713645754967,0.5500089730989407,0.5459717933437574,0.6173429151162554,0.5703896749621842,0.45186642678892863,0.49784514619078535,0.5775316505940773,0.5097421610690854,0.5270192079971215,0.5707260903518482,0.5450580483676994,0.6149452441213356,0.5855660209236758,0.6020671151288804,0.5653260706265175
0.586276052702761,0.6022196566386253,0.5958919336883702,0.5835346781615134,0.4755116487461672,0.5995018940324615,0.6109053195452351,0.5704176562238694,0.582227403782028,0.5995657488907974,0.5480999628179685,0.5750793876386975,0.584173544442323,0.5505119993513414,0.5401975911127166,0.5460004221342035,0.538254520183185,0.5342179192739653,0.5693165503365302,0.6234461531217272,0.5876317594221092,0.5847193400023232,0.5965997235972396,0.6143241462164762,0.5783896253095797,0.5891697015433994,0.5692742090334075,0.6008386606451755,0.6067016857267035,0.5897381559734413,0.584076294508188,0.5817012537311984
0.5846798128767209,0.5353290818156576,0.5269381012686174,0.5780492947951992,0.5042140988855243,0.5879230322134976,0.5718665288239088,0.5699423698038222,0.5118858868339823,0.581203572690666,0.554053811052523,0.5758218301194623,0.5703174976069797,0.5083379560144373,0.5548827191851596,0.5243591154860263,0.533438361913991,0.5520629026133053,0.5645973413100083,0.619886756882023,0.5980444911518208,0.5956932719749096,0.5995410128618697,0.5809306268976614,0.5518069805069475,0.5836395115839639,0.6137111148894928,0.554143580433855,0.6141334432117707,0.5792359714970057,0.5209597509328867,0.5767768099525473
0.5730938108652813,0.5786062110947361,0.5977673430155135,0.6124381535713797,0.5371278715046027,0.617790023141116,0.5920884097408095,0.5595829005088767,0.4714390861549334,0.5926277703783721,0.5709148531031423,0.5776032579234472,0.5601006075316746,0.5146403920996284,0.5805853489539302,0.5303242839295954,0.5583219184337276,0.5712978450750795,0.6089559047627979,0.62731820514896,0.6251507430791459,0.5838345783493407,0.58971707501349,0.607943239724671,0.6004652078285286,0.5749280261154444,0.5988662221223157,0.5828400920827393,0.6006852800803774,0.5759492859955988,0.5474442727328748,0.5489651706308256
0.5465895325861563,0.5813394780458896,0.5749406405048986,0.6149045501721889,0.5585696152894534,0.5926002144101058,0.5677876088819042,0.5831432849394985,0.5583896527800537,0.5897562559006065,0.5553466939776223,0.540199615299365,0.5597688633504458,0.517062911926687,0.5369497920378872,0.5312889050443957,0.5360031967371077,0.5501171506985915,0.601857788805047,0.6276053732011847,0.6335880662553862,0.577220703959301,0.5993613308142107,0.6082309701381534,0.6033543763634781,0.5888853397198874,0.6028546841743555,0.5290580272629878,0.5973670914397095,0.5784738377091078,0.5873045340727733,0.5211571741219234
0.5993242857858713,0.5878353971794691,0.5403323949400256,0.6223969965946484,0.5767635841549231,0.576068366809518,0.5351791311546248,0.5835804663265668,0.5423771879748741,0.5798094251254758,0.5312788963540889,0.5208232422152483,0.501989095877757,0.5062120905852296,0.5137783546946972,0.5361007427063104,0.5003690657982475,0.5307419194694123,0.5594430459835923,0.6157579126363697,0.6314027916044765,0.5522256922998429,0.5984564919856497,0.6197991677684481,0.6288253583358961,0.595154047847812,0.6041322909251374,0.5868404813556644,0.6149241147973314,0.5687946749205748,0.584244544038382,0.5463304875527747
0.6197306815114133,0.618513161177278,0.584886119820843,0.615129615215139,0.5763190433859608,0.5643914532737829,0.5371698022663399,0.5226305312530845,0.578832833075629,0.574386012965507,0.5568244075843506,0.5477940531236988,0.5522712994864362,0.562436350225536,0.562471565808979,0.5388855363185224,0.5484753980378876,0.5416639494030469,0.5724725590846099,0.5953423142740756,0.6143307533867827,0.5558724029769837,0.5738796834293104,0.615923519290444,0.6172867775637615,0.5899622375195845,0.6256517648021118,0.5647691083416881,0.6110085505236623,0.6091115139449751,0.5905684479803155,0.4743288457170627
0.6287590677685577,0.6225927521787427,0.5962636803606935,0.6114588144476971,0.5711675202661011,0.5945548707171749,0.5806459188492831,0.5712514383523193,0.5214339771694965,0.5930971761877335,0.5761939010332473,0.5426680403217883,0.573249456122709,0.5478993071570747,0.5669199108745202,0.5270955950449502,0.5671148182361083,0.5346026294158576,0.581968452726121,0.6150570866386483,0.5976185794793315,0.5806255534362726,0.5513379850101932,0.6162631954453844,0.6043159141341626,0.5640430921720891,0.6116928517993743,0.6199492212459878,0.5987035276808031,0.6298983975776719,0.5946761140894553,0.5668311727641983
0.5208123394889673,0.5086627791503427,0.5997009611364731,0.511111229326154,0.5020491760448323,0.5541703324877837,0.5709755059149734,0.5311497440031141,0.5549812804451539,0.5848922943899094,0.5614048567712874,0.5880836678954428,0.563497490842352,0.5715515351154239,0.5384065519833012,0.48706981142450634,0.5325859882966549,0.5151065227340683,0.5878873040827303,0.6193706298569999,0.5887190010267885,0.5714419315958399,0.5813961778402346,0.6091952100089049,0.6160874184806212,0.5419134473171091,0.5482850435693621,0.6260300757185264,0.5864615124912009,0.53149848312376,0.4845665726183263,0.5571287217199298
0.5627855205178877,0.5300080419169444,0.6006183006700766,0.4976656378558552,0.5513875994673298,0.5727570031462613,0.5952848937664301,0.5848053674042683,0.5809273287248816,0.6025751075358564,0.5455432217490045,0.5651235286712111,0.5392313637800611,0.526487262628217,0.5236892929742673,0.47298246303035374,0.5023900468303659,0.46359571370372166,0.5758478300575512,0.6129181774715758,0.5754207239367966,0.5633989952023247,0.5554535787956428,0.6127030086090148,0.6158995070394606,0.5480237151511786,0.5498558064837431,0.5651718723304544,0.6061988338653247,0.5532099808253298,0.5088468574940165,0.5499167592112377
0.5986855898359873,0.5804845748161863,0.6075472041899186,0.544386005494893,0.5771310694091007,0.5646674565140245,0.5694070236274893,0.5124366043342196,0.578036903826194,0.5181114962498734,0.4669133763296723,0.5043606816824244,0.5270402460549958,0.4502756305340989,0.43291816384748866,0.4534442390792723,0.41731521901430646,0.4125659837391372,0.528005963500234,0.623797717289544,0.5784654368853078,0.5584354973545108,0.5446303370998885,0.602735050087055,0.5837338725545373,0.5879398026914219,0.5683594642763657,0.5407062805894804,0.6110103788451869,0.5738377649115847,0.5498658739230631,0.5536284879606966
0.5390452832729067,0.521510510317403,0.5446089688597544,0.5791408070082101,0.5839413122653068,0.6209201224066917,0.5846799666558375,0.5472116532018511,0.5568077879216177,0.5603677011079727,0.5367293617298278,0.5228471184844496,0.5647314309318511,0.5351451794074389,0.5222917272265782,0.5480748044346057,0.5395564680083706,0.549537401468981,0.5760588356916573,0.5989521925352779,0.5866000156470855,0.5565679903476969,0.6035211845004773,0.5213556937655476,0.5656763507631751,0.6133015280589117,0.6134929123378584,0.4463809611200787,0.61221015761903,0.5763540359873396,0.5810317908060714,0.5852927301254884
0.5247106905328166,0.5053274654256834,0.4900272045676109,0.5585025008136956,0.5695402342044581,0.5962704630617031,0.604958540464234,0.5692483766919701,0.5696566635739846,0.5909938467228675,0.5397140805869494,0.5351389478003437,0.5504697498651088,0.559473757202767,0.5495600375090014,0.5696872395031516,0.5490404823511627,0.5280003727964981,0.5702692318678892,0.6123211969508549,0.5397150487471407,0.490518032572068,0.5796610906960354,0.5042272286815088,0.5905443758498113,0.5804558461665504,0.6151287213908402,0.4556991841954004,0.6117788758825152,0.5108561678666137,0.5905024787890752,0.5795479700304383
0.531211338972343,0.5103621656034304,0.5443510010309293,0.5430780659728414,0.5425441879707681,0.5867258284036436,0.5854349936686334,0.5563144668716099,0.5440350811006824,0.5860000844898137,0.5348982342182582,0.5554685885443064,0.45047654430394535,0.5369457398418884,0.5592319232031583,0.42047674149697956,0.5448322530236863,0.5351867620730066,0.5200306443122543,0.614871836721472,0.5269119221605251,0.4617251076706974,0.49795362413869165,0.5765617682734931,0.60089659729563,0.5241947568564645,0.5540034130728952,0.4676465335846212,0.5463233753603947,0.4737490995735134,0.5692311381546574,0.5308050771432226
0.349624238615277,0.2914485089930372,0.3763458171602591,0.43794401563348323,0.5292882624444344,0.5377130537198719,0.5944935159679049,0.5577982487932228,0.5833324168611749,0.5907314726690456,0.5250159957344303,0.5602664124010805,0.5074637742939995,0.5247332014146249,0.5126479578556189,0.4879281549085042,0.4942592644485085,0.5428051645950436,0.5300937614317497,0.6101989410008124,0.49848725301585234,0.44697261658406384,0.469591975376912,0.5544217516640879,0.5254063649930879,0.48122905268441213,0.5435227636364347,0.38590748848936907,0.5202470835153148,0.4828521085756844,0.4984455063186319,0.5256003219449623
0.42424157928195266,0.41770171043954335,0.29357031224976404,0.44937426770203326,0.5603214508213304,0.44886720249487505,0.5950445468377956,0.562214437548145,0.5233745993255243,0.5902728409808505,0.5468198590931012,0.5462313657313569,0.4993966045378722,0.49384601977597864,0.4981282838370553,0.46033968254465735,0.47999751957553405,0.47536010789007904,0.5386112793968723,0.6187723586269596,0.5402304884202161,0.4772714462907492,0.48947500308304115,0.5898573860596382,0.5463473520521664,0.5221736065488704,0.5578632773216552,0.3849278869695954,0.595449646481304,0.5536165590336851,0.5421055725664257,0.4650017264099543
0.2977788390708228,0.2577601331560504,0.23501039966023232,0.28236042653314125,0.3594936860726416,0.3307780739482473,0.5610809677896788,0.5555996471730819,0.4378012093653323,0.583453406871223,0.49990588035452266,0.441975324410095,0.4310942435890286,0.4262902930912858,0.4123428099170394,0.365992429519971,0.35328778822873536,0.39157565828032714,0.3742163579103405,0.5865543352299633,0.4390343027424543,0.38568797465099786,0.4194756076569954,0.41301024474025816,0.4055716355536596,0.5261118128865809,0.537902866642841,0.25949548731248784,0.6179486745324538,0.44788789255901157,0.4850996147554006,0.5582672711875
0.32896012820406917,0.30465223945548947,0.24461790810754014,0.30317583514334967,0.35514420067858055,0.37979554201912674,0.5559778768279593,0.539186625354586,0.4208789605191597,0.5675782338541155,0.48954264608725223,0.4353767466628998,0.40606048074401524,0.44828683084100474,0.42270938499434324,0.37540319626794205,0.35997826282656953,0.37382815842605116,0.3496064409820727,0.5662534678337907,0.40206260010150663,0.34036725028057013,0.45201365096861196,0.44445961280372887,0.4319183320820511,0.5179423049207008,0.49377645709945844,0.30067276788956115,0.6034562016781426,0.42854497252625606,0.4761555311973693,0.5044244673731425
0.5403343687703599,0.5274312086706119,0.412297909168003,0.5464408645776069,0.5389014925024864,0.5616117887529993,0.5899733083052686,0.5455417290470992,0.508816572584073,0.5741902488872163,0.5639121829077047,0.5579767138184888,0.49585568027934107,0.5319861681520855,0.5311089685998129,0.5142419241949577,0.4859429664753131,0.5180674175518224,0.5051248896176246,0.6066592050310019,0.5474846503097551,0.5054514658910095,0.556538791438553,0.6015807628904267,0.5986566278893383,0.5743041814634035,0.6036424027436026,0.5202608085398014,0.6033784185989216,0.5904190037003065,0.5726109860991362,0.4589300553319165
0.6125682924299372,0.6042721128295722,0.5469520120781716,0.5920652735811607,0.578247170025107,0.5543480416280705,0.5710410587109922,0.5423138591992666,0.4598931875299095,0.5565867137326098,0.5294864374283298,0.5180868541643269,0.492369102555448,0.5545705086531056,0.5024544246936583,0.43202172226802554,0.45027169819016816,0.4642928418841103,0.51836669455202,0.6179225700226283,0.5721058781447254,0.46495962877002,0.4827697969576694,0.5878761902710493,0.5948105224239445,0.5478050381245099,0.6028410097197762,0.56083177253306,0.6225614644108662,0.599411530503447,0.584395873537905,0.4282724644773871
0.6065486522910906,0.5806968763349838,0.5744414440460845,0.6016654066495959,0.5479255894762407,0.5772502156956987,0.5961740095946927,0.47881621538504954,0.5237293013353368,0.5911591732055876,0.5762693878336929,0.5362933986304809,0.5409781305142893,0.5212252764644665,0.5179166016360877,0.5010184655135785,0.49348629667943533,0.4673119254835579,0.5093537988074538,0.6196510760223901,0.2914541167868477,0.5304963938887745,0.45829343351816465,0.6003754198613851,0.5977928391537168,0.5141594802815165,0.5967719672065692,0.6078786967432662,0.6064442319101937,0.5344749824144903,0.5742286432053626,0.5385665239927018
0.620224750228673,0.6109898435196898,0.5887887588519668,0.6091862342160711,0.5353328448889625,0.6184070900490509,0.5923398939573864,0.5039095632695353,0.5606400727463514,0.5951474136211472,0.5712019693941657,0.5586916339686018,0.5582023597022092,0.5224743891935595,0.5338984565110518,0.5335713045390132,0.5517236773133289,0.5568630994944826,0.5573833202959205,0.6033626656024446,0.2709734646332348,0.5626351563729458,0.4810434932393058,0.6049300599599763,0.6182364710735335,0.5560584893980907,0.5895744870380514,0.5650912077870076,0.5961405721307496,0.5841443174819825,0.5652420908341707,0.5189298076096507
0.5543862020300317,0.5844124509984253,0.4933650807023268,0.6103965539718812,0.5320194753189899,0.6111349648140593,0.5181705583555849,0.5362001140546606,0.5504699775628408,0.5077349469929869,0.4997953406866447,0.5082977696296662,0.5051531024820847,0.4762488733475286,0.4832145247622081,0.4751079984793223,0.5047358188955153,0.5027318137876251,0.5376830844584058,0.6182868691756227,0.31094335174162774,0.5131031021659416,0.5875892518037574,0.594612884042351,0.6215647835182914,0.5373191391736355,0.5479794137636769,0.552160281953563,0.5695275556963224,0.5211289802011949,0.47435175681829167,0.5402356527985362
0.57527624049875,0.5741170303143481,0.5346536129891835,0.5657812935219639,0.5273979756010093,0.5537074602428042,0.578264317386781,0.5601851185232898,0.576330375649285,0.5889721935363367,0.5386243984731276,0.5509439600928696,0.5649613946168874,0.5485649558159345,0.542851820638505,0.5419180268019175,0.5496357586188709,0.518413413143235,0.5517052253044277,0.604406748248911,0.5450560360422928,0.5424927899016602,0.5327929244976878,0.6118482473791557,0.6259894657093324,0.5828126190179338,0.5909052953059354,0.6183022352908147,0.6232993314100875,0.5732021182002845,0.5353383624680116,0.5897928991409016
0.6057256520363918,0.5778802066686121,0.4582864239125764,0.5422055530664162,0.44944527185732247,0.5188483089113387,0.5842572536122065,0.5416410072687753,0.5908127905957541,0.5775192839787885,0.5409374104529938,0.5553488248869298,0.5842932832426712,0.555645697368862,0.5210959256704418,0.5303634712722692,0.5465323909447098,0.5403466742140007,0.5650284162562326,0.5565421739623595,0.5657623001820422,0.5360562119469273,0.5466264560941161,0.5913003953842795,0.5759722852481134,0.5181726483605118,0.5193852836061986,0.5193588338241015,0.614078139727777,0.5858011895442538,0.4888510485397776,0.5400423943631306
0.5946726433539399,0.6111356760354397,0.4227637067017454,0.5239424041169158,0.5068716191537456,0.4897751042184837,0.6077316894648034,0.5104516352990347,0.5682362404789774,0.5979453518754245,0.5685074752170532,0.5835580372103871,0.5678142657300437,0.5731579256214745,0.5173412099456481,0.5307769427491679,0.49530360564444237,0.5017186412390018,0.5592821180352558,0.523827888763254,0.5702311918433841,0.5665818927830718,0.556403269144682,0.6194656696735444,0.6029252739818767,0.5044102068591516,0.5755329138764805,0.5526055870162614,0.6017130201947575,0.6164652834418275,0.554362442229178,0.5652000748870537
0.607210058474925,0.4972157893524666,0.4804622278060566,0.5198939255587315,0.49960273982267167,0.5215897707251164,0.6195588137895218,0.48654670771397546,0.5539856561925942,0.6099366339798046,0.5848866960065902,0.5707279723430311,0.5585209935066575,0.5914609671000685,0.5755462462223654,0.5612011606945848,0.5949578976422583,0.5768608131172197,0.5936112831285093,0.578898706641861,0.5793856652755489,0.5512374535808381,0.5801508133748119,0.6151142373193903,0.6179714487137987,0.5340855080172288,0.589544661086673,0.5557305390895227,0.5927750713174873,0.6125127347295007,0.5898743560127206,0.5346391181286685
0.6098338725819359,0.5992098657277828,0.5177865350403058,0.5980691216993541,0.5826566269045707,0.5522952499102095,0.5833958505345878,0.5739050107448327,0.5848865408317514,0.6186747541452269,0.5576552979966887,0.568679929641559,0.5570721331480029,0.569353560003008,0.5678079792664485,0.561971109854992,0.5893515916360872,0.5705043522152496,0.608162745929037,0.5949285915509718,0.5958222142350352,0.5793107286913909,0.5482435290623213,0.6083498051147822,0.6092637370493175,0.5541978473062358,0.6197423403758613,0.5392627442416901,0.6202886172988988,0.6088037407408856,0.5979901192984145,0.4904796053468321
0.6185667595324352,0.5971225888227993,0.6167403948341882,0.6111560528298184,0.5418580469020559,0.577285602883812,0.5598696006266111,0.5201115669261492,0.5173130546981649,0.5877921829184515,0.5087906587571268,0.48893967023133006,0.5238959861971888,0.5067870205421764,0.4439119496047654,0.37043415447758926,0.4475216388337967,0.48545304939167283,0.5359095717966533,0.5414346919427495,0.5657873052468616,0.5891380384514339,0.5080144520293098,0.6069021310186619,0.6044418388236081,0.5461264576796502,0.5987507770575422,0.522845698770289,0.6239398399131348,0.6024059017948428,0.6077845580265077,0.4899377894344075
0.5695872151881101,0.5128027070924294,0.6112295912770231,0.567613060838038,0.5428552984166134,0.5841309564346541,0.5766567948846109,0.5138261628978185,0.48014825396669275,0.5526613666409816,0.5127194726977967,0.4993869790361156,0.4933355392905639,0.4862732094531062,0.4804658112810783,0.4647249029968371,0.42636395394202037,0.43506374365578365,0.4919181581025297,0.48817130091088756,0.45415855255400017,0.5244859910626978,0.5513971807640595,0.6068239980838808,0.6076874298348753,0.5818613286069144,0.5962366603374103,0.5126951667526621,0.5930440481722883,0.5420650466601381,0.47487272131082164,0.5455557020242185
0.6067348319542591,0.5967071042138788,0.5691587832732845,0.6238432458769049,0.5666614836621365,0.5943021261804311,0.5705892454163922,0.5351044936413227,0.44318964346894474,0.5682872483470331,0.573059352328122,0.5132297000493073,0.5291119889257109,0.5155103874638461,0.5355594437285701,0.5234413011847103,0.5454605973433037,0.5317969827370843,0.5160212675106358,0.5491114472452755,0.5508840785608421,0.49514841267456067,0.562444579522327,0.6132198836094807,0.6181047358406894,0.5749443646633731,0.6105871249574266,0.5573420381079528,0.6135372002781485,0.5899837397701313,0.5538475173515944,0.48562836596246
0.6172856885550347,0.6250033084453661,0.6019792200235878,0.6230263004902794,0.5992521637665792,0.5975149286593464,0.5637515159807389,0.5154519540044612,0.531267921290784,0.5974283452942794,0.5552145171216595,0.5098863030049375,0.5360447170724724,0.52540251649531,0.4924040548491602,0.4860497372293123,0.48037782211846125,0.5240241496097519,0.4957160397884926,0.5159551927230146,0.5363403926609338,0.5052943377470359,0.553184651624814,0.5933756613307025,0.6142774320737568,0.5753876178301625,0.5995913420572273,0.5553458895306905,0.5965430446385497,0.6040001767181048,0.5963926262761541,0.5415692459124979
0.6087295311166132,0.6272459855740997,0.6079998631287407,0.620701886089404,0.6030120672498205,0.5656163193039975,0.5780685221776682,0.5660555744553917,0.5202112658731983,0.5828587826266147,0.5405012674800469,0.4920101735545025,0.5216322162702515,0.47907660348425624,0.4094789976177083,0.41754058496618784,0.39950460675454896,0.41688706283793997,0.4939156204110007,0.4946131207085194,0.5743098875061372,0.514838249935916,0.5537839422502128,0.6178353190545623,0.5934313536570934,0.582153581525065,0.5871804907387594,0.6101319782502165,0.6222835969253907,0.6020355671756208,0.6093057078713326,0.5161577619626891
0.6026316267546242,0.5760579616118495,0.595398687052555,0.6239608258785778,0.5598433160506441,0.5647285254067553,0.5848048947666635,0.5507702446660521,0.46562373098601784,0.5018871171628114,0.42786830598219094,0.43836387461214865,0.5137168820993566,0.409213611919227,0.3708078710938481,0.40042113429454795,0.3984267802254474,0.4381918638270213,0.44956479293438334,0.4789070060291782,0.5777266312288543,0.5219291552223286,0.5797073105655445,0.6277781184840404,0.6202603385088261,0.5975012065746651,0.6252375762791453,0.594293587363879,0.6185034795462867,0.5974353859396382,0.5300731578121832,0.5375907543487667
0.621624868807701,0.6200858437490994,0.5820190856853895,0.6103622756894213,0.5446572859466654,0.5542239280927242,0.5402144132932929,0.5265359060387518,0.4861299352225807,0.5061098853855339,0.4535083606355729,0.45103972137920306,0.4878088426290047,0.4468789141068951,0.4154231369054749,0.4265889618404336,0.436333450565023,0.46455516018443704,0.4808526310013056,0.49838622690720297,0.5265874848338561,0.5521806968652393,0.5740425153507345,0.6180058936335026,0.6244462834460215,0.5852914747294892,0.610166465191296,0.5889035247360394,0.6105750679103663,0.625940360745596,0.5648680265957545,0.574762294046624
0.6147797876170453,0.6272363316679398,0.45875197975379767,0.6122775963100776,0.5504912145069218,0.5450996010371034,0.452411973243949,0.41995042351959566,0.504824105012908,0.5949153492624013,0.5437845797848461,0.49778610938001266,0.5096602049112542,0.509614774884481,0.5231738661955597,0.5597118730940185,0.5570583896371328,0.5611294522748017,0.5329564462374758,0.5453659262265805,0.5526642742826814,0.5612865192639047,0.5453325935244293,0.595624145671753,0.5875392956450313,0.5735998874319232,0.5867199533011942,0.564908003312555,0.5959970443198891,0.5913064784662957,0.5911112955764035,0.5516973214837585
0.6198653047661781,0.6340893346026211,0.5611351100493184,0.6131186227953987,0.5237980619910794,0.618155536297982,0.557996400918217,0.5314590816722832,0.5072198972259742,0.5514584407772399,0.5385034407380397,0.47705832650849683,0.5391659758823774,0.5250757072708623,0.4733804919376147,0.4945772480096762,0.5164508225094575,0.5300934974267044,0.5676865323585379,0.5258437514483628,0.5543409709440729,0.5647454386331973,0.5181835119993051,0.5586226913626828,0.5952638494000319,0.5554086638484838,0.5723070779639687,0.5612701908047272,0.6203164409152728,0.599682898131598,0.5967656678969699,0.5364128361857459
0.6028197823985403,0.6007949117156735,0.5726375437176467,0.5991829927924525,0.5292683706497949,0.5562410702382895,0.5537791945872835,0.5103801444617122,0.5315327096738268,0.5565753974248331,0.5290250129112111,0.5197522840566676,0.5286222471179656,0.5263930169558051,0.5172027521636505,0.49757083744054803,0.5014149194663753,0.5166421777428212,0.55285200259761,0.5300362294755718,0.5524850787241729,0.5708150663018163,0.5546237913077233,0.5420544515504262,0.6125321574255662,0.5519033842993158,0.5742002751392565,0.5851761046457257,0.5957252509657652,0.5869705649298156,0.5758255377004147,0.575542194356273
0.5844893102980414,0.5706884008472661,0.5947055663880421,0.5734588389228283,0.492839206005501,0.6074455729524247,0.5592269977668846,0.5255833874037835,0.5854566330534755,0.5893270604956656,0.5276207023041934,0.5743760420426897,0.5734861732189328,0.5760884513822463,0.5419963198445132,0.5149969076195596,0.48733895239451835,0.5244697072271391,0.5792656160319537,0.5020202963442579,0.5914461703218153,0.5975741442665151,0.5812512066493318,0.5511050561119878,0.6191959965550198,0.5886002192164814,0.5600034532166865,0.5632001775562641,0.5272362328056797,0.5567929647502075,0.557896826020928,0.5868811352045414
0.5713685380549882,0.5663468251075017,0.6053539850815807,0.5772362339180461,0.5031026368787118,0.5984527651049867,0.588104093975265,0.5824724589570874,0.5602217715338981,0.5599680989255753,0.5386928021522819,0.5662973410748812,0.5580723158671851,0.5476186962246121,0.5480398171896212,0.5352855803997779,0.5282804625177702,0.532394595655078,0.5442314251310658,0.5479245604424866,0.5561445667575987,0.5418108847446118,0.5493486285048029,0.5789460523864165,0.5942670932645405,0.5723412358028487,0.5802165920515746,0.5077555772702429,0.5667159048720836,0.5372665213619624,0.5460975995096665,0.6002988787540544
0.6242781604828651,0.6139801950090198,0.525529595307761,0.6114428736688499,0.48682788432731516,0.5578843623409048,0.5507047995356295,0.6001926108507968,0.5276713189136729,0.56208541059199,0.49064133519258196,0.5204205219740633,0.5176043284752018,0.5336174691931652,0.5155592268806823,0.5120119099114098,0.48936735855246494,0.5194922104089189,0.5563902944287071,0.5167292962803945,0.5653309224959517,0.577088695744356,0.5600213951972552,0.5761962077743212,0.6093030113320986,0.5376364325509142,0.5966577684437633,0.5559353574961979,0.6099188097916555,0.5903620370176896,0.5691457508273702,0.5745478136646912
0.5717334708954946,0.6098435634000593,0.5236467864577288,0.5687467200137646,0.47560354637826924,0.5701082897605926,0.5693560327972177,0.47834922588800305,0.5048279078239499,0.5627171611946825,0.5057549308143945,0.5091139730838674,0.526553432385115,0.550976534166182,0.5674767285072188,0.515569689342806,0.5688871121783319,0.5733418034021462,0.5806730743759585,0.5802767838123833,0.5734045531808182,0.5719091832220825,0.6073180033490996,0.6102029734201408,0.6167052518280445,0.54019146644726,0.6109314423347713,0.5600673726124447,0.5556986257446014,0.5313348348104318,0.5779089018059657,0.5234961450776455
0.5894769573780234,0.6085502717700029,0.5746846471388389,0.6226482997892442,0.48927584066362756,0.5707991520047877,0.5781440398693956,0.5045985021215287,0.5015370362573884,0.5674268853564406,0.5140480645692054,0.5229779039540025,0.533937273558129,0.5103633528922233,0.5409931931094598,0.5296542152596694,0.5562774858451403,0.5569984537955325,0.5353095887349739,0.5481556565655232,0.5487688085184356,0.538435562828782,0.5795897299410946,0.5868533549165286,0.6187318353422516,0.506986097410246,0.596022492671321,0.5287495711785251,0.5928230338217232,0.5644706597726353,0.6052468184819477,0.4983099149045067
0.6074263390052587,0.6230940038670112,0.4930649292431532,0.5786858448065187,0.5315499035499529,0.5790134856432856,0.5472405095723141,0.5812270125566715,0.504571367558672,0.569840542921951,0.4540547179097567,0.46817389709920965,0.5285740252212467,0.40161236621473917,0.4360454894424602,0.4696999774157053,0.451269217637529,0.40421899430315517,0.5234585380566898,0.4801358148465297,0.589322379125777,0.5609026278551253,0.5603626505745423,0.5926152763558219,0.6051846519550729,0.5249278943221097,0.5466383436951286,0.5905013721598343,0.617492567334953,0.606028186090181,0.5479154077898273,0.5169757965968028
0.5976960892094436,0.6076144007495464,0.540065896030321,0.5644212378347052,0.5482489628771454,0.5439277436077967,0.5939595544533012,0.5727535161690963,0.561438166927193,0.5774281883671892,0.557096288985152,0.5454747554383764,0.5555063735212131,0.5357577670690982,0.545706159370901,0.5135565022938092,0.5418039722040915,0.5599536023978086,0.5914817810968039,0.5898787478427934,0.5541803237916758,0.6089603236711018,0.506945689310775,0.5931463226494258,0.6084859324811294,0.5566105444713265,0.57223330158797,0.5816458305013019,0.6164416475319606,0.5852877912063507,0.5278946459595645,0.5426385344500466
0.6209327105584843,0.6154594535061766,0.5160948233558095,0.5864544255366415,0.5680362227249937,0.5631639034120379,0.5642972969306393,0.551951733608605,0.5286946170544867,0.5660165721072012,0.5206337297498532,0.5770066617879401,0.5369574538339427,0.5162166039297844,0.4996769027121923,0.5087470540337478,0.5041906367121668,0.5248691723554157,0.5704615156630556,0.5402493619197934,0.560439630445201,0.5736559150635036,0.5825262762387725,0.5903789536679932,0.6139174744694053,0.5596236617415427,0.5987096885196835,0.5572876793190096,0.6169733170615946,0.6276192210319769,0.5741024786856179,0.4918184996917895
0.5102574144512548,0.48776664372695805,0.5157538941835895,0.5668583274314981,0.5172347741734286,0.5456260807469744,0.6071212050525473,0.5190270082977843,0.44180448776565096,0.5437767933795831,0.5301437678382956,0.5052700358581753,0.5534140504999187,0.5063577898309216,0.5227559143874425,0.5348991465009038,0.5081454233475211,0.5160767383070357,0.5135473845684932,0.4965053289500268,0.5404914641361144,0.5605241099298808,0.5001066164069711,0.573318413367138,0.6079956436965762,0.5164458063692604,0.588926067698829,0.5966763885579357,0.5571685834221073,0.48601158813699846,0.5384919995548433,0.5137781322635308
0.5424283046705876,0.5109501651732017,0.57972961581057,0.5052679478970761,0.5372988540094616,0.5516961122352305,0.6048923996025187,0.5159942042150868,0.4790155094826005,0.6111734002518744,0.4995654325136494,0.47317390107958013,0.5297281355541048,0.48922831267419875,0.4866975640330813,0.47587702357282974,0.4200887442107636,0.44743543788614615,0.5174251180171592,0.4410345255909604,0.5079485831835802,0.5315610055680831,0.48513983618860973,0.5142231119700256,0.5596932025733788,0.548360827882764,0.5885917953923813,0.570744132842995,0.588244932856411,0.5057312337323049,0.4546714314316043,0.5557641208968288
0.5668381853086187,0.5585504824521593,0.5420658389034418,0.5311376407123031,0.545295239555876,0.5371199178555579,0.5934562473706054,0.5007738702647602,0.5532229204696315,0.582434160826213,0.4430504221000344,0.5079056079194773,0.535528937476097,0.5034772893365826,0.5379030797365495,0.49377613997476955,0.4710281072600562,0.47341699681846655,0.5227343346595986,0.5182824881475403,0.4579079385025133,0.5299360363795513,0.5854078890408739,0.5792443379609997,0.5845770124885197,0.5328432884732642,0.5778957754161057,0.597857696919273,0.5762446803028851,0.5352963635081858,0.4968742397378348,0.5546385518319159
0.5928714992472042,0.5705644115561903,0.5367190337017534,0.5457974569077949,0.5353924412788805,0.5832306526197644,0.5723525231975362,0.545482807806403,0.5495097155076237,0.585164126685083,0.496953686501388,0.5187126179649542,0.5404874906989116,0.5577348322582367,0.4827950001925017,0.48767475808681693,0.4906790106891647,0.5201827240285443,0.5438348225550628,0.5047703815069092,0.5090790470153873,0.5566446996298958,0.5762482921774535,0.6258981520768541,0.588187100345566,0.5508806564408052,0.5687962803856276,0.5649236520834388,0.6028658077986141,0.589235139428314,0.5857575672023424,0.5781414802366286
0.6161434729263224,0.584720483035672,0.4612118450314886,0.5839969852794578,0.5321601383363577,0.6009374620849033,0.5574910424892024,0.5398693170788423,0.5903763051316944,0.5939605671518925,0.5448955955671285,0.5254826088819438,0.5337332893977118,0.5366772253172913,0.46415816576154106,0.47272022237616046,0.4525900364937919,0.48847580090704423,0.5042263394405136,0.46623707100573786,0.5649937422681537,0.5348142071498303,0.5517801435600121,0.6269789076058857,0.6114783856835552,0.5952319608005638,0.6109036967752055,0.5924731387157733,0.5859181553526827,0.6174333616337676,0.5745290638208951,0.5701544636379219
0.5833994263660377,0.5745710072446408,0.4790104266109498,0.5978447507298273,0.580748902745425,0.5482710490530814,0.49596441567975263,0.5342302777597576,0.5468700790871915,0.5838008636771921,0.49435366697238264,0.5442695034359571,0.5504889074782184,0.4945698963146525,0.4688416835722148,0.48816034510410117,0.459135897763051,0.45283554325426684,0.5330910789788037,0.521742621245092,0.5763652137521459,0.5643995195784437,0.5687978718049065,0.5962045189234959,0.5977679138828437,0.601183430697748,0.6224770514076178,0.5648715261015167,0.6150578899709797,0.5949682143360998,0.581981664848104,0.5468423698051972
0.5957430821399173,0.6005140485651129,0.5439226852396403,0.5982061501110224,0.5165520270526868,0.44891395990764893,0.5536376946428543,0.47467352055086753,0.5330077563286415,0.5416142932532749,0.4983931783692097,0.5243233378956388,0.5499685923548208,0.49852937561226,0.4560115537928232,0.49961898666534627,0.4758846838901985,0.4944301026046362,0.5274596303826531,0.5582965354509473,0.6055325746502226,0.6021863887147919,0.6185459040698278,0.6069790661483562,0.612120511799095,0.5606818742966212,0.6027771055562403,0.5929403261728777,0.5925418630528385,0.5910538724968357,0.60137741778041,0.46905216134198274
0.5932364214258202,0.6193164772055214,0.567932542573279,0.6024219686520825,0.5572475965837642,0.3934795762615277,0.6129155166632152,0.47957618389796725,0.5205900024606567,0.5494161192004547,0.5409005778836775,0.5371237947683306,0.5787589926866987,0.5314181839364036,0.5258533142996107,0.557384139265667,0.5205879686735078,0.5423564883025451,0.5009715725545649,0.5795221402005625,0.6231761293844055,0.5713830951042232,0.6121213897832946,0.6212961872717491,0.5858909568206481,0.6021306293932523,0.6039435422712465,0.6124749426874773,0.6001015686824912,0.6033188717119666,0.5937964320150074,0.5219865772031587
0.6126570232570857,0.6008549835752934,0.5970772110339915,0.49798866707012507,0.561921888447123,0.5885721033220658,0.5936374729500561,0.5935929819619957,0.5871851909212167,0.6250585767054314,0.5753514806898715,0.5794135037765493,0.5870319795082465,0.563943627610051,0.5808485725581267,0.5799170056531111,0.5622614857601784,0.566131634772458,0.5768511322539858,0.5980520232391052,0.5827701555874328,0.5853700286859341,0.5902136573548193,0.6217162355398282,0.5986270830465547,0.5986018020788674,0.5980972249304752,0.5809304336869474,0.6151103024115324,0.6125119011485857,0.5936846591799418,0.5860723001439547
0.6062620302455548,0.587267127840309,0.6234327692492481,0.5476152179304643,0.521378485464738,0.5845778312421017,0.5733975180654238,0.5591286118193691,0.4856618144505747,0.6172565540159668,0.5378868317973384,0.5266210195818547,0.5079816293443234,0.5149839493975353,0.5176920492547968,0.4955697374047812,0.49460366269040956,0.5163654542770097,0.522548747118021,0.5771439160674666,0.6296253446711828,0.5680353899355846,0.5987844446421621,0.6187273249297492,0.61000658355427,0.5603446697924128,0.5745544042996401,0.6206636354886799,0.6036038520476424,0.6221517009136402,0.5606787892977785,0.5231952833810221
0.6209384711811164,0.6117985850944297,0.6079688147843666,0.5868739553350979,0.5729127504679967,0.5912239429836772,0.6010805994023981,0.5831479156422943,0.48934488742669474,0.6046637322709442,0.5103522551212679,0.5221187314143539,0.5122020656332578,0.5145425280915478,0.4740422334115871,0.46418183761943405,0.44012685062203255,0.45049891343132825,0.5003530657233509,0.5271612242377335,0.5873682655445983,0.5555410824530175,0.5827019850508274,0.6191724185423845,0.6115505254498639,0.5781511391658587,0.5742431512696488,0.5736547684104226,0.5959158196328781,0.622046932792859,0.6043119113155716,0.5344620878330365
0.607180920403452,0.5984602245239432,0.5932187331042545,0.5717547205045727,0.5280824787674518,0.5467421926152648,0.5600543474925439,0.558878191957619,0.49912612051810257,0.5944697618050047,0.44245653302619586,0.4902165455328706,0.5285093820642536,0.4701744683344207,0.44169343672568107,0.4693689530323597,0.42571482247370346,0.42970456784378297,0.47499981492472626,0.4964625586232858,0.5411089075155678,0.5563772816548953,0.5709817445217289,0.6073537810605097,0.6146211365898236,0.539733533322782,0.5620960477879052,0.5448387289966946,0.5861452161257408,0.596021100532226,0.5504455631839902,0.5473992617722622
0.6123065404438575,0.5964984183192831,0.5257906986574494,0.5429307833645909,0.5548469542984726,0.4850923258384596,0.5063730283959829,0.5176076509635432,0.5254719190087302,0.5195867435726125,0.44037440435669195,0.5278457794383126,0.48971488306731326,0.4662940732192342,0.4968146535482113,0.4943926471090185,0.42616641724667725,0.38902972201451785,0.40484449283563645,0.43746552654854337,0.5862505353804809,0.5087289486077095,0.5878254792812126,0.6171229389261348,0.6175967997723415,0.6115618239899292,0.5710170848489532,0.5798128474451828,0.5910071351151097,0.6016726952042942,0.5911213637503864,0.5475601353645785
0.6147493449988288,0.6086594194882238,0.43002465358127134,0.5686475265755931,0.5175009591060051,0.41990002468907933,0.5023675401342881,0.585887721110921,0.5888634077136782,0.598738214942459,0.5146259356350457,0.6086595938641626,0.5593619893001925,0.5696851872054935,0.5441589311739585,0.5501853635581221,0.5000304271027469,0.5525922808086673,0.6015718600578603,0.5644551534772885,0.6181669907529712,0.6033422538185688,0.6205216158454304,0.567369081295728,0.5874320655434941,0.49471934966564973,0.5679593063404167,0.5393583935119219,0.5869702192480165,0.5711563470514684,0.5546219295375474,0.5364973972266832
0.5955950645916352,0.5998266179115811,0.5686523520261221,0.6197521426302753,0.5314828812157542,0.5564547716937984,0.5931198007815683,0.6150228404117635,0.5567670301364195,0.6277040025428519,0.54973071978127,0.5939126917505579,0.5766282173364399,0.5720701582297306,0.5738559015079557,0.5757696686365261,0.5902460823544029,0.5723507142067573,0.5899054253653061,0.5896242221225192,0.6032513735174605,0.5906544324069402,0.6039867183819091,0.6100858479725355,0.6003703103365544,0.49815330910556505,0.5949771115197046,0.5813995824542082,0.59523109396395,0.5559306180539278,0.5523345378036595,0.5461450914745208
0.6057514716927606,0.6146189816585573,0.6015729436809942,0.603910322385865,0.527229667037873,0.5936773184557544,0.6052449491787093,0.5920854258272796,0.5362132907206781,0.5876469935047152,0.555009537160009,0.5710117325248905,0.5402697572954843,0.555976548986208,0.5577829927591942,0.5500220995833345,0.5180360735577224,0.5591858421505063,0.5948825655482501,0.55975490928086,0.5992305355857012,0.5533558648836564,0.5920925544705047,0.6174802592629846,0.6144078834980353,0.5844924577386136,0.6198360811801242,0.5932591889050144,0.6150292312083175,0.6221298253372675,0.6055759315942367,0.5246917592090891
0.588795450323352,0.5763383946656377,0.622971399635888,0.596936716895412,0.5879989255900387,0.6188169815346277,0.6176901612163113,0.5556361186339062,0.5413890449306031,0.5612380067378596,0.5559297703665593,0.5365278396001295,0.5118224279857433,0.5642366066073995,0.4850183986465712,0.45793593424961804,0.4496096676496408,0.44629640779946195,0.5382199344054419,0.5403798487745337,0.6028433735910841,0.5675776958620656,0.5725695859806994,0.6291460700315628,0.6092181868363028,0.5410658157804202,0.5900250319847301,0.6099270904967582,0.6083991475893603,0.5838612752638696,0.5870340691437042,0.5371883136963076
0.6140515110690551,0.617599540009351,0.564186274167405,0.6170728866342232,0.5400155702932369,0.5689562629975524,0.6277603483535186,0.511757274592883,0.5974125979128395,0.575517503026497,0.5697492748813506,0.5529836926939717,0.5113438227754612,0.5482310177507369,0.4815496074229848,0.4548949749380186,0.45457453644107004,0.4132641310030211,0.47933163797993505,0.5333136337307518,0.5932039697894713,0.5186771861280637,0.6149207352622639,0.6210701559465868,0.6219291086763207,0.5590047899245543,0.5756752803750854,0.5577449222111763,0.6148225993316464,0.6139427061333689,0.5972649877517836,0.4974153083050282
0.6235163439338164,0.6113390375507556,0.5588033927134055,0.6047348210249293,0.4997885755420671,0.556833463551602,0.5572306589734451,0.5200498716447457,0.5797674744615081,0.5868920720320301,0.5223847803074149,0.5651137026840761,0.5882877386831673,0.5347978398163307,0.5380373309071802,0.525710362570548,0.5493048492454514,0.5522435137791069,0.5704852697544062,0.5498502913943977,0.5816391048513089,0.5559797530257811,0.606951242953407,0.604377083737275,0.6085830993925407,0.5028928397261476,0.5015673673240555,0.572926316392803,0.5908922278570389,0.6093291672242337,0.5457972742958741,0.5254744035205237
