Fp1,AF3,F7,F3,FC1,FC5,T7,C3,CP1,CP5,P7,P3,Pz,PO3,O1,Oz,O2,PO4,P4,P8,CP6,CP2,C4,T8,FC6,FC2,F4,F8,AF4,Fp2,Fz,Cz
2.0530527412246755,2.096992501953083,1.8777214061822445,2.1041731453050527,1.9702969530967929,1.7160022853540962,2.1914120364781127,2.32291503296736,1.9589255292495276,2.0876158263848663,2.2185247640788033,2.1970815190637167,2.1701096859643925,2.1208846352078976,2.111220751778627,2.0704711848085116,2.1332918261339993,1.9974377896843447,2.032131922619996,1.7385817520154092,1.887420850746741,2.1916237431693606,1.998696352152565,2.018543898195624,1.9328253271912366,1.8897402380088884,1.9401280967525643,1.8244278531262366,1.920920673237268,1.964439928978465,1.8856509874012364,2.1447122129924443
1.9127915141162641,1.807881737200147,1.9483063388877357,1.8600949015092043,1.7929168639134005,1.7406281399890502,1.9364800687417152,2.2889787763445257,1.8315990994331581,2.012117408589288,1.9622925403715539,1.960463312013111,2.113503135803324,2.1096505539334687,2.138681459781668,2.0554649363524016,2.0148161160382103,1.8550446952811335,1.8802169325526907,1.6549024840455782,1.7719316190634564,1.9147439182967336,1.8274879476721413,1.8757484116301937,2.036435529501103,1.7146646388097617,1.864576002565723,1.891328733486977,2.1186980713072425,1.9896062411043292,1.8231011103364518,2.142797680311327
2.0356904614652294,2.2187779820002005,2.0188078098829187,1.9873607680316216,1.957860084155266,1.8530251944638685,2.195907558798211,2.0976537658407253,1.778338013845987,1.8492356300123205,2.1566587518419706,1.9222057837645663,1.9497462913020966,2.0400819798714953,2.0755292445301734,2.176443501588334,2.032513705593977,1.9193960687556804,2.036658740574631,1.7681597412893375,1.8242919008717242,2.166011732560028,1.918059509544025,1.9459969399288939,1.9172971744211862,1.8109800325971532,2.0921795662665303,1.8473099727339586,1.89982494603944,1.9816141517284622,2.0177286762329563,2.2864584328038853
2.075494421423678,2.1976633620912303,1.943285341278489,2.0282712587270746,2.1836245176121523,1.8054241888934603,2.2706464604892718,1.8806044583503738,1.8027313414029058,1.821401429302815,1.9969176442365688,1.7939294737588563,1.9197770742612397,1.8218498540583532,1.7536224817379564,1.843350502966257,1.8335358707138536,1.9213685782497045,2.1214771417318343,1.848545446363771,2.0959158364843202,2.169264362747813,2.1794346884100824,2.105588799865085,2.067236179332157,1.89979422603234,2.045094260575063,1.8452571537826055,1.8957694150696969,1.8844579535221402,1.915524875650146,2.28037102346282
2.1226433693170508,2.204855041421856,2.0859793076934765,2.1552744345744057,2.0552777203332515,1.9742704419734725,2.02366431238347,2.070540629095756,2.13153215113662,1.9949542566893494,1.9744098176507408,1.9156072058845186,2.0760920749073186,1.9488694416484462,1.9491656060437235,1.8155561130698843,1.875809363723197,1.8374963168534244,1.9904005059699765,1.7486635290130812,2.0490057199620333,2.1193936748836353,2.0324659970889813,2.0315881908301487,2.0174681176766573,1.766638838310828,2.1760041153703398,2.0166854090788386,2.1206501994898352,1.9870999660040787,1.92825824308945,2.3969970256555406
2.109112893657202,2.2008042781138863,2.25150409707775,2.162993432711058,2.151815168305595,2.229823210033764,2.0210581040457,2.218568165068346,2.004680095034409,2.0368367824494875,1.8575508956484548,1.676015604852027,2.243841063275628,1.7757755196311862,1.8027388196912952,1.9677686849168847,1.8459845503515304,2.197085184584526,2.373714712299249,2.020969576199728,2.194397087717359,2.43624038136391,2.114184592049227,2.0295094880342033,1.976549533585191,1.7689844214058204,2.1942143976646626,2.017753931540423,2.1980498881254023,2.1513448894699096,2.078440096815996,2.3019753106933716
2.136077906265966,2.1001188194525016,2.1943224703465654,2.293608565213425,2.058257171424832,2.1116646087876267,2.3652398444767795,2.0061235221685427,2.112363453113959,1.9622810367597145,2.076399368854238,1.812919045212631,1.9337330726367352,1.8790484961949772,1.8768120526082421,1.9228667242259434,1.814760695633121,1.792037719424308,1.9449357082310763,1.9079877778177,1.9676654300294207,2.1538262625919535,2.377911351477326,2.2106759016962836,2.0737802856758525,1.8009396745411206,1.979384831873652,2.1431136783885685,2.0995794313286997,2.0424859448919697,2.071446673787832,2.083649991546536
2.05897022110439,2.07272243795537,1.8438151128374771,2.1104679451680157,2.205824836433251,2.3369593158293243,2.158926032349152,2.059013560618852,1.997074214266216,2.164084131390426,2.0411563271659574,1.9549109565268288,2.179383324165374,1.9863452564347788,2.0639455591260343,2.1404186569567534,2.072848827360372,2.013240285881974,2.1692298116653026,1.9482018751342254,2.076134329251792,2.3438939812713175,2.228039297711221,1.9966710253119369,1.9605737607569738,1.9335606923107411,2.0863100005399557,1.8335860345952566,2.1257937942827927,2.082458676778611,2.02252192363288,2.062294743758509
2.1431789548675306,2.0877941870816614,2.0576174842674715,2.106661499150304,2.098240824609303,2.0745764299680762,1.9862365785245684,2.075345646347735,1.9647586173202731,2.083791755105348,1.9185158885002473,2.0373378301062535,2.249493379515095,1.9704999608653542,2.0550450732678827,2.166011916990344,2.07410184120623,1.9085145362871827,2.0631776889104874,1.9401855699355315,2.1144259899659046,2.3834680505644865,2.257642711820047,2.3113807759396474,2.1149867692553594,1.9694411879145255,2.251298498531865,2.039067381141114,2.1805142612293587,2.0422677720101023,2.0701989444357007,1.9114953428201131
2.063130291710346,1.9885742618911264,1.957909839605939,2.2600980210067965,2.0936812261750894,2.0081517589783084,2.1931440095713315,1.9355650792542691,2.020723861092745,2.069525688350999,1.944594312818296,2.0425260182948834,1.9791712973891045,1.8601827164586366,2.058098479464152,1.9177840000808728,1.79733535684908,1.9916078991064154,2.01207611132227,1.9852317775783976,1.9735199618092474,1.9769336094858694,2.105001451672271,1.9108270211366194,1.8455247036336082,1.9100844809530593,2.0160853994136287,1.968113810263228,2.025391737811166,1.9374921425115819,1.999592216969557,1.7949239002131117
1.9302571622040734,1.9229811151646679,2.0384738364626234,2.0188753404297244,2.05774131927601,1.9798285774802296,2.116143350412367,2.1163075538863136,1.7437295654244387,2.113985449826244,1.9576400761514647,1.8112027596269273,1.8524254304448533,1.9977270806892231,1.9267054636133119,2.130469135489973,1.9932050461139141,2.0903066796384824,2.15137673833952,1.8828683436045106,2.045867113368971,2.1263089536390987,2.022229739429891,1.8305815093852416,1.7531975550475465,1.9766980660426938,1.8298728935687798,1.7014102707048848,1.7498907839130946,1.7568514000281528,1.8966856452290082,2.1297822975721052
2.017663310767736,1.9379194399098152,2.111649930306075,1.9313627786887146,1.8382229455235952,2.1834332241358636,2.2383694309076625,2.1781571300657814,2.000269569681768,2.0396035842403184,1.7962973145919283,1.7755564482443238,1.850467984188485,1.7136548811427752,2.1340881170121864,2.0895306393287356,1.8775193999784316,1.8915183542031444,2.0471257144629456,1.886599376723597,2.0956060573039506,2.0361212032020894,1.9196632247123582,2.1265768366410174,1.9494346980006856,1.7756319419024416,1.921145931438718,2.3503276031133633,1.9171505419177162,2.03796566053466,1.8363279971502962,1.9885607807132122
1.9441579228310886,1.947819073351758,1.9202521167382494,1.9533735372382952,1.914153440270402,2.1041367799740303,1.864047687818794,2.121367700541573,1.8714880291509544,1.9942565943969046,2.012377410017366,1.7067711662689062,1.7696063223333303,1.718171811442473,1.8596902108437166,1.8643774677032225,1.7906335648042624,1.9078892821260078,1.9430524311506576,1.916663076221696,2.0042392328003436,1.9528978634621257,2.0600894155718192,2.0601439426187067,2.096479923921812,1.8234293927187195,1.994692726101053,2.2724702686932825,1.9134239635126233,2.005037163043167,1.8808175297139367,1.9794753392848832
2.2976980175685338,2.059916607343891,2.309445014428009,2.187779672029722,2.2662996556915003,1.9845914016774513,2.120816218075078,2.1160570718530294,1.9698300589791136,2.121198229344106,1.926981348696016,2.2029136641984532,1.9580587337172546,1.9989869519302819,1.9464378470344716,1.9209604766233415,1.784240587810579,1.9469542565612146,2.1879592893704727,1.8291347149307011,2.0952317783325642,2.180663596283596,1.8777880814506458,1.9160929143682455,1.9702764200966891,1.9160136727100714,2.093050602118619,2.237098757097453,2.1025865957464522,2.1498260838010728,2.141726894801283,1.8972294458909988
2.2334134874695986,2.1034112899299955,2.24152399177452,2.1147542087333626,2.063568703161892,2.013049523700503,2.0422669038397365,2.1371129458401454,1.8709719185877967,1.9451864950010287,2.113828241708785,2.162445073395132,2.049732441159175,2.183513435083006,1.9705639027762805,2.1260355761443575,1.9083243875119102,2.0348037359014643,2.0539648202413257,2.016543027754647,2.113747344679296,2.089660885530731,1.9146371456451516,2.2171151197349515,2.1933928842719657,2.0680350529229004,2.3197329817111365,2.3820575675452234,2.144576513806835,2.3420600998849723,2.11400716942387,2.0055736837327944
2.027908090255386,1.997982842967055,2.19688412823713,2.1288485064954243,1.9658754801583695,2.0555558716216633,2.069095550355111,1.906763322046913,1.9451069104147192,1.9739726044879145,1.8853562967786766,2.004352436450525,1.931684466824953,2.261549586388931,2.085433392983601,2.055351981412286,1.9349688652788344,1.8282595409203353,1.963254125397818,1.9460474989506533,1.972106042979884,1.95053496412547,1.9024418777218017,2.2393404364821934,2.015854876767155,1.9241669995462793,1.9749358157285526,2.4537554002071986,1.9946698894328876,2.019912404260584,1.9712338456532117,1.9136432171971207
2.035491469626717,1.9727174382766357,1.8654469723932494,1.889130886711007,2.0792986110281464,2.147345291422494,1.8531106286218304,1.9541855617213628,1.7991326749006107,2.1876997818763364,2.084307739908113,1.8303690040430027,1.8127011300488898,2.041111265346672,1.799237688055899,1.7511497107347926,1.6569505758068248,1.676852016416091,1.8007002725833572,1.680804745795264,1.7863892333007931,1.9057649917883703,1.8309209142622271,1.8565483121289301,2.0773769312082715,1.9266678756834312,2.0239857202249083,1.9363026223991873,2.014621396261391,2.0676895839484106,1.9606966787977822,1.9103513335988653
2.0708763474682503,1.9592475242798897,2.1488349465779173,1.9203968429679457,1.8914294688643811,2.0870874056506956,2.0595120072001927,1.8870826467282749,1.8392660822668145,2.1943428549637254,1.9887170882528948,2.0964469180531387,1.8221938218055913,1.999602406373831,1.9886959271521285,1.9533612135132508,2.0081014743088477,1.9960790512709794,2.2744729428962622,2.1757213982096815,2.128667785444552,2.0489856021953137,2.0227098674834902,2.0195382623467983,2.030246003064233,2.180549990935175,1.9935220295410048,2.1394787628330167,2.1828509132819915,2.286206357147158,1.9340720397226032,2.297875002597912
1.96155907872126,2.0336301894900526,2.037199904208146,1.8663247534750582,2.010085799402446,2.1591552351399805,2.125829531537992,2.0868228452274598,1.6704472209362249,1.9447123082249442,2.203481179757883,1.8191102246934743,2.0885513376110647,1.9146558305463557,2.022095216831752,2.0649458979779793,1.9942171925140884,1.9054797840235793,2.1047359982963036,2.027487967983909,2.041047290001119,2.0946190691071136,2.1523892738276653,2.086637363872163,2.166128455373584,2.034349741179834,1.9751519533193382,2.0763109907913866,2.287492060283393,2.2336202985143983,1.9976556223025084,2.0683374972503636
1.805175056018722,1.9147959179562413,1.8289524198350497,1.7996260089471097,1.8455205681655507,2.107148611107167,1.8416933906738187,2.098810784503897,1.8201849945952933,1.8723065774640717,2.035256618394114,1.886488188187134,2.0883099566179615,1.8071396173386094,1.8013905073255065,1.9148030984490427,1.9097936505842135,1.9412669993852467,2.096557192986069,1.9704785283884443,1.883016474766361,2.198961730415442,1.8904971770479106,2.114758744731576,2.1599353031689668,1.9986634932723575,2.1111895896806154,2.1160012140396707,2.09095659953154,2.0549825892615665,1.8941992483780363,2.213756757311349
1.839727594108151,1.9277673575748167,1.935459990420602,1.8223752211670654,1.7768796187201963,2.223273347042394,1.8850073941258503,1.9202525753538153,1.7975773598991631,2.0150819160549904,2.1791651661233415,1.8594813065071436,1.9755246231786456,2.0178363080671895,2.057830041864581,2.045953901778322,2.054828455565685,1.952538920232252,2.225530504484931,2.1903550890986834,2.071385283476324,2.2204585242458164,1.9693011533110307,2.278940249972111,2.2790009258816277,2.0557947268760475,2.081148703672284,2.3234068043432545,2.152124607425877,2.07308233821411,1.8972613755261303,2.0038820158189976
2.1401358830880604,1.865568986187786,1.917299519863371,2.177651782452565,1.8803873233801018,1.9466876534714699,2.2009214055875903,2.009311828615069,1.7852044438672519,2.074923497254724,2.1395076778987514,1.9376797816458873,2.0120069719330305,1.9180288562048307,1.974743807668608,1.897004431982627,1.9785763143517234,1.9247206138716775,2.037184708906016,2.056623004624795,2.0377657987585236,2.124898837504003,2.0372157899103014,2.227065294259409,1.8914979295944034,2.0868160810942635,2.1167668332231417,2.28802139155657,2.28418733958787,2.2163706499917604,1.9431190104601184,2.2198658921229533
1.7648945891197667,1.8853915014391556,2.1124873266267397,1.8087429492077163,1.7917700398365644,2.3390898753560814,2.146324355361049,2.039038878218278,1.8228000171257888,2.0699210196356588,1.842879786720569,1.7441999506597463,1.9371061413615782,1.7766143699719192,1.7301309622260226,1.708400078208087,1.754701681185447,1.8297899036525223,2.2275179473441895,2.0025001916537204,2.139745394199333,2.026428420835404,1.9192086320506054,2.0992000686117764,2.216451334225313,2.0522565812883364,1.8144192235053032,2.0572635810545425,1.9837730498672872,1.8446780813456762,1.8354126660422962,2.125741832192925
1.9866579155195965,1.879835718488153,2.2216261239166966,1.9210267440035407,2.0578208641109472,2.2050549794432843,2.1325051547400964,1.9559749589739492,1.8428274171280332,1.997548225736605,2.064721111399474,1.9874061271927361,1.9239741220422406,2.010440658683506,2.1387357356525287,1.8738242712666529,2.0424133277461616,1.8975630812097604,1.8791277814817786,1.940456548305333,1.8293584203075381,1.8723344210979964,1.7578492716559164,2.1154088956378323,1.9492679548980043,1.8903138211942316,2.1661953926289015,2.109061372779598,2.252972848438851,2.070537282490049,2.0132651123864926,1.9613352366378942
2.017611101971854,1.9285247513653356,2.1395722469719445,2.041573687866146,1.8429248773386455,1.9581215893850163,2.0212162034122567,1.946939091725934,1.7261023678217258,2.0409015674315087,2.0219469787527924,1.8551913841932433,1.9002139426180342,2.012531629609895,1.9990429497099416,1.8493782510559436,1.9284364039357917,1.9376125712604833,2.058585587765855,2.181395582158918,2.0198595177034058,1.8829167325404421,1.8956004574332517,2.130652536564733,2.0610505309763076,2.0636469005654403,2.099156299331968,2.1113624927002292,2.246363238276352,2.14108097838077,2.2761709706314672,2.2548712129123363
2.117403138955671,2.053651458906194,2.147252829665034,2.258873205778663,1.9631069308575215,2.2164051556646966,1.8883046013823057,1.8301284827342656,1.7667886442059375,2.031517951279232,2.072040259851853,1.9390807489781043,1.7398290419331697,1.839863085007233,1.8473929074546027,1.9129782688803998,1.9788852289496375,1.9162105182881528,1.7754529803640058,1.9132385569801513,1.8493503715304742,1.8769480141364128,1.9311371225549943,1.9960513935031987,2.1215415549852468,2.140779451954954,2.231482419375314,2.130418396442012,2.279953525785095,2.1724793131771016,1.9927851091401623,2.3187643104171025
2.2225161861504796,1.8646780815299062,2.1227870043149504,2.0523586944746777,2.088781209136992,2.3606840178441146,1.9681006791159994,1.861525619489491,1.8582884695292599,2.003114778016361,1.8640880556986525,2.131013883748909,1.9409799074727887,1.8990770234973837,1.7576155100778927,1.7493077641724264,1.8165487523553316,1.9691282824224325,1.9263261588340197,1.8491055023374319,2.0804167272255265,1.9817828755894484,2.1048111048680416,2.1791192666433306,2.2465945997841485,2.098184814755205,2.199037972602162,2.134006740421688,2.170336688761064,2.174174743256179,1.7715955515813824,2.1600453621388285
2.1157683658767232,1.9545980417134954,1.8344645659301615,2.052552664731182,1.935993382748778,2.1595814720862796,1.932190524731709,1.8063001619589159,1.6198874657910127,1.8325083167166525,2.062650117431484,1.7677923106376017,1.7596081178884673,1.7415450903461125,1.7663734019898787,1.8280492293105792,1.9167268620240105,1.8451310882220309,1.986932177863087,2.2466293706519314,2.0167490659560556,2.087530514351798,2.1347622458321616,2.164806204307363,1.9077043014113952,2.0245202677872656,1.9475761706978338,1.8599618925348966,1.9007757276860768,1.8444180435568327,1.7151523735587648,2.2488058014318697
1.9761390245302808,1.9426353755792818,2.0248757673034627,2.214670534147785,1.9923582722356095,2.0313816027827536,2.15199424484706,2.035986808484389,1.8059497419238089,1.8591800928470361,2.0814519542102023,1.806000447894328,1.8463420407367386,1.9489074092695047,1.81548980501928,1.8990864722752174,1.978879732946437,1.9486749992411438,1.976276239324398,2.2429355246602434,2.041427943547709,1.8999696865042495,2.2466901811447846,2.188894380075576,2.1093036516203423,1.8463159738201336,1.9887893256997262,1.8772474287792789,1.9441696577313556,1.8408911366281078,1.7933437719560645,2.186073497956977
2.0608538236649308,1.944056422329829,2.0134891254255285,2.025666425876034,1.9458050456139164,1.9416139787256899,2.171343933974032,1.8715977130747807,1.9460292170847946,1.8906007973041503,2.234424985439635,2.013787597159096,1.8542049623597472,1.9784579943848544,1.9592411845510966,1.8764499756095638,2.0022719751809093,1.8977293097090744,1.818758039320478,2.0283083094773153,1.9680333312217502,1.9924776042837988,1.9978014241746018,2.1566096304549194,2.084164035458159,1.877394785203378,2.0578251549050086,1.9426540484287889,1.9910878190465362,2.004356061641662,1.775016512574142,1.9470970527086209
1.9720101345620313,1.9656796893861144,1.7494874907706184,2.1048371078650847,1.9312501887961184,2.1520600750568772,2.014716926373055,1.7945325472167493,1.8156923229137214,2.016175693782258,2.0616701354797664,1.8488909825480229,1.7134531444417724,1.9590059765780283,2.014337722643965,1.991623366334275,2.1087794534030215,1.77927540969523,1.7177874595067357,1.919343140190873,1.8927936006879922,1.7655078800607702,1.9546523896860006,2.0747037829961736,2.1504094091175445,1.9568831076494906,1.8015134791130198,1.8545510454508056,1.7640739713990843,1.7949880391253992,1.9243366811507605,1.9074181563599857
2.2233733814416383,2.190758876589796,1.7706881941223949,2.1880387274278177,2.1591464842083927,2.41167295475604,1.883951738006018,1.7497570641658413,1.8024496095100166,1.7416813368972166,1.8330950699251387,1.8245408776383463,2.076445878259441,1.8496406224701345,1.8910738383952959,1.9326904671968066,1.8727735932602947,2.0575903542750402,2.0787444220792985,2.1242930549248142,1.9800718393820784,2.0993946614857832,2.0513189840722075,2.070068335921156,2.069276271121641,2.057392641235185,2.069074599719945,1.98073671758785,1.8854155787584028,1.998676638686184,1.7927848210278128,2.0926258382780185
2.1259093031987653,2.1277100138826355,2.0216752728144276,2.2414160836207007,1.9267941479880106,2.355003746444636,2.06777233464194,1.7110257751218,1.816062424833322,1.926693879614583,2.2508550007297328,1.9214833819348975,1.883403570978165,2.1605658467166986,2.0972309121088224,2.118952124502472,2.140747515745689,1.9976309127350897,1.817647822161378,1.9310942385589198,1.7342628477041933,1.8877323913990924,1.9456984641788864,1.8443493356293423,2.0375986228608265,2.0364915407948834,1.858349478711982,1.9539161404147485,1.870789633292409,1.9274527326413737,1.8111412910115448,2.1445436679131413
2.131084334528582,2.05624821750067,1.9003000761637345,2.0108102533002077,1.886032513561745,2.2981682233236174,2.1323952372738337,1.6803856776715815,1.7611560879053765,2.0107583849420525,2.2426527388093564,1.7628450502572766,2.0696852827472743,2.0786226347495775,1.883684567918348,1.905076558499403,2.0293458350292664,1.965876899925559,2.090025115474025,2.1884123047064636,1.964170457653225,2.121505978769227,1.9943030602375222,1.9064798143804764,2.0922994335350107,1.9634569546891412,2.0165391685588117,1.8814277686966574,1.8432518756801355,1.965814712792608,1.8047176811831873,1.989209046930157
2.0313583608601213,2.016952629577318,1.9574361279709576,1.991346058354183,1.823141699285588,2.165998312818996,2.152440598361923,1.694155239702246,1.7606393547840677,1.9603687787405684,2.2286716665077537,1.9096361441669685,1.9458562499152252,1.9379280451426788,1.8556049468700964,1.8948656182598478,1.8975884154497118,1.8290900493400117,1.963374922287137,2.1929405065595877,2.1643747624119234,2.041434838117644,2.056670595062443,1.9466815712405707,2.0391681784639633,1.8336125889404378,1.8421825702233543,1.7554375149087575,1.669177921985687,1.7723117640612516,1.8651125158941015,1.839885524613539
2.1185355226442826,1.9897679377489585,1.9868661215580985,2.1007684666753317,1.895250766239042,2.248964774364409,2.063775970629411,1.8355159184423753,1.7748554266399594,1.995738304713759,2.0536498463339012,1.8907554394079633,2.0182898066332475,1.9765483518969282,2.022673494619068,2.1368002211192367,2.1928530324906195,2.1479095683357636,1.8408650753082911,1.8932996184362776,1.7902065031714094,1.770500509530659,1.888969036610459,1.811943517120323,2.0222464870384536,2.0005277088404467,1.9024036496933727,1.8029781964729232,1.7697283003207223,1.8204366379148829,1.8448870356649656,1.997456567698082
1.8994139732507185,2.05340854452998,1.8650819656881736,1.9838875269182923,1.7541605531031237,2.1035130090194225,2.008993799040882,1.763851500870858,1.945386312368307,2.0879361213325986,2.280741588518106,1.72203059875089,1.8228636700362997,1.864574397087742,2.1422539446140543,1.9307277157741836,1.8822641698436118,1.8410992844433562,1.8544179160172858,1.9367298852582535,1.9079300108633126,1.8316173638611248,2.0789419216410807,2.0279558345792243,2.0418657241131717,1.8410210355644525,2.0022912865417406,2.095702810034522,1.906151724298955,1.9445471282681497,2.0457765958754854,1.9957084002522938
1.8280006470152026,1.8303004186737224,2.170078442732293,1.975960475793087,1.8152945245930632,2.3630966393989583,2.1158252804098026,1.9603873280259927,1.705300268811722,2.207723475527265,2.0674311649931245,1.8310605034842353,2.0474905842200855,2.0071027751700976,2.0192784139052367,1.9680942936955013,1.9787409255722812,1.8479512110289564,1.8369230624788837,1.9809071190601018,1.8241462289966628,1.8421526782076032,1.889861609054552,1.9233117173059995,1.8018354946198705,1.9647230404047622,1.7408385750584454,1.7942306062223965,1.6722326762020583,1.6903492339814619,1.744715372712365,1.849084402933544
1.7572243141163542,1.865937974661094,2.198646155263512,2.0000829566895995,1.7546543731939972,2.032406338976006,2.038378735922835,1.7949790318599619,1.7025355986268345,1.9611212023950788,1.954224073969074,1.8149219512311927,1.9061978043001475,1.9128278208288043,2.0738112118879712,2.0888260952181765,1.8935552119413033,1.8679354641363928,1.9539414666000408,1.8984491298636745,1.9187616122774562,1.8827079980405848,2.129801328968845,2.087818718514286,2.030490967615889,1.738027995829587,1.655810971082222,2.0549499199888066,1.6115071414068103,1.5962470307990198,1.6999302164400127,1.973567369214766
1.956426021403471,1.7870246521492235,2.1547813598993155,1.9028155262309954,2.0171758879381567,2.1959297426488376,2.188760605405693,2.0990677109734976,2.0038585471666814,1.9851701801914445,2.075007777081973,1.717043330762858,2.08635512602667,1.9907869235370264,2.1014753358894964,1.949038736008626,2.0266438722592355,1.9837415474530364,2.0205211852199114,1.9892943855030567,1.8664869282102134,2.0573408205014694,2.320408505280921,2.1221430634630685,2.158895298050545,1.8752538078697565,1.8571383115946645,2.0837445935095187,1.6854129381516845,1.7177371309175602,1.9158241997328163,1.8832721767643756
1.8980205875824656,1.8684555106802854,2.1733866636237225,2.006061966517202,1.8183706046199772,2.06386297037561,2.2251377893426714,2.0032887920735525,1.9858814298499123,1.9616986489559602,2.2157990305869775,1.7443599994665808,1.973384729920987,2.0142020961894045,1.9890523721672038,2.065339883784525,1.8472885827042946,1.7345210270812534,1.7247020679351952,1.8536301130463781,1.8349257530907113,1.7842095718062525,1.8967701442641036,1.9823508210970473,1.9800322068820901,1.9600762473421505,1.9655885051305408,2.2675912595859766,1.8533969606967806,1.7764373177719526,1.8891667119717215,1.887250156144637
1.9771683957580202,1.851757253319607,2.169844190496357,1.912704378316736,1.9805189694238654,2.1780051368628235,2.2002297396520225,2.085842767035645,1.8559945497030852,1.9624387929268183,2.0798847556584197,1.7582329230186968,2.021423916709529,1.993768661511516,2.0361034287094824,2.167037915180976,1.9788535332345105,1.983694544313012,2.0060379738516656,2.012501392949838,2.1152482404860957,2.0889512190592088,1.90959419940416,2.0711690901474555,1.8612303388148266,1.7373797368374,1.6726781872843235,2.13357625094198,1.7309998153170878,1.7630514206790915,1.7900275692697,2.015051581401219
1.855886940062381,1.8600075763648316,2.253659697280532,2.0372878971740827,1.939372272665395,2.2514360433052567,2.1710772453066465,1.968445696044696,1.8726024236712475,2.0616274285802456,1.8431024685237984,1.7106748140826846,1.9822465578251114,1.927321510340256,1.936886239786121,2.0204298110421637,2.040493774332216,1.9708827384573913,2.0405537819856923,1.9781883222220953,2.0290295168337464,2.0628166645273835,2.0013314888542446,2.088892655163294,1.8080459916617926,1.977814458476278,1.7660736202730405,2.0475333832522638,1.8645862906741981,1.7896967695983357,1.674001062044108,2.112262346080444
1.9484746016182104,1.923935328725736,2.001999574252887,2.070854656973107,2.1124148094197563,2.265877616903457,1.9380312646182307,1.9323165874042811,2.0777387513088876,2.0862495320861862,1.8752343817907702,1.816786451431965,2.0687304555255355,1.8878817387838474,2.063525003734771,2.0356892877375934,2.0043608120277896,1.9356559750092315,1.9051565867584674,1.9086307817323007,1.9248863055760201,2.038496861414766,2.05860559954157,2.1591650503346798,1.941320761309439,1.9244546705543624,1.92389202485057,2.2005040023696485,2.1288901225503234,1.9703616379487026,1.8101875190838215,2.183298350841481
1.961711075702412,2.1189306972748794,2.408040691489978,2.0348697846456765,2.0930059100660383,2.1050714025413,2.3559847369538827,1.9909900218368521,1.767388391710265,1.8224573588792554,2.051002817085517,1.6175675444827213,1.9408865683564258,1.9767936930037109,1.9179784396161854,2.110191307657549,1.9273715372223892,1.9294055095725926,2.0723578657000217,2.012975475633027,2.0282459101475636,2.0195439880473978,2.052805476407787,2.345705385603807,2.1753309638816223,1.8722134060192792,1.7706487228086905,2.2217924429321636,1.9983112371377152,1.882503742312155,1.7281061623713847,2.107554623734515
1.9791518320333528,1.8013042793072844,2.056583702554216,1.947474017145512,1.9649052901056068,1.9938240356672607,2.294281053282896,1.9425192380603749,1.9212493563719362,1.8130439738498503,2.086438924258371,1.834568763787412,1.7174330406418752,1.7798415630707443,1.8260920931614417,1.9017234175896662,1.8484891124899436,1.8020447670903779,1.9319208384694126,2.0881471839620063,1.957515016543705,2.057916368889893,2.0891710475849403,2.3181117866834486,1.834140643187728,1.9031486914413678,1.7612763319326796,1.970964451316399,1.864054276397591,1.8035471005647041,1.8668666413524146,2.158629742013841
2.040404684558521,2.2159396144074575,2.1710096242654013,2.3944262646559853,1.930616713004103,2.43250769262006,2.312174455239899,1.8998103302586025,1.9798474771656027,1.962586121997938,2.0327199749072227,1.756434788857602,1.8650673758012157,2.008846138004907,2.007584698617979,1.8993424614610854,1.7615905688315963,1.7793406685141233,1.8025540703742688,1.8218907189210014,2.067167581887291,1.823146907270633,2.0905927985141832,2.2936510324167614,2.1869405082083913,2.102154927471992,2.0277599430990394,2.320611533604662,2.2233076678675663,2.1638668045500173,1.745355317865258,2.241015597817756
2.2421003552882826,2.0984425735451397,2.410674396771599,2.3738209077821466,2.172002260073938,2.2940033312419894,2.1556875270969638,1.988520687300615,2.028411457178452,2.004554499881543,2.0788433587057358,1.821364871622957,1.7408763490579708,2.0941812512930356,1.9613117290627275,2.0896700205470435,2.0991961286286847,2.0723509386830616,2.0212726266581615,2.211308353971912,2.0068361433308763,1.970668068337877,2.031958525434638,2.3457256339635495,2.1928718114878607,1.9580286197105519,2.1265117252981454,2.2766951991324262,2.3693380642718407,2.252192441129564,2.10537789445169,2.210877535762078
1.9515714323730704,2.018229465334479,2.0477447286706125,2.104926785229707,1.9821932249855256,2.2425809186436254,2.2071720612492114,1.8999117747216232,2.003427220508712,1.8773440886960333,1.889596788189334,2.0611650799832284,1.7856269054633649,1.8868152702926004,1.9960549244805939,1.9020975575592238,1.8935441932152837,2.0336905027688417,2.008785818730809,1.9756759251669298,2.1045895195533513,2.166674044987242,2.2220048238912606,2.3099748224831127,2.116127648150898,1.932031883177061,2.0655091938960832,2.439551729183498,2.202204904527051,2.095655802080752,1.9289095182189093,2.247788088795365
1.8395895722976003,1.8419371836684244,1.9269749607148907,1.8666760060586105,1.8889252907444274,2.238771277131814,2.069183196983344,1.9886952747837416,2.1116468655439675,2.3048883624486303,2.0737319233220775,2.061615020325717,1.8156655552852203,2.0148717489881,2.0611596111290087,1.9915885222347145,1.861050255552283,2.0093187886364894,2.020235385266124,2.1157859774355976,2.0432721906291693,2.069961202978231,1.9792965985662816,2.206209437675467,2.2553960641515016,1.8165198219746077,2.0088884145240082,2.2589291921139276,1.971738201825072,1.9862835770392173,1.8083504859560968,1.9557980580369274
1.9872742639262055,1.8909025151122776,2.056087259814628,1.9186420699970004,1.9097938646935415,2.315573490045311,2.098417914141193,2.048725342962646,1.8108063021452145,2.1276096940566704,1.7774535423199591,1.822191387012268,1.6386158112210303,1.74812922847185,1.800831360427269,1.8522248724120922,1.8974901709655876,1.9493950304803576,1.801202678211916,2.0906834396470755,1.9402210536395885,1.8401984147376869,2.1660601026699244,2.364280664283046,2.0870021629452205,1.8465881460264153,2.03409312102221,2.1241104043621797,1.981162195902368,2.1113892971851964,1.8862054740605152,2.225444424987295
2.0235234276308667,2.085622842155189,2.2288444470678743,1.993922377449367,1.9394090623712474,2.517178545824503,2.138902337348396,1.8591166193212003,2.189103616597776,2.0193158788264918,1.9079326351937735,1.7918462958317334,1.7485796771105249,1.9766366840487295,2.0259730395774356,2.1559133364120853,2.096261790294317,1.9724199479745874,1.899291795975536,2.1707124075924624,2.221059637708205,2.0093454054093205,2.0808104233468523,2.274156247638523,1.9524802773188918,2.0828281183753345,1.9537770127341374,1.9945975530126656,1.8431334866395666,1.8749505647174223,2.033969651364793,2.021071819722796
1.8674833000455837,1.8380373409702981,1.8839348320407747,1.8524182346334428,1.9683725003001127,2.0539733674358867,1.9672070806293702,1.7644978046098534,2.1191907007107096,1.908377805235172,1.749361330365427,1.7783251436693506,1.7440125122695986,1.9155972561524448,1.8770921130719334,1.8497746917881754,1.9116208530281278,1.8404695138269733,2.139087455410814,1.8922868250550997,1.964411272911539,2.0596427353499926,1.7975368981105713,2.3464935261436923,2.0680443809367435,1.8754938043578127,2.0387383652182427,2.2537045071058968,1.910429359277997,2.0494186097330584,1.9299102172707319,2.125170485890724
1.8773149899474182,2.086315153118116,2.086585866460127,1.961879599678957,1.9932678724754422,2.527586822320121,2.1532427212293372,2.1014787851321226,2.1643268639068167,2.2932887848741754,2.071714907575742,1.9369697985149965,1.7218238576527565,1.7620412996925543,1.831609799462538,1.9838381729196204,1.8825661742078188,1.9088083819981456,1.9522330229677876,2.0126837766955146,2.0595888666450057,1.9005341670341853,2.1554176152240503,2.052234310053855,2.099638798586265,2.0044483724026354,2.07710746501171,2.0729550303981026,1.9150583269174286,2.0349524421808227,2.0482646044138493,2.081694532956906
1.7803493728076196,1.8309986011719446,2.0344850628959663,1.7669768334659262,1.8546189577771721,2.4124814048279277,2.5270779551483877,1.9104218947625276,2.2171399191021113,2.182074756431634,2.1611680067181425,1.8926612398387612,1.8206212637429033,1.9769443834043208,2.0217139154804595,2.2159485515673176,2.0093747304050793,2.02011655017675,1.9143774198808041,2.107280297151817,2.072489014723827,2.068021136565228,2.0919957617424965,1.9238413256715416,2.283674642462598,2.1653759135200548,2.096978467820435,2.0025327574739955,2.006707727770669,1.9360168841713556,1.9113449672904241,2.2573807593708146
1.8082723231791835,1.816204666360402,1.9773376699819283,1.765710054075846,1.9921522022246914,2.0715479495277562,2.0373413649281633,2.0183523039787947,2.044152173562236,2.250562122750467,1.8943020181705001,2.069677014544235,1.895823045302922,1.9437893218314113,1.9722531233662122,1.8576846208330773,1.9160324589403774,1.8111721551631275,2.0111479811045574,1.9693335690044447,1.9013823235364835,2.2278898702378145,1.9639615794933027,1.9435416147467948,2.185167278061493,2.1253853349166953,2.0899497113440666,2.105958864556035,2.0201794182526984,2.0081615677089077,1.989221031052469,2.2825381628821306
2.0554798712986773,1.9682976259341098,2.138050605575451,2.006714131234164,1.9909828603024047,2.068909166150981,2.1581120292782545,2.1306304539058867,2.1323453153070284,2.107178947297388,1.9860612770917718,2.0479729612510282,1.705754572122356,2.0983191906066363,2.1383148078789382,1.9451791285500537,1.9583239547767484,1.8445679494289697,1.9115245798198381,1.9839195492010904,2.1784553791830685,2.0020354699820393,1.9389426542217438,2.3117592257365187,2.1678026948796862,2.15254213711239,1.9802300612258306,2.1600470399909155,1.8889642423163302,1.9814779058063117,1.9569918211110982,2.10992085839373
1.913249783537658,2.0325349082624338,2.0546644699204886,1.9168849073907823,1.8232520710894125,2.154979601666472,2.3561876976769724,1.9737569131926824,2.006799055316195,2.074004686761888,2.0263508508393713,1.8505554964795918,1.6559971327474337,1.838288252233254,1.887854644386558,1.8938351357675431,1.861069849380088,1.622860208817343,1.6775086649739688,2.0102027065670454,1.8788354284527897,1.818670511736211,2.1589377999572545,2.068025110709865,2.1057783614825283,2.0236299821346178,1.8359257422501607,1.9765202820273546,1.7904252122920337,1.7956426557753458,1.810812927224737,2.400078338405703
1.7016626677221538,1.6702429850370317,1.7948288307171991,1.6330317777154932,1.683179241606683,2.019158075640312,2.008789819815315,2.0303607945563327,2.10513549802163,1.9463268158141551,2.1017847400060066,2.1344843916694303,1.8900064691243095,1.9190499720807692,2.08521979166569,1.9077297116002032,2.249257030627438,2.0536342200697475,2.1849273016734796,2.0708134717561397,2.0506436415597693,2.181786078619838,1.9979307452500417,2.039323232956366,1.884696273116383,1.941548022448388,1.7921485303316644,2.231791129550049,1.709156343976787,1.7329983574872452,1.711023093279371,2.033190389020371
2.2117758700124304,2.0784857943950192,2.102605936845325,1.9209002927042091,2.0126452378041977,1.840701783299785,2.2395183627028468,2.0761732472429184,2.22004214430614,2.043337701005113,2.1275199225372767,2.1085064336213133,2.0316878396410116,2.266975200763025,2.1044075388065164,1.959485736845388,1.9076696785191438,1.8613004851279893,1.9793588596639695,1.9282956960944442,2.028235388733608,2.2457392057836225,1.8974476590065965,2.203821439970815,1.8825735704302053,1.9711569897881445,1.8281612296730532,1.9024170122485957,1.7541785589018946,1.8773623300803453,1.8887450987508088,2.193500992694698
2.20221989560519,2.056456801802873,2.113985867266365,2.1460024211904325,2.079464805172495,2.135842402207653,1.9770032541028135,1.9773835277724963,2.170239792555052,2.0954562586472947,2.212341085023065,1.9491699202321993,1.9448124245653566,2.2421960166989483,2.3950741451033917,2.236134500915187,2.2925162134584802,2.02388774829193,1.997898616752241,1.9115730774286819,1.891682344839653,2.2477814804479026,1.9002726681209203,2.1648231930837536,2.1744423918837943,2.266941010198132,2.090532883291391,2.394422734195767,1.9786431474256079,2.134275649486863,2.1029526685776405,1.982745789315184
1.9163493035973815,1.9491841319728913,2.284594196797332,1.8209248738895174,1.7507075580552323,1.9865252472741255,2.23934630356319,2.0194377462350923,1.8664127551215814,1.9382143554583782,2.2838535323819027,1.829528357664425,1.8140148522141621,2.171962096160686,2.063552679792191,2.0947302155019445,2.0484811408042454,1.8561880800559303,1.9107185763337433,1.808908585323637,1.9442633670762879,1.9878003036126468,2.308712222716467,2.150901163487399,2.215637953332291,1.9865963269543272,2.0605454109861796,2.222392633314414,1.8233716642386941,1.9053456899867391,1.8416823772325615,2.302589902055407
2.3140813684010495,2.1069165362396607,2.3883252846186123,2.1473822847847295,1.8885858671095526,1.9825266930266863,2.2027567227654363,2.026128854817381,2.2610103049695796,1.9707730992025247,2.133026442705311,1.9156930226655327,2.0601325810521267,2.2224580272477144,2.3915060042209118,2.04675578124857,2.0577498071604072,2.0188630664505425,2.234564691750018,2.187327241201445,2.060845029775033,2.1199557120672377,2.1071831270348818,2.230730557615563,2.2256906345915595,2.260501940481108,2.1788833622002657,2.3588176428920047,1.9505857362555898,2.0853317801404314,2.0985526168907183,2.1185136193957272
2.4468237829593327,2.0536402019892956,2.2018531058035635,2.151426539786641,2.233711921417259,2.062142466387614,2.0639702081574054,1.9417894998398895,2.006228003176024,2.0741668894287795,2.033486759490497,2.041461107517207,1.9015775134151076,1.9224194209671246,2.160947729764733,1.9643854892792976,2.0368499503445032,1.9731512003028489,2.104834524784392,2.1339934752927463,2.0221051280369853,1.935681903310565,2.2474443397301545,2.1156399454529033,2.432204102005262,2.270006031046156,2.0517873256082764,2.4178455974200372,2.015272450688232,2.0775860051066677,2.18740242325913,2.371334612197661
2.1133265257183496,2.0228953878728917,2.4063042323109087,1.9249837333571578,2.038123430726115,2.1000490755295718,2.221377311824718,2.143136575235709,2.2821898808383265,2.081312810020478,2.0904901378054372,2.223565325043839,2.135814826538094,2.0113211994628597,2.0670974379081763,1.9895969448816542,1.9687042592186978,1.8927487310877456,1.8858657725571537,1.8426133393129775,1.9208438979382576,2.11009332687738,1.9801533903677677,1.9851670177364114,2.349223587649121,2.4641383980062375,2.2402219747819285,2.434104994921799,2.1461957337076027,2.2270775289984344,2.1295894602973333,2.3464983630754723
2.495318848449384,2.2053411909534404,2.0961059444603394,2.319502374363831,2.2344444508704115,1.9599028148143152,2.275625061925843,1.8286491548539874,2.0855094348703975,2.1535428822603078,2.1305148169833577,2.21747964966441,1.7779690061975872,2.0219105057694478,2.137280425107327,2.0006557868414334,2.0189188865272554,1.9260989840993228,1.8315299042910478,1.8352222883312754,1.776585592100053,1.8586509642362095,1.7883471798791912,1.9330183391692306,2.190303407614327,2.0125684737444205,2.245034762945874,2.543923977352772,1.9788760101384864,2.0091388188254293,2.417000887764299,2.2198036481117676
2.1069146480643677,2.0790245717223543,2.5117358515894517,2.0822794384678063,1.9058044242661725,2.053687250964872,2.120310634769426,1.9514100224295314,2.1369860334279167,2.2048354458160015,2.056272159225033,2.272229155784319,1.9816637204140444,2.132561383781489,2.1635979055379826,2.111206131211814,1.9223266102014083,1.8651748722237511,1.7993885871228301,1.7688453443712442,1.6921116830819105,1.8011156912071662,1.8232830244962506,1.9539271731879542,1.9734216553420942,2.112545012954402,2.0389192716320745,2.5936001746519604,1.9024886903161278,1.9124854634655797,2.0128975223502095,2.2297166204119394
2.3724077569076285,2.1689925224609845,2.304889135657032,2.2536482910632816,2.2577058350262362,1.976869008568167,2.278629367185017,1.8039791431867003,2.2171365731021484,2.2402329504290117,2.1564599781415628,2.2352510807082395,1.9168261180120016,2.15272297318497,2.0079009448551366,1.9304759968110978,1.9075521582070254,1.9562006557600604,1.9259756497488134,1.9006138866729752,1.8536075227825117,1.9589013918630342,1.9860867672717437,1.9996737452689533,2.204766674201091,2.032909135737151,2.3055759196079775,2.5630669272870383,2.19000179355017,2.1585075058006797,2.300064148364584,2.112886314682745
2.075929804560355,2.2203992130163424,2.225617350975632,2.0447435704768897,2.0528814415632777,2.052930858855042,2.125286842840242,1.7999815505540748,2.071062942220953,2.1214181049337006,1.9732359573232408,2.245979076944251,1.966534413859475,2.0591038428375064,1.7954369085254867,1.8505554415747312,1.9232986180649336,1.9686392834609585,1.9451315872190333,1.8935595134017047,1.841975324851862,1.9938542649715754,1.9127435659835916,1.9104526148150192,2.0887101955475433,2.033097929901471,2.0862599300053897,2.1939527302471435,2.0542314830651116,2.057695911907214,1.9941246771540917,2.217984973105208
2.5194648298549627,2.3557005798941297,2.33664850453909,2.255038055382534,2.316529467152817,2.369932236586036,2.2348477796571857,1.8563079123983743,1.9643022858137633,1.8384581979315928,1.98222662518811,1.9290098492913734,1.8492270105111541,1.8761241694460482,1.9580187699074287,1.880028459413941,1.8920592798877287,1.9120833604156984,1.8371404010584877,1.8727561616604964,1.8352822428915052,1.8862623283369568,1.9271150586435513,2.084642552594263,2.1962885096909934,1.8736448166665605,2.08435709872441,2.515338648972157,2.0413737036081825,2.0170828392711204,2.1270490570339207,2.118180424929298
2.2113534478355104,1.957129113781014,2.2565391366170764,2.067990858007272,2.118043294454461,2.20904626563061,2.2419240385235564,1.953595562084834,2.055381691282466,1.9604864123178096,2.1051472603027492,2.162046477815872,1.9934667690929493,1.9607824439759072,2.0567859001879425,1.9490691003337661,1.9796095466970045,1.9793336793170766,1.9742479180722308,1.889237434904329,1.9078850073769535,1.904943165742842,2.0212298768333774,1.9510939995631595,2.274093771394595,1.8934573876550393,2.1931908943197063,2.5445561258258893,2.0866500109609145,2.1220220619181123,2.063925898666413,2.187178024815665
2.229120416205358,2.1745178118731356,2.3953268092158666,2.316606768811883,2.188978236588325,2.421054892934489,2.0401112159713857,1.821694915186668,2.1212381831638742,1.8383402720725095,2.0604129515216942,1.9800388572131051,2.0115311475377204,1.9821872707483807,1.974531591457093,1.9710423747703245,1.8766867255603363,1.926515683649929,1.913433297684664,1.9431560722034726,1.9431511643980488,1.9556215544506692,2.092644993100293,2.1976380887455145,2.03764256146989,1.7373996424740668,1.9348465151573724,2.5149970606682053,2.0294657816107864,1.9486211625327416,1.8512769700033869,1.8356110760986155
2.03168299088863,1.9925008048421236,1.9345201099107137,2.019611052294747,2.0313368442821735,2.269062868786188,2.202249661495031,1.8058902157294885,1.9344098673028618,2.014848139019952,2.2273221224689257,1.9645346700351562,1.8838071276622197,2.0349382973403563,2.161989628816421,2.0543233541690475,2.103671534966886,2.059784839418078,1.9556421316305959,1.9880375685642724,1.9778716534721537,1.9834735975141589,2.112469184018776,2.0576803109557957,2.2291976382817777,1.842205679090995,2.211551669267439,2.616392793622076,1.9963930047562117,1.9719551345640325,1.9277289175100456,2.0900925989801
2.1236542795412876,2.252000656336307,2.1796350823109907,1.9569657633817898,2.3261910618297477,2.375747572230457,2.392362914538405,2.004498523043227,1.9025686154985701,1.8651226062027095,1.8902307709377661,2.1205227145515613,2.08375363325657,1.8402977608965092,1.9339959828746494,1.7950566754223598,1.8573605378717393,1.7770716278588952,1.8711600602035123,1.8176140426126248,1.840820845333173,1.9992252318086927,2.1223947316348255,2.169030893052205,1.9415104991559033,1.9475817091119023,1.8851178130451076,2.205701104563438,1.9531446378067883,1.8492831403301977,1.8333383538390269,1.9545273338811817
2.2739177065747245,2.2822257545842892,2.093587365840654,1.9173095714764763,2.5153053094580344,2.249015327599809,1.9050504587747312,1.9493630079501265,2.004045914851025,1.911514396454379,1.8362785342695573,2.0205151602580664,1.8354915061869466,1.81887429395149,1.9146042611910707,1.9247251092089994,1.882141569794364,1.7242166191947812,1.7248888821977764,1.7243863584966617,1.6880985747464154,2.055261575715113,2.025919921023261,1.9348680190125935,2.2504863190769484,1.9817617466431021,2.34301273419494,2.341794074032559,2.462882923618101,2.341878066474321,1.9320920137746347,2.264382639814745
2.27944804805627,2.284088429008301,2.272086685350941,2.009923913000707,2.472651432890792,2.32774699622872,2.3818929772911903,2.0534925484274895,2.3198112150743144,2.3051650405510085,2.1565970609230334,2.1094754024537825,2.082979955356982,2.2959498187569025,2.131736762074058,2.1966076724652726,2.2103817578936895,2.07373090285634,2.0064232512127855,2.171127815016256,1.9465853950543317,2.2144605514055664,2.0961550799280353,1.9867392280543676,2.1098213068872633,1.9683279725443465,2.305289795761719,2.59172501382537,2.1968231290290325,2.222022247391982,1.903315260665624,2.1602598273703557
2.4869799856498704,2.2332910149336023,2.025071648814312,2.1367103754341046,2.2610066509025213,2.231785485699131,2.210741671102072,2.026099297432365,1.8186111778349738,2.2337839198112452,2.406185619188714,2.116005438170496,1.9897709509385706,2.3558231474061366,2.4284215587042755,2.4164581149962068,2.1367691478424944,1.9433387217673332,1.9187598456621207,2.042647454906977,1.962716914019397,2.266258852117135,2.1041018974255143,2.2591111655485894,2.393328351590205,2.093297967090105,2.2596553612267867,2.509114648395162,2.482482318556386,2.36383794571487,2.1970427766420526,2.221468916736821
2.457191192994173,2.081814082786369,2.136139911877258,2.0174206678159745,2.1623782880606943,2.0321128821370436,2.138779954786482,1.8359979484758406,1.8287899460765962,2.022300662206405,2.3665036371660784,2.1316398357609607,1.9508525742900766,2.1199006691533726,2.1595549630632505,2.1675199661990483,2.111295561142215,1.9212977203878416,2.0244624356697325,2.058584818994506,2.2294420882302983,2.211221468037617,1.9703223677375794,2.14205039646276,2.3238436143941357,2.060994361405176,2.3648986205329368,2.5976788098125994,2.330916700231815,2.3874099846985932,2.3004786216488307,2.2474348794488708
2.4220468806578617,2.142844797707458,2.3970134706728783,1.9821796483244578,2.0858244321935393,2.404278727212357,2.038745889980181,1.9245924884427124,1.8486681920694112,2.082874187203252,2.2954552957073813,2.0187699784675033,1.9125719673709596,2.3778752394005664,2.157438112946691,2.0573938152065216,2.1387526409035345,2.186772806951916,2.02252905589612,2.156846184736677,2.141340099845059,2.01334579889267,1.9707265229613946,2.192143646391895,2.195353369136911,2.0993529988582225,2.359486878381491,2.654929186085296,2.414886384098922,2.386132977865214,2.1820723534998687,2.0880922344492197
2.4735339052771397,2.2332512151674067,2.4923506219098006,2.127723695523763,2.25990114687137,2.164731635128935,2.1555604065583522,2.036986208285028,1.9943027263619129,2.2413931678104984,2.1176170139691095,1.9530085000379884,2.01478639530841,2.010051695987026,1.9895578977373813,2.0609565413314126,2.167836637720782,2.041536409394068,2.189883279497489,2.290527354093469,2.171108034196904,2.1140146750575495,2.1082449720394068,2.0979449995291697,2.1639059256400106,2.1338051234410917,2.4973776274761974,2.26977797485005,2.357431086802861,2.3929936400930614,2.1730019718703324,2.025345013696028
2.5063767207259877,2.0562085673482073,2.152443241408652,2.141881940754993,2.139643984800177,2.3561956416454706,2.095096905220814,2.079789273552756,1.874313939986222,2.000729539777095,2.2363604814865767,2.154608984345107,2.1765585063726056,2.041733576571736,2.068511278857155,2.0285614990891103,2.060500719535127,2.1036638000985515,2.052657347434149,2.282163990578728,2.1884539070579168,2.2652125606300446,2.043230586616527,2.231715905179567,2.211344807662688,2.140597437836199,2.3022475548053483,2.1058833231091287,2.1818957677272577,2.2379024321522505,2.1778001862127714,2.156506241052804
2.629178997117456,2.118820431011696,2.300195434144749,2.2653179391811538,2.120621819743948,2.254397870477588,2.2020660662435136,2.0453806482987833,1.8076538460873055,2.1572955463273256,2.107923106865467,2.0624745639447175,2.001141139581354,2.1400394373645595,1.8840486549960664,1.8334990636464028,1.7985149895000714,1.8527813376485418,1.9067080073501552,2.0535830231655137,2.114659699982364,2.1118989469609692,2.113445273060193,2.1906910946004277,2.2431743156913253,2.192294422949655,2.3692143142640405,2.3130389288663564,2.2521089956546074,2.320868900080759,2.2073687567792257,2.1671485428913573
2.5853276296259744,2.0325598934630213,2.4929158817402852,2.118413112926505,2.11786184788477,2.2450882781225525,1.967825162221054,2.1631732271208115,1.861088400206404,2.2398250681627663,2.40155433649664,1.974848797568857,1.8630382234249407,1.9509461805365333,1.7604445546314087,1.755385509999607,1.7179569158589785,1.8076054340756238,1.872336881463347,2.0039499192009433,1.9271269325367328,1.910234215254652,1.9424087468049587,2.1951646180727415,2.3434988296169084,1.990020728700692,2.395671224342658,2.228638048275135,2.3814404147217814,2.3878611056874997,2.4028405426127395,2.2089139490912086
2.612873401135201,2.09622207892849,2.3097125181402163,2.4706693186444695,2.247504814853429,2.2590520416314717,1.836175596311489,2.007458985362212,1.9519431679465133,2.024871448140469,2.1765366040606717,1.9753853852466223,2.200721771746352,1.9878760588140196,2.0054758932769223,1.8001482190517908,1.8979866621043786,2.0026575213249593,2.1726988924981705,2.1820945721731992,2.1751442660248963,2.116474193166276,2.0655450741300485,2.1181470699378275,2.0413051817891454,2.240804015888767,2.4451649519876657,2.2144860010294947,2.094756337066658,2.226172158659923,2.403982835556652,2.2284321410781325
2.4044725511693557,2.310796108657758,2.3788651090757025,2.4507758314606796,2.1330034345104636,2.2408991159266463,1.9546650048531529,2.08101937024917,1.9497554703510873,2.0816261608981494,2.1882436219817305,2.0937330901820945,2.2104999062376955,1.9378853477979725,2.0304112251950808,1.8033822267132764,1.937858074217846,1.9165424413153078,2.085471103489624,2.30547546430281,2.2125478297322814,2.1460283716833026,2.004473370396037,2.2740985452890277,2.2670023102090204,2.1456845917999186,2.461875347569661,2.431795281268279,2.1575735596231733,2.3647154991358494,2.3894970623147223,2.2124519295472207
2.622074903560133,2.2239299709322022,2.241796220326736,2.4312862229313494,2.26039475229839,2.120240245507942,2.178816055537897,2.1259945323117657,1.9094180293077831,2.306805414822296,2.274664942536104,2.0003880879599665,2.01892526252149,2.028316071324223,1.897685106648967,1.8638296766122144,1.9584398754260113,2.1089849477195926,2.0602764253171038,2.1605839653756362,2.27111971480113,2.03623046976119,2.1785256716380976,2.1677184721518805,2.0976404262606336,2.1302783425398646,2.2997897656830166,2.3403668822300716,2.312877418836397,2.3135598526261085,2.4373660562944353,2.1573166544285485
2.432433466791574,2.1231363991792844,2.128447694748027,2.3527499434806765,2.019454635065506,2.410881028903751,1.9566441952344318,2.047497740838703,1.629141330185371,1.9163619629963822,1.8710995566731,1.8456890534307755,1.8184923981830752,1.9119946006429684,2.0032401786508016,1.897507451658401,1.9843434152638089,2.0346752329669022,2.054087466956231,2.1985782396048164,2.2600706645762507,2.115147948747304,2.115913101167125,2.337751700496887,2.152025955414105,2.209093637924033,2.166833812399994,2.286023773758826,2.173309758486871,2.1728898543388886,2.139572320735515,1.966308740715438
2.407116282504896,2.2455886707350854,2.118205312378376,2.390535856263875,1.98288378563382,2.136484624766585,2.3462926971214983,1.9398697103992306,1.719765825470154,1.9147919202758417,1.9986893023210006,1.6438969418033658,1.8619813304361013,1.8249279973065802,2.0231002593892176,1.8991868348270113,2.0374768959229366,1.8254036394026298,1.7705198696002815,1.8251880470955093,1.834356359171549,1.832297617683751,1.7360356691495056,2.051207696492443,2.029548785328548,2.0693154728574115,2.3638040884748306,2.476755400702521,2.217906999992194,2.428658782744785,2.2319239680254763,1.9758849575211475
2.043147045592417,1.947086285079212,2.0424231896901306,1.9841225808840866,2.036189656493769,2.1782050168830813,2.241321667044167,2.0004734589242203,1.983187528934081,2.1092099876072665,1.9185284416469022,1.8037626191582246,2.03409775941218,1.968613221858993,1.8362578703716843,1.983143455312869,1.9751738390940328,2.1053828290931635,2.2165778533456266,2.3029317396875593,2.2432325441728698,2.218915267527362,2.113473030466424,2.3627695262188473,2.2279220134938242,1.8867826209448793,1.947439340230455,2.33575811821497,1.9824463276469315,2.0042647804157387,1.9383544547178821,2.063439111271083
2.4947454318113538,2.2348145517625837,2.4708972076811135,2.2914237997617724,2.120357247181948,2.4030149105301253,2.4058696753108064,1.854616230673797,2.198343692601528,1.8647101619296653,1.983050714265334,1.633260184269279,2.2443792908787494,1.7827541881355058,1.9638312923823178,1.7995836002932366,2.012429583538643,2.0273261386741734,2.1305759976954275,2.2877927475168693,2.080865341779222,2.1066562099595516,1.9710057178874894,2.332201229328259,2.290718193494472,2.1267977821396764,2.235575732406893,2.496366384206059,2.3332040396663007,2.4281455900062583,2.3345726857490896,1.9356729381947084
2.0468117687932113,1.860642489240656,2.005557181125022,2.0558301488168693,2.0139822920273343,2.0588308251254004,2.3074696592028454,2.007719002266888,1.8557293792289318,1.7692698412193235,1.8143986296105281,1.6829889691002848,1.8626531759945997,1.7143843734681656,1.8708888694910022,1.7804543118220517,1.8562717064369691,1.8683527810452931,1.9820993944178065,2.0324872004598906,2.168984076730918,2.0253516062608234,1.9850999220300647,2.2656034646918077,2.250883678883459,1.9080990358775962,2.14621346206119,2.5354084549355043,1.9321123968989264,1.9888990545219787,1.9759196565649084,2.0968336810067494
2.346927429700027,2.1759677176331844,2.288217230835123,2.416250655052414,2.4015379651264954,2.381234821312348,2.3778352014910475,2.2409650936906744,2.0532732674709258,1.792652092521201,1.776958495162606,1.7366774041380717,1.9571561485241538,1.825935750231357,2.0219521081055043,1.8154965359010797,1.8233800008973307,1.867719510881585,2.009480614257315,1.8879729659582953,2.057581014844427,2.0914154359207027,1.9073004964457314,2.251206019252819,2.2412294002495186,1.9653362748760566,2.2595652785163773,2.522560401343216,2.111305807579535,2.261065880018604,2.2671890517546913,2.1781059412813795
2.0209772085846596,2.0682311872580437,2.061656775009314,2.1964788662399743,2.209630863921504,2.0416546767690686,2.2884939749744446,1.9651429524553374,2.1849781646963353,2.0572323995443003,1.9885000643575759,1.8132453779297324,1.8582458946839975,1.9512744509921296,1.9076508553718483,1.7813553131472701,1.9574093488839175,1.8324535870763874,1.9769521884527819,1.919938822915763,2.0280940738868614,1.9076964551569497,1.8512578799459318,2.008377819280519,1.897961702224013,1.9570040089826244,1.9371157463839035,2.054911216343166,1.8992676127115942,1.9297272805565713,2.004491988949939,2.1283586902178184
2.2029026926209463,2.2194107136284855,2.315787536193464,2.294163874900891,2.1556421772872634,2.1468962592060468,2.329320500011607,2.166205724699831,2.0393223763551553,2.0007541492750924,2.2583150401297796,1.666858585789303,1.874213423113167,2.155150249126025,2.1005209088312866,1.9151929407353112,1.884565216694445,1.8269974871364865,1.988596720802695,1.881788400331769,1.9789088226785525,1.9632436981869168,1.8085747700916874,2.0411130535499487,2.2464703987343255,2.0809848144426524,2.361374577104209,2.4207359646774136,2.267583644098141,2.3275063397899016,2.2282493486388,2.2473337658569967
2.353008476914955,2.3176418808500494,2.246602153938473,2.34710856825268,2.1402803262370202,2.0134815509468154,2.0987520573147505,2.022355320798783,2.0863917383422135,1.9832679065136982,2.0482809454060646,1.7437217857053675,1.9315423443290507,2.1189975036522326,2.0329135282337223,2.01651016155597,1.900011057952612,2.0109338552401717,2.0818581409839423,2.108809047345021,2.1896931050853725,2.131893568689028,2.1510115273710437,2.2898787214902874,2.246548666662834,2.029287812972081,2.3742475321617316,2.2249602564633393,2.275899556679756,2.3848198166787227,2.339485578253508,1.920671318904635
2.336746613629509,2.193059231553337,2.2598449133974343,2.330325132564373,2.3247926196355553,2.192359849386262,2.3017466810427307,2.150833397973112,1.912864711042225,2.123748757721763,2.2245729620958348,1.6979043811042418,2.0624885662811328,2.218661174925579,2.0803841427091903,1.9433449512606062,1.972758211361452,2.15517910736014,1.9736270773684854,2.279145320826169,2.0868527880991543,2.1051774371856995,2.100341959542877,2.139076146303397,2.271764191517655,2.044487783775721,2.335030837120912,2.4518346593139726,2.2182709936162106,2.365643078322801,2.210797217266148,2.0506052421966703
2.1186816736169964,2.128425053844264,2.1362616790086055,2.2596085700485014,2.2394459657691055,2.1377982014488857,1.912882818071859,2.0433792173050844,2.058776909843652,1.902852444475523,2.195263616261204,1.7817033396351474,1.8867070113137605,1.8912354096359374,2.0526110086884484,1.8112087565681825,1.95023251683949,1.8946319741127267,2.0672296883367847,1.9344761109729087,1.9468353589368896,2.0151906454317903,1.8083897240687186,1.8309397467364783,1.9294549252692759,1.9917057456021465,1.9422327647488926,2.0072629873778784,1.975884970404266,2.0219407786135,2.2052025723553483,2.0310875808309476
2.1190894105583986,1.8906358479375853,2.3685488137164628,2.0832591697654284,2.0253101300411203,2.1611172689377955,2.2204167213721564,2.066899624114853,1.8158609439255904,2.1599050893813296,2.237557686283036,1.8826981457234258,2.1085837855087175,2.038871177568988,2.076983173398308,1.969882470356516,2.053460478224368,2.1593917771228024,2.0103400158195948,2.046082282520525,2.1058365331424214,2.1079568938985886,2.196133955485605,2.3187956976972917,2.1133752021581214,1.973114608294975,2.255763322554396,2.236405864821057,2.0787363067041142,2.094342965982893,2.0345530636231635,2.1063096674738273
2.2832935276284334,1.9533860783506911,2.07776095798689,2.2248046611064267,2.295731114712445,2.277405518336055,1.8737685963681583,2.009846932968042,1.881941665117972,1.970747323808325,1.837528247953407,2.043242983194052,1.993351494362429,1.787659619808461,1.839178485139241,1.7479029387842138,1.7239578579467016,1.8184579674754933,1.934424158131766,1.8372726527864391,1.9860381306505355,2.2265064070877485,1.9479248324515592,2.254873354710787,2.32845961092775,2.1594938396003087,2.31457122612085,2.4755031666192333,2.198230814049129,2.2562352728132335,2.2719599992406345,2.1858647414300676
2.380488926553098,2.239094393681817,2.363359209635581,2.386821322491595,2.274900317435143,2.1488587398781953,2.3365115814005706,2.0248317976031616,2.0530256093042523,1.9752057021466514,2.050635740499001,1.7867410328006634,2.0511913180271537,2.015153002397237,2.149045354297356,2.1298675323702576,2.148552927435623,2.1738138199309205,2.150871440339905,2.1240962249631146,2.142087918729606,2.0095312210119087,1.970149622867038,1.9492264281563247,2.060633668903529,2.0605164708055392,2.4818795967632488,2.2755725200143684,2.25397656719235,2.4084411929732568,2.3190631569084896,1.9881340023202503
2.4290536797891553,2.216232781276694,2.5085886836065208,2.3311483060908795,2.1567701610633137,2.242374073767154,2.4044725314701747,2.1043945307859313,1.9066601979961024,2.1421358185237955,2.295540957215149,2.0506374363406983,2.0393604105781784,2.146526405886556,2.145438725370738,2.081703114627266,2.117156555289241,2.0857429534152785,2.127646742865726,2.133792893613942,2.2278860236471734,2.0056854244733717,1.8804551465699963,2.120108731196552,2.175179006422547,2.0102717295982835,2.527781026126918,2.367923098565734,2.3561361621705705,2.3281655746242054,2.3971998039845914,2.0051736378074887
2.262185639016038,2.1651571962673546,2.443066862285783,2.1470658729878322,2.363511348157609,1.9843857400200813,2.4196700374890665,1.9277348594270602,1.983370382874311,2.142313806305126,2.033325134012954,1.8652039425962037,1.9299649199778515,1.9110927397055733,1.8497231990676848,1.7911707403214183,1.9457395385092708,1.9015480262691005,2.139180066990891,1.8825121351068506,2.157574319319601,2.1570843484366575,2.0936747075847144,2.301430808012313,2.1865469853310526,2.0308977146143405,2.3709443374031403,2.2718964967365216,2.31918751899442,2.3047561828587004,2.2657703765296646,2.069464355003451
2.170163602423457,2.2737358258243057,2.1961840810859705,2.1522262533882244,2.044763883140478,2.1333046655487786,2.1620526783695895,1.8887443823062058,2.141367471163369,1.9752301790857356,2.0803680481376645,2.0015152737246797,1.8765781322505124,2.14779477351097,2.01907291580485,1.916823473758907,1.939354693535875,1.7754226772677404,1.8596984965123142,1.8362736445742005,1.9671978540944426,1.792757081307097,1.7709073617157594,2.1371989631866275,1.9998326684308456,2.0973073037454895,2.0146016175048285,1.9851858326867264,1.983254577290372,2.0131726154299483,2.064722193408665,2.092401615527712
2.1380180548241414,2.0642657656680643,2.671378101615207,1.9958927815461318,2.2335474859053837,1.8211579787076102,2.2933873756908967,2.093743144142147,1.9059032096515978,1.9632934793746144,1.8948531075418449,1.996672989034294,1.8793853699961411,2.070370874459262,1.9926865308667476,2.007138900981643,1.9814755037133032,1.8493116644312342,2.0671325879661575,1.9142998678280614,1.9380614363824573,1.9595391973050493,2.068199025319662,2.0382142728885855,2.160196289285374,2.01072820582254,2.3357093590899196,2.2078646540207982,2.1257213632226146,2.243920334531681,2.2565305749633637,1.9172230135872275
2.2658665662363036,2.2020201148710785,2.353130405476645,2.190443785532701,2.3392192439631723,1.9398478328554416,2.0279038998856125,1.9094601037475494,1.9706316570973181,1.8115230755009186,1.7875410376114331,1.7202277049886552,2.011806101743031,1.771950828208627,1.8075063718048063,1.8217013589269202,2.0220714058541054,2.054604040558709,2.004143250566045,1.8456464309316454,2.0486490537818813,1.8381576243826518,1.875097997342786,2.17908023238864,2.1619506086207583,2.291862911102913,2.0686960800447385,2.2327817428951553,2.276586091778759,2.1748198852913245,2.306596112779907,2.1177221623323055
1.99253405104368,2.0189116717139965,2.108191168769801,1.923444857734128,2.151221394516414,2.358854701773656,2.2162688079238255,1.791924306263289,1.8038338789512203,1.7121229080452662,1.7739337958420418,1.6334294346733893,1.9903940497747914,1.722288329467524,1.7307809967669838,1.6833563610268691,1.7826159489116795,2.031933360712148,1.9028200555570827,1.9150132158237678,1.919408998757375,2.038480726048563,1.922642362454247,2.2038209317421074,2.3512412024386506,1.9941342452683632,2.2711010246121695,2.314069210265986,2.142836548316991,2.09110879630732,2.203436817869632,2.1479505086707062
2.2510775962269434,2.363228623899065,2.1586365466876716,2.1867699547231623,2.353318205752048,2.07236191365365,2.0318388678048156,2.0303059877284926,2.0739100448676595,1.85520582197428,2.0160258288959643,1.8276786688116469,2.025825520159428,1.959707120187895,1.8357141326749835,1.8131423329330747,1.9013476779920313,2.138221178940706,2.0295851914421656,1.9772276756341505,1.9225545762854714,1.9672280673777105,2.1226076872317714,2.1659209182096584,2.355886278452112,2.079171196178175,2.2607209175347616,2.293805030577136,2.295692837700976,2.2395983363490903,2.2259780196446584,2.138429220463673
2.0964435544080997,2.0944551804126466,2.3450238898051614,2.0951173965631886,2.006904411867141,2.4186332689696526,2.244238983303766,2.0895314684732442,2.107457216818083,1.8037081224158626,1.8552277332438238,1.78811389009532,2.030870240213164,1.7899909244047485,1.7670354825473031,1.7971237643538405,1.840119722866979,2.1184199816194242,1.9636645382114641,1.8781267655156186,1.8454055169366383,2.074442712293763,1.9135981336972927,1.9275808180928484,1.9257047849116158,1.9465368379015082,1.9183879378113653,2.0479913041555435,1.9726807192826454,2.026590567191096,2.1066254065434937,2.260306791638024
2.1749214467686286,2.188801850283873,2.2379625575193436,2.2996026649981,2.2619172446132128,2.343181956223678,2.1913498172360173,2.0187266640401056,1.8096330638487972,1.8291026352665198,1.799027585966118,1.6502599369165545,1.8911966656391332,1.8526949456144577,1.8884293733751212,1.7910354591267839,1.8125622141561792,1.9122105650441186,1.8627679035519646,1.838149944514761,1.9134904135302513,1.854866249927232,1.8936030834474091,2.160076402629732,1.9787813549673328,2.122215606207191,2.039674821163546,2.254885646953886,2.240826936116527,2.213574455906784,2.2729182996479502,2.35146106974753
2.1497830832679456,2.132885098141007,1.9937834684968723,2.3667149306060615,2.163808020600226,2.2734843338914974,2.0735645690247044,2.0397059951822447,2.0614475957385836,1.902153982670114,1.9989548230484897,1.8045278759177648,1.977938772708693,1.8733358431412803,1.8697767866267792,1.8960166634080506,2.048977737771326,2.125358993054575,1.9795840183485818,2.078072941011167,2.0170612376068733,1.9216225660853916,2.0062796186672442,2.3080201556444195,2.1576232245928706,2.046144321183721,2.0406887876689415,2.4016504260494322,2.258515994742029,2.1563730947979867,2.2054626741678653,2.238208519075321
2.214252622131098,2.113956540471185,2.0667437160875752,2.375108493760245,2.1998200883875128,2.4890784422268233,2.3147476052188636,1.9488258371563318,1.9829911675876672,1.9639499908154712,1.9617579293488476,1.8012283510717308,1.9744985345398869,1.8989693029630819,1.7425132930061393,1.716210775013403,1.8193126847297285,1.9336443881862362,1.9779999971911477,1.9695111412423332,1.9707213818151612,1.8906609743491944,2.0659438781545516,1.9708171163090118,2.0625001315120586,1.9108730515582226,1.9348701900952598,2.344791067205189,2.071312464019438,2.1455407289000474,2.198982522214968,2.3664977273219288
1.8315493857310907,2.160330644869783,2.000694879685997,2.1681040784377386,2.131113142928934,2.393810831669404,2.0874808701290135,1.8848431342582186,2.071199099413507,2.0027070706717516,1.849083485026522,1.8304024616330958,2.0506643811623233,1.9657968065424,1.858707081405837,1.8622017849101422,1.9734654669065945,1.9540593222111395,1.8186308601632215,1.8481321756994338,1.8233522975098684,1.9264182846061557,2.193372314343373,1.839251732735173,1.9124988971991688,1.9434613891849861,1.8149188115565547,2.0879229369494716,1.7817765282705265,1.7685895478046505,1.9612832690139,2.041942658618069
1.927383257532432,2.1080413486929808,1.95421609710632,2.253284452191508,2.1074247613164987,2.41936276188553,1.942229718153616,2.144993930233208,1.9723346435436182,1.8884250756111287,2.033382383331786,1.8592726426070751,1.9690432745287543,1.9650837460688557,2.0515091395713583,2.08806008280805,2.168712120684421,2.2120017527725087,1.9337106004976012,2.157107740349894,1.8854791722575739,1.9545038519176783,2.1501308887498882,2.140676277230846,1.9878339343544607,2.061628107790937,1.743295734063169,2.1949617303681097,1.7779295166590472,1.7555881844377355,1.969442931636961,2.1961382759977046
1.909212354202229,2.164158722972124,1.9522818137075086,2.1140787470478832,1.9081525495250347,2.2643707444257273,2.389309246650625,2.0124294290921436,2.0735756743196267,2.1546660546961163,1.9531587608796495,1.917106646722976,2.08964908135292,1.9271258879461213,1.972092733269231,2.044547595653193,2.0477424382478424,1.9417595826651148,1.8833450891593886,2.0366096178840274,1.8255547278582476,1.9905935244259603,2.1321308131862957,2.3928792428055194,2.1237104874861283,1.8674258296334152,1.9018560825086839,2.4915923738786527,1.8954206502350255,1.932472022272817,1.8675809783149486,1.9997393308086073
2.0714338684933726,2.223759912436689,2.1505076725654777,2.236262358656378,1.9813337375007791,2.2573280639565856,2.1657645117558304,2.003004786627765,2.00744273411362,2.1644614851945354,1.9528139881387556,1.826225129414433,2.0291723349241075,1.9294256697790142,1.9264214754044215,1.876823483987117,1.9299584098986493,2.094066678756715,1.9877572499469092,2.0271943977475235,1.8997297948816179,1.867395362614043,1.9809309282733552,2.3295766025947335,2.1190379559483294,2.0757726629232915,2.129809092433461,2.1708766281419307,2.0092913524058087,2.029105645040428,2.0495644764599787,1.9031786027338118
1.8472555603963272,2.187564290846006,2.0279499181287863,2.0793650078669783,1.9745191620523774,2.389280214842319,2.1477968366029914,2.12067870817703,2.229721681556344,2.225286738161485,1.8670416514821089,1.774104981882517,1.9482589123894463,1.8084696203562676,1.8619504825623927,2.0224618575327558,1.8101168833409933,1.8557501697437855,1.8950651687126854,2.1042103790428865,1.9169774020945805,1.8613745734453122,2.0231754294319835,2.163691554972015,1.9964626621523924,1.8438798535785048,1.8816954025424906,2.1440362598223923,1.9227991366205703,1.9522313285132884,2.0204774278256683,2.0160735788254613
2.0656139533105033,1.9141144573119067,1.9683571011887175,2.0577598611183783,2.1096441974915887,2.2486556409139693,2.1058094921555024,1.7991470921344133,1.9121169229106563,1.9203040516245407,1.924378374525907,1.8935928853016009,1.902682091890299,1.9178241773515017,1.9132529239284277,1.8455884330122188,1.875882002341665,1.754088107809282,1.8955637047083846,2.0106518429732296,2.0113721415824433,2.0135158721137,2.027412767701074,2.244100154761452,2.1456758171576436,1.866222990525703,2.0147148399811576,2.216676678163684,2.043838407021328,1.9087110353540497,2.0060230673245028,2.1086052065649183
1.8324719187538292,1.9127288857769302,1.9956739909991854,2.096333934973951,1.8506189680646723,2.459189621668682,2.179886423957033,1.9592040251897238,2.112320520391335,2.203787471900874,1.9758544136175507,1.9046400886497528,1.863460038274252,1.8586046122661493,1.994299892097794,1.787952595024905,1.7790827049749727,1.636070921410548,1.7877098420197444,1.7871345725304708,1.9332860806639702,1.815410486940146,1.9470288052336182,2.087345217028468,1.9356245878303355,2.0313625313203154,1.8209273661764374,2.580647862444469,1.785562131781075,1.7814565609255597,1.8288284480255201,2.115683318282538
2.155299525171,2.1429778071726253,2.3043755317172048,2.1306727112479873,2.158059437064782,2.0620267838880597,2.317333872704125,1.9955312975020663,1.9678183837606256,2.1829621758541244,1.9273764901190484,1.8212354785958427,1.726014621827229,1.7970274721602806,1.9715604767526898,1.8202902644514631,1.8843295486904643,1.7082891642796962,1.855647267543751,1.9287269962605933,1.9512829194968722,1.8658823803638072,2.2530578115702795,2.3785664467916656,2.117941028626276,2.168075708875157,1.949135398184741,2.490249810040873,1.934870294832972,1.9243732718243582,2.033935357020496,2.1967076376623775
2.1339915755774874,2.2646760238985495,2.2030658210312244,2.2300498431193394,2.0163931444936103,2.3432658711994585,2.3810830744963636,1.9982226886598182,2.1597966459173885,2.198208955170366,1.9651622541631135,1.9776070577228595,1.879369400592963,1.8232855682073408,1.8737302839179535,1.6976793396344125,1.8352988570328614,1.7154603809574556,1.9733969237670381,1.9523946862843407,1.9167755823002175,1.8830604997579306,1.7426799059251283,1.9223348995143936,1.9136258840224307,2.030538014152886,1.9884608980182479,2.1458607985139193,2.0513088058573863,2.0012486560182263,2.1060674697330475,1.8741294073892347
2.1434738584156316,2.0908216179269306,2.130205987607617,2.054604324267333,2.0616244727640605,2.0343756383506904,2.440002400577118,1.9324591952863055,1.9937786833897198,2.004186169798801,1.9852299833321092,1.9121465480740398,1.8212263943123956,1.8642919652448542,1.858082903840185,1.6870303770965378,1.690944214506028,1.6701267341058623,1.8363471207605453,1.9300952567487322,2.0593019213923935,1.7879238898550398,2.0556781016515173,2.181962065441905,2.252687773923783,1.819315149669188,2.2552165694965303,2.466306834011996,2.0689053271053788,2.159091028332253,2.0435120203834405,1.8100409515444829
2.298195737488391,2.105736278749937,2.1372454582910194,2.24727087786822,2.1880360026867667,2.2819280808986266,2.426107462408142,1.8790532091666006,2.2303304708125027,2.1149350567076994,1.9762349783275293,2.1366648194423465,2.0838014898385624,1.9746333434250916,1.942624264966291,1.836250235988543,1.739781778335617,1.7311420851718424,2.0824992054350626,2.0761735597853193,1.9691643819011129,1.915302883493,1.8779957978094886,2.109825186425925,1.9533016234059217,1.7736320482010022,2.2587314192634387,2.3238289689592477,2.202750600732008,2.315811151920522,2.10076327657436,2.172316430522942
2.114867178620547,2.167805038209585,2.400725327280994,2.1778871325741695,2.2102876808788263,2.467711249366944,2.5361452532006106,2.0669881857542665,2.1275029039532427,2.1469321482697814,2.1422170658504953,2.070921267265919,2.0703532506737337,2.011088041257006,2.0586901385454945,1.9836654622206835,1.9353965765408048,1.8042315596756684,2.011053499708772,2.0519459571338525,1.9109218666560468,1.975027761377484,1.852975560292956,1.8491741325693627,2.001490818075244,2.0321653732711815,2.058386739252513,2.0547797010438207,2.0551773883884583,2.071382928686864,2.017235363567007,2.108804765330606
2.2968694186191616,2.2143318621464614,2.256233979857728,2.037618717004117,2.114193636784211,2.3456643761293647,2.1105399325118337,1.8468665037140246,2.1914303044090797,2.247140281332445,2.1574687681571167,1.9046973645209047,2.02140639610211,2.044536610841197,2.0951736304632242,1.9018034423716652,1.9369196857275188,1.8235297012336857,2.028753660131896,1.9575816148676013,1.8770913071915805,1.9825517662919638,1.9466720894225382,1.9032639789953203,1.9710315535808967,1.8620269425481093,2.0859726455115664,1.9786718030879067,2.0920133243539527,2.150414626079694,2.212423441886448,1.9331640184515775
2.250546414625645,2.369619645613218,2.248017649732055,2.2000235504532215,2.034573416138526,2.3982019618200185,2.076787044460502,1.9737445366347615,1.8625029492321257,1.9283637516473422,1.8682644080301516,1.7110521554414286,1.8187728265298118,1.7229999744770776,1.8598907345041127,1.801614056783979,1.735594054697672,1.6956743828288203,1.758359400533267,1.8681991024416087,1.8846366738719043,1.8368984207002057,1.798975403109997,2.0797201857618033,1.953180673951211,1.833403201631228,2.089698348410755,2.2060944215664153,2.252414480803464,2.2814900622169247,2.1581205795322798,2.2052566250402226
2.228964361486778,2.1444518265525803,1.9976423759925563,2.2018676190467374,2.184558771959978,2.2737940059104926,2.1931711512977103,2.0393304876749077,2.1287687989356545,2.260415391288737,1.9484371098457538,1.8259979596644669,2.0718206646197146,1.8624107752053414,1.8391056392246858,1.909292816091011,1.8224188608329117,1.8128880619213328,2.035811072105853,2.0792191577720756,1.873741512832602,1.969227706932682,1.8642396003185098,1.9863852673514795,1.8701246675437506,1.8558664066131458,2.1811704715439713,2.102895529107772,2.0962349373208964,2.155191361733554,2.3334224356770235,2.1435658880768735
2.139616707745842,2.0369053498784657,2.3669065213258453,2.3235289285117133,1.9106401302845124,2.459452822449568,2.085195419123333,1.8853810275628102,1.9024642596379875,2.008534687026583,1.8427795869098702,1.8222941052775636,2.0653439558181854,1.8500579867982545,1.7811290600518126,1.8057420964158017,1.7724728825047544,1.8087426212957032,2.089695633494906,1.9511107789688482,1.838163665521241,2.019464117724177,1.8921562129086407,1.9692654195717831,1.8714381449865598,2.1728359239601374,1.8808214542230697,1.9004127572124778,1.9648916590208796,1.9654191868210544,2.073821493978095,1.9317358034865983
2.000726658616737,1.919158849190353,2.1212677192720086,1.8917478295770016,1.9835612828917668,2.310475253231981,2.138597979907028,2.0260513142362333,1.9208466855020556,2.0891098223143474,1.8574722854268353,1.9024031622965367,1.8846391780952452,1.9234822647795458,1.9135765568467777,2.0107423433808336,1.9988979349484397,1.983850953284133,2.04121218422384,1.960558869985793,1.8793948034640202,2.05287859386757,1.9400175754302336,1.9522633349777219,1.8304417004301259,2.1794788493935866,1.9086584521169463,1.962200863184842,1.8234059570817887,1.8971853212304928,2.02078437973993,2.046806119182298
2.1904943068027585,2.1256708667118627,1.9896424313762173,2.1685548172363935,2.3628144688079136,2.461080994859523,2.3287034176663584,2.032293249740809,2.163510268285316,1.942633861235808,1.8960018140362833,2.060188423196551,2.046427373983077,1.9270583374486665,1.8419367287896735,1.9803967884738765,1.9356813020330756,2.000798015834517,2.0089533184818404,1.8998424531539124,1.827811218512305,2.0063004522659647,2.0037247761464583,1.985495941776551,2.0137600660734165,2.2319724401473238,2.128261787524457,2.0197544279882726,2.170008239928755,2.2414551776480387,2.279591437248801,2.2410796673232314
1.9741871929315318,1.9108027574928073,1.9339537291718691,1.8597576871538648,1.98092151773462,2.4876270271557477,2.0126714838856508,2.114678213994204,1.921909086467807,2.103571474481972,1.8189159706533744,1.867413854432534,2.1742668443638786,1.7961498818371648,1.833682944998542,1.9459330012555869,1.8512398057735504,1.7687025500395857,1.862775898658669,1.8139085895730778,1.7631136865747197,1.8507978750067358,1.9499419736230819,2.0715213206240555,2.1362492589815525,2.0852014563587797,2.0832638479064514,2.1320158515262326,2.1340661334067166,2.257972991058202,2.0921493050877977,1.9848458011704677
1.98717456738819,1.8953381239737512,1.9337389571319963,1.9272525503470592,2.0617986156132226,2.243113748057987,2.273154097007166,2.1218262246730353,1.82958161153338,2.0911709266536462,1.874555011759306,1.8690210615625085,1.9161700612749977,1.7397476536123797,1.7314868282645237,1.8470148535508966,1.7556604215752147,1.7801372505218311,1.8161091843108044,1.8344352929526897,1.7424067559000505,1.9990697071314247,2.0303680814057445,2.1052165069009674,2.111395958385908,1.9044689219708157,1.9834508666983717,2.006699496422979,1.9535881835186601,2.061493952646443,1.9550523098661452,2.2437212540616196
1.9087390072831623,1.8390644145488466,1.9633603526556909,1.827198430591273,2.1421236353484705,2.0495552605987375,2.348072177152983,1.9888452548509858,2.011018366620523,1.7256929727194839,1.860757980655132,1.8581498629341462,1.8895181496410252,1.8543613633576628,1.8851236476299496,1.8246254854888193,1.779094132796783,1.7578335833854748,1.817299508248333,1.8016623085172923,1.722160085340021,1.836110171735448,2.0008425404505474,2.1106920401063927,2.091028665725354,2.21962217529515,1.9978356510672637,2.0123447341830185,2.0027858114233243,2.0055101459416154,2.2986943895708003,1.875011336064973
2.1870077701629276,2.1635630367795846,2.422927127728652,2.1649151421768242,2.124640825426771,2.4686399912316688,2.038087609361143,2.2583751295084884,2.045916457710787,1.7931501277509176,1.8376081435145972,1.7448164536914939,2.1600523798318227,1.7706616178209178,2.0119435945894857,1.991984377627619,1.9717101122668137,1.9905076412185334,1.9460196917681893,1.8420418348353818,1.749498958168639,2.0865443786906765,1.7398451862753965,1.882420201581394,1.8279694721765032,2.0490752016994147,1.8925197572867352,1.7516426102064615,1.845840684837429,1.9785441255743463,2.1187598855277647,2.217495160894143
2.0491438740023953,2.0180222400095533,2.2766969848427485,2.0396803301742947,2.077582312550556,2.25411373255851,2.1321958097296494,2.2231077775382473,1.9680259907704203,1.9070274457202703,2.034376816834909,1.8491773131964693,2.0099601706874366,1.9296986714244042,1.8276196849677342,1.8734695070005134,1.8915430366189168,2.04040294792657,2.053409704339609,1.8971257550619607,1.9161061162074744,2.1609883052666388,2.0263722934769253,2.111202296374112,2.2652634702706824,1.9563273792052134,2.2000401701232355,2.254737689666353,1.8820134254781453,1.9493911980221041,1.9819377422528555,2.217749094971029
1.9970061246003923,2.0821041417291677,2.3378137518873223,2.1725009747618467,2.172956318293083,2.3892148143492804,1.8233403305466431,2.1429785716761804,1.9978346938580263,1.8764810073235891,1.775920043349855,1.80082029043044,2.167470309910594,1.7276211437117281,1.8488918179765863,1.893509167133807,1.9494656133984622,2.231638381603141,2.0153318208335156,2.0655767145913515,1.9032395794457626,2.012300911835056,2.044887732792127,2.084177815778102,1.9702993499190649,2.0420576603418747,1.9027202764455857,1.9214092294832288,1.883997493556574,1.9027703787548638,2.131095852236431,2.248962600533528
2.087610479317862,2.245990730489196,2.496265150679038,2.17086939371906,2.1976982472500297,2.34171803613271,1.8234928520131204,2.022275333244928,1.9206447250616008,1.8697724513381053,1.8811563130048454,1.7738560008685411,2.217568164587161,1.7825264419482376,2.0285123444349886,2.0797935346164107,2.0388121053846504,2.1953154880132733,2.14809694308379,2.07496069891479,1.9802635576467493,2.021375215214846,2.1676423100956423,2.085978596317546,1.911819543394587,1.9535276816303686,2.0513649793071385,1.9378070674501715,1.8463665253525814,1.9167533377135506,2.1664623974088366,2.20056701927961
2.1117136924491566,2.126934844769719,2.294943442012134,2.267765188565544,2.1571449833974454,2.418552004911971,2.2062558659481053,2.221375752664085,1.8691731880616091,2.0814747834539173,1.963130153694664,1.7330660217346447,1.8406304804818419,1.7576907969763975,1.7117859087601026,1.810536784471171,1.8302182818073274,1.8405373916179595,2.006622707448132,1.9353191267673415,2.0202387450259565,2.0842694495230463,2.097886360418886,2.1532968209190084,1.891981693103502,1.8008204888148378,1.9227492941156206,1.934249859017678,1.902497088206188,1.9736118452679776,1.982185020533799,2.292340903945767
2.172884307799545,2.1212111851118762,2.276898746962537,2.125775209467394,2.2038930045172926,2.4164200582020676,2.337464361826991,2.194889454996438,1.924153180436562,2.023366629906821,2.0325838164126853,1.9424584189461136,2.108834788505481,1.9893606559697767,1.9166677411432642,1.976758435079285,2.008615297299811,2.0139255695104783,2.1921433802635444,2.09725543819902,2.0695749904856915,2.174816164098952,2.022304226397374,2.246063807348349,1.985226574985826,1.8787950216988314,2.0837435023750923,2.135828959583239,2.1196631630113836,2.1435433120673393,2.176372245073868,2.1622086852823514
2.027776444128613,1.885796107214103,2.047587703827404,2.1523944465241702,1.9258415473018797,2.389701361784189,2.1650563480820795,2.0048601231633834,1.85721048129833,2.005793032221427,2.131929963483634,1.905759146923405,1.8886304627011705,1.9101248657730754,2.0270049555474574,2.1049289378205334,1.9243752877705929,2.011243054411643,1.8897530848988935,1.9386562072437505,1.8667605657569677,1.8976145126475803,1.8509025378439772,1.9918960262472127,2.1278929304098226,1.8272070180183289,2.1293765958570674,2.094174458587179,1.985640521365479,1.9278537319991909,2.0540412344113235,2.0974950418547404
2.249951903599801,1.9824352873459012,2.1552499860954644,2.290552475678615,2.2978620309790223,2.1279527550925867,2.335741063933231,1.8887626580537173,1.8968092597462118,1.912440538518661,1.8147361893895513,1.7587843023554284,2.0086721721458156,1.7057630043432654,1.7625072604123038,1.7898497528328308,2.0206415335675683,2.1301473754667946,2.0672274472108194,2.0162327817569845,1.9599649452206034,1.9882333106285672,1.8584556911423755,2.015427487697498,1.9190412383213977,1.7262849611801792,1.9570904436513266,1.9619306533587375,1.9260113071271252,2.0791265868546596,2.037840586438456,2.263872642525037
2.024587918954908,2.1237170899466755,2.149883493828843,2.136648439980816,2.0652581533946983,2.0652043847318686,2.3394667708654797,2.171300044059997,1.9694021006698101,2.0914793318615152,2.066066599005632,1.9194844778337434,1.9752781984227996,1.8385749651202836,1.8113443635025561,1.8115886279024567,1.7661001644641028,1.8569925316254283,1.823848819248842,1.9201223632387814,1.7728769918636207,1.9811534047355055,1.8736837093515946,2.0455254458165757,2.0842046802033454,2.013763899672734,1.902860910653435,2.1281305368715713,1.9819758420841347,1.957221989622149,2.0941278653038253,2.1442756003047254
2.053665533456259,2.003239476624508,2.3135993703872675,1.946177187704029,2.0134074772895882,2.167143165864273,2.1345917711987794,2.156613984664457,2.092322739388657,2.1377591219054786,2.073406999815658,1.8805889191340326,1.999432426053851,1.89697937301896,1.7764118547425354,1.8481759171468806,1.8459283875122392,1.930528785189554,1.856631169027951,2.068074746908852,1.8583823477506003,2.0106408759097705,1.9934079142973768,2.129038940856412,1.971721881910946,1.8257677277218736,2.056117775188111,1.9875203240088628,1.9131040806263289,1.9947374776551043,2.0303414803463555,2.036807844139691
2.0867472674633754,2.1042006249793808,2.2710436395440383,2.2060817138173685,2.041446693106853,2.3340308909311385,2.189719472872197,1.991695017154707,2.07235461435765,1.9320285189961188,1.868044044506988,2.0397212865648147,2.085888167802104,2.040114699992937,1.9747796142488694,1.9020527734577706,1.9619392117941103,1.916509423437912,1.813897789804505,2.0459128030010207,1.853035728354655,1.9347143138470226,2.1460156518523523,2.1009664790133855,2.0178907558875423,1.956392187787426,2.0894695215828327,1.9948646053602315,1.9302964168237398,1.9814266896489021,2.012631330536754,2.0440250296668583
1.9408960792136192,1.9254103615035358,1.9367004975322601,2.0092906851358356,1.921040570791577,2.2798935261620143,2.0314318827273286,1.9191979663286078,1.8211583118768744,2.1996938870120752,2.16247471671039,2.0169481325737673,2.1662938285598976,2.1967680092491695,2.070829441387183,2.079208951508918,2.036065346886243,1.8840982956999652,1.9151036409205748,1.8204300469112569,1.83566120012861,2.0249839597974297,2.000904386582038,2.0578818358834092,1.875877121413327,1.8653800309867141,1.8429267369435658,1.8628735706930086,1.8013643611115437,1.8309618834160915,1.8604918655032898,2.006953447633149
2.241726054953223,2.177525938707338,1.92434638415643,2.106843537714678,2.3438623995527363,2.2556212782517346,2.0775547193511112,2.1231380360550176,1.9066268598481089,2.016553103076717,2.155021811465266,1.9328136646874454,2.019076694213784,2.153152318010292,2.1591457055972376,2.099819678461745,2.1534498661957455,1.860903125844577,1.8469379040692167,1.953278452420163,1.8673882313493888,1.8710587832983807,2.1000019484029897,1.9653788160686605,1.9549906414019276,2.1651382136405433,1.9759880992384404,1.7794372258565643,1.9961038322288422,2.0399519984113534,2.180918894841735,2.1178143517267527
1.9520303742070015,1.8340173350832794,2.142823231485046,1.9776283990843468,2.0280847053711732,1.9942104420187488,2.1290900976035854,1.794861891171665,2.15481568861697,1.8397177838776044,2.023605833924032,1.9843747829462006,1.9664985755607254,2.1566865857142066,2.035553278395542,1.9246876289113604,2.086111031655754,1.8954185376613855,1.9048083617716411,2.0906943019292346,1.9637654857093014,1.9850227030884267,1.983579035804684,1.8884795468953128,1.6816986573414003,2.0035128255633765,1.7436413543008604,1.6620861235545894,1.7950073781372025,1.79031601130574,1.8425387017337012,2.2161244061194383
2.1512044056441666,2.0609634966800257,1.9044007341916567,2.213515658991452,2.156147370677295,2.0682400550483324,1.9079565526432287,1.9277133851446258,1.8146474268178554,1.8479198414815121,1.7659697900164562,1.729579350705363,1.8672288951677463,1.7789952065390233,1.7735000205524063,1.831656472203772,1.781371370735836,1.7626656465430437,1.7526097163096406,1.8794405837280375,1.8004118477194335,1.8600361354339645,2.050641057520957,2.0839504670506224,1.9710689335001659,2.161825805952259,1.9365502874974962,1.9707515182906767,2.021736311099996,1.9698122652957768,2.127421460350906,2.068473376916733
2.085459785090057,2.0707073004127468,1.9318919348867845,2.105759642668393,2.16183326828223,2.010898588276437,2.2252661010918517,1.912666675884226,2.095742948829201,1.8534394305424533,1.8706674063094684,1.8596070174006414,1.925549275510574,1.9748986565173055,2.094272760360088,1.9153458147089342,1.9701297836208873,1.8700178655211093,1.8700239702129844,1.8705988662957238,1.85283085028844,1.9783424052016076,1.858686844583343,1.9103710302738257,1.8662090176755435,2.2310696538107613,1.7733512133000122,1.777447863427538,1.9833533290059084,1.8789293076065294,2.04932191300905,2.1258270865522744
1.7812254028801202,1.8521994419420376,1.919912056246523,1.84768788149456,1.8741850477417015,1.85563237327482,2.1620866380120325,1.9329906159673742,1.8097349498286706,1.7481212871941674,1.9219247171874025,1.950334180221347,1.9537441693274935,2.1048237942816335,2.144085542991955,2.0595508933824447,2.001345843828191,2.093796473901585,2.008500471301089,1.9099598909082205,1.9215197540698605,2.0786614145061435,1.8751012372033868,1.8341676259198925,1.744402095279529,2.085360955885665,1.6288003216447053,1.6461411087905657,1.6880511880090925,1.6646275747403563,1.7796079126929023,2.1766910395869616
1.9641195425250426,1.9053571945991683,1.6859984974860498,1.8579910669231265,2.079921722053186,2.1951514859884487,1.9011740842929088,1.863332928366255,1.8116660513149132,1.927506571589291,1.9469795514067028,1.9034202908952416,1.9112553392307223,2.0111045367215845,2.024227919801396,1.9149429318482674,2.0320882860003735,2.065542066262779,2.0332144160339864,2.1530453605466717,2.00280365834299,2.150037603212899,2.1323147872679917,2.099124321560914,2.0079718827537967,2.2239642020358343,1.8449781909335412,1.911669451149961,1.9952489573517167,1.9831914670955697,2.1267262706554213,2.322043104536088
1.9906968691900617,2.093916878743234,1.8820629626388399,2.126805168629398,2.0801273904425,1.922586390567981,2.156663885929497,2.091638189129902,1.933533599280229,2.0325468515278953,2.052606784566985,2.094218192843988,1.92939280467833,2.020834977802865,2.0384274311148274,2.0505093828985212,1.8884821896393915,1.856673745489715,1.899724952930405,2.0052191915089272,2.042913680379262,2.076798309772394,2.034521642367338,1.9792072693138507,1.8990548317439984,2.140920955321476,1.8163294213492869,1.772011841528854,1.815759144879743,1.8182228783258432,1.955437255104251,2.0659402098717954
2.0202976677279834,2.08825476792144,1.8260991694644229,2.086217461123695,2.1175988384782944,2.1558217454491286,2.0556209097325153,1.8519511161140059,2.0407259809555063,1.8795620408863107,2.1066046387449657,1.946076547641159,1.9290171820389412,2.0081675989818812,1.9355523372073296,1.8066552202867643,1.7938225686758373,1.8472953873194908,1.8281867030332797,1.798223450500896,1.7166072395662975,1.9475662807973892,2.037382629595687,1.8143188603039173,1.7827290081029052,2.159802638162649,1.8313313120807373,1.7875037742355573,1.9552818729385995,1.8891804836045047,1.9591323847127204,2.181620935160863
1.872904634312738,1.7877949195304645,1.6545286459960156,1.8227033268816644,1.8035941430737494,2.05451877093489,2.2862203548133846,2.0060705879840928,1.9243356842042734,1.883459051280167,1.973857813956565,2.01892289816039,1.9344282477900816,2.109997438912797,2.0604902075562097,2.0083553677450157,1.8239042804171635,2.0294586775713386,2.1192122454532405,2.16794004432505,1.9461868242923377,2.0710721116556066,2.0047481542022902,1.9309818044983658,1.81598543277774,2.0209129535279735,1.9321049483257122,1.8883954849571065,1.9835314933376116,2.009862809224081,1.9702187620131275,2.3446477632672944
1.8566071613524877,1.9013482159214017,1.9314852491242445,1.9790009856298392,1.9541601461618159,2.2821588742171235,2.2330471901921594,1.9725482727842638,2.206275371689543,1.9741887092242902,1.9442344360411576,2.1354990171666075,1.9748799098029726,2.091222732841973,1.9494830110081385,1.9763111580106154,1.8487965650672769,1.9313976857584287,1.872691233414373,1.8812807537761849,1.7841834756314001,2.0260601234725386,1.8087145986662831,1.8400768289512708,1.6460266248393614,1.9619993944962852,1.621977481172368,1.691452079993347,1.771641121568318,1.7554382713230396,1.9329310400992739,2.205624949500431
2.061452699558918,2.1168792091661026,1.9823657396547127,2.1311550197920512,2.1542108759365157,2.193137516883744,2.4164879472577803,1.7468836240698484,2.146132324438767,1.996273273921755,1.9878512339958119,1.9993835639990898,1.8803700278903417,2.1217447134551897,1.8646714095417678,1.7746128409746662,1.7746741329485323,1.8597804894886762,2.018299567337943,2.1390730220026546,1.883899685538733,1.8925066091887233,2.0407575385642502,1.9917586838280985,2.0865129500053663,1.8792248690538573,2.0209893428639254,2.3261187848318583,2.1408495240338943,2.052313445083249,2.1969032743348773,1.9532683402203872
2.0257418122524675,2.0521660160732713,1.9180944880399815,2.093232523462563,2.0632405866394135,2.1004297654348267,2.347609305707703,1.666733502464549,2.269078091386319,1.7664632488772745,1.8153312817685212,1.8226996804823854,2.083576106899576,1.8601412535897186,1.7207884743717163,1.6781161863390288,1.7295378153706162,1.914771799687679,2.227133278090052,2.3658870216389,1.9408642281963748,2.1680501640548666,1.994297595609871,1.9039527673725403,1.825383548803769,2.1867796820066623,1.8138524164389902,2.0250737614161443,2.03637631752304,2.0295090540503127,2.0946449913184573,1.890634084322444
2.004400825323759,2.139221732517736,1.9878518186179295,1.9368079211351552,2.145493942851414,2.076140098769208,2.4460975265639977,1.8573910535803921,2.1694613380757346,1.8493029089803743,1.8028917626866767,1.8471333679527138,1.929502776963398,1.876914625833721,1.7324534258310265,1.660454221098967,1.6511099601932542,1.789130669801912,1.944215900375088,1.9509063225896233,1.8555212805116994,1.914206639210258,1.8530210325132308,1.8482691409974068,1.943956463429539,1.9161121947649393,2.0203931312635772,2.233038918264852,2.0728921984898174,2.1846059335792347,2.1898555444190593,2.275438045069048
2.0359053632112234,2.1472923590823605,2.1450122457512615,2.209442862012483,2.1332940028434737,2.147401117724756,2.5822823107457995,1.735956955295781,2.171525895467976,1.9722539255861953,2.3698042037245792,2.011222913917205,2.149782278322512,2.2287873533532836,1.865840017351713,1.7293577693691022,1.842338693307121,2.003597162923295,2.1729577337082073,2.5094684901603226,1.936889918689409,2.105486403453888,1.9617642610766575,2.2194347329207,1.9908254153396345,1.9936118834376022,2.142920553632596,2.0876183347947515,2.30801802842312,2.182372190973258,2.091872494486719,2.158035194958031
2.27026992703995,2.4198828451859375,1.9634812316087127,2.3377105569561683,2.311807566090895,2.1288258550833827,2.3610887114528354,2.021901876591321,2.255946062983005,2.176042857961666,2.121391400391756,2.0481637321112216,2.0109977371397796,2.011679318391474,1.9570481564598616,1.8333735438592544,1.8882259034720557,2.007182435603989,2.0374916842595954,2.32850107974377,1.9636588048992138,2.0587789740753637,1.785370727277112,2.2928507267267855,2.042832254797811,2.025819010160943,1.9859826840652555,2.0020967025333873,2.0661614061009117,2.14429345883941,2.2364405698991288,2.285492769763274
1.987699732308488,2.204842177589236,1.9229036691858021,2.1929605675073134,2.0349329123258375,1.9442601646425008,2.149123800239496,2.0972644630310557,2.1442822001329365,1.8702746287322283,2.0034512974978536,1.9957052177918355,2.0196875187877983,2.0459898968098584,2.0211421221839103,1.8194007020549954,1.927292681309622,2.0056397096001155,2.2122832782031248,2.218246181010818,2.111565563862474,1.9683124860875125,1.9474154687505016,2.213404613156924,2.0417727437460256,2.054818018241485,2.146533393160839,2.343371304053149,2.2437800294382995,2.2170449667899543,2.0560430611510423,2.1912570340383875
2.3112344281889476,2.385144895934272,2.0463841783539523,2.406492376943154,2.2753735234740753,2.325252212460934,2.384791971507539,1.9819693591368843,2.0753176091556775,1.8967978763597246,2.0401912452685367,1.9704200480729328,1.8026420573280015,1.9078884711809934,1.8113284127395939,1.668723555946967,1.7549648138294645,1.7769628067845342,2.0219553413428963,1.9352844233434743,1.892314587386829,1.8584127699975812,1.8291358514182794,2.152111745288982,1.9996092060469148,2.1260097410543697,2.1257205142806694,2.1640332158424127,2.212590288305346,2.1224874541659036,2.232536887718344,2.153568928204551
2.1349799718662035,2.376736201068244,2.135356648185261,2.2010656922949767,2.089763959297886,2.213269312603593,2.3841159503982854,2.2687116682578727,2.3354971746817776,2.166639541064414,2.226877178303267,2.176170946514297,2.1745642556104485,2.1658619582990637,2.1618225012352896,1.9812038420145324,2.0494408516219242,2.0730939581564627,1.9321072905154917,2.176859540334064,1.9610744032396445,1.8711151773043915,1.922458419784844,2.242332839134372,2.267442939678568,2.1639126348836464,2.0076245255627083,2.373058641288254,2.053197201846562,2.055550121151052,2.2619342568734724,1.9487027259744178
2.1652664153360073,2.061703276773747,2.1171967276098522,2.1897911777685626,1.9929060455633156,2.214922606656821,2.3838910216011695,1.9891533757952458,2.1857434269487857,1.858441501489336,2.0196341931814965,1.8676372968808443,2.1499212270435173,2.056244644232393,1.8396506943632418,1.8624135654821434,1.8704052851556003,1.837832646922328,1.8419524048298488,1.7980966456427205,1.7823958876554895,1.9837405796216285,1.86711461644879,2.243777096887283,2.074130170010656,2.1049877114811317,2.0245333875999125,2.0338623549053763,2.2695818229607516,2.2739334700941116,2.0203942409104916,2.2118363848982985
2.038315135603292,2.2367210996477302,1.8585668202326353,2.142242406516981,2.1287314282843464,2.071928874300259,2.285356924880832,2.0460599179230043,2.0707294103576204,1.9121388582896843,1.8280581033133885,1.89253522167562,2.1775147753983397,2.030696546598717,1.9004549197423763,1.990529781186573,1.9380601736524563,2.146279645115069,1.9973573124781303,1.8514653568203248,1.8241572421794765,2.1635335326223846,1.968365117852278,1.964259106765448,2.109903467479222,2.2448597115015705,2.054439856515962,1.9820570336256735,2.082754353527119,2.1265992376717575,2.2426595587002716,2.338826339931996
2.130747165101976,2.089945926560318,2.0300186247576977,2.07763067941592,2.20838055551728,2.085462286188281,2.323575118431815,1.9110214222144957,2.1581382636745947,2.032220184748092,2.051357091897817,2.0877919543277765,2.0014023810304202,1.957828812785278,2.063204461984306,1.906187729963275,2.0011555745794416,2.1641818688902865,1.9862763379288195,1.9033115107018197,2.034360066382399,1.990518392876629,1.9157424254820097,2.1019428454572258,2.2690285512316684,2.2959157510745243,2.2598538816380116,1.9035072939165985,2.3203249465424567,2.2986799256845942,2.089243869895475,2.1125176556964904
2.0491995284313305,1.9860077402960914,1.7897634706845142,1.9119406340950318,2.3620593492220174,1.8476735960131823,2.071335103844932,1.9668905475777567,1.9036941513263588,1.9478453774279334,2.175966595811145,1.9101565792453385,2.004864559201226,2.085118890564811,2.069940173521247,1.9759696991259323,1.9036773904226723,2.1310157871581854,1.9071680077096858,1.9322190554191514,1.9539303714293021,2.1544032464033545,1.9276341345534584,2.1743227944727472,2.016667738192445,2.1073003903552725,2.1033071943255375,2.0656823127085016,2.0957710297817846,2.2864587988791163,2.321807402866076,2.196633455100204
2.2929769711389665,2.3681032900029493,1.9863005976886017,2.380329879585781,2.223222306144469,2.003929434411794,2.2246504905472153,1.939249683251642,2.1900578267521515,2.1117587336535855,2.004034283623514,2.0064354930390476,2.202818705297844,2.054751086710801,2.141959450053347,2.0461194437898254,2.0820984818174275,2.0602483763479396,1.9850271313795322,1.9847335518592937,2.024505557884409,2.083056883137489,2.014889134247523,1.9859530765265134,2.1231338011815795,2.0266641011808733,2.1634635670089484,2.120301179081201,2.2203835560513965,2.257090327696715,2.212721437452421,2.0183722253814023
2.152414964813424,2.090480994323488,1.738233013207303,1.9912775439741874,2.2995787430354953,1.7851283504026085,2.1788831609697508,1.9600365071680974,1.9696034700004632,2.131397869329906,1.9881927112205602,1.907771513930236,1.8655795558169765,1.9502420044323614,1.9425839940172476,1.8890710816022591,1.8812443003404051,1.896113516616801,2.156106763462847,2.0786388267863725,1.9567104092753334,2.085921297063293,1.9014960342232385,2.093619336584861,1.98103588105942,2.1375953647631754,2.2857989468311537,2.0872922039938735,2.069806820000398,2.2362687339663685,2.274692045127608,2.1147576266094763
2.2019249592094194,1.94513430104242,1.6879931431511164,2.056385249757848,2.1945653930956057,1.8479926470619048,1.8990795638576627,1.8782161832633366,2.0622434286531637,2.0708524692962533,2.117508423630401,1.8747809796831827,2.3119244912185564,1.9487183000918713,1.9837732701341226,1.803978344627153,1.9303347799094945,2.1540936170945826,2.055465263104265,2.078933564257726,2.0663933845947198,2.0577407178929192,1.9255936618456453,2.1214438494861296,1.9648988363027733,2.2034919954993026,2.1510160900793407,1.9228295029017266,2.196109713646888,2.300749842495854,2.304311148271091,1.9862118986564437
2.0765932118064656,2.0398544924183084,1.8942152849222003,2.045515735341541,2.134458081620958,1.99541870361912,1.920162877720561,1.9179127862449035,1.8620835798310469,1.9421817460550903,1.9951852238856624,2.0588733894101896,2.079371684849446,1.8502496193327436,2.120774321868312,1.9597028650325172,1.9428837629882596,2.0888417716983487,1.9738798994681395,1.887905196765948,1.8786233639981287,2.1464302211368107,1.982197502823679,2.0485393951639104,2.0072059322817157,2.0914124612526193,2.170576374297234,1.8673544545335565,2.0784604606948758,2.1554206705326058,2.2808794019285257,1.826332117454957
2.0309262438872477,2.059990866805694,1.845085815413911,2.1210833976903016,2.0789361371553627,2.0370702778136174,2.043901044737854,1.8907636551940024,1.7244434862764995,1.8998449876922223,1.912600195523857,1.9250102870015107,2.1204585299966836,1.8752123665084244,2.0039084426868676,1.9714324113571984,1.869927834892835,2.022794458020216,1.9422322014257152,1.8389948337177662,1.8540598502851595,1.9594689968760117,1.9640113188321304,1.9563992146169868,2.018803889686754,2.2416465350528916,1.9529937721640338,1.9090225471542681,1.9649861839207616,1.9794949909210011,2.1068237901556466,1.956104686034586
2.1239518558180093,1.9534692173754091,1.8825375467868959,1.9019262182932568,2.096989025736154,2.0376152046812823,2.1582138806814393,1.985194580235929,1.970702730466223,2.1067784842721924,2.057322408179756,1.8834275582572726,1.899405602400017,1.9022267519584881,1.9072889817625196,1.9240703929206053,1.9602851028297936,2.0135235732987757,2.0381522857844576,2.078339130493762,1.9381722754311943,1.9828027135299156,1.8883405996873572,1.9514433359159555,2.0989834878281615,2.0638545921866442,2.1414223944517086,2.0715803229018626,2.072664924688162,2.110831745578649,2.2392192931090222,1.8534514927493222
1.9238698732334116,2.004363052133886,1.7473557718428778,2.074977120062749,2.1192279090113852,2.012134739198698,1.9400745201933807,1.86729895064046,2.00282347604632,2.1235975335207873,1.7678803337861373,1.8975709232772233,1.890563917527195,1.7796028827863828,1.7886948058921448,1.8606421253799112,1.7608890051871897,1.8448813758792846,1.7819448822349606,1.7650621691139852,1.7713554823464488,1.8836219769275016,1.784473882143234,1.858621335374159,1.8573994142243286,1.790042100277424,1.7722538331522322,1.72511912507947,1.8359401581922137,1.8832454254451922,1.8414108263916062,1.8870141188210394
1.8934516231920415,2.0261892416262417,1.8016115552857406,2.1151435117338853,1.8440496373499802,1.8262920329283223,2.2504795873738823,1.9093906595407235,1.8614917488500644,1.9675980101486161,2.088613673707592,2.1079622458560077,2.009463516302571,1.969732834295633,1.9443535576432234,2.107848679394415,2.079237497381498,2.014649554806719,1.8751025584864829,1.987706944242054,1.9206422159240257,1.9272020207220972,1.7111253301236673,2.1241538179533186,1.8225402428124575,1.7298758462674413,1.74813978906395,1.8011602823773645,1.766833146950432,1.8349063990547936,1.76856003623315,1.8219788773690373
2.0470871482663466,1.8807909611859104,1.8477979661543176,1.9829709413945062,2.0608694993475853,2.0383443334704356,2.110668336074673,1.9509711847182998,1.9096733670642294,1.97261460463052,2.081215131339431,1.961869633585616,2.2147082814018058,2.1561666537733286,1.992393903173337,1.971639563187715,1.8263112340287064,2.106493343059665,2.1605522757349784,2.0572149388819283,2.172413800876642,1.9667923814285617,1.9147637871648417,2.2134478272533773,2.0704580073649153,1.7717595942971487,1.8641873254826062,2.0878760580229714,2.0429187503655064,2.071270495501667,2.023453957533333,1.7222130725787241
2.0926697477954432,1.7981963570547748,1.6710379135171634,1.9553547576489625,2.2656838600799563,1.8365529902304591,2.0383992624560565,1.939771208000529,1.8587315101811788,1.9821213709077499,2.0095042965360554,1.8257735294386994,2.2896224132364256,1.9679630570586704,1.9241105433781343,2.1221653689885347,1.9367901087231034,2.1523390996613636,2.150493452713258,2.1486909405030237,2.387120615020384,2.1562040805910914,1.992284142227867,2.3613081090972594,2.11294387647938,2.0892744746647067,2.065685729345131,2.1657255469836243,2.201232551541879,2.34593610815763,2.21980762990428,1.9611252890019863
2.077924203486941,2.0071883053580963,2.137886703623054,2.011400476964936,2.084002682440747,2.1118681284918175,1.9047199583938648,2.0910340770279485,1.772550264386413,2.1581622971023124,1.8828340492819264,2.1536871728691955,1.9101817899532318,1.9148466172960894,1.9309139309764327,1.9824016075555217,2.013910278146099,2.1167224632849986,2.0615429568826675,2.022057515939276,2.2963346888415472,2.364836868589901,2.01607143726015,2.412532843469055,2.4230704796194296,2.0746944326141,2.151663141905437,2.333954322275179,2.329184878212675,2.273922968632689,2.0204784157343694,1.9236485121148947
2.153905835485895,2.0857108282220893,2.013525082952432,2.061877798979597,2.1692116433516304,2.2614917386211855,2.195459326601709,1.811816925149036,1.8329542999530168,2.2521326779187114,2.0690977262725605,1.908357532538783,2.1855078616377317,2.075149815240923,1.9594994548479123,2.0609373598280847,2.060003447403305,2.3612444327099396,2.3584624097589013,2.049276537565148,2.241110525854264,2.2530968669622533,2.132184907762179,2.2850823756395005,2.4375386851810825,2.087501781577885,2.172595442938642,2.1031081057312826,2.006564807998346,2.1961723414237397,2.121589946356512,2.024343341010173
2.0863753456388845,2.153366462332157,2.0552745487283315,2.218474588724529,1.9301460175454122,2.315957950695453,2.28116296519238,1.987126271779813,1.7547337904841709,2.2589621850095036,2.1961544532155686,2.1309567225226766,2.0563776723257066,2.179461254498038,1.866593467544097,1.8443163602842292,1.8335960109027727,2.0459402780637395,2.3068597584932866,2.1807980615208,2.329277809708522,2.162649477385389,2.037617664584936,2.4172808685568934,2.5824757640703444,1.9225734850006737,2.0492342979234492,2.2753089612203907,2.2802587315606844,2.138503806693489,1.9495340756994053,2.0286453800941024
2.156736623084116,1.9920752987265689,1.9897703681346663,2.007936202408072,2.224205004720757,1.911842173696275,2.0047646786092668,2.2148816956610933,1.9739772814556205,2.259817879197463,1.9252971153746117,2.104685476601483,2.1709443909984403,2.125388708985229,1.834318142010124,1.906589768598211,1.8592043388179662,2.0803925927429483,2.041367955394782,1.911978541561847,2.0679233296741812,2.434535021239739,1.9553680828769,2.2191623945620798,2.2967857820854984,1.9826642209087735,2.0225992571416587,2.231526537825292,2.176297497502496,2.2245552850484076,2.0358437368431606,2.124416044608091
2.129974826727171,1.9570865653288192,2.236373228231572,2.1721757593670836,2.0300873646686264,2.2656565336250614,2.2241306399589704,2.014165296865243,2.1343852079265995,2.355163104628014,1.9924528876863865,2.1807737698876726,2.055241516525326,2.1854987930711656,2.0933708626576535,2.1415618264029455,2.088026808851077,2.221666238740688,2.1630590699978614,2.0852564872009043,2.1756128854677086,2.3230883047203363,1.9743275364191826,2.4641759014037894,2.191800183175362,1.9743396704865195,2.1649285271367935,2.4838335087806818,2.202218567945011,2.1234162052587,2.0934355184163933,2.107059110796767
2.166814409774009,2.042925394566953,2.106853592704508,2.3010673824557917,2.1978920323920006,2.4836499861063546,2.1579594180969828,1.9839489971909392,2.093094191941614,2.2747219464061716,2.121705134011834,2.18264842440153,1.9095605809853675,2.263222171525892,1.9666694784227572,2.045000811568393,2.0139897814712366,2.138049119338282,2.1171114766763854,1.9735570218649854,2.111034404660331,2.316782673524717,1.998364441249366,2.339449944199968,2.1434256451479063,2.023852300178578,2.1807815342793755,2.415838138335602,2.4917730820547273,2.1485544965337904,2.3517313008399605,2.1386096893676476
2.375988914328168,2.3205558965667485,2.253729727104466,2.3666295971965376,2.20612350363778,2.4811316674215322,2.0052882828028817,2.041459868380382,1.9411727208851839,1.9677309292571579,1.7994070385629486,1.986635209387925,1.980647342991863,2.011731819164605,1.8590250603406044,1.8884401375199824,1.8584516314815571,1.8901925024036097,1.8647881528901094,1.8647153923223572,2.0475423447183787,1.9936226953113276,1.748670619101729,2.1054596753294312,2.1360024641603528,1.9811141103601428,2.3991711362830155,2.38110596626483,2.3390427079531557,2.386949595457328,2.3329339984624866,2.1662933857190114
2.0123107487015286,1.8872032877232034,1.9425938158241771,1.9915767420208623,1.8249394915788397,2.3723516866316183,2.0047954824045457,2.1644628071060033,2.0205156240538784,2.2512440763939607,2.053744415989,1.9578031667461882,1.8503818679508783,2.1805387457273016,2.0770004499600754,2.1144062457434085,2.0413862407691457,1.886244492573617,1.836373255294036,1.8825984004623948,2.0168275471514017,1.9160203712922284,1.8785726089475503,2.2809598544525405,2.3020916073417377,1.8476545929770813,2.179389074657924,2.2474110445865323,2.1404168141321938,2.1447198605229665,2.084285136469885,1.982369995531249
2.1959148734845653,2.1307676917322795,2.3010754796339237,2.382943646432657,1.933806426357409,2.2984606776867156,2.105601207280373,2.083728988458554,2.0304213899958636,2.2831322215572323,2.0918789865985503,2.0864974562875105,1.8816467870395595,2.0469890981994543,2.0767771664887738,2.0282511940852457,2.0334124122018884,1.9635986626810467,1.868583371285421,1.9586077810920621,2.018954245826296,2.008427242990943,1.8604409862736941,2.2603418965522315,2.2915805131789764,1.842797203652811,2.2365136336345826,2.153039301364618,2.0918412354602354,2.1645187874373093,2.1241492097378525,2.143984204610208
2.007867947090607,1.9607735286976153,2.122338645217474,2.0075896273388487,1.8548797259562497,2.431183639326608,2.2022910083283254,2.216506160125742,1.9484462194657852,2.0807157499672826,2.111240413625834,2.1066861183358108,2.013025208661604,2.0454610856086313,2.0148638768766918,2.0836324403537265,2.0088344211434292,2.003603447647641,1.987341379005795,2.002011238754681,2.0999406646981127,1.979111709105892,1.9052612207042539,2.2390793954907604,2.17853723424896,1.907659641815752,2.2231683090689365,2.1133399834913558,2.033606569194268,2.1019910473236014,2.0133403422142275,2.219042393086627
2.1712449512027483,2.1883274369886254,2.104557957669266,2.423265777879003,1.9883246659996812,2.3685075317433624,2.1506518380045843,2.0822094044158015,2.1579179896369536,2.0129321089094505,2.024153852678014,1.9340571873270695,1.837614424075996,2.01705944478036,2.3157501516839014,1.9545034736603313,2.0040058264084553,1.8003983536659671,1.8379053778605203,1.8597539245025436,1.870594638282633,1.7808707976487064,1.8305116995485426,2.0236445236626883,2.1671595721545236,1.9202671236506577,2.524449419146662,2.358684462780293,2.345874341919178,2.416847337441823,2.2091137252922897,2.1260603270683376
2.1445834283488767,2.196569207316941,2.226456509197296,2.2856056372299713,2.1413547131309416,2.502080785809077,2.073709539868945,2.045073243979007,2.1283956513794497,1.886311411680456,2.0482163472432764,1.9138843927072522,1.93172138500672,2.1238141088088556,2.2589724608927306,2.0915310960300917,2.06246370283145,1.9774996579383157,1.9297260633685835,1.982404604345617,2.1176005352490095,1.9695143352198585,1.8389165120492514,2.2315966374177876,2.1687900426376,2.157559131369651,2.3361086975092364,2.227257270106717,2.185684654372897,2.183327366962347,2.2505147108531287,2.3779928130492753
2.0739305626824702,2.283582049512252,2.275572050039746,2.360694814137879,2.0837729681847126,2.524997123830161,2.1644334421547256,2.1751793129970087,2.1548250047698563,2.186213564213499,2.101131363456267,2.2447347590209215,2.087579772159777,2.038266696502345,2.1659236921380542,1.8987343656225522,1.978300911537405,1.8601168821055518,1.9620587584918194,1.876129426105261,2.014668124111848,1.8548027675067527,1.8421832835437837,2.101261766478361,2.167161099702085,1.9814386768739383,2.3916703446074163,2.143444375756533,2.3565723154996694,2.255737104348019,2.1667087838382515,1.9765824046429719
2.292309691525204,2.2160933840494654,2.074550229121341,2.2157017694325503,2.085116897208117,2.4872406465320807,2.140996087496556,2.061484358608127,2.2761151834934235,2.031154287190287,2.0181931442604593,2.162992520499579,1.9190229940673345,1.908009384372092,2.043000819234261,1.9370451312699735,1.9118842558629983,1.8689145840050236,1.941042995832199,2.005834253909511,1.9666515565448157,1.9443211287572866,2.0377388746536136,2.0596680673094427,2.0812607473502216,2.186991543951151,2.3274283929493285,2.1380888120304156,2.3383806414838446,2.3688509806618776,2.279131788091029,2.149269973392827
2.1630321571698685,2.275941455667298,2.229816865680005,2.1563142606077763,2.0977122878957015,2.195472758425388,1.7839649939988211,2.318800913060213,2.0989774780014345,2.0143247862693463,1.86084623597153,1.95980161096212,1.8955114687750039,1.9218239236946206,2.090246183203318,1.827842646558472,1.8621393789659906,1.7971055334207986,1.8561284999152854,1.8304809161063886,2.003092842712287,1.886000866887421,1.828142273486137,1.9744344892140986,2.1058196137608394,2.002768238858116,2.3106825120270114,2.0597052485659555,2.239268616439353,2.3335539313385034,2.219020959131587,2.1947687632421617
2.2305784534967232,2.175214547320045,2.1195038944445495,2.3375357916362858,2.1757691922909226,2.48696127282524,1.93327772975612,2.070177617090811,2.0444853860531564,1.923900356543306,1.8152197745834322,1.8280355425336519,1.9806558660720994,1.825077178971035,1.9477782870331717,1.8306455578099656,1.8262144890630465,1.779070110544117,1.9136799399064894,1.8864351721515922,1.9235045677889726,1.9077089119032098,1.9639429728898432,1.9878792091997668,2.034339013488402,2.2245708327148557,2.3889444177707286,2.2496850130597617,2.2715142650761346,2.2185138004418294,2.1017794725798753,2.0747052695407864
1.9614585601302552,2.129548203184411,2.1488278324076555,2.0716115665801476,2.1876871943114415,2.1982108212912603,1.9290989692908622,2.2750007987239456,2.0151681478724948,2.1181441189234973,2.12140972375384,1.906089583605329,2.005545412267928,1.949431389424912,2.295494661589707,1.8301583451976953,1.9051861599383588,1.8240257918230156,1.8390361951791874,1.8198797519881336,1.9856860696390297,2.0129633941446246,2.1212309619513303,1.9406598522436418,2.0319490606431807,2.2101570029438236,2.1903693991226265,2.0939775083059593,2.1304544370025313,2.046307593459943,2.0385921247945404,2.250772703362271
2.3165924231043435,2.468188251380842,2.200207716251172,2.362962031136947,2.1997421579007104,2.4774005328796265,2.0727169416173545,2.465759990388578,1.9288974492281015,2.1037053885643267,2.0304242746498673,2.2133078132228396,1.8727268791938227,2.126258517480958,2.109925159463835,2.0010389938146593,1.8708319826289967,1.819393790245232,1.9331750312063105,1.8154440790440793,1.9073655188811929,2.0704605393769815,2.058117742196707,1.9834010123227441,1.9897487423060183,2.1170990721052574,2.276167137029716,2.1308635304349965,2.2192415782049952,2.168415005046482,2.3407992150343286,1.9485038957855956
2.320211538883332,2.35659219283643,2.3222932057358237,2.0211222244573452,2.3201795973600094,2.317205484663052,2.0455488938033426,2.0190134714164367,1.9621264585905067,1.921697908818585,1.9925339027048485,1.8569690637622969,1.9687657182129352,1.9852361513077645,2.2113435373913877,1.8341386575520942,1.8580098832427487,1.9239283693208795,2.009496963518222,1.953747760542747,1.9781872244308554,2.199751856198946,1.9918511285150533,1.9065250080033307,2.0629269979115175,1.990977233957899,2.358394752091159,2.1567856451724223,2.133755523931682,2.282769107408093,2.022872500087121,1.9271052218786848
2.1638292690922456,2.3763370047919805,2.3028280959612837,1.9762508188010741,2.186729750194589,2.4058121264713757,2.06859398619782,2.374762241955332,1.719361472272838,1.9503646403444488,1.9286368722710818,1.867446603389059,1.7301793879871707,1.7822380362899588,1.897877506024428,1.7430349906470084,1.812708992842425,1.7105624082562831,1.724957061593395,1.8057905142427395,1.8139409460417646,1.8413170088640278,1.7482588729907809,1.992288508234278,2.0537752972062804,2.006486736558418,2.1441285701482933,2.0687149012594994,2.0011906848677046,2.126509293575498,2.10025339135178,2.1700766814344585
2.3296350790437628,2.405249227703779,2.226833621493029,2.1303292193438175,2.2223829443063097,2.254266601413439,2.1086047141177295,2.3366011621173453,2.04697458804091,2.083676088742593,2.2846098711839034,2.2634970038367683,1.7827934940528678,1.914066076616757,2.024764003469098,1.7720306486910757,1.8164567862888306,1.721954797335563,1.761003737301222,1.9101758802373916,1.8854439214160577,1.8335358315625,1.7685279240485108,2.0651862267536427,2.0931793726456167,2.1178869912409533,2.174766789951751,2.0306865685265523,2.0163539219532307,2.1853199328772135,2.2918338103598184,2.0904990161163286
2.2973019460399478,2.4362069672724793,1.9855717178531387,2.095011253180084,2.1078143167984322,2.3275141815918055,1.9592069981434412,2.2126836467216893,2.092968364172448,1.8123668803441617,2.3140645151847816,2.042889974382511,1.9650599978483148,2.2008907164165743,2.200783787305009,1.9810678415673102,2.024164785643521,1.9004393502356014,1.9987134391958261,1.986877846075991,2.0893746857504794,2.1519388928426353,1.8984052584474984,1.8845250443669963,2.1005366772046057,1.9426345331874981,2.350976879761611,2.1897850177189926,2.1226031293824015,2.2965305633060025,2.206096896004807,2.2825187567145186
2.2150249822803594,2.287548031047897,2.224073092916961,2.056533113616144,2.2884938661859993,2.3403472031610226,2.0009309598574716,2.111475389793001,1.8998781440068853,1.9345651990992527,2.026962373439207,1.9438965574649663,1.8784500212398643,1.8418495120449343,1.867231117741517,1.7518627070674542,1.802872810881782,1.6835012897706534,1.6795756280497487,1.7202021263516938,1.723092062772653,1.8288192543833794,1.9291806865636922,1.7190372884940972,1.9083770775241768,2.1609323949209593,2.2138888165318535,1.823133407671572,2.0057869013025287,2.234484132309431,2.202418602679744,2.2031718493541432
1.9787867267522705,2.1946185193070167,2.1664221418477765,1.8573225422675468,2.177797431780758,2.0979542609922266,1.682968073008383,2.0112634073086415,2.1576522551483146,2.021566530028763,1.9760727677331378,2.171371434296575,1.9988457562560553,2.1547414946581007,2.060373196339301,2.037854205496163,2.079509417497292,1.9201983384344514,1.9894048816457208,2.0995214714253665,2.098914942084308,2.218222989592031,2.0124833453783526,2.1044791492937667,2.3069550328850865,1.9453026777100484,2.119993098456702,2.114264736043016,1.905159017398445,2.0066867028506925,1.9626390805130762,2.1270171400000484
2.0266817819706784,1.935638258051006,2.4554101214895834,2.1207875718409865,2.091682133246871,2.3100554268340643,1.7451116350234583,2.2759246772220236,1.9150741606441255,2.1357982303619583,2.046524795208792,2.2848174135318216,1.9231086095668624,2.2734503962442383,1.9208501459379506,2.0955232806129898,1.9290840591179192,1.9658726573787986,2.0586645033787776,1.9196433699425786,2.039782266791169,2.112967751081076,1.9138964597046688,2.044559482328067,2.0192896537838054,2.2046233579886745,2.0408272366355322,2.0948927060760796,2.013173525774688,1.9951257367480504,1.9748034212857402,1.9142363215457974
