Fp1,AF3,F7,F3,FC1,FC5,T7,C3,CP1,CP5,P7,P3,Pz,PO3,O1,Oz,O2,PO4,P4,P8,CP6,CP2,C4,T8,FC6,FC2,F4,F8,AF4,Fp2,Fz,Cz
0.5963545296014584,0.5915566976426605,0.5880309695512301,0.5601477688675865,0.5876156662696913,0.6132766343743095,0.5941693700728938,0.5194384918330304,0.41258046572943413,0.5362100189947947,0.5852515877107218,0.5433156483739946,0.4896856703409134,0.5271297356667441,0.5559569040336362,0.5673015194988827,0.5557858590050229,0.5685069394741555,0.5389189061642677,0.5868636082004616,0.5798287227639239,0.4923853066158527,0.5679660048042726,0.6121252902297888,0.6049481549746595,0.51263133722511,0.6203396465671882,0.6292259645621799,0.6582146629989193,0.6332575826648789,0.6198057489506323,0.5487669466743925
0.5975334864917334,0.5708148004317302,0.6183506217031677,0.5333187384389576,0.5611210566591851,0.6100952038820955,0.6062696813401118,0.5219242368713475,0.38325158835714435,0.5290819728658513,0.5911445690845819,0.5414357967642465,0.4664874911026708,0.5074036882288632,0.5451655517594022,0.5641083419485391,0.552346056474727,0.5601164471471624,0.5455714992600061,0.5797852629090066,0.556303277732122,0.4828898328878801,0.5659986692015926,0.6236419781891948,0.5799938223480021,0.5242470210495429,0.6002479911201369,0.6246685801051562,0.6527906683209785,0.6314410332546884,0.6068699409918563,0.5553175502054137
0.5940101471349428,0.5730858688977634,0.6203670855675025,0.5437863356396816,0.514120281079048,0.607094589546872,0.6208421585202042,0.529850871532267,0.38904040480588076,0.5202428667272739,0.6051240673447987,0.5151982773989654,0.4368836215513447,0.4858262272008876,0.5313181441561081,0.5705133975813571,0.5598432933396572,0.549597503877626,0.526670160998888,0.5630903337268178,0.5664554000144524,0.4763116929175285,0.5675125639752652,0.645545096716811,0.5912309851843636,0.5409851120722924,0.6126699736399467,0.6107615107966314,0.6475151855854867,0.647411171237261,0.5878725054961887,0.560242302720231
0.5502142771329508,0.5416880793050707,0.6106744420913627,0.5053235967322949,0.49389673261519623,0.600677763871035,0.6014447820250859,0.5240908167730376,0.43712459410373883,0.5310518334608524,0.5881547960742434,0.510229498562048,0.4954378939861439,0.48238364217748647,0.5394317736754753,0.5708392503052723,0.5568992051814463,0.5473583307436382,0.533574141869023,0.5349801556885241,0.5131422590634325,0.5151389632732563,0.5738737167720792,0.6149176873361852,0.5771578673575887,0.5349985032096171,0.5876524637343673,0.5792225085490375,0.6099273265376632,0.6263468655080444,0.558756312162704,0.5623204817115325
0.5361445201258311,0.5353371187433477,0.6016485319521466,0.5307802382955354,0.48907645566833213,0.5849418037080829,0.6020657938820189,0.507159678544575,0.5073971642213762,0.5534286306041377,0.5747598057300346,0.5127094804948046,0.5390548829611532,0.49490694507118116,0.5400937029773164,0.5916408143841467,0.5702509013832302,0.5455059738409778,0.5452501226018224,0.5433833472494227,0.5396972904974929,0.5295898603549625,0.5827248228645907,0.5999187407936935,0.5903748255186562,0.5442447087115517,0.5825891046653712,0.5800077675017128,0.5772508295748707,0.615307375045098,0.570068053054785,0.5571937964062479
0.5604918282893026,0.5353155268046697,0.5877294337454617,0.5346892435351067,0.46526257010193467,0.5887156570125638,0.6012259740678574,0.5049136829124933,0.49951552827205603,0.560153294864813,0.5666473260277591,0.4907173942226451,0.532491237459239,0.4983781633127677,0.534475748044522,0.5755851917190195,0.5867345869513153,0.5430343826372115,0.5270954905900571,0.5275740962154226,0.5301510054420674,0.5322232426516622,0.5951537810532077,0.5981395486433347,0.5716301178735841,0.5671883660171759,0.573142836525515,0.5662584116384695,0.5816861021126292,0.612865503865898,0.5635477925387755,0.5717275282710427
0.5671099218189058,0.5279104205609038,0.5914301871139931,0.5196752390429733,0.4407196403618498,0.575042508414346,0.5839429334759436,0.4969070264482137,0.5016949373239098,0.5282943618280032,0.5532227053626069,0.4773118794324846,0.5230995222290139,0.4959493807357455,0.535262540735035,0.5827495958941572,0.603893123933172,0.5694631090189024,0.537924179662013,0.5102091009351184,0.5358513495317712,0.5202752860329802,0.6199397694922664,0.6001111985207045,0.5806934304516456,0.5604061976722655,0.5786871134323581,0.5690238630089788,0.5920078615457436,0.5945565166764586,0.5379261806048208,0.5458101801116173
0.5707008221283962,0.5588508423589191,0.6161968345537897,0.5299328017402463,0.46377933447954023,0.5518903552311537,0.5944329061360306,0.4832012833210975,0.47231170302961284,0.5035050038680492,0.5216010458134093,0.4567408060009362,0.5161774526479991,0.48687238274349787,0.5345098668043463,0.5826672714041621,0.5902622541185695,0.5660208507728798,0.5166369262498857,0.5276125353223118,0.5547608558663701,0.5343824730260862,0.6093880016685794,0.59033213839719,0.559087525905177,0.5622888383568087,0.5593118622260339,0.5330879793129618,0.5736463885089396,0.5924944587719385,0.5007400648625218,0.5334102364353314
0.5685560536689055,0.5454980627156635,0.6002761829136811,0.5338221796350492,0.47203561804625316,0.5545418670949035,0.6047472802091641,0.4868251724768297,0.44600974492105006,0.5444408003838501,0.5378266678853545,0.44549671869151974,0.5029246314602775,0.4761066110785486,0.5337772050040197,0.5725818215517807,0.5541494141592739,0.531478786881262,0.47809655243902405,0.4935195643620769,0.5125266660643173,0.5301577451389899,0.521258171775268,0.5807558084649583,0.5356876679138933,0.5321818505460739,0.5467242650170189,0.5177088516307865,0.5544618988085669,0.5694557082173957,0.5112282813111936,0.5273314054368384
0.5523448840367703,0.5413117487888228,0.5985174781431669,0.4667646891357499,0.443845635406337,0.5792448191891563,0.6209449293559925,0.5037372205596673,0.44608120396304457,0.5751132279483773,0.5560121804321241,0.4602470274489402,0.5039518181444584,0.46973482037755987,0.5354559190240225,0.5882069212646817,0.567838466603426,0.5276592669295241,0.49712971098768655,0.4906649942503331,0.5202602828129953,0.5244106144512999,0.527237370680963,0.5781169682841601,0.5187010548451298,0.5116029265645528,0.5331529928979094,0.5108256237659907,0.5620297509409521,0.569492661135134,0.5005583535460103,0.5053128640952163
0.5390864312164838,0.5261514315797606,0.6100958077427204,0.43645661094508353,0.4123875470583361,0.6079548942706342,0.6172346966383644,0.4766395612305899,0.45308938852542513,0.6077382075185976,0.5534655654611039,0.4432444195261341,0.5080963999002217,0.48180560512312876,0.5413453732866439,0.5697879651054651,0.56922961530418,0.5235930674204436,0.48517129079955773,0.46708800251362925,0.48272877805760334,0.5267298000381389,0.5138589029228183,0.5732938689153214,0.49394432697616847,0.512924260422912,0.5271054979068152,0.49512156260526063,0.5510244805482581,0.5554215464219113,0.4870972802398597,0.4878922878659152
0.518651768482207,0.5405138674678155,0.612332570107827,0.42596272016417935,0.4140496797570302,0.6095321971831662,0.6019365038687965,0.4399989639284911,0.4372635425724807,0.5705985471484413,0.5555717323579198,0.44221737201929806,0.4914706989801687,0.4930698512814649,0.561950192263687,0.5528615408698586,0.5455952909950126,0.5097758028237809,0.4877457876221554,0.4796297679975098,0.46602085178631186,0.4991573842102918,0.4628021699405846,0.5862719855908354,0.46504942574189073,0.5211045795115746,0.5339337461279564,0.496579317957416,0.5575160665883336,0.5531816523217461,0.4750972068621679,0.45100827796121107
0.5219785326390772,0.5323054308770574,0.6126466285825941,0.43239990315587723,0.4269658985957468,0.6011854992838771,0.5608349481493141,0.4512634871655559,0.3853197386502383,0.538076635109714,0.5339892429389552,0.4281882956510188,0.5075373951803115,0.4728034444204821,0.5409040872705562,0.5445788831618108,0.5567538300705586,0.4936606464754282,0.4743692051265946,0.44257479138528316,0.442178506951662,0.4838602712383666,0.43429076649055826,0.5699556668432754,0.44676454643963387,0.4969679205936991,0.5225700313568471,0.49192488625838926,0.5594189052440566,0.5358299805677355,0.4496227319049411,0.44002014720941685
0.5375432558287785,0.5519077039036504,0.6270899930601976,0.446594962862306,0.4451203205079078,0.5921638972529206,0.5760359621945337,0.44653127306059337,0.32664629561642783,0.5044711660458241,0.5478041524807207,0.44248389815319833,0.4969711710314086,0.4525143642952357,0.5085084959664398,0.5434592703267769,0.5850736792505932,0.5082064161886307,0.4655980869606648,0.44180864514694296,0.43195737584511884,0.46607107338221565,0.4043678582783534,0.5782614493068855,0.4626468117489281,0.5121083479812861,0.5383932734485225,0.5033432995957982,0.5467979328852647,0.518933663336369,0.45104093161496006,0.44373743589075887
0.5286393245492524,0.5298221244566457,0.5940368695115976,0.41206443088318584,0.42631775241314535,0.606246662170285,0.5406737504370153,0.5260275838027552,0.27173277104410287,0.4964764904311402,0.5345290913761829,0.37662955846827706,0.4634683947186268,0.4046490754215751,0.4791894975951193,0.5011887388555343,0.5481568701313513,0.47197075751821094,0.44286186673319033,0.41877379535933273,0.4310041655204788,0.47771300885453205,0.41749562496567666,0.5708363989371145,0.44415191841907814,0.4988571196582839,0.5198528706254152,0.47750281221441054,0.526352379165201,0.5035019551095019,0.4491935329124199,0.4448944959935342
0.5323362773558487,0.5264917405103902,0.5789860249947161,0.3974785369095766,0.42658331214656264,0.6096175839170571,0.4997298095109363,0.5077800550536926,0.28401234356281846,0.48149800867147063,0.5216807102274866,0.3561162510464386,0.4648652690326648,0.3954191620799259,0.45349889074067945,0.468536024199652,0.5071581379926262,0.456758402495715,0.42761833107191183,0.4240928338084547,0.4776432203572568,0.46884868776049815,0.41864684481022874,0.5785028891868129,0.4623474234112865,0.47408459228005073,0.5240478820746488,0.5043758799181047,0.5162362099571609,0.49700903318052386,0.44582179971795033,0.4245849980483403
0.5142023277391785,0.5372703834442184,0.5696714604879356,0.4402802856628079,0.4361702229924118,0.608796264068719,0.5200544302036122,0.5305537566926687,0.28108989472900187,0.4974269080189111,0.5346058805074958,0.39880792707898494,0.474673378051415,0.4136752076679704,0.45451781445959444,0.471243335417082,0.4869484213883824,0.45604198872740315,0.42727119281589815,0.41943116777903594,0.47738633108522044,0.46482302451024576,0.4010908844377929,0.548877712337845,0.4416659326940331,0.450349432298887,0.4869042996941105,0.47086426197421116,0.5195903465547905,0.4789063394882146,0.4509706407773418,0.41743081340239613
0.5190496322650189,0.5276306903773537,0.5464259554112074,0.43818225160787155,0.4458692607754793,0.6035350218702582,0.5438842882101899,0.5434962508097733,0.2613710376404505,0.4820446088570833,0.5214605585096977,0.3827116669288775,0.4448560485152401,0.40166368940432595,0.45657051123295994,0.4902864615582901,0.47856723369440224,0.4482951703128687,0.40721633183668465,0.4329868451624198,0.4778526533396083,0.42954540157051646,0.3707191070727175,0.5419625017745788,0.44262532283345907,0.4580482826059451,0.5046702629528265,0.4445826673299,0.49957839967864304,0.4548234895459009,0.44576461249005966,0.41591865717889237
0.55119527427872,0.526743042934848,0.49820794028666504,0.4587952156716064,0.4400659971901825,0.5914938053849388,0.5337082811111227,0.5434298741331112,0.27499915170666533,0.4883016836504283,0.5151419945655308,0.37657790813543507,0.4480385559859477,0.4041980341189222,0.4522114278212683,0.5316199057131105,0.525033291210674,0.5154100207442567,0.44540082665444714,0.44464388902393537,0.5117781181825676,0.4670114934290992,0.4165809180227475,0.5453218098328558,0.4661629027126264,0.47291951155720263,0.5285995333093978,0.4349071123479521,0.49598623285876525,0.46132701758448613,0.47179861158275715,0.44879794905821174
0.577843361036095,0.5627435756435187,0.43321875511432556,0.5080926349099218,0.44986423217391963,0.5495428517181163,0.5162268714649515,0.5478553539852896,0.2497142158867968,0.49552459402517207,0.5261120193419822,0.37903771461227304,0.44215205407516384,0.4078040525822003,0.47194260655282244,0.523401934148558,0.5166536376547426,0.5143452584449452,0.439370356088096,0.46523279041309723,0.5174822292835907,0.4678134368764473,0.46978640322120374,0.5621297947530812,0.503732553013397,0.5179478439461094,0.5670438629439326,0.4390158162184976,0.4762941058855848,0.47545084554496175,0.49259444975390515,0.45108778241817177
0.5731029269097033,0.5434238232650993,0.401472650181144,0.5093852202040218,0.444547531900616,0.5320498911322448,0.5498197337005366,0.5743907865837817,0.2373525780999977,0.5036603246346634,0.5430594824519407,0.375697364795278,0.4424725668753587,0.43731441196411336,0.509350726641751,0.5104396723910725,0.5277112414166775,0.5117736034554219,0.44621872422229353,0.4864991690600052,0.5344249480967778,0.46534847929501116,0.4610654978102588,0.5754749298147702,0.49276726201942506,0.5033799405478225,0.539241208919397,0.4085441060183544,0.45188308813254063,0.46936366886014913,0.48330352719407144,0.45950535229547057
0.5593297149212819,0.5360893070814735,0.3625367010435394,0.5198703220313088,0.43554220146119066,0.5413394586159787,0.5641996664674134,0.5993061089448704,0.2667196200784605,0.5497437517660857,0.5377730287434513,0.3850394868998837,0.46301759509318746,0.44344715210920843,0.5129881464418974,0.5021634644941642,0.4845155789050783,0.5055637676757104,0.4618320896359935,0.4742175705286869,0.5413047977734966,0.470754037442145,0.457936159845618,0.6056987557066184,0.5252323871935214,0.4954333044810044,0.5435945403014149,0.44598868696973626,0.44908962864963964,0.4772044795363547,0.5029582428222952,0.47600585860676276
0.5419205836919558,0.5181941606722447,0.35167297865151564,0.5040599308517907,0.43468166725381724,0.5506664919779073,0.5641240409144715,0.5971537072544879,0.29347421564282106,0.5429086987239788,0.5258502104160886,0.38981222122696846,0.4675135072423048,0.4733834661223057,0.5588585987171747,0.5159853449330404,0.4901060283941851,0.5192077045995007,0.5096605204823867,0.5139088370498894,0.5842702966588822,0.46466214382540166,0.47888133192692356,0.5786175776864496,0.5087623613320236,0.465707410088163,0.4778804059619451,0.44462290106089447,0.44747248729635186,0.4799591968571059,0.5070690187173785,0.4700036292457356
0.5580147247602086,0.5224247596093426,0.35807864832406733,0.5409943680819496,0.46410413386437394,0.5533635318497918,0.5368732390532941,0.6034379948658025,0.30142709905725207,0.515766955623825,0.49950676293370994,0.39209191653757847,0.43408718258507606,0.47479218120042815,0.5794914105964291,0.5287203916650173,0.5228364532452053,0.4941388895727158,0.47422070352329426,0.4785712251809452,0.5402134444822181,0.42914819978708124,0.44078625036903235,0.581060867612836,0.5025645425319061,0.4358871381482057,0.4813493475938889,0.44058612839018907,0.46797494784384475,0.47482356869773473,0.5249114246002475,0.45082809227110915
0.5735646711728837,0.5360069618843208,0.3889230882838907,0.5508402127761067,0.48969963647093107,0.5548758514073613,0.539626660183876,0.6094913804830282,0.32159092621354657,0.5288400203916456,0.5135542604705037,0.4112264618986201,0.4489711407688321,0.4934658026546733,0.5782431085140456,0.5499403541943568,0.520089398188905,0.5082248420659333,0.48817935459495143,0.46233365815471983,0.5291855077583122,0.4515139812137296,0.4658776778633927,0.5636551272686663,0.5095797999455324,0.45924507623463373,0.5037647314829837,0.48218483000469314,0.49640689051330084,0.5166193827306605,0.5567197534757705,0.4784902431230543
0.5620828944499404,0.5255775845164958,0.45677057453532294,0.570881917104561,0.46706028642913855,0.5872574243499405,0.5736867430168804,0.6158289327759752,0.33801757789014536,0.5482221656786099,0.529590235427173,0.46869905630828984,0.4663461694563338,0.4858070825802832,0.5915362691855086,0.5595837207225418,0.5385814618845072,0.5135138513563503,0.48013285702436515,0.4679360097167803,0.5143564708944337,0.4242170203177175,0.4625396971419088,0.562267107596373,0.5280045568901963,0.4675927072582238,0.5237502436589326,0.5196855558195996,0.4839285316461275,0.5303209696727316,0.54744725525041,0.49120583689633857
0.5741768302819684,0.5231799890533271,0.4444446270041454,0.5628903042322542,0.493814277939454,0.5742165610375397,0.5330601319931839,0.6101502609889775,0.29368002218094336,0.5371174919693911,0.5427970843485543,0.48742241412634124,0.4710284249332573,0.4755193630310378,0.5788285317164884,0.5702324658500338,0.5535407560451744,0.5181890334937924,0.45991858683616216,0.4662702330129815,0.49469624183610705,0.41176524349421223,0.46227909775662884,0.547159811371848,0.5560089923686262,0.4466547054187346,0.5422180176304376,0.4965185783187401,0.4840340894870486,0.5258467241753564,0.5281865949984031,0.5021587329106355
0.5616481339269815,0.5495436182591455,0.4717114967975578,0.5491640993782868,0.4072591231045408,0.5460578651591796,0.5482002159627394,0.5831647275339674,0.32513634323367474,0.5334705078311004,0.5239950096301533,0.49809096943630427,0.4876767944650713,0.5052163136544456,0.5861906423417849,0.5601948168860169,0.5676032441736704,0.5478456203652685,0.5192305700108861,0.48621658837346504,0.4981693349265141,0.42593964608867446,0.505007260669003,0.5356338232489374,0.5394777465912294,0.43570636377009925,0.49862181120734067,0.45353037791367296,0.4581231341478805,0.49268494561761567,0.47525131561451167,0.49089589809215095
0.5421855042468686,0.5964393764889825,0.42822385437680066,0.5433161618772036,0.40007558011874017,0.5058651244669831,0.5303429110516743,0.549114014946412,0.35549357981817203,0.5230178828779471,0.5024761200107823,0.49682674986658737,0.5120118635254969,0.5142599978607645,0.5984819540188671,0.5548914979725067,0.5470122339386757,0.5258996947435054,0.5314402140271398,0.48387085430009613,0.48110668526769534,0.4468574629214568,0.49125060705753104,0.5447877796658049,0.47782699442905385,0.4391551952874265,0.5000070798676187,0.44399528098397784,0.46682153406051485,0.5033295088083454,0.46406914001772087,0.4714181335890855
0.5363484142145749,0.5994507901876907,0.4507995871489556,0.5165678603870137,0.4312825858416873,0.5378864173624478,0.5378873231314492,0.5052235631505957,0.38502631635717044,0.518225562451056,0.5171724809871867,0.5280021006127031,0.4985527764632763,0.5256627492818067,0.5812359299339155,0.545775066822156,0.5366084398963021,0.5309598118237169,0.5351787518845162,0.4865302725098855,0.5201520756314426,0.4264718547442745,0.4760286990022873,0.5173291958820664,0.4407026143310752,0.4015414025045868,0.512327362903737,0.412024463766894,0.4903902107937997,0.4993149385745365,0.4660442952936667,0.46176196551141524
0.5291056782942551,0.5788320934256221,0.4534833694990146,0.5202275409724961,0.4401495850798343,0.5670350780010718,0.5481706916165047,0.5008078829678222,0.3534112585749955,0.5310438313053003,0.5139728849359947,0.5520056529382277,0.49706385540917947,0.4718093281847253,0.5702832851549697,0.554498425155318,0.5536859629336924,0.5210231235603875,0.5318840712421425,0.5069571469880703,0.4918654677349068,0.4360284154581281,0.4735111887894666,0.4942047425299503,0.466861677046858,0.395404661082323,0.5205942123638906,0.44030747680775356,0.4980458971195917,0.4945705110256063,0.44838477293790685,0.4677286988295547
0.5568585484395365,0.5799240862989196,0.45881183868401065,0.5213275844662206,0.445364388416378,0.5650912406093465,0.547671897151957,0.48249907806579534,0.36767094867158595,0.5305752793490527,0.5158101086733138,0.5386349024644187,0.46803889049262243,0.45697086332404896,0.5699453544030052,0.5504665932818348,0.5396715191227881,0.5150898425093117,0.5055887820339195,0.5017043969638105,0.4777151285408629,0.4140529021223868,0.4794333046426378,0.45678403924856525,0.450435403243492,0.3960429571491914,0.5186234743503751,0.4193948979869675,0.49716154234465865,0.5102975655860821,0.4266567681812821,0.4619628017390749
0.58140705793808,0.5719374224024449,0.482423850660565,0.5233262629389388,0.4782745966788754,0.5735428289889026,0.5454892492839547,0.4754060836391268,0.37898943412413644,0.5173165548382311,0.5121234824815907,0.5368044510139172,0.45983466178633076,0.4538148731557053,0.5703687730657383,0.5817059636775224,0.5612161317653344,0.5366375417320267,0.5140128774601698,0.484808386106272,0.4763680103145868,0.4019976007680415,0.4765423621482874,0.4370462010693841,0.46240157099836154,0.39778542143393636,0.5389965007326869,0.43595860648249285,0.5071327254122834,0.5279860440312174,0.4381703910394651,0.4471442383352186
0.5396879839917714,0.5613899174251701,0.47262857703448846,0.4880713896479348,0.46547102235853643,0.5793102360298026,0.5465310696546263,0.4748118333454675,0.4222956602499345,0.5293094335003122,0.4867131487905888,0.5420700966196209,0.46582825783525494,0.4715397597452159,0.5877275300450603,0.5617707643889399,0.561164015524447,0.5401586159128645,0.5171001867464929,0.5183714403745466,0.5090347203432967,0.4425376333463987,0.49309452550320954,0.45041649597043076,0.4738580521999102,0.4140580718309962,0.5390305068197799,0.45792867764390527,0.4659090118596319,0.5250833236703091,0.43200348843343556,0.4505761511156569
0.5397524492535629,0.5726219056760135,0.47958224654280535,0.5154744446699008,0.47499801618807674,0.593938843653704,0.5680705465380405,0.48694485085675815,0.420324668580544,0.5540233846365042,0.48746427385281693,0.5408204614428592,0.47070682669206,0.4790301250917077,0.5784766305144567,0.5598025118646366,0.5901769682427044,0.5601037484578387,0.5366977135915859,0.5760454287344678,0.5316348196518862,0.432583907124057,0.4906498855284227,0.4857340345362002,0.5043834584542416,0.4254005786523137,0.5250316391852358,0.5017962170465965,0.46470642737187684,0.5169269239621677,0.39492294579424836,0.4488546569753789
0.5493130567518364,0.5808837583796528,0.46215068075483606,0.5044628491707309,0.48591293598379015,0.5924541179496142,0.5416268596684157,0.5036954008137388,0.4176542888974771,0.5331558182549057,0.4756789732830932,0.5075982407717328,0.46102582229526057,0.5098548441537837,0.5553233940201159,0.567941070282582,0.602345455921502,0.5683439061261553,0.52678510709404,0.5694885623339161,0.520004552016764,0.44198860048320404,0.46134941890179887,0.5152768158000796,0.5122271656912791,0.4402946272529654,0.5196439270587905,0.5307668870106939,0.46659675753554164,0.5125887743843714,0.39667948695570576,0.45116162063005316
0.5353246027158372,0.5740520957321784,0.5007572895143463,0.4645818893871721,0.4833516467652357,0.6177034259401116,0.5543107357057294,0.49752365781767977,0.45672457814556194,0.5408247833599521,0.48069407998282626,0.48338241646938723,0.46154314154916265,0.518511502840602,0.5220403757634282,0.572381222316499,0.5820388838790292,0.5751830645116042,0.5305539135948137,0.5793788381783727,0.513267728500045,0.47911768092572987,0.48493101470439504,0.5287201136425412,0.519292526015259,0.4285243822569132,0.5192377561818189,0.5189879398992991,0.4744927555510235,0.506468318397035,0.3885424409122565,0.4547606546100795
0.5226716437106533,0.5621916336641678,0.4943073168065614,0.44499677162645385,0.49856733678302123,0.6114320493008122,0.544260855287956,0.5151240645262052,0.45991325066838334,0.5126588048476517,0.4601027723020811,0.46617347766974004,0.4529026672378185,0.4901481953382031,0.5191865634682691,0.5424707819561282,0.5407251096333047,0.544240962377273,0.4976267681175079,0.5691311324316587,0.4295601729199353,0.4949332679495934,0.47374661552456987,0.46851188682738953,0.46615955361979733,0.4277323084325058,0.5277887947020516,0.47512309435192646,0.46052687705128026,0.48068119369190665,0.39719022476048305,0.4777934881491925
0.519414762146311,0.5759621295515599,0.556772230594566,0.45365932470334364,0.5104944431039142,0.6434813595920038,0.5438831125434704,0.5129919944750072,0.43744019220947045,0.5304727793547181,0.4394311092749715,0.44663486823790605,0.4126481022173805,0.47222681021631296,0.4945549756196877,0.5394604302237266,0.5177029622333084,0.4989624160291418,0.4683099575260206,0.5241709055463614,0.4105084026514373,0.47139155452058373,0.4657919526172834,0.4485738750377306,0.4710440316284682,0.44021510233672057,0.5386216178791869,0.4603983177417177,0.4370154050170217,0.49397129221100855,0.4351999082381884,0.4337425898148388
0.5128829120370997,0.5425247985984192,0.5296941080703735,0.4065675888011411,0.5058554871667764,0.6666085272016417,0.574553443602573,0.5656185344730483,0.39626905701933846,0.5608572530234877,0.4785114793799524,0.433962569009834,0.43591150115869404,0.46609316928776673,0.505596327859186,0.5379126752936004,0.5204495894651892,0.5090773715724614,0.48174042269472805,0.535003186915998,0.4176112130309572,0.47178412062288266,0.4771729449845499,0.4819615932380339,0.48212710423579064,0.4543773449681392,0.531519119717972,0.48564926049826923,0.4414592441848512,0.5094103622961281,0.44037686910551893,0.4481712143802776
0.500946476819866,0.5203692735462608,0.5086744244115139,0.3959603577040197,0.5165782762554405,0.6546099944325929,0.5438470755204706,0.5556264658997078,0.3910200781254191,0.5676978736320306,0.44947672982682235,0.40396736735045574,0.42832557908848795,0.46606477871312757,0.4999591964649588,0.5244963766583381,0.5096833690068767,0.49611397581111216,0.4891127907512008,0.5245288816445309,0.4317930877021961,0.48561769985411507,0.44170015586015376,0.5004545695005034,0.48654878546451885,0.4664009171061987,0.5257522540140372,0.4720740464061785,0.4158998211685594,0.5134721575750563,0.4612406761653723,0.4612264309930584
0.4862030317696795,0.5130845835519353,0.4800238199503429,0.3762320840199069,0.494303037708951,0.6130791278774733,0.5347370557642609,0.5296398494466302,0.4104091038726848,0.5665549341463754,0.4359865238151234,0.40217563145776564,0.4114656541594825,0.45116006737029407,0.4953820561492087,0.5355586454114596,0.4908133860431737,0.49353653958245963,0.48920687637753507,0.5327414039232732,0.436735687341048,0.4896595818266807,0.48338686423509736,0.5378065846855976,0.4884325235427279,0.4661330134097922,0.5216268088833381,0.48934521437571865,0.3711576108860639,0.5101959124863151,0.4628579061048171,0.45314315299062397
0.4892383540950602,0.5196541230077192,0.47085006612278485,0.37049431325673043,0.48967245328258013,0.5998007821815347,0.5337013453820131,0.46018537621804556,0.4173276434179844,0.573756084566561,0.47307693908587756,0.4033703315087194,0.4255278286092882,0.4289290524848096,0.4766616897208991,0.49073850037216044,0.4616999460468176,0.4588391831993579,0.4688295431810661,0.49692630491250334,0.4505599453545616,0.5228177728112546,0.4831740924354807,0.5441901487963061,0.48218958074521495,0.48628766453057426,0.5279944652705367,0.46494512968270174,0.400038269092187,0.540598099371076,0.4982192633404059,0.5014822899813679
0.5039215624136073,0.5038934481700279,0.4136316315780862,0.379169988782833,0.4976104448564269,0.5757726650043468,0.5213856593204487,0.45174530839972143,0.38394240793980894,0.5663466002598596,0.5104061606725919,0.401828088500802,0.4466764192484302,0.41314917849702737,0.4545117154127368,0.45938859545842503,0.4450726185844735,0.4363831475114745,0.4614992013727926,0.4721791912997252,0.42923741075804867,0.5085231269301882,0.48977303844374326,0.5450011105207718,0.5071862352796535,0.47605694211882155,0.5370268958799385,0.4456365807095033,0.4369877518474488,0.5154848036721799,0.5345016622206384,0.5219795855578999
0.47647321545507965,0.4261549880598264,0.3660738598100187,0.3458441195279847,0.47741682888738085,0.5098493306307372,0.5006264894597187,0.4471422814457911,0.3963909071389938,0.5564944039380898,0.5342398606209854,0.4005594671220299,0.4242617780219384,0.4226437017050251,0.4724465016643467,0.4254131610622446,0.4040295049083644,0.38418396731047766,0.4265268840715307,0.4351782495768679,0.40590074305297585,0.4772671935380798,0.4861500953121446,0.5341143475234996,0.4391656594198222,0.47968972554371686,0.48359139034688214,0.37037129514993206,0.4104484061752485,0.47260236284197865,0.5267522772174775,0.5240451008797234
0.4293519670343517,0.38091903420759954,0.29950130551717397,0.3159414097661841,0.4340384805522204,0.45668901587342786,0.4957735250893916,0.39961171142565605,0.3693949266513284,0.5153680712285286,0.5255210571350891,0.418227927263898,0.41899238137320366,0.416348172402574,0.4745649143115734,0.4193805761701389,0.39073863384384533,0.3843373959832084,0.43001035612150984,0.45002734635052655,0.4323922202771341,0.460563396624289,0.46530119916767876,0.4696359145881633,0.3477723187826899,0.4644918950277863,0.42199441005937505,0.2829434562431049,0.34661205056818034,0.4333038467850548,0.5129604105460349,0.5211500555939553
0.4350264972735846,0.35875250701287853,0.26167400429829335,0.291373188832911,0.4101918074625903,0.3996476393444602,0.4740026407392558,0.35633647718985895,0.39635342775690846,0.5120297178307953,0.528609835455599,0.4280750412365704,0.4331793849116838,0.4444639957200456,0.5075198356314911,0.4303886850022274,0.37900671690824667,0.39563582357957244,0.419430475528538,0.4268654540160561,0.4302416973530754,0.451652372720937,0.4702592678206645,0.4462466023145365,0.3372771581848236,0.48570453064414304,0.41701293455866023,0.2539177765085672,0.32424269129269784,0.4384936972371734,0.5459506562267631,0.5225192555935894
0.45440885322962354,0.34605792311675715,0.23760344971000893,0.3170253353578765,0.4479608530396737,0.3963180388869691,0.4900797399878956,0.34212067821393294,0.42111584981700867,0.509696581968844,0.5461081534738806,0.42406134775366705,0.4686628675848418,0.45035533786524273,0.5032651719301019,0.46730582771182044,0.405616588832532,0.4212661053446854,0.4511393227750207,0.4492103271328915,0.47654548497289284,0.5049307999378682,0.4940604180167765,0.46906056929153944,0.3518242912571815,0.48468477046775,0.4334892348581407,0.2615931057633791,0.3426785538655906,0.47366287738259916,0.5741964816490931,0.5133760540842464
0.4714619674408683,0.34519979416597735,0.2407437295545056,0.33480915096772296,0.4615416522747308,0.39048302006599117,0.5190674286610945,0.3510678277830228,0.4257293804075416,0.5169076676644552,0.5682517393877549,0.42722276212087706,0.5075034280632618,0.4847186233715129,0.5203177967581426,0.48103707296383974,0.45606809528160447,0.4649364844595642,0.483524224832869,0.505442030682518,0.5162504777941257,0.48204886193553503,0.49955595527371843,0.46225935588436523,0.38920140094508376,0.4167249033535043,0.39919458081763176,0.2942591265065833,0.3889477744290646,0.4874018100919622,0.5446172560631977,0.47419502237673977
0.42953078072917367,0.35228718377822044,0.2543110506146053,0.344410479835007,0.44377495561534425,0.3842990213097585,0.5349529643889741,0.33313626653598194,0.40986431720820776,0.5349103485832953,0.5790232203077692,0.4449929782315901,0.5150033738606071,0.49832982688297955,0.5070271609260588,0.4314379895069509,0.45463564885498975,0.4691237158926146,0.4786480108157135,0.4982324407411639,0.5245289662765366,0.43386325570909484,0.4721170809491474,0.4840854618309841,0.41074042532058713,0.36707101441165535,0.3574258356578888,0.33256419376400226,0.36680987138383,0.4866840114208323,0.491690836242403,0.40372432269599523
0.43113604783729365,0.32665441270861445,0.24472198216808178,0.35132346581019297,0.39804617612341164,0.401079244234049,0.5413679665150914,0.32152262540405946,0.38780629991025106,0.5197016741881225,0.5837285202794422,0.4302287675742794,0.5077474277095392,0.47219998418093845,0.4785243730100308,0.4343440929391561,0.48263103578908567,0.4391748182508662,0.44826411619183215,0.4622581860239699,0.4989545804408133,0.41037194052467674,0.48497604230466534,0.46217779822038446,0.4185073536246146,0.36964976643274516,0.35093643932656404,0.33394190856133465,0.38785013616126773,0.48044245653920387,0.46154449050526614,0.3688531010984444
0.4323597195479062,0.3177582203448567,0.23130686195337075,0.34516599516472035,0.3948905216330025,0.3943785741985611,0.5263284249236542,0.32632829128324137,0.3746585521267554,0.5188188031064243,0.5695674569401619,0.4242059482276302,0.506982632486823,0.4622132961316979,0.4727911862703665,0.4374035392598524,0.47684877938990106,0.4248023438532446,0.4503320206199037,0.4484316747913983,0.4795183127499606,0.4508337131380154,0.4459832590042659,0.44061176445932615,0.419462740772155,0.3842775877319643,0.3441895530509057,0.3648306684695748,0.3891915730400648,0.46106930051196976,0.4596684597370817,0.4053766868693252
0.41657133062738055,0.3108166478534378,0.22132776720190295,0.3578705601555539,0.3984399508719978,0.39468914176367276,0.5255808008036077,0.3445416585093887,0.37094794686339816,0.5321048778864397,0.5772491595993333,0.41529392885732147,0.5019578985344184,0.47360600041133843,0.4758298866590375,0.4725230693517239,0.47666802797053925,0.43101256358456475,0.4663503615233119,0.42800736262085665,0.4335423740286889,0.46769313323875833,0.4719010595610307,0.45717111401622423,0.437609452916018,0.41037191179899163,0.40035025195598417,0.37655364144775516,0.4386002032427307,0.48639979693084223,0.4721738223944246,0.4506292292391705
0.4348253063630583,0.31865346515755816,0.22580859998314431,0.38321649943804637,0.4164575709251259,0.4136830816141081,0.5424320869340266,0.3667552488432236,0.41622376805267325,0.5361332067491301,0.6082680005401564,0.4179926756408272,0.5092020585247415,0.4981813229738567,0.4976938971159572,0.49295901396905584,0.5028744991976764,0.45116743915455554,0.4923790524480361,0.410852358628761,0.4565466853833178,0.47525159613142015,0.4955587215411478,0.4697983536625453,0.4440754596715902,0.43709875005277066,0.42304403611530333,0.3640735182680871,0.44413424926731854,0.48411489133015456,0.46011252303434297,0.4516830545669195
0.5031800001987812,0.326997431698337,0.21120180992636753,0.43306030924514777,0.44920718341851273,0.4739767600721792,0.5392768352670652,0.38972620061712393,0.4035440721804459,0.5083686200729386,0.6048830932161786,0.43826547617287875,0.4388720103368568,0.5066611200897505,0.5261198335072406,0.5197790825169188,0.5231262237682982,0.4744922549288753,0.5152877035540979,0.4464703112435275,0.46867132952152096,0.4289482402134355,0.4565693381966081,0.47299251587517127,0.4761538902487965,0.41895956357213326,0.4172022713652135,0.36486461401819886,0.4384227302435717,0.47386783499256496,0.48855195816292896,0.4558075528025453
0.5393602561475597,0.39849154651272384,0.26515662100722087,0.49395762926739695,0.46602197419752045,0.5211179836363258,0.5928337047506549,0.4185917882395885,0.38579172224921693,0.5080416691704708,0.6121643603606787,0.44814369769332263,0.43587318350885573,0.4734574981479871,0.54083465904514,0.5422131053219031,0.550544903550564,0.49919084164691946,0.5347244031449823,0.4688300719399163,0.4785426747653127,0.428477579432795,0.4645236868583824,0.48878501848580075,0.5288993275685754,0.43320516798682546,0.4274440148269396,0.4104221652062774,0.44109228575131554,0.47769060705270666,0.5027693065193536,0.4829526035865387
0.5438699874168863,0.46298722892759053,0.3200830593812244,0.5773453394495218,0.4635148974753424,0.576987189453682,0.6218313088009821,0.4588399432269561,0.38482998847586297,0.5521261362568902,0.6013778301755949,0.47245203900331306,0.4273018785179803,0.4734323821502964,0.5154714843212406,0.5542740433391137,0.5826554349074646,0.5137360535767033,0.5364388123770139,0.5298668435092057,0.495356197471265,0.4171032959144971,0.46237687305156505,0.5174058681403195,0.5290724554107208,0.4056744401304481,0.41170517373842475,0.43670190469669556,0.39656897179919376,0.4354234684737,0.4730825455799723,0.4530788999622086
0.5631851781718109,0.5162794744484545,0.3828132586041286,0.5917694811931019,0.4826349955712092,0.5995370553794037,0.637645181984124,0.49282644901133776,0.39425112617910313,0.5665444980099371,0.5966517417255915,0.5149528109198647,0.44497890449918254,0.5099470820885739,0.5230149900587922,0.5551258826625707,0.5844751652234464,0.5162747918293533,0.5137951879378071,0.5580432545226509,0.5231748584574862,0.3852588815288453,0.46669880915319767,0.5371187923626595,0.5445247868246949,0.39747678712244944,0.43015876663666136,0.45558949529073295,0.4247818141863898,0.44860815197302145,0.49106730641563623,0.47130442163293046
0.5602997357084766,0.5176902259015896,0.4232616079117846,0.601164790848295,0.49292252964592287,0.5999809871331957,0.6411505125233381,0.5133040388497955,0.40625281984641376,0.5674475131053917,0.589354891048037,0.5239860769144601,0.4218481297973849,0.5361076546647265,0.5469287965858742,0.5472814659249622,0.5670675631240691,0.517395260020842,0.5000908291592091,0.5576400467949003,0.5274836876711932,0.3900083388370904,0.5200858241157372,0.566697802524006,0.5697308856047778,0.454833211259432,0.49404701715172117,0.4906800993817359,0.46740864597267906,0.5006962162141856,0.5091265894358616,0.4676685905423541
0.5667282174259671,0.4979997503303386,0.47997222131564904,0.5898172966685441,0.49116560090233424,0.6172025718338741,0.6497103316676136,0.5041554499619403,0.4058603259771562,0.5549507542063057,0.6094342052413536,0.5268761704716712,0.430845895214896,0.5333982750375224,0.5586071821659383,0.5508435328045672,0.5774660671235546,0.5065899969901232,0.49589024492917383,0.5568839409553066,0.5231126245295248,0.43075623484003467,0.5369187733780629,0.5799353905149206,0.5936035502236838,0.5260192583762096,0.579838425298483,0.5336204889591025,0.5491368967803032,0.5666875827293043,0.5725063977665003,0.5144052203652725
0.5691352825165129,0.5386298646149229,0.463014512331723,0.5735413716926614,0.5506307675304123,0.6201220455450555,0.6531818219606429,0.5279271875805348,0.428644709426902,0.54956769624961,0.6182558523769475,0.5452789507188702,0.4201028759228122,0.5412109529236768,0.5687944356804009,0.5516576307517655,0.5623883164915254,0.5358069265406219,0.5257735852018639,0.5634801408021843,0.5391135350824022,0.4307381980873809,0.5247962337796226,0.5882275941676748,0.6038050718311417,0.5431014436167183,0.5937990082801696,0.5447618669474602,0.5598883789143494,0.5775007635760032,0.6164023322686759,0.5504221119597056
0.5790479802539892,0.573999465081323,0.520183745271437,0.6138574722757578,0.5532717243643571,0.6411347203736892,0.6639246279860161,0.5681048324360675,0.448178303909585,0.5750198192306811,0.5992232709425211,0.5393585965471948,0.4103673717669132,0.562133984764103,0.5630496887833383,0.5531188835859032,0.5700759252819976,0.5195770535025046,0.5252620358861645,0.5754388492611019,0.5135353465485575,0.42629171364894963,0.5366926346123038,0.6000669031346052,0.6178398958682434,0.48345405146769505,0.5916984764337962,0.549160733340665,0.5285098785998411,0.5663491153092866,0.5846436874739027,0.5719859856376865
0.5972681600813017,0.6015423182311255,0.5896010983895946,0.6133115550987869,0.5380010905968543,0.6531032907383968,0.6607779423557658,0.5965635121736106,0.44761072955892783,0.6174943293719463,0.5742940169038945,0.5268934785614433,0.4559019338274684,0.5581083560119963,0.5739263301339342,0.5673393698787461,0.591469621696095,0.5099473451355389,0.5197889120374206,0.5532992314762103,0.5277630837820759,0.41918327443208014,0.5111131453320887,0.6197960388366577,0.624059414406003,0.450575527413153,0.5779728214131766,0.5774532160270132,0.49061492574964466,0.5427247000159883,0.579010196677343,0.55037372274639
0.5828266106438682,0.6074614464896311,0.6033342622512138,0.6189469425883369,0.5472380836477159,0.641897526662048,0.6419344209231833,0.5945133137675421,0.42254662085301165,0.6274415362481862,0.5522534337262327,0.5286289598219002,0.44801686456743656,0.5533747184576683,0.5469944106010514,0.5633942551930445,0.5948651585645189,0.5353088780388383,0.5117689173816314,0.5479346857504603,0.49904818570523124,0.40018652468124855,0.4877032063451364,0.5824615402108388,0.6237124553193952,0.4275205581313515,0.5603648771461124,0.5541251525834935,0.47596521481807713,0.5318875789619458,0.5656154786776977,0.544929986059503
0.5522292672774878,0.6059051895594924,0.6092619851709307,0.608219057284669,0.518663414374138,0.6342491171933332,0.6097355758203041,0.6109246355109882,0.4208798631354992,0.6385254595098641,0.5659184136093762,0.5299566420167,0.512033567921112,0.5490635833582485,0.5244639207761079,0.5325056057324499,0.5769375189043845,0.5538021936273063,0.5423849482114669,0.5640785717301606,0.5174414431076374,0.46138543834313894,0.5426262045149862,0.5951331875412105,0.6323676904586769,0.44218682231779116,0.564217853448033,0.5686623486375432,0.46637218204541114,0.5238142488536907,0.5474024223879033,0.5479422694900673
0.5503478810046412,0.5601953696300472,0.5055187254091492,0.5696905226616974,0.5002111909419277,0.6229622777868598,0.6072921595263757,0.6082651962456597,0.41654345192850867,0.6516140846230776,0.5793486054391861,0.5299033984720332,0.5480490222981952,0.540143024922452,0.5279456652730732,0.5553595497599192,0.5773076193714269,0.5275324562677164,0.519822814684337,0.5287704736674955,0.5171476136638388,0.49748174850055016,0.5277138417945123,0.5706985188784082,0.6026640415039363,0.42528720879267834,0.5421057354753496,0.5545198938449846,0.4518906355540106,0.4770997969558299,0.5440476470174774,0.5589440491289313
0.5449366252723736,0.5486379989706766,0.43232999843241876,0.5342590264162028,0.47172889214501035,0.6184604742394942,0.6054661457404286,0.6056849130539218,0.41419340708956165,0.646156244266479,0.5752956869196226,0.49949068947153763,0.5511090117253084,0.534731144619545,0.49655866674392646,0.5583073922107334,0.5789733264444796,0.5198699288783453,0.48319259878778653,0.5188419409391903,0.4914665734513563,0.5418052283539185,0.49890956600344694,0.5416610762511451,0.5962125023606694,0.43124123150992527,0.5043878332911421,0.5383205472929278,0.43089702761213605,0.4543730018101855,0.5455912605514602,0.6085049706073835
0.5106651294431329,0.5470365925874527,0.409093800948311,0.4882604905280448,0.4628719367524285,0.6022770470435667,0.5821379618356906,0.5887464933359124,0.42001477321915864,0.6454528275135212,0.594146726672908,0.5002391890356247,0.5355326257772602,0.5110920519176039,0.4668845086744491,0.554920943631215,0.575954952814517,0.4977103120412733,0.4764918028833677,0.5130596692624552,0.47699276048543204,0.5481091972165725,0.49837807663981354,0.5371944665212636,0.6062154753227378,0.42973414829836987,0.44845283132837255,0.5065117639099405,0.40731830540295855,0.4154417764232333,0.4804746849113258,0.5741215579038044
0.49321137397892967,0.5425367211062836,0.428398171988283,0.4698822037097962,0.4112006322699291,0.5951837143169983,0.5800995368381371,0.5532608523397354,0.4196287093187793,0.6433543470383238,0.573859352182825,0.5060455773963802,0.4473853697626485,0.4580004114112777,0.4084859900145371,0.48000441687287637,0.5092593386369247,0.44876014306615364,0.45263690802554174,0.5048325035493926,0.47500554718146804,0.5075277341166007,0.49721097032186623,0.5349637589371105,0.5937952535801672,0.41414489066996285,0.435143913516323,0.4912895780893619,0.39940333542643647,0.4113926886328979,0.4543741952778596,0.5657624103084508
0.5109808008621627,0.5409838661229256,0.42022468057449475,0.47932880978233494,0.36843115995819636,0.6025262836546759,0.5694147694507463,0.5608198056975526,0.4621737299693165,0.6473376445286511,0.553349197170108,0.521011908927189,0.46929558546650496,0.4228518525819125,0.3809830590800038,0.44729733509803193,0.48714763735575045,0.4358644092396847,0.44960176117583933,0.4922636059059311,0.499337717272073,0.5424335739735537,0.5041424262881572,0.5223595889745322,0.5695525884887852,0.4003112388857892,0.42257043364122826,0.4598591801739632,0.38049056712573665,0.4041592595875556,0.4441939426889455,0.5413778086000535
0.49115654347855636,0.5293218353996131,0.43534331708912904,0.4921447551229492,0.36141304177351635,0.6055339739902824,0.5693549447905571,0.5482054251888742,0.4725764814955823,0.6596992464924052,0.5886775335579205,0.53336492739229,0.4593579549462722,0.44213889034969905,0.41002360434834645,0.4423076516479549,0.4844571650131016,0.4293941165734975,0.43992419117718357,0.47038725278787563,0.4987088530319013,0.5388945379490147,0.4922824196194928,0.5196634163631627,0.5566337771772336,0.39449139859640303,0.405133094919448,0.4266023631200436,0.36924316577178,0.3896152128346122,0.418477352291993,0.5459295629884393
0.5056715592242521,0.5261576075665018,0.42561393788931096,0.46829181213647775,0.36465040623072664,0.6114548842104426,0.5604388332493735,0.5443755834502111,0.48094689787824435,0.6391702405157499,0.5829849336793108,0.5521437730967217,0.45212827741877226,0.4476500915018385,0.40089722148840184,0.4349800474802883,0.47704916662213565,0.40104451360276777,0.4281478684544492,0.4678010078543882,0.4981630087217591,0.5404286836756863,0.4762275783580898,0.5171227989742387,0.5269140498130981,0.4426940888005791,0.3867288720037294,0.4554590764436756,0.3688545182037131,0.3717678442065703,0.4348008887824974,0.5650965594293929
0.5000159001531339,0.5173563892524191,0.43730629551149014,0.4649698393079606,0.36814785526874044,0.6006704306989963,0.5550818884630295,0.5352022116436095,0.4849719962329009,0.622504784150167,0.6022440513115616,0.563799963383435,0.4539437862938777,0.4509119177682907,0.39141168816777194,0.43518932615457967,0.5022102321646988,0.4523879714651228,0.44517201320496963,0.499715021844317,0.5085811276416463,0.5487061909778486,0.49869412170866456,0.5243309485585148,0.5308975180805111,0.4415215650974398,0.3590054285033663,0.4444172236256916,0.4037572491037346,0.372519711867171,0.3847837596012525,0.570806678326574
0.4877094508031799,0.5147262814740335,0.4051288848527575,0.47469932145703303,0.33469265054078234,0.6134034062400854,0.5747528322972677,0.5446230033492813,0.47859613606538864,0.6458857376436367,0.5900487894352652,0.5448806387806777,0.466907332004778,0.46062367511592023,0.40736754107765205,0.43805517064283617,0.5100410023055728,0.46492102618226977,0.44616756656881856,0.5072039129318262,0.5514603097752022,0.5431448631591559,0.5313055701361232,0.5561092178002894,0.5458428536352588,0.46020303376437327,0.3863700955621435,0.4763056770984791,0.4081103431433406,0.40053769363698905,0.3836871715277301,0.5632152737654721
0.4997997551752173,0.5340609653583839,0.4128387284494345,0.49944704894395864,0.369160978817343,0.6146721648855341,0.5872571276118781,0.5287070208842765,0.4711759972650835,0.622828600242627,0.5644045199814673,0.5155453005227768,0.45964603581478436,0.4688265687092004,0.4153575367581374,0.46118215445878974,0.5300313457687231,0.45615899477385535,0.4412045333774376,0.49607972786270194,0.50953848870901,0.5098064288416865,0.5298255620108946,0.5621358548598604,0.5331629384698082,0.4632525805798621,0.3900321000993335,0.46548078119200886,0.4154032761585148,0.4061856211445947,0.3958440987408384,0.5424634757688684
0.5414735889450487,0.5486603830364785,0.42029534667118834,0.531771316159483,0.3662118652851105,0.6237163848268886,0.5849627670228199,0.5358428283941424,0.45657585907330817,0.6294521854108134,0.5589523499757073,0.523041920582745,0.477894191883928,0.48091191417035767,0.43482857102779626,0.4820794940076956,0.5373051900765887,0.4822115622821031,0.48235394968467865,0.5049154410777327,0.5157462331127532,0.5132480604299644,0.552751980629299,0.5840076870740964,0.5645152531565156,0.45808943696635834,0.4168832232088063,0.48991362000993255,0.41991736585501954,0.41183718988717405,0.3923188948086897,0.5245590943128081
0.553619019600229,0.6026215673114262,0.4727982281767514,0.5754406600956906,0.4071048480463421,0.6238478732522458,0.6109439036893671,0.5378719833731258,0.44903087106293993,0.652103603942617,0.5571435987900336,0.560544564597018,0.5328441996439832,0.48791171151712676,0.44154469236058463,0.48683124251523524,0.5576886337448396,0.5279306561345329,0.5771333858554025,0.5505641115898577,0.5374328886466202,0.552534573178989,0.5640065364023813,0.6083152450432479,0.5757099349136762,0.4584210615066018,0.42948051588324854,0.5021942748998408,0.44170648457987066,0.42377393151098025,0.41680182248823666,0.5347208517355304
0.5716712465498545,0.5893524272261811,0.5396241814730356,0.6049960641319942,0.39678662707597917,0.6149728052062758,0.6109445191258686,0.5220003014891058,0.41437881615205363,0.6384460448468884,0.5261588202021203,0.505828736416887,0.4900769062720719,0.47756103153636076,0.4063610049607767,0.4673323817119018,0.5518638111311048,0.5100814574636423,0.5483973620016701,0.5385105264797575,0.552839163854443,0.5261814561947875,0.5470633893731398,0.606495063498735,0.6077103932807388,0.48540497215534395,0.45975160358170886,0.543947948670183,0.45155304423370657,0.4626423095820929,0.4212259102398021,0.5128123917990413
0.5752279700548459,0.5649469038909268,0.5485899754842896,0.6155233217267386,0.40981861955536214,0.5857003905981246,0.6164075638162,0.5624791918203453,0.37089309960736266,0.6010032927760736,0.5321505082246969,0.4789302057984075,0.4777264418719266,0.45536712172299276,0.4240164712462108,0.4921181196177572,0.5511318315157939,0.4980403770458435,0.5146330800925721,0.5253393213123325,0.5230229070090524,0.4836978605364613,0.4558015581052898,0.6165911680150254,0.564257434494305,0.4411596981717563,0.4523916920860191,0.5445688392750324,0.44149508555288636,0.47412459069387813,0.43286408229627876,0.437332294637983
0.5744268101913477,0.5569926792416569,0.5875338523612705,0.6255727892677141,0.47273743755360415,0.5546082662048003,0.6144568112852425,0.5350381700107031,0.3610676366696631,0.592275251157436,0.5555296071423425,0.47025974398653886,0.477077317052681,0.4669607311510718,0.45598167880384477,0.5296258882661378,0.5492989977733399,0.5064775602849679,0.5188080334595967,0.5232558389431338,0.5114883875149829,0.5076354775040147,0.48628960763792495,0.6108103075786971,0.5869226567445697,0.46883998729089255,0.48232504212120975,0.550388665900763,0.4703679943435908,0.5179518365010336,0.501549781303469,0.44825924315574184
0.5700405720222311,0.5783273525725455,0.5805744283689687,0.6128946092969713,0.4827347983160348,0.5585570265871805,0.626763847992284,0.5435590251205978,0.38431523490083297,0.586877986965901,0.5566142849316661,0.472782856325604,0.47782123304405844,0.4723783419238604,0.48327365748945433,0.5381912718414266,0.5538779576169766,0.4979394944881917,0.5190428553224364,0.5376840311608679,0.5257435860807332,0.5198806458061425,0.512180395979336,0.5983065210709992,0.5779764045320693,0.46294706112897543,0.5053014113267594,0.5466822009323796,0.49369828518815495,0.5262684678318734,0.5058520946544104,0.4593829976377012
0.5479918211887804,0.5686745129105207,0.5908641474178874,0.6155838884928271,0.49153072095905714,0.5806774471074739,0.6289329061306369,0.5583647589656757,0.3993860620317821,0.5853205724069256,0.5769422085879475,0.5048339940977239,0.4691105062331077,0.480242430224786,0.5291261585798921,0.5647097619160187,0.5688578480446856,0.5140368864326669,0.5209476333514469,0.5598840282803786,0.5379354223122889,0.5188826135334502,0.5250237212051241,0.6142400699650461,0.5876961302952036,0.4513267543740737,0.514506064496405,0.5582025137968362,0.5174786677534737,0.5311006176274015,0.4935341266559297,0.43728064585925236
0.5174555793373945,0.5521798309269293,0.5903874466021763,0.6108052437572365,0.49792470352867724,0.5766327031102099,0.6319583593491634,0.5426909042253147,0.38927752889418993,0.5996887335156463,0.5695463561380234,0.4762848248460702,0.4630421469613623,0.48385925133681773,0.5344359078150787,0.5620609874386601,0.5558595501143592,0.5043407641147929,0.4936265951011386,0.5419522161216016,0.5350717262314303,0.5489118887225717,0.5235960448806447,0.6019717613935935,0.5815030608229234,0.45507710189416833,0.5371079966702056,0.5814502381714621,0.5272332733922395,0.5196339596307862,0.505197669662021,0.43296612511510396
0.5452503344159138,0.528708250472346,0.5712835928031048,0.5981390699317581,0.5069616313231669,0.5858251107227521,0.6323347049722879,0.5033271662699933,0.3849124175447448,0.5874488841186338,0.5608179236386556,0.4637397285756576,0.4348101863336496,0.4577770064098454,0.5397015472678452,0.5654248030010041,0.5619483279108894,0.5038123198915957,0.5005894315788998,0.5431703028692859,0.5339149738125495,0.5036749518424674,0.526399051990096,0.5952696052503748,0.5696454463975832,0.4540265862537135,0.5306282510621704,0.5777249347252693,0.5156240563481208,0.5170129028012568,0.5126097455594921,0.4150277300392418
0.5449511145311758,0.5279864382105602,0.5434275178760534,0.5847418229782868,0.4896646736448927,0.5968737642065898,0.6216663784637391,0.48134316930544807,0.3553252859685046,0.5668084228419488,0.5643675787947168,0.43751649987487395,0.42486182324742267,0.44572083946666063,0.5717497306778676,0.564918619228569,0.5783855865644325,0.5111490216020438,0.49457307423906516,0.5253411715286844,0.5440402628275289,0.4640522039426102,0.5110098027885207,0.584401496286736,0.560698776390414,0.4764432380098466,0.5430991843162865,0.5694104520099358,0.5226139057183972,0.4912931012985493,0.5210617902575623,0.38947803613666954
0.5330423801309331,0.524498453555993,0.5339881589141446,0.5763412153461187,0.48337845274198915,0.6007534888513544,0.6081991793945022,0.470141719458318,0.3805421537471737,0.5711502505800922,0.5754947187759156,0.44959519422625543,0.42951779964464754,0.4263591807001529,0.537967164563573,0.5073503813456874,0.5339384974490875,0.47455501515872595,0.48052415157395295,0.5186950585208766,0.51992508940368,0.4604191459084603,0.5227333059089688,0.5718365542745127,0.5344372791126951,0.47471355017690015,0.5143348390478608,0.5372877801483437,0.5128054623892232,0.46731645717408105,0.5183032056471928,0.37848607386735517
0.5286923460148636,0.5207634374863331,0.5555755133107015,0.5742029530236589,0.4995382569770683,0.6115026448848049,0.6163430371931732,0.49305581261923237,0.3819785472766822,0.5571392965924213,0.5814147147433615,0.4528122029753787,0.4022993925701394,0.44036751353669884,0.5487386611903053,0.5152888272417712,0.5299794351284474,0.4686120315260369,0.47723490331767354,0.512684936356174,0.5274467247822267,0.43532797749530805,0.5125249907746721,0.5659051168429866,0.5228273568868894,0.4778176473441202,0.5242588829535639,0.55011092954743,0.5302527112192391,0.47604901095584623,0.5175350115455147,0.3760273165192643
0.5303915615582449,0.5455270415532545,0.5436154465889815,0.5524887408675978,0.5169641429456794,0.614633210115096,0.6078810274409541,0.48759820493706657,0.3895430376203714,0.559296780400595,0.604976562356992,0.4732818849615426,0.371260006058303,0.45979334472963235,0.5723552419197853,0.5203453841065865,0.5496123700726334,0.480794706245091,0.4792884122217149,0.517042065843014,0.5146916587993579,0.44914115504246144,0.5203916982042244,0.5616798468963906,0.5344420068724801,0.48547886426102016,0.5289559548209242,0.5460592895244575,0.5520892385490723,0.49848914894527807,0.5338969624681433,0.39809712301972805
0.5346985900193737,0.5379593355576039,0.5397534457389296,0.5233657147481645,0.5025182031961347,0.6307079522406008,0.6140729959645393,0.48965831504194135,0.42656031895716806,0.550499702705323,0.604144950752428,0.5312385099217476,0.3799741413132003,0.5090024692044756,0.5845627276200651,0.5420799965924867,0.5585448879622159,0.4921843330305662,0.48813821761684034,0.4753380289346746,0.4991223077763231,0.4646078504587885,0.5275026034845818,0.5542498130318144,0.559926523864175,0.5455543885632806,0.5454740363268765,0.5244830620664405,0.5582436178205413,0.517463443094995,0.541484930822827,0.4474824848211583
0.5530327431416516,0.5058207172246492,0.5523108664174243,0.5337691514074879,0.5084426802380086,0.6244655484065813,0.5928446941325571,0.5181927856608493,0.447765550919805,0.5922112661848741,0.6003482719133962,0.5415425037281627,0.3844433129659438,0.502005021733038,0.5824400559578937,0.5526744593255415,0.5806749930083307,0.5117803478865398,0.4815288483900807,0.49180825921258825,0.5305036171740549,0.45034054564190906,0.5268851174593183,0.5658854009490181,0.5655632302315495,0.564349156594631,0.545190809706185,0.5137490682014682,0.5360532082830956,0.5175721700495038,0.5526533390296152,0.4173030681919876
0.5471998663974448,0.4862046629815915,0.552886287438483,0.5301751094715214,0.5213619394883118,0.6296776066112793,0.5854116802787087,0.5267990613337944,0.4519393323533568,0.6031162223260604,0.6002387576764359,0.5443660651185454,0.38347879924181455,0.5041576249473668,0.5707621789074556,0.551612188074901,0.5869463165427797,0.5047035461026724,0.49217256012150545,0.5083314126029875,0.5308198402954416,0.4547538225562215,0.5229465057205539,0.5761941529320582,0.578449268651934,0.5482949123109405,0.5614150261982565,0.5415265335558533,0.5305457462149638,0.5267811415952789,0.5432129511116217,0.4251108929481956
0.5397694177598809,0.4731941815969735,0.5594302901515893,0.5487940201800604,0.505315552082757,0.6475355724552568,0.5555567916982944,0.5095144608151728,0.4637690048171179,0.587503178011489,0.59191334161151,0.5535534932598767,0.3902045112473736,0.5248392945629387,0.5709483321896558,0.5600388342002133,0.5842392214447925,0.48579501530117974,0.49244355949319474,0.5173822473020148,0.5386458340009065,0.4745086753949796,0.5449011102504958,0.5733552476861306,0.5630064426732834,0.5621629377275856,0.5561315742177394,0.5363446826843934,0.5394226237864261,0.5303074087890431,0.5255980055326767,0.4455925318286957
0.5704800923273284,0.5090309107833979,0.5803284247237499,0.5793784265202137,0.5130890114735724,0.6303476847934033,0.5711653089788916,0.5211186524331409,0.4578167224315779,0.5721928220112534,0.5853516821080541,0.559270495987653,0.39484240568125845,0.5293914861800842,0.5630091570058006,0.5700022017621764,0.5768391871469339,0.4912894329563965,0.48225060285570887,0.5143169559147536,0.5289083887256988,0.44778651385503837,0.5381349887259239,0.5701830394184157,0.5767010750397027,0.5676473677852084,0.5735201465938425,0.5730056726933584,0.5522570748315813,0.5396278803180095,0.5559682923147358,0.48815082279505423
0.5801503903771306,0.546407522246928,0.5788618625269261,0.5760552776976772,0.5069221863348049,0.616297553829815,0.5699449784256286,0.5175785174782482,0.47536366343946973,0.5645389566843471,0.5603892103680705,0.568431733745558,0.40650590753600785,0.5409080326740624,0.5638849776574302,0.5807710832659521,0.5889930561155271,0.5166873504724189,0.47865064605556373,0.5180672740833604,0.5280291674391778,0.4566815537664891,0.5375559579963539,0.5675863098367046,0.5815543816391356,0.5760422573112627,0.5686541208950624,0.5607191754466831,0.5517041937721028,0.5433462901019585,0.5438799978008463,0.4753985970064811
0.581999084665218,0.5646655067296572,0.5919240311680805,0.5755908971323741,0.5396802614430875,0.6288085727939124,0.5725551542925068,0.5368466065181771,0.45318370057672586,0.5625184460786267,0.563581779757066,0.5429992610096053,0.3943834234062942,0.5406901662835543,0.5490624144622742,0.5798560356088291,0.5892193299036147,0.5280162083020995,0.48596797150057536,0.5414207443441934,0.5179387270954342,0.4668684240091517,0.5445207131719183,0.5444621096399895,0.5775361949144051,0.5647350505519834,0.5757736285504123,0.5729359238581065,0.5819364638090001,0.5747747874412122,0.5599348520168318,0.49522573387554986
0.5814356840078437,0.5635739497330517,0.5914595227071154,0.5679092963973391,0.5747206028258784,0.6349259714687102,0.5623828919300876,0.5216815439536726,0.43311426861591595,0.5580385281843122,0.5531385915736364,0.5234679239852127,0.3482713302129451,0.5390509654803926,0.5473343363153957,0.5786465929627209,0.5872604875682217,0.5205259277254288,0.47225630114435196,0.5258341892847328,0.49202471188026164,0.43960399032220204,0.5162922519833578,0.5477714065030912,0.5621629991744648,0.5660696380058098,0.5831587548732088,0.5786422510831213,0.5903394104883826,0.5801171887287105,0.5507787649508307,0.5176019173580192
0.5590283301420557,0.5677117000559514,0.5671104902730207,0.5468281609283722,0.5634006565346081,0.6294421938758636,0.5487016756323778,0.5145959655136771,0.43462370179454596,0.5399954735701956,0.5310283310835102,0.4984173523705849,0.3383980841514012,0.5292678057924591,0.5344874147002965,0.5796652268029525,0.5830597000113866,0.5277659620483235,0.4686838842048536,0.5286578070748718,0.4849722449396568,0.4350392478906411,0.49218922900701567,0.5232313315319671,0.5401704523717403,0.5481990196638489,0.5513425864315161,0.5745433082355321,0.5822464845265035,0.5673052448253602,0.532417121278952,0.5056397867336252
0.5397867503103008,0.5295538762669731,0.5547607892588532,0.5306970481452012,0.5481794509642202,0.6187563629793624,0.5476793793094726,0.5144949087440895,0.43978623012375584,0.5222185857849163,0.543019261485998,0.4771229013375769,0.4184440287658909,0.5281385919155241,0.5253460181203935,0.5681270242971321,0.572584768691876,0.5354605745428821,0.4910244678683973,0.523045735100766,0.4992652367039055,0.43698195715100846,0.4974256637712238,0.49977718549553213,0.5530400710290903,0.5381809123113847,0.537113615597236,0.5712527927236538,0.5581094542031455,0.550833793244559,0.5185555535995192,0.5059210143768473
0.5302563169315491,0.5303457290807538,0.5614170060455231,0.5340263887699617,0.5349459489413447,0.6322235731566597,0.5584740461028326,0.5225789422186613,0.455667317807436,0.5460620571920116,0.5487687896359624,0.4696936638560554,0.43547919539586205,0.5269769974185291,0.5040980992751098,0.551921986976168,0.5706674688426477,0.5406493936709865,0.5055573768109108,0.5224436208397912,0.48698107770079824,0.44044380642888264,0.49487682359498886,0.4627206180802954,0.5361600119237094,0.5271128900969971,0.5227842450186958,0.5625438459704946,0.5451078315375882,0.5506536858598972,0.5039197123201369,0.4797499305585714
0.5101141015231385,0.5580478309468097,0.5617511102212314,0.5200332157466663,0.5274692587981735,0.644348097335398,0.569144711281301,0.506558743746956,0.45432467093823004,0.5415762530441731,0.5494286252707916,0.4848510541290568,0.4483375647006365,0.5034591079492281,0.49835785176391667,0.5360753095390072,0.5377888028253897,0.5253913063045893,0.5067576133971755,0.5016089686610667,0.481905781651888,0.4646395108144112,0.4835068516872348,0.4494757121376315,0.5374494924781622,0.5050949490570057,0.5037031455215485,0.5530285977340171,0.5312546703137248,0.5335745574737577,0.4887561292639389,0.4729165609899665
0.47583992288173044,0.5339707817228826,0.5532661267559041,0.5114440802949581,0.50842505972257,0.6388407969307713,0.5487588737805646,0.5109438899833835,0.43814135713398955,0.5509099678731303,0.551612188074901,0.4847841394746385,0.4684780759368984,0.49076227955928153,0.49384516088971814,0.5234629171027977,0.5303981140084836,0.5212969236332861,0.5050008579767705,0.5016624805420822,0.48074954593443797,0.46624315532536725,0.46923460458739585,0.48256106559635914,0.5325883317973309,0.4968372199305805,0.5023349289520388,0.5460028641369731,0.5238530370511664,0.5307471327816041,0.4851125848958498,0.4695777587263492
0.4826734360300928,0.528836252244766,0.5515987678680954,0.49456303692577225,0.4865756215425309,0.6369380400039772,0.5595783410631683,0.4794054866847384,0.4234871242982528,0.5497547183013333,0.5422698839958073,0.478834655043111,0.4782034515595085,0.4734215073791934,0.46338198766390126,0.5317738992323376,0.5206673635876841,0.5081884379389675,0.5069085367896411,0.5037426929045505,0.5054785317237724,0.4974847249233681,0.47304099579792697,0.48764961541806756,0.542053123807842,0.49073158847639814,0.4941857748440493,0.5360823759018343,0.5148816017457625,0.528636332262507,0.4899113157810964,0.4733323236001506
0.4809874665475658,0.5182120331146158,0.5190299609309101,0.49608752848518217,0.490984021759223,0.629313878069373,0.5549164012634149,0.47074948048299664,0.4088415885247704,0.5609974252344925,0.5281182535385844,0.45915582979327635,0.47021619168675277,0.4804342381809996,0.4495743187094808,0.5315021564283012,0.5074057293921487,0.5025562322834839,0.5170287452073684,0.5112275530318517,0.5288842568744608,0.5235443961737654,0.47408795183881236,0.5065561202431034,0.5217598291450961,0.4754386755574601,0.4962217631550534,0.5328526566909382,0.4979374328469348,0.5180954637805449,0.5084146080685209,0.4700036292457356
0.4933232542664913,0.5112067455390089,0.5108679957496415,0.5106569043459853,0.4809153030780793,0.6104657518810778,0.5478854481499329,0.4504335330516384,0.40649565659833986,0.531594084772407,0.5214089245294103,0.45573538450368023,0.4683043934927758,0.46643777835853495,0.4250113326347794,0.5191836379695908,0.5009262689994914,0.5010371022875939,0.517921810456499,0.5077125944320516,0.531651269054205,0.51811750952162,0.4729117915931559,0.4893858695969636,0.5016289564685047,0.4842842176683674,0.5032113737807452,0.5099402762092664,0.49945321913535107,0.5320703268424397,0.5138488385424845,0.4801279679113776
0.4659624232136276,0.48420578212783777,0.5367427163095209,0.48032128909440075,0.4714138873717079,0.5915439131609325,0.548515742123642,0.4614903845241771,0.4043040049298227,0.5148554976563535,0.554842509182765,0.4949430226695396,0.49977836655738245,0.47888448005424616,0.4269230971553475,0.5248239229920046,0.5148674742518317,0.48358216815488364,0.5109051434670385,0.5096859329311084,0.5141534138586653,0.49007611975208076,0.4773848046632374,0.49152316043999517,0.5006563963570911,0.48138895147086086,0.49670985413620217,0.518917928350001,0.4849621131760714,0.5193381246261619,0.4980057033857894,0.48878573957837124
0.4376154397369326,0.4611491889132045,0.5231473048623654,0.4765317802973603,0.4767912182957146,0.6021824320088165,0.5455413635995028,0.48307687535805105,0.447126645127096,0.538559929489081,0.5303880328055717,0.48422339614285637,0.5192741832264167,0.4857903734959935,0.4311109147834,0.5383483425594068,0.5291387581856821,0.4954873526688375,0.5205586679084903,0.5166291839213765,0.5128577317605486,0.48123141943794573,0.4919858079535038,0.5134408589930703,0.5180455704098154,0.47547786749586135,0.48689335650270416,0.5408404372202841,0.4912992014156353,0.5062286074938025,0.5053855481775666,0.49520640736754085
0.45952237442460625,0.4536920035193789,0.4939310308087884,0.4816800052405105,0.5094251786899192,0.5809085096191328,0.5674666624111614,0.4798179000040222,0.45864826545608683,0.5568906774908776,0.5533074227961984,0.49437180422831223,0.5314593335949427,0.4883612529526875,0.4525364929906224,0.5582530804794869,0.5435934271898901,0.5021717822043426,0.5308262904726603,0.5313854554007595,0.5225074309836198,0.4875907393821883,0.49341525755809756,0.5308309828740202,0.5212235954328939,0.498904654884119,0.4914745074266219,0.5419534004192239,0.5266040037912011,0.5202837365763211,0.5296273922170922,0.4702194954095527
0.46273021279814014,0.4560570414399953,0.498387068653449,0.512768950638258,0.5564682443532512,0.5895658950525398,0.5566175879768614,0.47987247091608976,0.44392524101073155,0.5758379807665164,0.5453067789160576,0.511245142850727,0.5192680546612735,0.4824599107865231,0.4549066617142481,0.5542067575977538,0.5722774424981841,0.509712519946901,0.5178000595080574,0.5162620611964516,0.5258017986352628,0.47054044593573163,0.4745442199470299,0.5178758858788013,0.5025498252876139,0.4897081405047703,0.48708269607487475,0.5476423929378894,0.5296979453836402,0.5301681006968127,0.5368792016143733,0.43428031956635044
0.4374390250156647,0.4389408145829651,0.49399313214486207,0.47795259979694643,0.5568262027589086,0.5231883083120243,0.5568418610526975,0.4717009172993665,0.40812971945966975,0.5600162417884682,0.5046256857917074,0.4768639748529613,0.49409770396071895,0.4858877844036791,0.4921751078012783,0.566831299726131,0.5894516622530823,0.5082886937257788,0.519382201787543,0.5117764201295129,0.5150919468470259,0.45828986224147233,0.49598907908319273,0.5027222621288517,0.5086789915017846,0.4950625920992329,0.4960348245357041,0.5624291153476618,0.5185004379150928,0.5276924602333098,0.5170574341572213,0.4228419058548676
0.4584983937229942,0.4481072273741669,0.4844535194267947,0.46967142172371673,0.5613629827888708,0.5130984879539635,0.5812520455120395,0.4786307971874064,0.41476928534231905,0.555713945014125,0.5182317588352471,0.4760219194931716,0.4522213051629756,0.4781817756896279,0.492868749646032,0.5667055832131015,0.5986800822683043,0.514844921781382,0.5083414397457716,0.5273814949633006,0.505530209115145,0.45071581957433143,0.4737406208711348,0.5262248395238717,0.5290091321565938,0.5144276792639537,0.49658699079479174,0.5589983557475917,0.5004661915288963,0.5295430769925378,0.5256419256663606,0.43574346741442543
0.4763767617575186,0.4801152914121869,0.509348960755462,0.49389558888521856,0.5925536230816271,0.5392266279232301,0.5847115135262322,0.4800243438074503,0.3997400723441943,0.5534576643403172,0.5375663021150902,0.46791596828111126,0.44768132158417245,0.4984942650256537,0.5253075841828125,0.5535443912711833,0.5849844722647669,0.5095694408262094,0.4798352466883258,0.5155021716498924,0.4958971882900213,0.4559687469418994,0.4657343459349829,0.5389965007326869,0.5144277041518838,0.5040249055549033,0.5312166594345458,0.556962306701744,0.5058784735297995,0.5384694914978281,0.5521481494547602,0.4536690740830564
0.47546405482605164,0.4727855675650221,0.4820058308185019,0.49172545239257137,0.5748268912336512,0.5718891722748258,0.5845054161605483,0.49631776069578604,0.39236611841859337,0.544036115458678,0.5475114164104183,0.5069704740132787,0.42536828339095534,0.5222200498939593,0.5461774155814204,0.5509057517028523,0.5466622389350315,0.5083411504383287,0.48568538836496056,0.5290956066998951,0.4914819549312858,0.4717584286431553,0.4676642598083171,0.543637586401901,0.5255194930818702,0.48513915218305526,0.5433145630833335,0.5630742391498635,0.5191320520017043,0.5428768731383695,0.5436971092406132,0.4710043472355726
0.44822050954690645,0.45996975782083643,0.4688024813379036,0.46966594910507115,0.5640173525158341,0.5680538188417933,0.5687162817253839,0.5151354592411527,0.4097481867866526,0.5424569512756068,0.5570434601897555,0.4868482594943707,0.4732276114744944,0.5117236579125937,0.5300142317070624,0.545967680927572,0.5516780360745709,0.47598329903897046,0.4860973535600402,0.5389775266607557,0.5145326911496865,0.4769062144691225,0.4947214337142468,0.552835181538743,0.5418779504244026,0.4764922404603812,0.5297646398802489,0.5806510586824597,0.5046909653403813,0.5281588091355657,0.525983472817357,0.44688393941128113
0.44395888836687675,0.4321572168879276,0.48039285966505463,0.45217201410365265,0.5583979814819464,0.5408736061256821,0.5705554190775939,0.5119082097053136,0.4430617065937262,0.5654399999771003,0.5663070028336872,0.5216488808176759,0.48850465469699517,0.5241803795413125,0.5519463851959591,0.5507597696464633,0.5421984973587148,0.4745650211451797,0.49966517886904765,0.5301324619097969,0.5256146112765596,0.49972599884755686,0.5092695411605784,0.55988252573375,0.5446085282025909,0.47958166642185507,0.5170061131553729,0.5724622813539364,0.4972305848703792,0.5245984868857655,0.5012748251163596,0.43787235106294226
0.4528797070254909,0.4352901483065739,0.5113593622057754,0.4775514803820255,0.5483549434966507,0.5109847834034427,0.6046380378597129,0.516298884574718,0.4498120748054226,0.566892781188821,0.5659839416965464,0.5400312787710805,0.5052985666638448,0.5415325763600569,0.5510098828425434,0.562655858374314,0.5676109206760941,0.490920367296912,0.5123238104521516,0.5536850521260291,0.532878110618163,0.5071874148506806,0.5171670812969212,0.5577210106363983,0.5389780843568451,0.4599147938535523,0.49811987782204376,0.5593215981809107,0.47833315449856567,0.5230827510154614,0.49547822836150246,0.44022099558976124
0.4746127018986446,0.4649253090044269,0.5245374723917199,0.4985197326537529,0.5395381832116707,0.5164680898832352,0.601164790848295,0.5117199912550785,0.48795315238081666,0.5387813481201978,0.5608193728114557,0.5555407362482035,0.4879448543859426,0.5422832291764228,0.5447690243253591,0.556086730424287,0.5534576025225592,0.5076970024788663,0.48977794837925476,0.5205032567837123,0.5387585863258475,0.5061412349204925,0.5280674302004967,0.5350999093933256,0.5466793164441064,0.4643710559578758,0.48769691933033676,0.5290187298702375,0.4666533332214486,0.5198911695056688,0.5012830310053978,0.4310873964825665
0.48118583620051847,0.5008110923486626,0.5240566256637718,0.4747082611631849,0.5329369938234468,0.5239140557555936,0.6004009154166497,0.5223244401017263,0.4885570371414833,0.5389156109449786,0.5588620725747425,0.5584271511616938,0.4869512724798847,0.5470507848404829,0.5464547037535593,0.5683719930854537,0.5579437386302433,0.5080503180474304,0.49871993441242524,0.5312863623067196,0.5260640138709232,0.5045957928190066,0.5383231174744844,0.5336671300643075,0.5617937159777937,0.4634950680070447,0.4998322311671224,0.5391519612848851,0.4705322543043003,0.5257617788188305,0.5185662092204022,0.4640224749989599
0.47235721048968526,0.5080081535987216,0.5147856912910932,0.4672990243623745,0.5222686453400808,0.5235803739264353,0.5916213194974905,0.5302755152272424,0.5469834940884406,0.5438083128522555,0.5579800824649875,0.548658411644424,0.47781981861610384,0.5384288235243312,0.5493548764284435,0.5677916966232534,0.5652044058444373,0.5141878408218663,0.5343030000440547,0.5209664609163868,0.5265966205801266,0.5410173037977882,0.5567229522559691,0.529239480388099,0.5577959512184367,0.4775640966891009,0.5099197240324268,0.5402774647465819,0.4701701710064668,0.5234899950272008,0.5090390389152688,0.4848074396815722
0.5089930145150616,0.5322307740859863,0.5410377500693937,0.5042594658472185,0.5410226277921256,0.5409453442240374,0.6109804860306411,0.5267272783511807,0.5899395182632201,0.5588055721271198,0.5719405618462323,0.5372011681140128,0.4951205815843023,0.5524522679894339,0.5592214402471049,0.561212321516645,0.5584123379004933,0.4922587761966506,0.5421903712215635,0.5137931710316341,0.5040277224325072,0.5446977704516431,0.5614567374124368,0.5304283210370131,0.5402901619739072,0.4660361844082202,0.5064585601098095,0.5339326737302709,0.4978349230769518,0.5397553220666828,0.508436923647443,0.5294791925252726
0.5051687277678568,0.5257247396339504,0.5295648471507731,0.5001208920683964,0.5373685497125785,0.5333488879253491,0.5974529931889064,0.514417610974341,0.5795013202225303,0.5740218418722559,0.5621867838590371,0.525120116272861,0.5261128757470462,0.5436154465889815,0.5486990100951188,0.5328460165143514,0.5559009479604032,0.525044603009113,0.5488203300992939,0.5006300551767755,0.4988043509576757,0.5273252807160875,0.5570513850847063,0.5350138277647287,0.5453651283433999,0.46846546761919106,0.5140736659148513,0.5132091445584599,0.4985819610109597,0.5535480913729978,0.4979100888545359,0.5344628500193455
0.4806434786305641,0.5122226737528401,0.49063079297602524,0.4918267465422975,0.5111878769849494,0.5244367765584097,0.5789357528092732,0.5159335239460082,0.5818389247201329,0.5752071762812672,0.5350663646695979,0.5234733653674689,0.5304848641322951,0.5312415180910329,0.5717903089770067,0.5343612021800896,0.5363942477509446,0.5529707876711523,0.5428346399036016,0.48832331710834515,0.4870647303827733,0.5206619895392766,0.5428135479970133,0.52562128649902,0.5425769856184686,0.46646283840222097,0.50986602288629,0.4846531879200943,0.47409721508415636,0.5237796346088425,0.49214763508332077,0.5192337802226615
0.4977560546825423,0.5175450328312506,0.5155994628524505,0.4602227940886027,0.5075153773790734,0.5477098872582524,0.5729231676244232,0.5126076720429635,0.5751293314617616,0.5690227881585442,0.5426550081032657,0.5326123919079216,0.5194299257521409,0.5382976072854855,0.5713796266070775,0.5363807524455351,0.5272856295654806,0.5605410000291788,0.539917000322092,0.46875136067214995,0.4813623415955798,0.5229271759203011,0.5270334339928441,0.5007968864178735,0.5467358977460518,0.48788645874250725,0.5316883074259624,0.4819724961899283,0.47628861282623275,0.5185152806714093,0.5019269242207489,0.5312954758724362
0.5170175940139117,0.5147601614638718,0.5294737252515631,0.49034363683072446,0.5078542264888166,0.5606473161859443,0.5261448415359269,0.515570859198188,0.5738239922287018,0.5538823587886941,0.566094417695236,0.541184970982629,0.5072639232599374,0.5393913674702954,0.5504783956859847,0.5468843845643104,0.5405013919121072,0.5590698618948405,0.5234717515917534,0.4973020326948218,0.4714731372250956,0.5181500856362619,0.49869758095271605,0.47799155217642697,0.5289323088022564,0.5470143610574189,0.5432556264951444,0.49858618939961397,0.5022565910408893,0.5257494580690893,0.5454448895531339,0.5276390845569731
0.5263159311645018,0.5216286366790294,0.5289593300060812,0.5033700054740192,0.520992128406935,0.5580798308860002,0.5314977218266511,0.5081315850651145,0.5623471689801006,0.5479505061311515,0.5537276453102001,0.535665359255175,0.5055972557125553,0.5311478022805769,0.5421362207373548,0.5295535599324049,0.5054437022678244,0.5528716121529619,0.524962513526493,0.47594042219033333,0.4464015164093477,0.5180955506310676,0.4783471945673624,0.4729656864648057,0.51751916512213,0.5307674836377549,0.5479142736547417,0.5081162068906375,0.530803479589823,0.5229168094783583,0.5319536323032391,0.518955749849241
0.5204344828726274,0.4976541134289627,0.5109361148991896,0.5143304464799915,0.52421329216968,0.590011978755067,0.5146237116246013,0.49256840953597075,0.5553226414951121,0.5303024863265794,0.521855801421264,0.5349850029696535,0.5066538072348485,0.5142971943632184,0.5289236679443919,0.52985565251743,0.5088620946326379,0.5426082428078346,0.5187337802122448,0.455203971923855,0.42769926059575913,0.48448612380155237,0.44659440996011773,0.45557079853475313,0.49432039470750044,0.5525010089855085,0.5419437094267208,0.48122227934022743,0.5242722513443766,0.5048780528409942,0.5397762278677082,0.5259279343052174
0.5194286317538989,0.48602430961564475,0.5004797650812001,0.5174841674787299,0.5240506827490002,0.5904353037963183,0.5590052544179215,0.5073700772186455,0.5288600198145891,0.5489303572569777,0.5499957948556288,0.5281171208760517,0.47645229277226914,0.5338223598360904,0.5525191584735286,0.5173649977163653,0.518991006641229,0.5477134088241304,0.509215641530525,0.4755460427885739,0.43831418519349125,0.4903900365719898,0.4524209023508686,0.4480550637136064,0.48574348200499995,0.5429143911595392,0.5561899950005871,0.5048738812988377,0.5219171066635326,0.5069597604868789,0.5318139690384934,0.5468375575345696
0.517097874412785,0.49248656041075856,0.5308335875295076,0.5198811503682671,0.5075925682342733,0.6149414942064718,0.5420440610351013,0.47806607802879897,0.511288869441875,0.5505555111587827,0.5339635727961621,0.5091558683433207,0.44555661276191966,0.5126408357365532,0.5306158749011316,0.5043736054211869,0.5227123901983676,0.5318158996578265,0.5016624805420822,0.49525041198051944,0.4333457591625726,0.4754045792718411,0.41512854964346974,0.4478974479618616,0.4805532226570174,0.5290904043591884,0.5424764287086795,0.4950685084281343,0.5111178718867235,0.5155862577810718,0.5252592661879554,0.5458921131997757
0.5271246276379103,0.489292627004263,0.5408825851641168,0.5274742712824265,0.5293454960048657,0.6135295525952539,0.5422471906722245,0.47357699075778603,0.5046434112156735,0.5216503076220016,0.5517287019085199,0.5186691284520939,0.4435867540442255,0.5099467043980246,0.49856137526550776,0.48292079646492136,0.5058786605507279,0.5323346157015709,0.5108256237659907,0.49327975307002386,0.45937096878557393,0.48285177172358457,0.43033689996476354,0.44277455788100206,0.49631585390731653,0.5134296859446973,0.5500463369192721,0.4913645627597741,0.5184362699177664,0.5126923265309461,0.5462982258387034,0.5377311304430882
0.5001104545496311,0.48670510392817934,0.529168946561799,0.5245947628788747,0.5499824907338319,0.6121688997796807,0.5345314409359676,0.4587118858103024,0.48998877921673684,0.5250557209493235,0.5425042951838479,0.5017308938601082,0.4314549591285005,0.4691599296761853,0.4632752607170511,0.47905766671998234,0.5317637936638017,0.5253966766242472,0.50622140100508,0.4951521497932064,0.4842740714634617,0.4869990892144299,0.4366891083192271,0.4333365960983039,0.5223851186297612,0.5086493443433951,0.5425951205331668,0.482900287604148,0.49870830580733694,0.5172981382716082,0.5346790522933021,0.523217253348297
0.49322490485459963,0.49678712761743676,0.5087919545530526,0.5316130401440607,0.5468135754831877,0.5962381196315513,0.5444512753157669,0.4449388653225867,0.47889417319021554,0.5069618670528295,0.5295334820442655,0.5079205537721643,0.43602241710063483,0.48177443363648564,0.46356238314287845,0.4963002287173248,0.5447919541683608,0.5436854182504872,0.5168812657800117,0.49151899747198174,0.4814341394755622,0.47630879177305296,0.45573639058612925,0.44140755841780355,0.5342185033406962,0.5189516817310424,0.550255345175859,0.5012980918041523,0.5150628358821373,0.5209511780294546,0.5297041594227327,0.5081337255409619
0.5057913961906745,0.5084469449552488,0.5064482408978876,0.524546988465652,0.5513855630468473,0.5898312152753707,0.5380366103607326,0.4477468179258506,0.4539105041307578,0.5078354809206748,0.546450815967065,0.49439479157547195,0.4410874904392127,0.47523467866328817,0.464077448692293,0.506984263083336,0.5704085536899195,0.5386701477246232,0.5062319201390693,0.4967585470273778,0.4580340290923825,0.48215145535889015,0.4701749256746239,0.45504860829699234,0.5374737566666478,0.5199193511801801,0.5488397881261082,0.511559087096755,0.5419771288708248,0.5357092644062282,0.5322998772747027,0.48700440828010716
0.495831156087605,0.5086254028563882,0.5243190818689056,0.5265140640317926,0.5531041064268082,0.5841870486659281,0.5552996028814863,0.43945764745507915,0.4259457739484815,0.49722678562201866,0.5227039820909858,0.48782825323788404,0.42774537849982996,0.470551262850424,0.43271797958581365,0.5024307163147327,0.5704515976013592,0.5629930963235876,0.5097811113779204,0.492286713771672,0.45355276789542026,0.48868960347658763,0.4617685898980289,0.4659937170440283,0.5423802293336996,0.5082390321771605,0.5455288035424676,0.5055998952450624,0.5104201909609236,0.5040813085791982,0.5271899881456981,0.47494687587487383
0.4854796281081685,0.49293646670664043,0.4806228874037669,0.503846552737157,0.5113595266083582,0.5677569455191226,0.5652961543581784,0.43096630138546776,0.44458029706992697,0.4956999855479286,0.5162196330919838,0.48272565688797753,0.418610269815824,0.45344219640613537,0.4116527612984193,0.44368855506348936,0.5526234509853051,0.49688243726063175,0.4836271802365433,0.45761602887484243,0.4345929016513522,0.5148602797672082,0.4327964826215267,0.43678874929929495,0.5126979328693954,0.5003158671279874,0.5121815561771265,0.44555501856676094,0.49708612874099917,0.4581367624658363,0.5176322762551249,0.46551377330979415
0.47471444664633444,0.4986898154888401,0.45681967512831273,0.5035714496746571,0.5161602067519686,0.5639595121251186,0.5693336939796948,0.44735440034503193,0.4470528376882247,0.500055724047827,0.5348341638179996,0.48938113525367793,0.3939008867223652,0.4800988887044625,0.4573226007668428,0.46965640032193584,0.5579656225444648,0.49658473415538734,0.462773306632909,0.4772493282323864,0.45019541409308556,0.5056622681558345,0.44251451722438034,0.442574067135915,0.5101334687685029,0.5096321454053032,0.49230418925527203,0.39798818670494845,0.4717486128618968,0.4709106587863783,0.5252380453001643,0.4976541336792459
0.4770291969261486,0.5165504845045863,0.45549103905150745,0.5229002087552969,0.5082893705456001,0.556053896369062,0.5817503157595633,0.465712457599006,0.43398938811934146,0.5180185533501022,0.5304078222046913,0.516491361301668,0.4101323891739113,0.47365517773561266,0.4590075203929445,0.4563546142221132,0.5431383653129052,0.514491317020299,0.47685162669599357,0.47293853735237634,0.46632377228733496,0.5110277869123377,0.48648775362082824,0.4384020005688937,0.5147199263232054,0.4948006622236016,0.49373491223016086,0.38388882308142575,0.46323494421725764,0.47339262151291667,0.5181277315386618,0.48647501713433616
0.47737973836591185,0.5200767755112383,0.45654750745122397,0.48855644871772047,0.5111513036255703,0.5385083386531857,0.5703796460143484,0.44911033867526284,0.39636913855258216,0.5001037740395108,0.4819463917059102,0.4839439553841952,0.4622008171827147,0.45296417500548236,0.4381771093850766,0.41612468377316214,0.5153623495260797,0.5007168784034045,0.4852895704731086,0.46831608914541,0.4635372397078345,0.5160350124252551,0.5121197774179913,0.42976271026247553,0.49453413893453674,0.502209724803222,0.48574387607537284,0.37656063116269767,0.4731138458283158,0.48117193831697763,0.5174323228168465,0.48721575812685686
0.4525528713290033,0.5013353551351941,0.4310478986493198,0.45090210989182683,0.496460198782566,0.532491237459239,0.568140703750706,0.46954913788947955,0.38944560242272463,0.5161871346038401,0.49302322350740685,0.4999527282752444,0.469489181836636,0.492573843757437,0.45011858097062274,0.4471937210042096,0.5142679679569635,0.5131601254098481,0.47090358430872636,0.439686082570801,0.4506857739189373,0.5119884379069184,0.5028732955754956,0.43874130316514787,0.4744579795951158,0.4711848680543968,0.4610631073902747,0.3500034249925077,0.4457253223945506,0.4764817343881545,0.4968486174909244,0.4988736373165638
0.456019632169184,0.4963428200839601,0.41789307711895185,0.4554083125240359,0.4637350713076071,0.5269096372546017,0.5660806346996116,0.45942469254501184,0.3680175916056195,0.5258727102209559,0.5224474757359118,0.5051487953661906,0.4457767683483973,0.485335178750629,0.4662927537306185,0.4630618350757775,0.5250662288597511,0.5210924252524927,0.45795721058518785,0.4681912588270209,0.43261161359902,0.494024851050046,0.5086177325663617,0.4531481508269522,0.4631519620599026,0.48010420994030717,0.4607152981010818,0.3738378290852588,0.42885354145354043,0.47483202111808537,0.4797421562619509,0.4758068001184971
0.44067377977148486,0.47998802255810286,0.4010042070612986,0.4550838560501695,0.43739037122879293,0.4946915836426941,0.5478222914185886,0.42992020721094876,0.38817014359773483,0.5176446502102732,0.5417372524171874,0.5229944859015236,0.4683967956301044,0.4922405325326029,0.48315038389874665,0.46180742056831986,0.5127250983289174,0.5125162412438983,0.44890050713993634,0.4746428757546967,0.4577968381562565,0.48921003329005036,0.5069785948078237,0.448613448036193,0.45367078908175507,0.45323797819189887,0.4586248847196081,0.3687081962342543,0.43637147412340765,0.479751878659396,0.46857370040057783,0.47642483328195356
0.4560278124624283,0.5046817490910785,0.40546510810816444,0.4726044109457929,0.4473222645337981,0.5167993571816963,0.5635435227570699,0.44037352455229484,0.3871617270254395,0.5225241333449462,0.5192447196014462,0.515898483108067,0.4706331539753705,0.4724942905581875,0.4799757313218695,0.4475547977062824,0.5194311490701978,0.5070998370417348,0.4365777816910672,0.465957363496314,0.4478626504570986,0.5031399142212023,0.5231670643767266,0.46497083066402967,0.4538957748742824,0.4471690665250725,0.43671322564868126,0.3676657430204799,0.4166432124609043,0.44821090601979263,0.4727439607583249,0.49036974929179417
0.4562520322987917,0.5106301967573563,0.4144337780909248,0.4844447372686272,0.4547051792362478,0.5156291684044575,0.5603961235193038,0.4410508831494519,0.41225510125879433,0.5263015812514382,0.5092556144446618,0.5154406428873065,0.4684358318830533,0.47481754632108963,0.47885825811372773,0.44075597818986056,0.5023010599264133,0.49876820564895546,0.46301952794995044,0.46390123467114963,0.4482523833133733,0.5001599854370911,0.5319552960715815,0.469593035932638,0.4654753196209879,0.458358215009151,0.4587962955857965,0.3697637431815644,0.4387800506795757,0.4646434279930279,0.48681074756211673,0.4988129088801166
0.4607026608119709,0.5092084883827978,0.3862985517326186,0.49996236898456564,0.4501501793863597,0.49197337021421816,0.5522373307606104,0.45730959097819995,0.42767140735910847,0.5253022694419612,0.5150442302141527,0.5167012926874869,0.47741349856375276,0.4772064415755358,0.4753482241792728,0.45568052711071094,0.49616421318270343,0.4875647242888781,0.458609153238812,0.45219747460055815,0.44199815909748547,0.4701588691471373,0.5151866286900413,0.44400623763469727,0.44201588569224226,0.4634702620495078,0.4853809975247746,0.34854516889889725,0.46229252014200206,0.4746339817075956,0.47402592082840334,0.49007415936945314
0.509976334029951,0.5446387826239327,0.4019429442086528,0.49624131279392225,0.4802221425604901,0.5164436160702139,0.5396737781036489,0.48191198306864486,0.4348884010946921,0.5411415585763122,0.5187937934151675,0.5285185061329186,0.5070066816877895,0.48852346007104197,0.49875304253172154,0.5239806356111592,0.5428172254393522,0.5183359003048054,0.4515278415157458,0.5136753514572221,0.4497391854099086,0.4399651201265083,0.5443458513452196,0.46910604743769446,0.5052041704903312,0.47053427399153824,0.5386057716628018,0.3863288279684253,0.5056612262193596,0.5148389499622932,0.5044964887143432,0.47467938914927954
0.4769911925318649,0.525015773428349,0.4351734601890624,0.5196327961455446,0.45366720992604215,0.5156498922540966,0.5139550208414488,0.4702925277665844,0.41383085752553034,0.521445496991655,0.4962786499000309,0.4963452085694327,0.48608743607924626,0.47842269483473715,0.4790183631126128,0.535503373208793,0.5572909831431839,0.5282586501845741,0.4390173609740464,0.4811457436002351,0.43745241146346636,0.43129165327901037,0.5244767031970611,0.412180519479689,0.480919554224279,0.46294558843462097,0.5038886266856014,0.37371789435525615,0.47266819099296264,0.47227071171108265,0.49999326519397713,0.4473557825980128
0.47169469813700693,0.5048665603384156,0.4359706951699658,0.5074642760632858,0.45086354444199356,0.5181285280276019,0.4952722234206205,0.4417495264456925,0.42528258489940857,0.48786277786126564,0.4878502858151133,0.49120781530073565,0.4615963309873254,0.5051508755571709,0.47989127159804373,0.5225051765897817,0.5503836619351203,0.5059517661600833,0.45307456714528765,0.45605628056239406,0.4524064485980124,0.436558839244007,0.5107844875846567,0.4012440734449382,0.45471264323419835,0.4723531930468939,0.49992351443272304,0.3984809055594963,0.47777568909343865,0.4916696897925326,0.5018400617486688,0.4589276007432602
0.5035690376159071,0.5265669524943429,0.44882345782649724,0.5381428279479268,0.4728026102688937,0.5184665786690262,0.5091660067160353,0.45431955606538693,0.45344640018428084,0.5262427046701167,0.5212503304285637,0.46360749915668464,0.4732092916382983,0.5133892990262211,0.5239351929155862,0.5526210903057284,0.5800779426314844,0.536615195452284,0.5069421237395931,0.4786101040844827,0.49819796689818874,0.45893526201501844,0.5369370012753876,0.4239295695528711,0.46223818939809297,0.4835704206945066,0.5249508036049515,0.4052132760284633,0.4986460750361676,0.5032680187420917,0.527742740183459,0.4710238790736273
0.5184274259445006,0.5538416025272778,0.45902958221375884,0.5606063774171188,0.5008061145281917,0.5443015529623801,0.5014878419272922,0.46026540522822634,0.4288188356091873,0.5441877352015648,0.5196284230019164,0.4147413799055026,0.4517110802293224,0.4977752204435303,0.5114304015286032,0.5501236694621333,0.5424805326880825,0.4993367285252372,0.506013750475773,0.47659075509295834,0.5217197566205584,0.4653836672278998,0.5373748685631677,0.4511709903430455,0.447645990433305,0.5334634825059742,0.5285731192125372,0.3983730556681338,0.5063118696928933,0.5167927152441514,0.54731857336902,0.45428259206942134
0.5242435625692348,0.5642006658962397,0.45753329598663967,0.5656379356474851,0.5181875100476586,0.5409863370933474,0.4687230942847006,0.45346709598294577,0.412365086198161,0.5331071284065979,0.4829118619791664,0.3891660776480581,0.4006099128957939,0.49443885145702204,0.5011345478409088,0.539156368575611,0.5316923639585378,0.4872079480979988,0.47544310900790976,0.46162459214688784,0.5016837805262634,0.4508150943588482,0.5490322609202625,0.4113448400305523,0.4399956672272358,0.542298650128446,0.5329628824727741,0.3848044018899528,0.5312565101768858,0.525851441432487,0.5569607758528982,0.4700704243073788
0.5379391438339303,0.5501095643166276,0.5081967213021384,0.5768240735245233,0.5562637046446688,0.5780218797556936,0.4943039787533064,0.46583953567036174,0.40069062988399384,0.5153152343318249,0.4994343794226421,0.34601735134879247,0.40770693369739847,0.4815371134790912,0.4949070862688381,0.5394765391449774,0.5485349723346559,0.47811773427166154,0.46902328069789956,0.4686853258674207,0.5112938981833512,0.4575482720402558,0.5613397139872933,0.41483555724992377,0.45337078008851095,0.5533609895881729,0.5461882728273354,0.4202691087969793,0.5510646669461725,0.5281183825855039,0.5573864338622895,0.4959042238494924
0.5443131668921276,0.5775824947278773,0.51374483250172,0.5831525689827116,0.5576060477521276,0.5681114383131856,0.4764355648558299,0.47654854461803847,0.38913228105862396,0.5222680852566635,0.5096648575300284,0.3346557056948151,0.4079495814358264,0.4545050617708153,0.5040913232463755,0.5266347536678443,0.5536385645677274,0.4578471342309115,0.45544525127690516,0.4557135150686226,0.509066683824305,0.4553889908750216,0.563675263003462,0.42804654338736076,0.4587977542303333,0.5790048556503798,0.5651652910876823,0.437487124561291,0.5786676047993023,0.558405280585089,0.5674121041565715,0.5058264719858017
0.5424126071302648,0.5680995139045573,0.5094919747481685,0.5588452729364698,0.566906126456637,0.5834783698430398,0.4870835842947507,0.45596568611841765,0.38030517710932604,0.500174590160905,0.48043531165280956,0.3543397864835793,0.40022339546596625,0.4891517061418086,0.5006910758665077,0.519300250756963,0.5275342689627186,0.43667888647568953,0.4598750568439907,0.46037825414158534,0.5085802754414998,0.4407481082279366,0.5376902651940809,0.4246029471025013,0.4686979250681626,0.5695159341742537,0.5506666412586093,0.42471630422225604,0.554865529705562,0.5374481032104407,0.5738151094796379,0.5100262175679915
0.550763645607944,0.5691225670460541,0.5258686279093633,0.5709809636194751,0.570278974947199,0.595586045894847,0.49136845174343236,0.47981044394372024,0.3575640499449208,0.4903451163311782,0.47332017689946443,0.3524597327647838,0.3616723241443735,0.4577649618995751,0.4601867125480073,0.49490508034668734,0.4967677409305154,0.4350869949117605,0.48510619782971776,0.4733541396974939,0.5234470153849262,0.4805558281579731,0.5821550066689819,0.4624169863877642,0.512496761847857,0.5692466809963839,0.545002766089773,0.4648313923226413,0.569153863225829,0.5425401115953514,0.5821636847122229,0.5275964144800503
0.5752786653203082,0.5829170508994926,0.5381710776565195,0.5866877147343444,0.5759228293064694,0.5924313550914436,0.480161121968354,0.46475774448302665,0.355672060565219,0.5107178593389238,0.46006850740238525,0.3355311975148726,0.37439004867344244,0.44200361943024524,0.46373983426163173,0.4777005492216948,0.4805592004826469,0.4151818616471371,0.4917395421143543,0.4623934141597657,0.5265237095278479,0.5138251401780997,0.5753798720068658,0.48873466595179865,0.5212121742794492,0.5854218421203734,0.5654535161311082,0.4550900350307605,0.5862270887906252,0.543653729815956,0.5861178486155577,0.535678949924951
0.5857082893090055,0.5923801502413092,0.5375961983334038,0.5870935550164591,0.5917946862996578,0.6173737337715913,0.48167813763492046,0.48696448027816486,0.3877298975346741,0.512686904206988,0.4561180307603903,0.35510763998296113,0.42159576129101395,0.4327703896447693,0.47457986443930655,0.46526689781210384,0.46177595170401364,0.40877197402655857,0.5102673655171832,0.45770528867532245,0.5312744546387766,0.5568215746197462,0.5834192990996542,0.5024029093477685,0.5333045540111414,0.5953308472932888,0.5645811711935217,0.5087852741168465,0.588712713387401,0.5554241012182919,0.6042945113977428,0.5598822769443282
0.5745290717861402,0.5827770772926874,0.5244639207761079,0.5809455547417569,0.6031423812113944,0.5887160329987521,0.45833081717718366,0.5022826561082938,0.39494354385781943,0.5285758068723355,0.4611615550170076,0.4080812886020667,0.4551835104440062,0.4463585634500544,0.4746161949265114,0.488981593743399,0.49705334927174644,0.4365814953046175,0.5232795040154324,0.46940983018684923,0.5090508539169778,0.56869916252787,0.5952813466643794,0.50940533710281,0.5366116000879995,0.5888055136912218,0.5816669346051061,0.5054395018954382,0.5809115567476355,0.550768619363096,0.6079253777164075,0.5544839828779027
0.5801309464349872,0.5957004077393402,0.5192731333630514,0.5839582221091232,0.591152211163039,0.5912005573562041,0.4581612758541443,0.48838649984626903,0.42533901157318726,0.52966506540379,0.48001427836698907,0.4079263906101158,0.45468249134848443,0.4478590450737155,0.46020622112865317,0.4998573059958197,0.5109885764693292,0.4340110872946125,0.5245201120499337,0.4843358454867081,0.5225554790558258,0.5802694819250153,0.5805164036089586,0.4950180217414301,0.5479399222434296,0.586636345054057,0.580875910878388,0.5115814817006922,0.5686046125038559,0.5400918674414931,0.6069559463211176,0.5509694222616075
0.6010318916521395,0.5928340514356717,0.5086983627498166,0.5655674163199219,0.57061135711439,0.5870168191293389,0.48372735185132,0.49028531504630524,0.4714422196754595,0.5336387156213932,0.49987089762612463,0.43933873325853195,0.5201075663214516,0.4828205165957877,0.4988255645709876,0.5271899881456981,0.5375296656059518,0.4817661323015894,0.5552880715244832,0.5277229545327535,0.556439081094532,0.5904891544254561,0.5883674293878838,0.5159089897267114,0.559329746743541,0.5938882530476388,0.5811541961242641,0.5291288537996106,0.5899726753115827,0.558326666507882,0.5964903387196103,0.5701589774213746
0.5886853185316459,0.6077651318330054,0.46924990771014763,0.5816273845415841,0.5908188619992637,0.5874618985096334,0.4846633102950061,0.4993148692860129,0.4569555873919909,0.5119506188623424,0.4836755908550727,0.4440238442723943,0.5546641685452296,0.49224830483439674,0.5211180610611783,0.5425743220805709,0.5525041887800402,0.5109448772393894,0.5636932655520789,0.544189123051199,0.5672553477896093,0.5847508974630065,0.5899116714762401,0.5275670180084415,0.5639928010512083,0.5998709892374028,0.5599579477273822,0.5264130767006612,0.589611839778134,0.5595081279256292,0.5962232822933312,0.572734640364537
0.5785791118697103,0.6080309860021292,0.44609569675167476,0.585908782712865,0.6009714400788689,0.5987429346844078,0.4704240118000452,0.5062880475832637,0.4766887757270963,0.5042803356771518,0.47877449485637436,0.4571888744685567,0.5431248190087563,0.49269084408867786,0.5309384394029246,0.5524575612352522,0.5560275974998629,0.5244677546688701,0.5846370559992228,0.5481226481286535,0.5686335839246021,0.5837687734234194,0.5835962966034923,0.5379651878512212,0.5744612103049697,0.5861703723246176,0.5514222704440508,0.5122261265281657,0.5852301822136683,0.5587045622739412,0.5840598518711159,0.5519805734991029
0.5789172349815389,0.5867667770013735,0.45162015154829993,0.5684900384706121,0.5994815552076532,0.5820800868689988,0.4894658889416245,0.5011687563417245,0.4699812155105978,0.5108668175622108,0.5030555182881487,0.48694079155457926,0.5489724971350654,0.48520546430955697,0.5272068449494491,0.5652293174780445,0.5708083283677011,0.5705144465380243,0.5917527207076222,0.5501997621375645,0.5849228869311229,0.5843493916922036,0.5685363242992477,0.530099940354048,0.5688828139785161,0.5778933586550838,0.5381232003126327,0.49617406642454304,0.5795994132058396,0.5145617238917399,0.5897133878947545,0.5255382492976255
0.5879665371932776,0.5717666057179353,0.45006826493350316,0.5641941373700777,0.5971510171625003,0.5848165549420224,0.4846780023060704,0.5004402001799197,0.47489361453992734,0.5053244368482193,0.512873965326093,0.4997298095109363,0.5581822827704143,0.4965963190692688,0.519947647218894,0.5634270803724393,0.5684644482398392,0.573508610905306,0.5797863834181226,0.5279024712137157,0.5557880633725237,0.5834301673042441,0.58730009563511,0.5375387992355193,0.5857220250834951,0.549616450832463,0.5574727769002602,0.4794239306338258,0.6059252218375026,0.5039419305401438,0.5732753966640063,0.5121977778340332
0.5832201106012703,0.5436442995399191,0.42221663345829685,0.5542910849970751,0.5739181138319697,0.5868699254728318,0.4907360656650335,0.49997094999174463,0.48597691718519004,0.5066329195606484,0.5205957680207828,0.519773810543216,0.564771071232252,0.5149442457329877,0.5302939002259647,0.5585976187962923,0.5775152056504128,0.5890728387128631,0.5695332245927687,0.531099125037736,0.5675136834051396,0.5767505308181219,0.5755933922854146,0.5449932690678808,0.585736433533001,0.5476246819560252,0.56026789099081,0.4834446317934655,0.6029535394260965,0.5014770867321288,0.5710892999008313,0.5224719491383469
0.5632025798642863,0.5623901198601923,0.42312245066223503,0.5668603479607266,0.5591824907034123,0.5787445010060154,0.4636865408393498,0.5331172748188241,0.4697149515935669,0.4976247700409815,0.5263942670662882,0.5382684337183634,0.5567759770686406,0.5398105632332723,0.5491504400666596,0.5658046207758777,0.577761131712425,0.5809909777363041,0.580509834583117,0.5302895233901372,0.5780008696206989,0.5912932789298605,0.577065217625225,0.5633747198141238,0.5647181572901676,0.5454537465633237,0.5553832408474597,0.47387520473784445,0.5819819218968871,0.4978607138515891,0.5630122092049376,0.520462065900881
0.5499674653090671,0.5499069738084618,0.43924707787196215,0.5626110975266992,0.548880664575983,0.5761392786529375,0.4992668893331025,0.5238379403018455,0.5002239693282775,0.5082689887473774,0.5493909931133917,0.5511406404796442,0.5493937309217991,0.5697734285614069,0.5568940245330567,0.5926032381897443,0.6083586670386005,0.5615570474874303,0.5825112453750787,0.5585720554536552,0.5802976615128339,0.6074655556345604,0.5908892172048344,0.5552832341019549,0.5518578938087777,0.5559751144551266,0.5337466363876947,0.48448202333741774,0.5791161319783238,0.49789910831110396,0.555167308732002,0.5343207627136956
0.5377547135117935,0.5255169049146893,0.43546814394958716,0.5571122399366427,0.5533330447559274,0.5982340625039381,0.51770651860392,0.5273549257172012,0.5166054261202786,0.5315193152971204,0.5448065176944387,0.5645427565252156,0.5393760339114386,0.5727669718702451,0.5660006902291643,0.584221046055859,0.6151774316386881,0.5687269701741514,0.5950163223440854,0.5742311503664058,0.5866934469485623,0.5814867943378809,0.5649423610175596,0.5804574663251713,0.5380210552758502,0.5566557463069458,0.5464906221765296,0.4854359627642024,0.5690993909882636,0.5345259975995087,0.5534809045007498,0.5542549433142757
0.5361841798187452,0.5175910858991298,0.4462405512539818,0.549176482437121,0.5461605300572012,0.5754117446846119,0.4999061505772558,0.5331909691873665,0.5159407244327611,0.5257739639330047,0.5480357808260601,0.5935335364349072,0.5610231941663302,0.563322024500128,0.5585449856545776,0.5645095517265661,0.6086293000920979,0.5623679713862942,0.5956422124946064,0.5590857388155219,0.5641593380319545,0.5674634622744911,0.5435388211722934,0.5811807409321041,0.5488846525937141,0.559468653380607,0.5570440215990023,0.4659523070265569,0.5650993245739632,0.5220959428109267,0.544458774631219,0.5317039555198454
0.5090464479237614,0.5134112748510136,0.4611664125566495,0.5325135246418092,0.5078100798431664,0.5692229392717331,0.5006995420340485,0.5381068209587004,0.4943875143809743,0.5242784486068545,0.5312169673506375,0.5861133191419826,0.5904354224813897,0.575308001400754,0.533558749432558,0.5541348390721889,0.5813557745718286,0.5524845400829134,0.5888790585023851,0.53973592200121,0.543101864566461,0.5648607596199492,0.522273945711983,0.5799888641019114,0.5349818780160397,0.5480412203911321,0.5265416652883721,0.46987021586417554,0.5479016676233858,0.509123133463306,0.5205192906695132,0.5369205269938189
0.5032550848241963,0.5136733161296989,0.45500737605652214,0.5021528111571332,0.4444612464166978,0.5593497243446552,0.4887421840845953,0.5456842798391062,0.5095150581079526,0.549973559363838,0.5638409713057653,0.5745946181245334,0.5851422143144757,0.5478252452661968,0.5418400063724815,0.5768259743164883,0.5870912545820218,0.5546127918473172,0.5850050219402422,0.5407730156785041,0.5540153888925898,0.5534475380112168,0.5162077097589306,0.5673628268704806,0.5267276574498486,0.5237679762368084,0.5121414134295106,0.48117567904256625,0.5416229747331915,0.5116355302447555,0.48783258725765133,0.526270444535108
0.4887638042450545,0.5158831155805471,0.4111902708824327,0.522104463216873,0.4471198136795571,0.5439126162231964,0.4786348471985336,0.5255741814541247,0.4838498988504092,0.5293685887141006,0.5569867233235724,0.5610628296173481,0.5794953412672571,0.5030687223892746,0.5096757440173137,0.5678889412842665,0.564446174320867,0.49812018217712817,0.5630480514009214,0.5138227953496985,0.5434238232650993,0.524029210741693,0.5000048002088172,0.5368676504094861,0.49000546572843384,0.5323548304475479,0.5196654603351315,0.4572539214765415,0.5364879607374783,0.5273840433085961,0.49965917851658,0.5338049822284276
0.45943976164193295,0.518848162865481,0.40651038781563426,0.5005910579930293,0.3905590890225369,0.5651601988119009,0.5071136806590171,0.5057524421535325,0.46240034395636254,0.5153590797610018,0.551775846809377,0.5642573162114759,0.580917837872275,0.47455674015023036,0.5096066797940323,0.5478624116340232,0.5193828062877447,0.477308694203829,0.5390137395856142,0.4807332808746719,0.5304639260268815,0.5023362043256894,0.47444677693336335,0.5042320304601041,0.46452844935764676,0.5241803255831742,0.5044244488533288,0.4346247021497053,0.5263797051070854,0.5429614534920529,0.466227051692604,0.5317869776114161
0.4520008900237131,0.4966032645919269,0.4128937136983403,0.49391497944802065,0.38102968444425983,0.5651014788810299,0.5166513180375207,0.5123593663979393,0.4442639057588334,0.5295385366466074,0.5472610105825805,0.5358723784508486,0.5606839739013316,0.4731752392087896,0.5093937280497058,0.535588685185884,0.515989781314225,0.5110495628554944,0.5318067013543616,0.477086987816692,0.548173661678792,0.4869874202208943,0.4815120165640047,0.5057297890986417,0.46799260106552154,0.5363977126603633,0.47944069130293204,0.43913412376613986,0.5112226329685851,0.48695930690295397,0.4491707602146749,0.48987339166256
0.441892703958004,0.49841309800646866,0.4477316923341354,0.49764786815374973,0.3612898570247355,0.5738607545502176,0.48879566573831845,0.47839722328283446,0.40385951408202647,0.5347911409781999,0.5203337565792202,0.4959261855255684,0.5321736405147058,0.4284946253644708,0.48697267861640664,0.49454341972075144,0.47530868147542865,0.47905144299318575,0.4869033271141176,0.4470816508473429,0.5182545294044792,0.46063249078423946,0.4558352896125896,0.48565823181906875,0.44650508052104015,0.5430206510324125,0.4718334559228118,0.43213611756403336,0.5169325129741702,0.4800264921943876,0.44194666695706875,0.47476537869378316
0.45735727414459,0.5220348402821928,0.4611409419878903,0.4777843574189878,0.39115165116476935,0.5940994548764948,0.5073907194798508,0.4217191230212998,0.36355840052079375,0.519004554330112,0.5360815189115248,0.44492297886626686,0.5105374571213438,0.4023352150992367,0.4772529562006462,0.45996720653249973,0.45919271314152,0.446083903220276,0.4610210492192279,0.4356306759271323,0.4879044781319143,0.43285964070432337,0.43065169201333814,0.47619397989128526,0.4531654577027098,0.5365070020142381,0.45880870892919084,0.434646003129648,0.5154538466718931,0.4753719690097042,0.43678476075188766,0.4630969485237608
0.45956036925114097,0.5394712218429553,0.45971127700420134,0.4771086590774508,0.42446617978074064,0.5935688461782027,0.5068132559691177,0.3959233268807566,0.3368616700005748,0.4917154243929638,0.49822308415248795,0.42033417236174475,0.5058586258505771,0.40840184630549975,0.4537836853789721,0.4555346595769612,0.4271713866900275,0.4122967764842169,0.4213913612383024,0.3921030707133755,0.4475663895675476,0.4171211573963543,0.39135157172064716,0.4421914564640311,0.4368623553316563,0.5243688721133204,0.45751364879584233,0.4238336390502026,0.512855308593192,0.46108430939340483,0.41953222728957407,0.4318838723176757
0.43706180070703715,0.5284343571375899,0.4647575259650644,0.4652115876575322,0.4047091930370197,0.5914020399988105,0.5113395361185391,0.3922654903522453,0.31993092929159267,0.4909975971426172,0.4892504142280052,0.39659005847597945,0.5062864249207699,0.4028846696147823,0.4434797468868613,0.40950355174295683,0.3901812605209098,0.38407695486684573,0.4081492656033285,0.3430224409425115,0.42118934468661345,0.3906876170146577,0.39076219765056946,0.437014424506024,0.42363034295753954,0.5052172208673922,0.44894659725984176,0.440489839299405,0.4945754907642945,0.4622106034936397,0.37627603430810974,0.3713869920952325
0.4347827492211751,0.5179208121288227,0.4770768643695035,0.4751910123116361,0.4180138856903965,0.5990168400314891,0.5157203286539468,0.3801246287566767,0.3122346020427464,0.4754236967150748,0.4834880486163866,0.398997937305038,0.4896959049035023,0.38106556067290126,0.447841354047488,0.39947137625478135,0.38837832124229715,0.35868572973643287,0.37426966015347746,0.3217788502746053,0.41603263121344597,0.3684879421280149,0.39807749184099606,0.4448676559741933,0.3851202672117319,0.4870172070432476,0.44134264027863856,0.4500985376838788,0.45118639540133687,0.4746511976422826,0.3717283068947453,0.35190754533223156
0.40841574753820203,0.5129875118083584,0.4881550537926976,0.47610433171102395,0.4327322344485039,0.600879336052173,0.5229278498758277,0.35304695040588296,0.29204889161812136,0.4769293535526407,0.4892867962685764,0.39585698857784657,0.5127561262960485,0.4006734500995597,0.45914238981413097,0.40131859214631577,0.40150329652047684,0.3682339399208407,0.3705256190125396,0.3267795477352782,0.36659650763457746,0.36258904271423803,0.4170336168865969,0.42259259861619397,0.3817945512047783,0.47406831629469665,0.4508337131380154,0.4547361571149472,0.46168107300620664,0.47671823954371473,0.3677041488069754,0.2967862321785788
0.41663288736769627,0.516897651316193,0.49492642241183354,0.4948968684450006,0.5063626300380867,0.5925813998894229,0.5551019935971234,0.3271305511671896,0.2696452309417676,0.47975534449449336,0.46931298925636206,0.36361403771602324,0.5061672915491876,0.36969084478392333,0.4217722987720817,0.39258178608036937,0.38836771497806893,0.3438320424910328,0.36676856121494605,0.32409524312633164,0.35143033021839903,0.4112960284189576,0.4597527258480911,0.40520045282013034,0.3859782204346677,0.5037584565428983,0.487044802566111,0.46956138897571076,0.4877412136235349,0.535810770099556,0.3913222677790356,0.2969213754485721
0.4637980026627006,0.5028158150246629,0.5536796217687198,0.5361122007816495,0.5129967563212502,0.6041481018164249,0.6014789382927866,0.33940277815799086,0.27985884218273305,0.5387032734190492,0.516366877555034,0.4257768187824539,0.49584462570191706,0.4630315603093798,0.5009638223273116,0.43491986318887027,0.41936641131839375,0.3697975854575583,0.39805692526367636,0.3633161052288826,0.3591323789124877,0.4018883531772634,0.48150226833184784,0.4329724685926196,0.4071537679550795,0.494956833815692,0.5145897436432162,0.5155647038521792,0.5008544049662114,0.5393423734731716,0.4308240742839692,0.2914844947969391
0.5148478509684525,0.517332339008171,0.5831398163917437,0.5192050522358129,0.49674495907145555,0.6167364466925889,0.6272783644895781,0.34349499695705105,0.30126133057816185,0.5649032619199515,0.520306296165581,0.43315522237641385,0.47450446851913813,0.47463136494448815,0.5322475616910418,0.48068132974029026,0.4512138877220433,0.40016324003918213,0.41913750185586973,0.4134521652278455,0.4050713685617842,0.40541571685534517,0.505379754679095,0.4932441499283454,0.4369882509915415,0.5100352437779132,0.4874973250006903,0.5747329435216734,0.4591194819109294,0.5111542468382876,0.4245509128523898,0.29859036175182924
0.5155867689768876,0.5379405963699017,0.5578384130654929,0.5190906383450705,0.4929720252466858,0.6340289964207424,0.6352424337634601,0.3314875859478086,0.30520413457671547,0.5219431716362526,0.5095160218168109,0.4379707923212645,0.49312274833406183,0.44418164333744736,0.4921909475714644,0.49367039950366304,0.4662254271738067,0.4120901997465552,0.4360177640924949,0.42147679999914806,0.42506471033005017,0.42002970838771225,0.511181432344731,0.4706636568355538,0.44569210526829794,0.5085283905500158,0.5094012670290975,0.5672979312325406,0.48121178366513506,0.511316602050065,0.41761849415844465,0.3386826964823469
0.48115119505119175,0.5092468894121022,0.5550165058290059,0.5137166347416926,0.47144351430372317,0.6283418601629784,0.6412151125959,0.3474371446185567,0.34612179751715116,0.5116730814438286,0.5120424793262441,0.4560455472238621,0.5259912162165932,0.45186462729755666,0.4892031597528249,0.5358949666473873,0.5112955485866686,0.43388702277078733,0.45449002923268994,0.4346334235543997,0.42168356220702624,0.4519560230984759,0.5174741107988319,0.49529858226383067,0.4336180608762959,0.4502877234435325,0.46917445989495,0.521017623516685,0.44429045909648873,0.4714191233386033,0.3570332532737677,0.3492740722122008
0.5002309172005467,0.5436744714975101,0.552849283409253,0.5548271664984306,0.4990650087201605,0.6371452818835981,0.630853818561941,0.3611789006202497,0.38556418246550206,0.5298026789196169,0.518926692611323,0.501662894760956,0.531170938364273,0.49377274285822625,0.4989911661189879,0.5627295073678684,0.5413251687585364,0.45832481798291447,0.47277408546166877,0.437181269061717,0.42439569358404067,0.4530211785394215,0.4766460485828948,0.5005288061758002,0.4005885364202879,0.4032094520542019,0.4704072076463166,0.49556585354065374,0.4153882498633004,0.46019951917169366,0.37988751288691625,0.3327165169877379
0.5026109120999213,0.5385245131843959,0.5643285617510918,0.5795721847773438,0.499389111646172,0.640316303815813,0.6270674656975365,0.3897854251830904,0.4120588030358468,0.5618679164094433,0.5860399395671774,0.5385931344523055,0.5339269550393887,0.5378595743453906,0.5281874933538595,0.584837205732159,0.5621404387254154,0.5017212971095679,0.49685478037973146,0.48289211611801147,0.43787559353675526,0.4946916922559196,0.5038714079769194,0.5180464092249221,0.4110733077256937,0.3815460414849053,0.4524167128769075,0.4981888885424529,0.4186910132401922,0.45278335203176484,0.39203010940895444,0.3434637294048223
0.5150088551330058,0.540249731882849,0.5773909605384391,0.5622741856020326,0.5016913950400907,0.6660339451513845,0.618887325052347,0.38372512147175847,0.4088023462812751,0.5538322511875364,0.599429246577161,0.5479896172203842,0.5255509485204956,0.5466262900578381,0.5243687799089494,0.5780175665955172,0.5837097553557481,0.5165236448806284,0.4979714600339747,0.46799237410126787,0.4371260974814365,0.4725620150101436,0.5092721789892338,0.49829267044325115,0.41674332721777463,0.4240709809835503,0.4734498208927703,0.49755386266725404,0.44104146329687427,0.4623124048033798,0.4380877208312757,0.4248711990271298
0.5248755985727205,0.5230821863678015,0.6033586411544103,0.5672747480194233,0.49131776039284125,0.6695528090897223,0.6349934151410868,0.40338451924471164,0.4360030317117409,0.5606295108253654,0.5995159068984738,0.5183126772163275,0.5359072838950969,0.5227541946312645,0.493201073863984,0.5841402258782051,0.5931200108774816,0.5083430552243349,0.5115186244867258,0.49268053401194173,0.46691135962721964,0.47481090281418703,0.49099238185147764,0.48637205485931456,0.4534162083318295,0.4178084860070404,0.4735686954102317,0.507486016764501,0.444388119938729,0.4585527434985561,0.4364354664712919,0.4398927506124069
0.5198586617383502,0.5326000809180443,0.5927907326879961,0.5967693578569825,0.5094111963731801,0.6582287781284303,0.6312039186353241,0.4265435194936894,0.4278251544389797,0.5751348578969575,0.5727879579934179,0.537039444553519,0.511528364483597,0.5003657862458402,0.48143436176982785,0.564204809350928,0.580082553834857,0.49256381752874784,0.49316520067052494,0.4826125962797829,0.4851031798040419,0.44012480993388303,0.4706847121939093,0.4763956964643944,0.4383502308878408,0.3804655199470261,0.4405837298100921,0.48527862444413006,0.45354744969414224,0.4671288887386281,0.4436848885909092,0.4484881781593798
0.47627474293050603,0.5347008529395951,0.5691241050020951,0.5874707136708712,0.49606647478244925,0.6591040058844521,0.6267457300452359,0.41512235361133976,0.44904924185400047,0.5739954801773003,0.5826086048625769,0.5562531843559998,0.5307657089659039,0.5348552382547705,0.5068524929395469,0.5619721183881572,0.571100336887673,0.4927409554030987,0.47931158253215755,0.4712492617763475,0.4849256871148301,0.4306068712082084,0.4624723646497618,0.4986571991928205,0.4516811862302697,0.39429666944328967,0.4351930178494562,0.4671058053740635,0.44294127694637353,0.44051779444637196,0.44198055009190074,0.4507698653511175
0.4878735909616304,0.5483314576687387,0.5704427383402145,0.5761450898866334,0.4903701178012464,0.6344984534784376,0.6541354787836154,0.4055148210161312,0.4541564834801657,0.5965749695885719,0.5923138356121043,0.5466047620203159,0.5316195959407048,0.5447037340042421,0.5171135402840741,0.5861050887867207,0.5981007815691783,0.5254886430760651,0.49088655305330414,0.4815459252791583,0.4847749465660481,0.45412068157913404,0.45659647228728073,0.4896524759864644,0.464081455160376,0.3952511052614268,0.44937785592815016,0.4455060697255271,0.4310413883560675,0.46216045178470966,0.4358253919055154,0.43147311043068
0.5040250586462813,0.5395927979371795,0.5725626196482316,0.5699370414886363,0.5168619393029585,0.6184280994902567,0.6449288708550778,0.39942051093544917,0.45385467770556664,0.6018124072986087,0.6151637191200439,0.5468128853737331,0.5259143595621855,0.5364828525577866,0.5172523252900281,0.5913382960128489,0.610778349483515,0.5389158575223983,0.4769931734274476,0.48315416516999893,0.4843345198592338,0.4550991146229204,0.41517508323370017,0.5055549362338952,0.47124443415544004,0.4147665499321475,0.48660656175232114,0.45607510899458237,0.46563496228690665,0.4947461183916424,0.46829406476820534,0.46916515521925106
0.5223787404929935,0.5589530627154012,0.5401915185703552,0.5644749192280875,0.5328139884041183,0.5984620007759655,0.625515779671315,0.44264526501925033,0.4682705265589006,0.5880672091598155,0.6137244570622286,0.5656816797900921,0.5091042413170768,0.5447562588772035,0.5452514546299374,0.5690991081405986,0.6121880505348822,0.5299891750968948,0.4737345674043777,0.5015021041590941,0.4808506275451958,0.4594881966094107,0.41408844440882586,0.5197365527119316,0.4795643459890363,0.43167749445344333,0.5087085807856717,0.46997905650427635,0.5010067679849162,0.5204101519394945,0.4827837523210237,0.46334576163283314
0.5546775062948401,0.5901479410877989,0.5547557537363038,0.5645248724156307,0.5693548071549646,0.604728262942961,0.6105458587094453,0.43659864750648675,0.4738413836593426,0.59098007784979,0.5981234926641836,0.5885484134447544,0.5083974875373596,0.5735671119519559,0.5502925042322312,0.5801021429643887,0.5914890425184582,0.5471994070303057,0.5122163064178562,0.5314738210203591,0.4884597140666461,0.46832147051052936,0.41047174498365746,0.5331882314552829,0.5200811571165218,0.4551936166540942,0.5135101891366596,0.5486934743045625,0.5232076653092002,0.5422698260776562,0.5077260474758263,0.47483455651540113
0.5620634171179281,0.5827820072839669,0.5520475383075727,0.5559601013277696,0.5729304615412648,0.605904308691106,0.6019294657322929,0.4655495583333289,0.4842608621541636,0.5991696329009374,0.5935495392289221,0.5999378564788882,0.5113981740842652,0.5510785158847208,0.5757242162670488,0.5690682164467471,0.574106632564839,0.5539543996913544,0.530113251694537,0.5405926702655092,0.5028694480478849,0.5268659883259009,0.48142710279636397,0.5438271838943568,0.5726358756611455,0.4956271228362462,0.5308652459678893,0.5669708004867382,0.5436453840197534,0.5650842142838126,0.5308867527064558,0.5032165732992698
0.5528622997630434,0.5761272124720644,0.5557005899947839,0.548027624678631,0.568854851953717,0.5943672676742183,0.5754536824422347,0.469530927747924,0.4941764744203188,0.592419548314362,0.5772182377936466,0.5904640426728355,0.5076459708486111,0.548913937390033,0.5633653236369022,0.5822862649237048,0.5614372820638138,0.5518356657036794,0.53277007802055,0.5424358360185435,0.4877709134442516,0.5330610463260256,0.46045079932674393,0.5632739531551211,0.6019035816277951,0.5309414776600787,0.5536861710790227,0.5754512127207396,0.581783091366258,0.5853052740507335,0.5587267567429967,0.4897488590860417
0.5580354262305363,0.5841630622507037,0.5517213068764996,0.5478381891221658,0.5611874169445588,0.5606295518152808,0.5944026226793329,0.4817207529334893,0.48623187634479453,0.5933331306526098,0.5737418362785703,0.5789775471883277,0.5073574121970631,0.5421234151151743,0.5791803832060162,0.5903392621133965,0.5583467315849634,0.5632062128201502,0.5442581322811029,0.542874288569818,0.48626944819877493,0.5297269880150607,0.4525705906696412,0.5660457490406078,0.6001208559491825,0.5034871770595379,0.5571614643690803,0.5653692549118112,0.5650631091782756,0.563560566226439,0.5512218112936874,0.46806818149634477
0.5667883702937547,0.57746885074064,0.5266757991787933,0.5446286715284072,0.5676760235645485,0.5528413201485525,0.5729209648028293,0.487404829608608,0.49343788649350817,0.5888058057272959,0.5851022528608953,0.6071956322874764,0.48691168668426515,0.5333463970084774,0.5734284235769063,0.5762519332010145,0.5749172974051753,0.5696345070823788,0.5471678481933493,0.5407626751215368,0.507461191780636,0.5215642539596845,0.4818380868927383,0.5560248694394424,0.5729208153318519,0.5082146562252703,0.5370333553665766,0.5522996939080513,0.5732791499739563,0.5532908273085836,0.5438349681086492,0.49694746378809374
