Fp1,AF3,F7,F3,FC1,FC5,T7,C3,CP1,CP5,P7,P3,Pz,PO3,O1,Oz,O2,PO4,P4,P8,CP6,CP2,C4,T8,FC6,FC2,F4,F8,AF4,Fp2,Fz,Cz
"(0.26234583739704953, 1.4384943227453646)","(0.2560765631318904, 1.4665878285993335)","(0.30125610989806456, 1.4258315202236145)","(0.18600855423108478, 1.8484333071850259)","(0.2061937625386648, 1.6115904396124212)","(0.2917921679992514, 1.4285084418896414)","(0.2796400228436899, 1.4539616374394961)","(0.19476958230945082, 1.9277694600128878)","(0.11510453821520109, 3.053046356786746)","(0.21157843071250299, 1.8381907518507694)","(0.20680015711320698, 1.783329575163264)","(0.19902396842434467, 1.7356254780748142)","(0.16400279608737453, 1.9935819936778048)","(0.17990087247708972, 1.94292967186647)","(0.21085788712960524, 1.6860574051236108)","(0.22861926539494548, 1.5171499003443334)","(0.22271153736464797, 1.60903493503555)","(0.2075675665572377, 1.6202328376168398)","(0.1959373832990817, 1.650010904911013)","(0.22975828492667005, 1.557143375937451)","(0.21027257799780588, 1.6291946209256802)","(0.15844160820263695, 1.9373874127916277)","(0.2039822878291088, 1.7550134897036895)","(0.250794844066834, 1.5688008964444653)","(0.22946972285423586, 1.6609959718986753)","(0.16137858545095196, 2.1047154460407747)","(0.2494843553664653, 1.5263838932126168)","(0.26799925774486955, 1.478242035023134)","(0.26584629316664404, 1.5064361734625933)","(0.2823644435302733, 1.3967977667217732)","(0.23071016232912842, 1.512709621795759)","(0.20996484584489453, 1.5849902502225677)"
"(0.25286057308572363, 1.5007017727035041)","(0.23134914753862496, 1.6407092738843856)","(0.3064042970374286, 1.4338056942219803)","(0.17027423546542267, 2.0637177352184284)","(0.17631626692245125, 1.9056835349228438)","(0.27711802665702123, 1.4929796665686585)","(0.28581059261073766, 1.428145333922626)","(0.1969523807177946, 1.7836689232693441)","(0.10861835413128984, 3.257971079708386)","(0.21455438906282084, 1.7899629536501094)","(0.20201558913182313, 1.798568450085977)","(0.18743241233919475, 1.8300071632416701)","(0.1461362238195379, 2.3043520673006386)","(0.15683033180454398, 2.2753769156740473)","(0.1839504343934524, 1.9718653610220978)","(0.21833953679453336, 1.660170572516522)","(0.21306057564284148, 1.7429793150904545)","(0.20101031970821454, 1.722984893135246)","(0.1884442942690171, 1.7334482350455154)","(0.21358734660269602, 1.7300482276293088)","(0.20284500072371991, 1.741765915628607)","(0.15608189753032534, 1.9452434597970156)","(0.19701025740442638, 1.8348220099841168)","(0.2578997332945833, 1.5868279491662767)","(0.221810672562184, 1.7459130784849834)","(0.16556886346512287, 2.08472333667194)","(0.2501376148175299, 1.5388015353298725)","(0.27542899464930404, 1.4592487825499143)","(0.2668180791655094, 1.5085706710857454)","(0.2791756168214024, 1.4294581575076621)","(0.2153320378730528, 1.6495778182864265)","(0.2081672962500598, 1.6033820432198254)"
"(0.23395420171294234, 1.618352174892284)","(0.2256809283344912, 1.6731415764597455)","(0.29496372280491945, 1.4642025826580538)","(0.17721931450007497, 1.9991395126517497)","(0.14859475350584891, 2.302170010202957)","(0.2821868017966844, 1.4682768893884557)","(0.28612198439054715, 1.406536345852072)","(0.20081480420842057, 1.7410747338113215)","(0.11578546980939237, 2.8514007224933797)","(0.21079113285965748, 1.8119510935668888)","(0.20836648977873062, 1.7240389595767107)","(0.1810224424117114, 1.845418260269216)","(0.14296123247749554, 2.189750594241189)","(0.15574247881389372, 2.284798523457661)","(0.1846362449621183, 1.935726549588224)","(0.2208985094852841, 1.6550491756787604)","(0.20991928555237047, 1.7777821280997625)","(0.19769256457390838, 1.7790655067887409)","(0.18764216663023603, 1.778861504034062)","(0.21309308353002734, 1.7757400204419382)","(0.21080350624903663, 1.7686906430056708)","(0.15954362909579606, 1.9159098768855132)","(0.20253302505900686, 1.868680672160501)","(0.27777390702263977, 1.5006428199896453)","(0.2268125036119104, 1.7531250646816003)","(0.17180524802330782, 2.0917358285124834)","(0.23146173214001434, 1.671148186956948)","(0.26156743302372426, 1.5347657839768867)","(0.2580792321981418, 1.5539968202054935)","(0.2661569621742441, 1.5147683811871655)","(0.20236700246964703, 1.8140224987595812)","(0.19748468602640293, 1.6817283604668254)"
"(0.19354574686860113, 1.9054870879101018)","(0.21369735670798856, 1.7363950931895213)","(0.24007485462667064, 1.765475481712333)","(0.16750168445867006, 2.1004934961672777)","(0.1418957030905513, 2.360338262835373)","(0.281874044431482, 1.4728820091549961)","(0.25349094249948945, 1.521872927574119)","(0.1973868283404859, 1.767315478819776)","(0.13181115268106053, 2.503636421460743)","(0.211062745304782, 1.8547301342652882)","(0.20023883069858164, 1.811750800748011)","(0.17656138527285323, 1.9540285107041284)","(0.16674575598317062, 1.902833239247587)","(0.16570725694233102, 2.1437256285486375)","(0.19641898009739647, 1.8271861354797434)","(0.23053478192482182, 1.587999082294894)","(0.22104153229818457, 1.677972407540463)","(0.2140117192514963, 1.6413705778392165)","(0.19544336160798392, 1.691392422458273)","(0.20118537186773083, 1.8478089316947597)","(0.20699058347827456, 1.7569153434624172)","(0.17419793966339805, 1.7439626636880612)","(0.21058224816014343, 1.771378732978726)","(0.24820735510973596, 1.6515608248218596)","(0.20435241239537802, 1.951887467432328)","(0.16415908889303715, 2.1697074894210395)","(0.20194312037535916, 1.8793386725323815)","(0.21817406955176574, 1.8104932975294576)","(0.23710418082220952, 1.6715926560720689)","(0.236048796350237, 1.6775178830655402)","(0.18776326738538732, 1.897005605667398)","(0.20080255824696375, 1.6327476729346628)"
"(0.19726138559382275, 1.8280874359134869)","(0.2112466347510396, 1.7570939919771684)","(0.22708449981161596, 1.8619814963917212)","(0.1721808006104311, 2.063030783428169)","(0.15092201728236979, 2.248475923410279)","(0.28144628016968226, 1.475129074712114)","(0.2438249354696684, 1.6033275462266243)","(0.19180621474857829, 1.8582327118158672)","(0.16626470511559702, 1.98026870633279)","(0.21697222484555045, 1.8425253707281637)","(0.19804742850356072, 1.851078673278012)","(0.17952985977021427, 1.9121501963306022)","(0.19158498244002578, 1.6603052872550963)","(0.17353124271710355, 2.064331206616747)","(0.20155214539438818, 1.8219557667669746)","(0.2376205699870741, 1.6008225070404303)","(0.22480099997064348, 1.7029551175352293)","(0.21557562761345486, 1.6588087469559882)","(0.20827208776568376, 1.623635309614107)","(0.1997390938378513, 1.8714720193413013)","(0.21785815527313768, 1.6898329962651633)","(0.17913736563930394, 1.7606651683368666)","(0.22954191831229076, 1.6358391034316615)","(0.24341612844952043, 1.6776988574871199)","(0.20797180453264172, 1.9034166054247057)","(0.17056980727115784, 2.082473443726812)","(0.20315042291450072, 1.8197708410412565)","(0.22117917442827886, 1.7716686130386778)","(0.23503503808886747, 1.650287221422863)","(0.2335984638370638, 1.690595319681035)","(0.19495187500188937, 1.8264122134731025)","(0.19269588325705259, 1.702026395859194)"
"(0.19626787105916293, 1.831983624567485)","(0.2076990630849099, 1.7731836910700425)","(0.22333770301978337, 1.8859532651717101)","(0.17260699987571887, 2.0352342009070856)","(0.14751159241687345, 2.2840123259943335)","(0.29806559280129624, 1.392053878436483)","(0.23971700719721367, 1.649793115424968)","(0.18754949693945747, 1.860759030152429)","(0.16003558506861965, 2.0801323746680667)","(0.2119307805082911, 1.9102199648564069)","(0.19252682852092282, 1.8512644596306587)","(0.17029811825943264, 1.9814887251294047)","(0.18698336503184448, 1.7472351477616606)","(0.17002257369819246, 2.088803907508891)","(0.19820698712121887, 1.8537943158432821)","(0.22341691626708468, 1.7401062048271985)","(0.22983354162679442, 1.7252027413587352)","(0.20573146795901734, 1.7842893218760842)","(0.19959369639011068, 1.7054250475179689)","(0.19204628373177163, 1.9356277149448395)","(0.21472663949165988, 1.6992386900715442)","(0.17522093429495256, 1.831758881143229)","(0.22651912631233767, 1.6097587574544197)","(0.24320720216778513, 1.6403750284190293)","(0.19955278994660908, 1.936225792630511)","(0.1833510866098911, 1.9041849964126007)","(0.2030514845710203, 1.8186614601753897)","(0.21569266114948243, 1.7838070545041111)","(0.22613579550871263, 1.6738951685145322)","(0.21860011803079213, 1.7476350270839056)","(0.19037946714012088, 1.8485634884416577)","(0.1864056579986546, 1.7423736629192574)"
"(0.188733792379329, 1.9075191939108787)","(0.20205168074840227, 1.8449676813215683)","(0.22040369733273246, 1.9309290904932046)","(0.16211194751441174, 2.139322042627629)","(0.13470498777796075, 2.483216199947811)","(0.2935703382949728, 1.4146014022490523)","(0.22603647134240853, 1.7785301127949327)","(0.1836555892889855, 1.870023654674705)","(0.15816152300577974, 2.0873767180048324)","(0.2146494737905077, 1.8419563565877686)","(0.18573679120667116, 1.8606416816377536)","(0.1621066234996994, 2.0481474177296892)","(0.1880513132407425, 1.7323015362168326)","(0.17608028493004307, 2.0142291036982365)","(0.20890020756008024, 1.753837159074114)","(0.21908267912063148, 1.7609031099076606)","(0.22596748578718182, 1.736141569356411)","(0.20903738221253088, 1.7404506146351653)","(0.20607233860838503, 1.628692931131382)","(0.17876150635465132, 2.0117299904997052)","(0.20257898234462104, 1.7619262931164745)","(0.17929909905046915, 1.7659358166785424)","(0.23152793924942403, 1.538876408752871)","(0.24520922516954793, 1.5980046668769918)","(0.18680028221926942, 2.0580057766751336)","(0.17660068738303378, 1.983106353038304)","(0.19907921267622997, 1.8212857148584556)","(0.1979115763779467, 1.9374745932542485)","(0.23178126139808045, 1.6314261628525515)","(0.21442858697591252, 1.7873220292984824)","(0.17816347696446372, 1.9712023568525274)","(0.18152039620737015, 1.7404953796339961)"
"(0.18712173306946991, 1.8788842394475258)","(0.2161555936943652, 1.7552487283307248)","(0.20911793762428735, 2.006723083685238)","(0.17693750831384683, 2.001952208611884)","(0.13469951401088837, 2.474845827691794)","(0.29484396728630835, 1.4021364075988272)","(0.2271281762698588, 1.7932595048441327)","(0.17349381488567595, 1.939162922234724)","(0.145111418598172, 2.2695374008810787)","(0.21075844182435363, 1.8530198382609728)","(0.1808257317867841, 1.9153864312191602)","(0.15606329332295982, 2.1647340491359355)","(0.19191794908398313, 1.7468705806317486)","(0.1748746410679566, 2.055481741533804)","(0.21295778403710164, 1.7086535138508503)","(0.2187952690603907, 1.7876740105558988)","(0.22136803881381786, 1.7942371089226483)","(0.21191047584352177, 1.766451235787589)","(0.2063115584174647, 1.6844994068919288)","(0.17712872595761314, 2.0755444092782978)","(0.20053000849729713, 1.7928108569555286)","(0.17526523941211855, 1.870377489815815)","(0.22072045643294438, 1.633471637814096)","(0.24437494351753652, 1.596345348930849)","(0.17608215526942897, 2.1521112704085814)","(0.16660895365191858, 2.138916937351282)","(0.20693302001075023, 1.773213024175422)","(0.19174566040660118, 1.9780916931521972)","(0.22290324584619606, 1.6952086721922104)","(0.21496911904782143, 1.7843167439345702)","(0.17267098975556414, 2.0230577101097587)","(0.16721117934527166, 1.8498169982570802)"
"(0.18587711903134863, 1.8592113850428416)","(0.21794518510141378, 1.7532961783427374)","(0.20840459272359474, 1.9834748621773477)","(0.18921057143987904, 1.8499292990554892)","(0.1408012566642396, 2.3286179643239735)","(0.28969404853524244, 1.3920903074581337)","(0.2350078350658875, 1.7046163230937401)","(0.1722830545569227, 1.91955950531763)","(0.13325963241282882, 2.464116621115596)","(0.2067096305894192, 1.8810095708864447)","(0.17838848801972665, 1.9855916241061)","(0.146630080772362, 2.3304126117278314)","(0.18598193629888246, 1.8020484914471095)","(0.16665441099183617, 2.175570505782329)","(0.22095824277110382, 1.6653184341334748)","(0.2189398775868905, 1.789074373639803)","(0.22538056939886364, 1.7594145138212796)","(0.20162257214441384, 1.8571121884862125)","(0.1917109015365774, 1.8248639804594686)","(0.16418921176020768, 2.280050839733719)","(0.18189693556863973, 1.9743656792987112)","(0.16561287091489857, 2.014915388133118)","(0.16049162506796036, 2.193980661889453)","(0.21771112782044189, 1.7834195875080603)","(0.1503343124691324, 2.5092331037608093)","(0.14951693866972426, 2.4062521158763492)","(0.1955839952629336, 1.8634203930368949)","(0.17527746323260351, 2.175230510673224)","(0.2096816791175152, 1.7941903066075202)","(0.20625246594450863, 1.8584597414751827)","(0.17102220975862903, 1.9987029295303371)","(0.16287661077863047, 1.8949291225945917)"
"(0.1808216491380462, 1.9125817888156598)","(0.21295943825242347, 1.8001018574478405)","(0.20827508738519884, 1.9999082783039877)","(0.1649931708658777, 2.125792639357482)","(0.13527336924534417, 2.406848662808144)","(0.281754149211985, 1.4048440949634677)","(0.23267025087716656, 1.6994757813495873)","(0.17475573054495572, 1.8835483198351868)","(0.1358372636241749, 2.3703674434074564)","(0.21036896485941795, 1.8354968803741685)","(0.18023725452303907, 1.9451585196035581)","(0.144708060671207, 2.41270368913764)","(0.18793227709836907, 1.782280490622491)","(0.16464415784876563, 2.1913196362651908)","(0.22419752948381771, 1.6565819293140955)","(0.22103259246207727, 1.8236727775986585)","(0.22937700692702548, 1.7681542641069217)","(0.2021531140937145, 1.9023298774076025)","(0.19445095228363385, 1.837844002455784)","(0.16390568797178856, 2.295565181004779)","(0.18218600728343046, 1.9775126709142363)","(0.1742664109718722, 1.9381392606701582)","(0.1563956907850007, 2.260777703174591)","(0.20912116175269524, 1.8611881443632294)","(0.14300860278317185, 2.598669184761637)","(0.13990897721340176, 2.5870558301317863)","(0.18817116546251816, 1.9380549791055102)","(0.17393465744673312, 2.1768782098968087)","(0.21123811411345783, 1.7636093777836332)","(0.20588468859344805, 1.8477160772609085)","(0.16683362228863607, 2.0474034089598563)","(0.165443266338183, 1.9058680679865105)"
"(0.17703322518307074, 1.8834584124679523)","(0.20845785822356155, 1.820189239944855)","(0.21600563603920592, 1.9330482443359436)","(0.1545955214395356, 2.2706424507683693)","(0.1300896936965198, 2.506881181422785)","(0.27761842687712446, 1.4712572804700599)","(0.2420601523725259, 1.6030200452264487)","(0.15914321646798593, 2.0973716479064595)","(0.13801343288209852, 2.3384660985565193)","(0.2337347490265175, 1.6684006752070735)","(0.1869636132946597, 1.8937009661424316)","(0.14060680467274314, 2.4766165612022033)","(0.17967456166090337, 1.869155272800304)","(0.16163357977929005, 2.240075045822887)","(0.22872215044484237, 1.624485884599792)","(0.21645059372618597, 1.8564954365863962)","(0.2280197254316958, 1.784158316715393)","(0.19652687675251695, 1.9556238460603619)","(0.18400632858680985, 1.956630712657793)","(0.1559109480739063, 2.4421764356924625)","(0.16765624546320762, 2.186518591658683)","(0.16530848331153952, 2.062114110223457)","(0.14808778259661562, 2.3812189122078644)","(0.20713315090415466, 1.915163705451689)","(0.14093509045824562, 2.651489967241447)","(0.15118998055247151, 2.3868231300857183)","(0.183832568667695, 1.9480087074432795)","(0.16892726942740535, 2.1936919958216423)","(0.19898172335225628, 1.8178472507937649)","(0.19460434966260104, 1.920246749831243)","(0.15948763082035566, 2.1138302741477455)","(0.14925868497276615, 2.140003018913362)"
"(0.1761535878145672, 1.9395223968606001)","(0.21080892499715004, 1.8056372373450633)","(0.21643192655476726, 1.9156221169546606)","(0.15942472495236523, 2.1677506449025987)","(0.1291736866141475, 2.499063887436634)","(0.2748749797650914, 1.501243844113201)","(0.24386737255884092, 1.617564115670156)","(0.14846927435763582, 2.307654078873803)","(0.12403582000037146, 2.5728170971332283)","(0.2198935804739307, 1.8045917836369614)","(0.18813614672773046, 1.9465144757156654)","(0.13491613314659365, 2.571573639886859)","(0.16379453463509988, 2.041684815201911)","(0.16111800207824586, 2.2524248765764048)","(0.2325511951965736, 1.6133908981233192)","(0.2067768468023944, 1.95316144086766)","(0.22079322355996686, 1.850146479240718)","(0.19064733752281562, 1.9999450089783233)","(0.17173915200422973, 2.0875409107087415)","(0.15673372645387515, 2.4228625471594674)","(0.15932553487909426, 2.281471144341479)","(0.15539631514407884, 2.2283697708347883)","(0.12924163083731177, 2.723355235205553)","(0.20092341578493406, 1.9451550499231687)","(0.13563052004024387, 2.743140049389882)","(0.15103892437029334, 2.4190535427183186)","(0.18328228327076806, 1.9576063250495035)","(0.16697332527342004, 2.205716023226339)","(0.1987981804734776, 1.849828891116165)","(0.1915744321330544, 1.9464802255063738)","(0.15741503766130782, 2.141506541446806)","(0.13181057286225487, 2.4250611071077834)"
"(0.18053115360441613, 1.9338780482172144)","(0.2120998548167049, 1.8023397890444124)","(0.22459363243749925, 1.8157831740281345)","(0.16510732918080648, 2.055466411759584)","(0.12883312634150784, 2.405801855035181)","(0.27766040071854203, 1.4479087559058015)","(0.2969650150884492, 1.380891727767795)","(0.16391933151719387, 2.1350510623651267)","(0.1040099383894958, 3.2179529064913686)","(0.23917051261962224, 1.5742425568617338)","(0.18733670493632695, 1.9205917629655123)","(0.1310980659673346, 2.6727226346840505)","(0.15881020043301675, 2.1645429545135464)","(0.15109010065035855, 2.4194799312297537)","(0.21286782010410127, 1.7614823254771372)","(0.1967864815073057, 2.013184361567161)","(0.2133104606916704, 1.8759809688858855)","(0.18238137199343543, 2.053678208586727)","(0.15638486960250575, 2.2539724038830924)","(0.15068603251549414, 2.4177732343457117)","(0.1429268076917933, 2.4326339102686005)","(0.1450954135645717, 2.390728727152056)","(0.12052712898563007, 2.8617285260975813)","(0.19057165624984534, 1.9788764136523287)","(0.12737958387133977, 2.825159864755161)","(0.14543231383547886, 2.490152637613491)","(0.18106723729389979, 1.9636567347553167)","(0.16387087536480122, 2.208514629273732)","(0.1926119796365468, 1.8962700853844883)","(0.18219036055328913, 1.999945035917429)","(0.15383734014057954, 2.1150793456954555)","(0.1336748692281544, 2.3872738821124444)"
"(0.18735813566772513, 1.901142300222743)","(0.20326463327841188, 1.932593600926255)","(0.23495263993081064, 1.7689278624982185)","(0.1746782014959623, 1.9635169015746357)","(0.1336057997913696, 2.3467584314345964)","(0.2737302675301354, 1.4849362991139132)","(0.31681723401045764, 1.3279906926182525)","(0.1596838413449317, 2.2023566669114927)","(0.09444917207426161, 3.5297638124391697)","(0.23301297781543145, 1.5600183394750111)","(0.19430010711866083, 1.8330290936668503)","(0.1381426028691668, 2.517603478191196)","(0.14913463776667996, 2.3094526442955066)","(0.14344935719309115, 2.566932505123618)","(0.20361059907196288, 1.8473434140180127)","(0.18715910683975936, 2.143073430911122)","(0.21428230072431353, 1.9159207684413502)","(0.17233645884787122, 2.245851984633226)","(0.14459431281351345, 2.5276693821628506)","(0.1469698679767411, 2.5271085562642113)","(0.13355503041623928, 2.677780535578172)","(0.13850511150142333, 2.574311237907163)","(0.11367762700829775, 3.0775614310785038)","(0.19865811292474886, 1.9471856102281644)","(0.131679509821768, 2.6904988203383446)","(0.1509035535968519, 2.4163971030131823)","(0.19225237885556798, 1.8669631924815189)","(0.1634461956112959, 2.2308849493954637)","(0.19492943418247397, 1.915235777629309)","(0.18504241540476304, 2.023294613136644)","(0.1531639250216099, 2.1715933464722803)","(0.13786137856811795, 2.3349453777363967)"
"(0.16748024540882023, 2.160024980827076)","(0.18912018340104456, 2.0624259539225913)","(0.21459374174401868, 1.9284370277922653)","(0.14306200805509864, 2.368642260814488)","(0.1179982390823094, 2.587988678464281)","(0.27370277312576413, 1.4888876477214918)","(0.26967729687368774, 1.5471576786069208)","(0.16638258190811708, 2.0650787839784526)","(0.08491097709035479, 4.031961061444948)","(0.20655888742385195, 1.7224409643154963)","(0.17993154697887076, 2.011155316152998)","(0.1144938062384155, 3.05904929065766)","(0.13413886430569902, 2.5794687067242297)","(0.12474593016815777, 2.9573724615207437)","(0.19192870233135426, 1.9262259327922893)","(0.16477058394947353, 2.3604220364488184)","(0.18607325030030508, 2.163229744945273)","(0.15242366581278688, 2.497832581004366)","(0.14022735521604351, 2.590481892425133)","(0.14225735025579758, 2.6059199209378088)","(0.14219780480725652, 2.5896969512415984)","(0.1345978789807919, 2.6463027401985935)","(0.11621438512863184, 3.0241007590430047)","(0.19656930766632322, 1.9318512320213572)","(0.15471955876044313, 2.4817654853135656)","(0.14370622423996904, 2.5671992071552636)","(0.18062846024078663, 2.018528450680202)","(0.168509875839397, 2.1269329461439233)","(0.18656332757163516, 2.059137701220743)","(0.17847101067939866, 2.115172011904256)","(0.14036238136836532, 2.2928051190152603)","(0.13590793700717205, 2.422230532089155)"
"(0.16400154059401315, 2.202655497769883)","(0.1825514029635546, 2.149540433347852)","(0.19253309545138766, 2.1167156666328864)","(0.13059897750881316, 2.6973944313268707)","(0.11744181449609707, 2.6711045813081977)","(0.2640817461311545, 1.5458328779631905)","(0.253601842091708, 1.6455102178536012)","(0.16505183618321764, 2.112940772563825)","(0.08761075511122765, 3.8699494651134203)","(0.19745125013747067, 1.8142881948971763)","(0.17018629460540965, 2.147179452845049)","(0.10695437335281087, 3.292208315238072)","(0.1336881480497132, 2.625452225104717)","(0.12437440029927346, 2.9504674187052533)","(0.1880507092448015, 1.9394642349375208)","(0.15926495043627048, 2.3110082517267116)","(0.17372594171159086, 2.196111553928576)","(0.15029487434124528, 2.445499790504385)","(0.13821755270346311, 2.6212460459142037)","(0.1403210924630745, 2.546431800549515)","(0.1454149241175801, 2.5455565624181937)","(0.1311349477562002, 2.7394429531167788)","(0.11652666879487163, 3.023084167519652)","(0.19887377437383308, 1.9362944336456236)","(0.16199614661387793, 2.3219765009507523)","(0.13913689309086297, 2.613466972845898)","(0.18139310842309536, 1.9326676011437516)","(0.18390851821914256, 1.9511762104789152)","(0.1784704476352724, 2.126223151710775)","(0.17832426859272346, 2.122128106456168)","(0.14299848402673104, 2.2724318026190518)","(0.13409522029966778, 2.471033312995825)"
"(0.16611169011305973, 2.184426471572741)","(0.18936784465995815, 2.064976515896835)","(0.20077370034981026, 2.052178430556992)","(0.1408775116375548, 2.549303299171366)","(0.12923694325473484, 2.427644845050271)","(0.2614232362796707, 1.5417776582356952)","(0.2585611533155158, 1.6191788362560133)","(0.17664094008033365, 2.0271041039481243)","(0.08884299160900291, 3.7517602968386576)","(0.2301575964416664, 1.5907219854330383)","(0.19606993217802765, 1.9105951774874685)","(0.11388022855507601, 3.16900010889379)","(0.14020793059909353, 2.4712508050906394)","(0.13219552820941696, 2.84861231812746)","(0.20062794765003564, 1.8791669953587218)","(0.16665334340128568, 2.2475665467592005)","(0.17677621612892389, 2.1693685992692124)","(0.15116137983350852, 2.436296977811252)","(0.13677119241185057, 2.617840664721638)","(0.14541712468565482, 2.437285545008871)","(0.15018834543450568, 2.4555806455081615)","(0.13029078773548083, 2.7012033583800594)","(0.11181699522653533, 3.1220177776444196)","(0.1887024800114455, 2.0129023697945683)","(0.1573937527788689, 2.361453809002203)","(0.1350002771181251, 2.6243290211098715)","(0.17387464377160403, 2.0093363465278755)","(0.15975207749708942, 2.2807127691725024)","(0.1729088464625651, 2.190734058399656)","(0.1730921259686905, 2.183932829773281)","(0.1444477160634815, 2.237368263283028)","(0.12776216465848114, 2.603238746957909)"
"(0.1666890752803799, 2.2001203842538177)","(0.18313145937853006, 2.104842033181891)","(0.18767008883163944, 2.205284026383842)","(0.14198318740046653, 2.575990385128252)","(0.13405989946520028, 2.3237539582802795)","(0.23629846404007454, 1.6862680746763352)","(0.2590622884828411, 1.6189617279504058)","(0.18319796311576683, 1.981594321647409)","(0.07911493567919126, 4.194019009854289)","(0.2264035556359593, 1.6710400858785572)","(0.18392869148963226, 2.0944044416591723)","(0.10992389632162924, 3.2885985983451107)","(0.12467169669091138, 2.7268574705784303)","(0.12630038686759942, 2.9837354371608726)","(0.19087490435029375, 1.9783902646061828)","(0.1720532597225804, 2.1399089364753294)","(0.18270870276993625, 2.0659210939792456)","(0.1468967080232842, 2.462043569733744)","(0.13051421957557174, 2.6874407077838556)","(0.1437270120829352, 2.4257992558917563)","(0.14804212246109008, 2.4822187012179335)","(0.11590149930079734, 2.964712320397562)","(0.11076933847289286, 3.132691158307458)","(0.19527861518927964, 2.0350184156076128)","(0.15592625067838264, 2.4037910985422593)","(0.13516182698496507, 2.5861379707786343)","(0.16338393690617023, 2.152462639030073)","(0.14376222099152042, 2.5141457097752915)","(0.1637494959680799, 2.287201183220679)","(0.16382591479026584, 2.304760188886613)","(0.14157659106843118, 2.264360871714142)","(0.13073448927923575, 2.597835781059475)"
"(0.17809281374689134, 2.1013469772278595)","(0.19015370504777224, 2.0108198650944593)","(0.1778304416300291, 2.3255068179137566)","(0.14455138125407072, 2.588530071454993)","(0.1316582002606068, 2.3974961466552207)","(0.22364527720993274, 1.816431148638707)","(0.24506906703041065, 1.7095847132919486)","(0.19556005152879352, 1.8910529571443309)","(0.08096479464717887, 3.9767267625353977)","(0.22994731839088903, 1.6489714197367413)","(0.1725668309674414, 2.245659071539612)","(0.11019976055524229, 3.2511492726588753)","(0.12282884976203039, 2.7880931728671072)","(0.1258478325182197, 2.979172160494666)","(0.1788853372267168, 2.117341862936254)","(0.17538222291572644, 2.082494372234125)","(0.18930703899235668, 2.0121939039697803)","(0.1546984814937209, 2.349370410841743)","(0.1349400287751838, 2.6405759200279424)","(0.1549376067957895, 2.275045440301989)","(0.17260911926992475, 2.1847341480627094)","(0.12590590381647185, 2.8237382852031776)","(0.13544242575824977, 2.6448265664139363)","(0.20358725000982908, 1.9517234515316346)","(0.1773793813041638, 2.1927276036457055)","(0.1626926091608975, 2.2159948226218025)","(0.17433746090739896, 2.0318168919114346)","(0.1405068786560222, 2.6667394928833823)","(0.16221575642382274, 2.3027838243028107)","(0.16483663565995452, 2.2435591202685403)","(0.1468916458764718, 2.2666798995174653)","(0.13706265124420383, 2.556201301030697)"
"(0.20895637479695878, 1.8027552798253466)","(0.20620648075655643, 1.7950201138124244)","(0.1590571163366565, 2.578064736086661)","(0.1667402209466878, 2.24917666604508)","(0.14378336072362305, 2.253498558552932)","(0.18618445065434633, 2.164681215723989)","(0.22603116688917196, 1.85235430895364)","(0.19859157530296037, 1.8736827740005604)","(0.07201050878477332, 4.485388506482733)","(0.22404322430789944, 1.7303718949818798)","(0.1711674457797866, 2.288762809600805)","(0.10550796317895113, 3.4061412742873483)","(0.12302365573197882, 2.7969851645678063)","(0.12551547873683896, 3.0234178224481405)","(0.17885225192637164, 2.1490575331993105)","(0.18750086550727854, 1.9799262054695768)","(0.20386457438502617, 1.8693350066203651)","(0.16561519509721723, 2.2041928804673288)","(0.1376970105309989, 2.5850300571063443)","(0.15633748695235347, 2.224727515854887)","(0.17183970161894857, 2.2192170689118647)","(0.1301464536215449, 2.748608417615241)","(0.15736958039075763, 2.328958819987947)","(0.21980274289735854, 1.8149739076210538)","(0.1971241609614948, 2.0603022386676484)","(0.2010704461819687, 1.8427400982815947)","(0.1851608690765996, 1.9851762550611534)","(0.13686862062452532, 2.833557062068734)","(0.1427122224790801, 2.610635795332841)","(0.15340524514576853, 2.420962467607048)","(0.16060387986259833, 2.135940634067116)","(0.13670352175120784, 2.572340142961768)"
"(0.20330448942964943, 1.9151405316346004)","(0.18237610094363604, 2.107624377616702)","(0.14582008290540674, 2.8370205035591525)","(0.1599928682776402, 2.3297096034689835)","(0.14210083351188374, 2.323590129006097)","(0.17887461055193254, 2.244423419607793)","(0.22248707219199698, 1.8887546290173731)","(0.22835069167897434, 1.6710534936083412)","(0.0693661194639598, 4.527222033217053)","(0.2274679786675752, 1.7179649473090084)","(0.17691597836245582, 2.2740285897994665)","(0.10719983756853378, 3.3908922403350665)","(0.12504028834299744, 2.7657262206889515)","(0.13128407511300252, 2.9906449255252117)","(0.18953947682396094, 2.134812530298693)","(0.17694709481122914, 2.1130148221226546)","(0.1999325548134767, 1.8834888565658305)","(0.16659353108940275, 2.1926268569063403)","(0.1405827060128839, 2.5884748314147137)","(0.16146225028009567, 2.1883337779032317)","(0.18603894687327993, 2.076979745470917)","(0.1323590372221094, 2.7801972813169415)","(0.15801220439469926, 2.3769919391613707)","(0.22488278266823528, 1.785684044693123)","(0.19209705678087016, 2.122176024585984)","(0.1939935693709603, 1.9363659336335197)","(0.1765585008699368, 2.1580945646807645)","(0.1325235991851416, 2.996993734002184)","(0.1362023806522261, 2.857231545755694)","(0.1566619636066675, 2.5342234509880295)","(0.1673073820552623, 2.13391219136742)","(0.14231095471971375, 2.4974074831794333)"
"(0.18964979517245403, 2.0139879787721595)","(0.17283471515472476, 2.200505969341631)","(0.13607386924433476, 3.0475593796959615)","(0.15393206086726435, 2.44950823287386)","(0.13761365611641846, 2.423659670654436)","(0.18083941328177297, 2.233496283858088)","(0.2188557647920008, 1.9396132057514623)","(0.24410570330021175, 1.6193571455796731)","(0.07541248451145831, 4.325445954028214)","(0.2370574475948791, 1.6788285850095859)","(0.18003457610688128, 2.221994352981597)","(0.11403130845590617, 3.2298808048907266)","(0.1335086256316718, 2.6627226752806346)","(0.1402201967514126, 2.8065500155534773)","(0.20731541315592678, 1.9440293829716166)","(0.19839037424370984, 1.917753721427224)","(0.2206254917207367, 1.7234750605616829)","(0.1793971600714697, 2.070800197105267)","(0.153419140159563, 2.439219566417691)","(0.16290040443790768, 2.1751437061050893)","(0.1956882710694529, 2.0011644569711056)","(0.13546616425708893, 2.7644356434617996)","(0.17720083205298054, 2.1500215751111216)","(0.23859713491726636, 1.7226108488765877)","(0.20021814453936163, 2.05772054553547)","(0.18551308920886106, 2.055716725041797)","(0.18131785337735248, 2.1261876719187542)","(0.14302937887689707, 2.855557711064722)","(0.13344907096370034, 2.957437193823387)","(0.16193710715811732, 2.5270182952401634)","(0.16834719134307766, 2.1724976388600212)","(0.14917300053897029, 2.4228915329879213)"
"(0.1802052038410867, 2.0749629989621226)","(0.17734928442569659, 2.1070342557354054)","(0.13121749853305334, 3.2172242214247486)","(0.15061772858239938, 2.4886686179901463)","(0.14192189712326783, 2.3818812908278413)","(0.18090255212945558, 2.267836845612751)","(0.19383729785691808, 2.179441012347267)","(0.2475578003015031, 1.6244587618598172)","(0.08512317493487036, 3.8763335888754327)","(0.23238291363119776, 1.7445717269004595)","(0.18163883189021282, 2.231384753303303)","(0.11334307756567459, 3.2831450120454533)","(0.13386712054069358, 2.6659832223137534)","(0.1463722599500238, 2.691064426402805)","(0.21809461933821578, 1.8571432513927886)","(0.19910646918940977, 1.927358445358241)","(0.22212978770248862, 1.721884629975991)","(0.18568215117003428, 1.9895579786405164)","(0.17377023618950332, 2.1232576313976623)","(0.16402866880737862, 2.1213221665229547)","(0.22679395812997222, 1.719045497248643)","(0.13726391829370163, 2.733101308462311)","(0.20292845266023077, 1.905085382369897)","(0.2439832478061956, 1.7141630542964277)","(0.2036912949087315, 2.04522465534237)","(0.1724164293115442, 2.2314902847526175)","(0.17434190027638385, 2.2067103881722376)","(0.1430442391818058, 2.8827609534005605)","(0.13452647310014654, 2.95802048996496)","(0.16230375591320265, 2.511330751633088)","(0.15693510637214295, 2.3040518146491884)","(0.1494110279319549, 2.4466433533911705)"
"(0.20720873205649487, 1.8070621173999921)","(0.18549480707664173, 2.0447170784172846)","(0.1301720957190118, 3.1693175232854625)","(0.16041060903446044, 2.4050397634695724)","(0.15736272305862894, 2.267197873468978)","(0.1811775302941125, 2.253047763978355)","(0.18751391991524244, 2.238339231373888)","(0.2592669641947079, 1.5675094062571258)","(0.08684731436568979, 3.86458228582442)","(0.23155314524799017, 1.7702364396028256)","(0.17928986282004267, 2.2714218073447277)","(0.10987277980067678, 3.4323606447042643)","(0.12384176678844784, 2.9070415182526346)","(0.13826220450996313, 2.840056810287354)","(0.2115795784137101, 1.9145602417290317)","(0.2013906258050359, 1.9187998188081214)","(0.22066173610601914, 1.7349848942230317)","(0.17233075314573199, 2.1371901976834407)","(0.15413991203222638, 2.3837040998044916)","(0.1494156395481115, 2.309527160784821)","(0.18193753665697787, 2.1166882786634913)","(0.12410367298296412, 3.0265401398046405)","(0.1751943264227396, 2.169898089987813)","(0.23105674069484172, 1.7894613313480328)","(0.19238237479965065, 2.15893919522862)","(0.16312162478580186, 2.3438373793612137)","(0.1768589614107345, 2.1731470051605206)","(0.152135796444888, 2.706313758493203)","(0.1404058243376472, 2.8104414007650154)","(0.16659087892676763, 2.456697180498619)","(0.1672058470309488, 2.182625642152435)","(0.13929192502389695, 2.64492321573243)"
"(0.2186904853434667, 1.7372452825707094)","(0.1984292912450309, 1.9317398750380437)","(0.13767177421232235, 2.9818390343045333)","(0.17385676281031878, 2.211337724074783)","(0.16360260396221932, 2.2143709920574004)","(0.18388619839618703, 2.2031457428642685)","(0.20227198935155716, 2.0696473998153775)","(0.26356907595676676, 1.5552693137275735)","(0.09001743521153772, 3.7279334122153682)","(0.24744967302023482, 1.6664095892746422)","(0.18704237747517524, 2.169896087935929)","(0.11957114489502235, 3.1782861486080525)","(0.131097018318729, 2.7323170506251597)","(0.14791342310313715, 2.656373601756316)","(0.21388799369983305, 1.9017319842596272)","(0.21304946219796628, 1.800827610574308)","(0.23021863620936595, 1.6454703293911168)","(0.18113880996558757, 1.9988003892692512)","(0.15573469873133927, 2.2852141515105475)","(0.14918047303792334, 2.21617261560115)","(0.16867309049154924, 2.180924934816292)","(0.12913435471809742, 2.872473422027846)","(0.1770524724937269, 2.1311290534488068)","(0.22173752854263656, 1.8772415593923955)","(0.1888072770043642, 2.1948923874002726)","(0.1598420448667287, 2.3903017421865558)","(0.19266681856942144, 2.019361913488484)","(0.16693498955030212, 2.4982316685838737)","(0.14067002672855114, 2.82837835475521)","(0.18222495165128974, 2.2550855816813278)","(0.18345636288704645, 2.0587087942359994)","(0.14305073533188511, 2.5423904276163762)"
"(0.21485390114445935, 1.8207965413122162)","(0.20180423647752463, 1.8700209356692912)","(0.20152063081280847, 2.0851065001660345)","(0.18639121217886928, 2.0672807597247087)","(0.1641778706532107, 2.212084355696303)","(0.2096985925542903, 1.9307733062183021)","(0.23635620855005496, 1.753501564392813)","(0.25664630525695603, 1.5852647590178923)","(0.09352983641071734, 3.6891652664736414)","(0.2612675070542164, 1.5574987444965378)","(0.20774239941121483, 1.9285143521404424)","(0.13958700442893165, 2.697437726795594)","(0.131218241085878, 2.720450041857112)","(0.1532624310434118, 2.5974537200274597)","(0.22345847723314094, 1.8401532695913363)","(0.22689998012622237, 1.71103565427679)","(0.2361114897723966, 1.6018412650449223)","(0.18390262932070606, 1.9745836998472854)","(0.15934444073765086, 2.204345686817523)","(0.15418467831083105, 2.1216053639994668)","(0.166285787058702, 2.127457797883341)","(0.12478499228178327, 2.9538223892182796)","(0.17291359939041126, 2.1544792340311387)","(0.21812876651191943, 1.857378322251256)","(0.1916045754930858, 2.1577206889859197)","(0.16294699849180166, 2.3380971588234467)","(0.2008392751705964, 1.9548831194596383)","(0.17710997989937374, 2.2940700129158444)","(0.1437331217698395, 2.790023785284861)","(0.19311426825350173, 2.067479559400056)","(0.17624442965313694, 2.1300456145863476)","(0.14381495913580264, 2.528249620415668)"
"(0.21594191689262568, 1.8019573119798462)","(0.2059146972534314, 1.8048005998862529)","(0.19213569912255024, 2.148787087645039)","(0.18213562448001377, 2.096924825412829)","(0.16844766006090275, 2.1538776021487203)","(0.21421723254206487, 1.8854626294675556)","(0.24675217915969208, 1.6838896640459193)","(0.24989333541952896, 1.6003239324021907)","(0.08353931575429478, 4.202471547932334)","(0.25167986583792673, 1.614980463595677)","(0.20127227491227756, 1.9782248045234738)","(0.14190970094475622, 2.588391646493182)","(0.12625397745921407, 2.8297402108053835)","(0.14611668870897992, 2.6496647105644233)","(0.2297992245216208, 1.7417937224084306)","(0.251748317508677, 1.5114554598150447)","(0.24973517315789434, 1.4909506752471944)","(0.18689922228666916, 1.9095687821954332)","(0.15833172631111284, 2.2357170533877126)","(0.15632301328124157, 2.0821250396330115)","(0.16472542658293785, 2.146012040709916)","(0.11736074163755336, 3.201190822124838)","(0.15734832916627797, 2.4135133726536595)","(0.21553131952448246, 1.8953104097075424)","(0.19652413209243697, 2.1275618261278306)","(0.163278611469724, 2.331149184643514)","(0.1964642047567961, 1.9820354619312606)","(0.1772371874636044, 2.2919083143711947)","(0.14504075923133405, 2.7622653045877015)","(0.18696494429670518, 2.1291281278978373)","(0.16220717028939644, 2.298363110115596)","(0.15385108399644523, 2.338351735717851)"
"(0.20910100668619794, 1.829858923093297)","(0.20993758815074204, 1.8035650305143842)","(0.1804963516596306, 2.2485695667691714)","(0.17780691819236868, 2.088080288604201)","(0.12976186232668577, 2.796326622077268)","(0.2019229592282297, 1.9950921182076202)","(0.23299852972711568, 1.7321883705206085)","(0.24911614184794634, 1.6056442740343786)","(0.09464357220966467, 3.646129054766169)","(0.24264541784781443, 1.6644977132250394)","(0.19862644100176083, 1.9829192131208269)","(0.14900128303765806, 2.3772435086582466)","(0.13272770028402234, 2.6878898087879484)","(0.15632688971667677, 2.4669338598254336)","(0.2336886258046617, 1.7342995838791848)","(0.25287711579296546, 1.51041440134604)","(0.25141518636275606, 1.4870007490513653)","(0.1925121488742897, 1.8580866664375641)","(0.16345472304017292, 2.1691937539929276)","(0.15850541671596294, 2.0696871699926227)","(0.16679316474022082, 2.1110382708873487)","(0.12338981711812896, 3.025745565147728)","(0.15035429399370034, 2.490355464235109)","(0.20114956949093202, 1.9515732859668002)","(0.18224823551769265, 2.275091396901836)","(0.14581105222111318, 2.594795811054387)","(0.16173541987871817, 2.3429543468398686)","(0.1625594283474566, 2.4755668175736685)","(0.1333461976498607, 2.996111493655598)","(0.1598568552159608, 2.455251810562023)","(0.13952035956378236, 2.6495731269423444)","(0.14621863165798438, 2.4322119226379395)"
"(0.20582081575869582, 1.8598046918495426)","(0.21331713012765224, 1.7772466497613844)","(0.14597355286979133, 2.752996328322644)","(0.17311815793909044, 2.125878786129864)","(0.12859481618204163, 2.813326343428388)","(0.17490445264960544, 2.276923411473485)","(0.20851641176234875, 1.9397999790158371)","(0.21484649533309028, 1.8511479415454906)","(0.10309732154106295, 3.284270848101741)","(0.22252412498965873, 1.817338930934986)","(0.20170109681501192, 1.9263245561689457)","(0.1543416710248392, 2.2422073371125846)","(0.14233797317239658, 2.509897452414178)","(0.16418468511175724, 2.3326493647669575)","(0.2364217555433322, 1.7081026379902804)","(0.2502330073005899, 1.531068164842535)","(0.2485830049996591, 1.5084769253845114)","(0.1952086244781706, 1.8404465895575484)","(0.16945609286311328, 2.084718970081358)","(0.15980725074630117, 2.0345319279325254)","(0.1590864064813543, 2.148946922533923)","(0.12371302662998182, 3.0017100971974036)","(0.14681755509945354, 2.523107403667246)","(0.204320286394188, 1.9258270657832295)","(0.16592740000003026, 2.4515083865617306)","(0.1358228657498195, 2.740414001270744)","(0.15893462026816366, 2.416162627709008)","(0.15725232811461748, 2.517626941014939)","(0.13602998281596942, 2.9265569714827926)","(0.15979650393538486, 2.460113768241824)","(0.13623677285477606, 2.702850897728928)","(0.1432075744845119, 2.496895970512116)"
"(0.20575760381197977, 1.8921692142077013)","(0.2163658700589415, 1.7902751129066516)","(0.15381875882820809, 2.6635712376452862)","(0.15816863316071902, 2.3166509798326644)","(0.1279663668741941, 2.7956496097098245)","(0.18555627149884724, 2.222036431940973)","(0.22329471562390893, 1.8207306400348744)","(0.1692605301258134, 2.3792354111085907)","(0.111789807288692, 2.9710811108600823)","(0.2088881247356807, 1.9024145078941843)","(0.20485500999649064, 1.8720527477316289)","(0.17725907541138713, 1.9057295267219192)","(0.1404510194321671, 2.452333999901247)","(0.1680675242332368, 2.22052972147365)","(0.23137841313478516, 1.7168057680493638)","(0.23592252321956939, 1.5839076521914792)","(0.23925724769957923, 1.5387789841289001)","(0.19167159376717782, 1.8338016557586638)","(0.1702506410908158, 2.034576006506758)","(0.16485030544297077, 1.9632624970940915)","(0.16803326493663892, 2.002411486809753)","(0.11832419694674325, 3.1073819326222103)","(0.14137734379819908, 2.543993433408656)","(0.19943770104116196, 1.9542743929749153)","(0.153283720184615, 2.437552337487823)","(0.1314665539836243, 2.7561458807868706)","(0.15935511076213313, 2.3739778125884197)","(0.15399349977803337, 2.473912520711529)","(0.1527745853025652, 2.582517062696735)","(0.1663825885193895, 2.3583023702891768)","(0.14088116967748923, 2.6337088528031107)","(0.1377216846301639, 2.5510318212534187)"
"(0.19954388634146344, 1.8742862183810822)","(0.21606320943993979, 1.7500526194439676)","(0.16109517206886115, 2.466292747717113)","(0.16172021690467342, 2.1774203631717057)","(0.12741563807272457, 2.71397611209139)","(0.20743605824255468, 1.9645773379962106)","(0.24424183609066602, 1.6745423328976015)","(0.1689823709064963, 2.2793216207695823)","(0.1126851055310611, 2.8769166446066743)","(0.21731879051677702, 1.7843871504340751)","(0.2043908130540361, 1.8001484763620221)","(0.18215671345704812, 1.8008072853603012)","(0.1402721875789028, 2.4678288552550582)","(0.16175338309585358, 2.205150846433445)","(0.22534695280187503, 1.6716205127392465)","(0.2441026838808333, 1.5295222023851327)","(0.24595129642545485, 1.5254723758601214)","(0.19409171525214566, 1.8321395121792035)","(0.17036137431727566, 2.020372636331607)","(0.16377998443335545, 1.928166829486692)","(0.1576036843054464, 2.005378992788563)","(0.11948645788129396, 2.9883592033192805)","(0.14671027710044154, 2.3701824201788555)","(0.18766485114056392, 2.0021822583658477)","(0.1524104088996271, 2.348494971640386)","(0.13134905391520582, 2.6896986451699347)","(0.1622477803222667, 2.237349442874596)","(0.15888183029501088, 2.242856310447498)","(0.16784361104832468, 2.2592440658638546)","(0.16863358282289587, 2.249441450087357)","(0.13573399694318838, 2.6469738833074925)","(0.14097623368516438, 2.4529929053594186)"
"(0.20105172999022902, 1.8700086525245088)","(0.22435889673796103, 1.6976724873987743)","(0.161077289187285, 2.4457684054824096)","(0.16257115030580163, 2.147329846139145)","(0.13323794506128137, 2.5844444570160756)","(0.20829676285479826, 1.9806038685496632)","(0.24441678134164713, 1.6709500178991727)","(0.16013214491595992, 2.3223605989309424)","(0.10899987344795675, 2.9418134016864315)","(0.19766511940134932, 1.9280758835736425)","(0.19405401848984274, 1.940240511202362)","(0.17271533815966772, 1.891863889313144)","(0.13374378410055082, 2.4554850821068785)","(0.1513226571621834, 2.326416196819556)","(0.20578497238732937, 1.7751616590532129)","(0.22280770258394592, 1.6176478124301077)","(0.22917123388301222, 1.624708453713443)","(0.18132106938216627, 1.9050781815999678)","(0.16698176563040823, 1.983702785246387)","(0.16087612214970973, 1.855733706452207)","(0.15878548032870565, 1.8710912943063034)","(0.11441088648261491, 2.9935359228291336)","(0.14717568144328788, 2.2948004752261153)","(0.1561740470729712, 2.1312221608155903)","(0.13602339839864067, 2.3925721741201706)","(0.13197135867339735, 2.5570060182769674)","(0.15655037188261323, 2.256368543390127)","(0.13226882019862776, 2.2845636962036733)","(0.16678040053592888, 2.2276407090949055)","(0.1639420721446153, 2.23196499222856)","(0.13620162083508655, 2.5860598636395995)","(0.14060715649344438, 2.4178369421136905)"
"(0.20967400195165478, 1.7816138414434421)","(0.22963750518276194, 1.6518886203910053)","(0.16336925210102676, 2.383562301285528)","(0.16785768830033787, 2.061125007047923)","(0.14356660835526344, 2.36845990345633)","(0.19856615708648273, 2.1037862928206312)","(0.23637981593310162, 1.7210000416859905)","(0.15352685408278946, 2.3400697723417863)","(0.10581640309352254, 2.9218467887321453)","(0.1949799577946839, 1.9412562116706136)","(0.19519368082728092, 1.906408629326079)","(0.1730748537075828, 1.8694243481121584)","(0.12901965088227121, 2.6081405258099988)","(0.14967461496004286, 2.341498837606216)","(0.20948285134920563, 1.7629511467053893)","(0.25427633270660327, 1.5043787072334995)","(0.2498902466956289, 1.5788527807975243)","(0.18572611995461535, 1.96932389302984)","(0.1674091533807491, 2.073662425713909)","(0.16015406528637838, 1.9801256426990197)","(0.15825711223671243, 1.9408031371203973)","(0.10913120615233242, 3.1461013827516155)","(0.14146225930962694, 2.356906455390174)","(0.1540753875791793, 2.147496122627906)","(0.14060487847066622, 2.2840777994231143)","(0.13354155586553115, 2.5246850668340777)","(0.1623070707400905, 2.1858530250427397)","(0.13609649838663593, 2.2201102985070134)","(0.16088648242325793, 2.2609088055320785)","(0.16524952596260892, 2.2154142424713634)","(0.13962150650353514, 2.491503492681647)","(0.1306261301572123, 2.551359947136659)"
"(0.18422051390653535, 2.0030509754808965)","(0.21227949926195058, 1.7572681809668558)","(0.16065846939417408, 2.4111336022308567)","(0.1553516460331873, 2.1831228427973506)","(0.13594785667684395, 2.433781971525515)","(0.20800478365227978, 2.0511077679639302)","(0.2323395028182852, 1.76385746828647)","(0.15558856383061018, 2.3283657450799917)","(0.11393561910689351, 2.6815758042986344)","(0.1986187060281195, 1.901455100888408)","(0.18715797635030615, 1.9616076582584638)","(0.16868193431500259, 1.8682313660093486)","(0.1358061381393611, 2.4912748178648987)","(0.16044801782999968, 2.2030105364157815)","(0.2158760287282104, 1.721434191181137)","(0.24332037825015493, 1.576608601724712)","(0.2525641503214573, 1.5612259606013916)","(0.1953308968741104, 1.8870727735075743)","(0.17159830918795524, 2.05974084220289)","(0.17646810994911127, 1.8516785447484718)","(0.17761198345065307, 1.7953396480623036)","(0.12194103411449549, 2.8467549735660054)","(0.15336025052819766, 2.283678041321561)","(0.15967107355947716, 2.1758879382683025)","(0.14641562602058847, 2.310720732297037)","(0.13287388148110324, 2.5140129406625835)","(0.16486618142415801, 2.214365137397772)","(0.1513499198338957, 2.091236916041272)","(0.13603934856570307, 2.6707365333372475)","(0.16057661818903357, 2.26847316918042)","(0.13252627265513775, 2.5892527998133015)","(0.1343779917634867, 2.4914093874020184)"
"(0.18284768204705937, 2.0190782328022334)","(0.21495871537016686, 1.7532266861565289)","(0.1672916914595105, 2.3089044391144733)","(0.15754853140520042, 2.0853197390244067)","(0.13589040341494515, 2.3739129983462455)","(0.21765402506487042, 1.959103068548305)","(0.23900077157228264, 1.7126007030988026)","(0.15510260830276335, 2.3698625169925314)","(0.12030414224434575, 2.551574952696109)","(0.20918283206984342, 1.8126557932291147)","(0.18653590110453752, 1.9756543651205036)","(0.1772866446374354, 1.7619871077018552)","(0.14125706220231396, 2.379815093032944)","(0.15973466963053484, 2.185903357105071)","(0.21650520822237002, 1.7071841068704432)","(0.24833342952950072, 1.5662201018413513)","(0.26393480223588733, 1.5167865286263276)","(0.2050957651322985, 1.8328413496617322)","(0.17626128453164858, 2.055368041485297)","(0.20124126631325817, 1.7173424839243674)","(0.18976616418046793, 1.7372347604816283)","(0.12046139531921592, 2.874983217426962)","(0.15303905638464785, 2.3016205401248313)","(0.1812327403186333, 1.9786797840725583)","(0.15722901790008495, 2.208626658547751)","(0.13590780603589286, 2.4572932065376065)","(0.16278392980829173, 2.2612684541271473)","(0.16909235828317803, 1.9448443826099366)","(0.13608349894847385, 2.709932990517153)","(0.1626834410144795, 2.2934901857193184)","(0.1265059784415769, 2.6656408390909623)","(0.12791744173283676, 2.6505503972491224)"
"(0.17753896137223454, 1.9494415358833512)","(0.22065963763889979, 1.6980705469063198)","(0.154171166673697, 2.4428900261723543)","(0.16130088260269418, 2.065850367450614)","(0.15271749024966036, 2.1051154719749485)","(0.22778226393675824, 1.8993016376713792)","(0.21797768694864536, 1.8808268392531746)","(0.15979720027319075, 2.31967092913827)","(0.12008316414451917, 2.5254807450146726)","(0.2129748044373588, 1.8339096061455824)","(0.17428314889634994, 2.14336833475285)","(0.14747897407054544, 2.090550698099784)","(0.13617527808208976, 2.495807113867832)","(0.15847413805933055, 2.1958938928153398)","(0.1990602349667605, 1.871550010830581)","(0.2446491397622748, 1.6214325269150036)","(0.2618042569569394, 1.567963596426101)","(0.19947155405251119, 1.935911956894533)","(0.16791644503243852, 2.2336021249129367)","(0.2003644732349635, 1.8335482931715974)","(0.16606364096645163, 2.2012583537618085)","(0.1200176934514907, 2.9493366525500035)","(0.1417324431415229, 2.5590556388976164)","(0.18337029637631866, 2.084381686442216)","(0.1499235731728874, 2.3825315677892602)","(0.13204500400433733, 2.5630784423470034)","(0.1608377226225623, 2.2736261849553747)","(0.1728798011870905, 2.1240293366203593)","(0.1367934567488056, 2.603898490229868)","(0.1586732172004288, 2.386064928933772)","(0.12852965411859582, 2.5094214766186984)","(0.1262394345105069, 2.699380946171194)"
"(0.18537566804853586, 1.9060477404393146)","(0.21577966994039013, 1.7189643145272453)","(0.1632262087121354, 2.3895308209083406)","(0.1541326031250806, 2.128741375104227)","(0.1589357637425207, 1.9911516587409792)","(0.23778700057126204, 1.826804730116486)","(0.22817380271422885, 1.7864364516603337)","(0.16070527302487192, 2.364170957875405)","(0.14364430099349987, 2.1962354176340777)","(0.2190527647027516, 1.7717625135058335)","(0.19054749532255275, 1.9380517107756359)","(0.15232125844186215, 2.05420112711473)","(0.13940074356281892, 2.518561222848061)","(0.17482924995976484, 2.0595848039551723)","(0.18761022449305648, 2.037009388954982)","(0.2411233163145462, 1.7131425068250863)","(0.26175346595949617, 1.6175042294037967)","(0.20759878451214095, 1.9438968753143202)","(0.17763058548765534, 2.176000076244692)","(0.20867136958673604, 1.8240525067244577)","(0.1653739921373581, 2.2868180218621914)","(0.13841501993959554, 2.6325036349545106)","(0.14836324843678667, 2.4570803194182176)","(0.18700907936599942, 2.1054209324679705)","(0.15304646945052758, 2.343699358243671)","(0.12903823014561466, 2.6574426247829885)","(0.15817641617394154, 2.35740654391529)","(0.16703652164023727, 2.202610169093462)","(0.1398545825382907, 2.554991755317322)","(0.1552837600955807, 2.460724954697351)","(0.13266533056701763, 2.440021251193926)","(0.1266571770831104, 2.749165416949552)"
"(0.17219670630711909, 2.069930611021066)","(0.20704459512292098, 1.7545182146383076)","(0.15609418159971866, 2.544832963042273)","(0.13645845616833915, 2.470488461991005)","(0.16578431926944057, 1.9603567942360622)","(0.23392589189086518, 1.8697822029724598)","(0.2199563080316367, 1.903704005067293)","(0.1514907173405281, 2.5415868043589596)","(0.1466944554772904, 2.1642898175311243)","(0.20073085438323401, 1.9462840290538874)","(0.1745422709035899, 2.1338435457291727)","(0.14219784604991992, 2.2803429285178094)","(0.1344172080491821, 2.588065902454732)","(0.15771990056813723, 2.2619605211298603)","(0.1786017445375746, 2.094390464250403)","(0.21514810491599876, 1.9128122386021438)","(0.24402316002801722, 1.7330685299158808)","(0.18696043427403894, 2.170333089466123)","(0.16536168709166932, 2.3379132794373505)","(0.1861507495911211, 2.058903784795746)","(0.12754685949175015, 3.0034332696628474)","(0.15062283819765818, 2.4313987636651686)","(0.14571511324179118, 2.5257788727992136)","(0.14515280239785397, 2.842553897281703)","(0.13368031015577422, 2.7273489856932147)","(0.12977255729795, 2.667652207051125)","(0.162252112429898, 2.333963657524842)","(0.14473382701243814, 2.670071472384827)","(0.13135083426771207, 2.7549244968817392)","(0.1417815212409741, 2.718324383346011)","(0.1327537999188153, 2.4777636483036583)","(0.13600135800767077, 2.553839351323232)"
"(0.1676376713610373, 2.12443332681128)","(0.20388725951416892, 1.7826137218621962)","(0.18159655661941576, 2.242434194312792)","(0.1375712370275474, 2.459837237813789)","(0.16817211698035, 1.9501905716942574)","(0.2645420890334734, 1.6659420588887355)","(0.24568916563541998, 1.7216270557727347)","(0.15386185494968127, 2.528513636314312)","(0.1436884428448307, 2.237716589823513)","(0.2105271732416065, 1.8780604767435225)","(0.17200587709951448, 2.1973259924833)","(0.14148555502296542, 2.331665926914855)","(0.12793785189759393, 2.7247448457875683)","(0.14990486499696096, 2.393238174057939)","(0.18002017426878913, 2.0773659472214168)","(0.21344243311324626, 1.9296077841142698)","(0.24239902493770674, 1.7440722854443784)","(0.18037394913370502, 2.250397522430596)","(0.15920284133508264, 2.436232659778126)","(0.17751677105541547, 2.169116179624736)","(0.1239416513329195, 3.0967467341321284)","(0.1504965715305713, 2.4457212657874505)","(0.14187414717636918, 2.588488022449016)","(0.14058817542477123, 2.9515558245444913)","(0.13275409027308543, 2.7496305957314173)","(0.13049142682259968, 2.6552626084959026)","(0.1603051166398111, 2.354887876796858)","(0.14358585992502498, 2.694349294411375)","(0.12005277657039075, 3.0524218889305215)","(0.14035529175363348, 2.7869745758058175)","(0.13641678648229608, 2.438504658970776)","(0.13174543964303037, 2.591186338395326)"
"(0.16281823011594068, 2.0773797076573324)","(0.19245381979534693, 1.867284035603098)","(0.17164568614231615, 2.368011761820772)","(0.1274456008053303, 2.624336713115535)","(0.16338384913148113, 2.0152912980755255)","(0.2942998160081538, 1.4974031023071606)","(0.2551058492434987, 1.6751632074362033)","(0.18478316635870526, 2.102782838709801)","(0.13765431138900008, 2.360757746364766)","(0.23347028788494087, 1.7096670485482361)","(0.17861643390693435, 2.1377416270800516)","(0.1382156166727803, 2.4051564075112357)","(0.12909674713775743, 2.755782307605196)","(0.14967359480866405, 2.4805895182014828)","(0.18645392804383312, 2.04832967509141)","(0.21427221572183888, 1.9535885232582686)","(0.24614200306372935, 1.7281605201932786)","(0.1804363988383408, 2.292658426294224)","(0.16030683260550752, 2.4870251389627556)","(0.18268920279442144, 2.1369327717437048)","(0.1230019717484963, 3.230453167444205)","(0.15106529533952479, 2.4725011003620123)","(0.1450463495860768, 2.591164214774911)","(0.15059251579886085, 2.796741463978623)","(0.14391519965799962, 2.577367370880671)","(0.1323186864507287, 2.6142625949388947)","(0.165540303836532, 2.176492757420812)","(0.15198338122143384, 2.5385178238400243)","(0.11723702162363313, 3.050881493407565)","(0.1398625729940707, 2.7288659641847572)","(0.1365715337343898, 2.3871966117177834)","(0.13898957997035088, 2.5576774895808407)"
"(0.16003576046077111, 2.1686060909022453)","(0.17446612907688422, 2.052104665031675)","(0.15903128218247417, 2.5696102781789905)","(0.12147668864882875, 2.8278230819962595)","(0.16576601726131712, 1.9863175896007488)","(0.27619629686681574, 1.5780405929008634)","(0.21457766596341996, 2.0119757902965842)","(0.1767754282242406, 2.210050176095472)","(0.13902481625184368, 2.43784412853146)","(0.21796250966397812, 1.8496715122582637)","(0.16284867674333758, 2.3065754731596715)","(0.12655876461079058, 2.694442510305996)","(0.13145671012272406, 2.6746524569822387)","(0.14890807789144875, 2.5338305921796183)","(0.18303187320929756, 2.1108408861104233)","(0.21175631341460102, 1.9794044378095565)","(0.2458626967124695, 1.6952914932125427)","(0.18558712883299933, 2.20971312699616)","(0.16513627675291237, 2.4018610188528693)","(0.19297422814265477, 2.04820576079036)","(0.12827935435358462, 3.1723065440509255)","(0.1535348736196814, 2.4326305285305354)","(0.1484147178007593, 2.565087390862225)","(0.15702205787829857, 2.686527269919921)","(0.1436270370845777, 2.6376237377486125)","(0.1335282405446196, 2.6156167564184156)","(0.1705441276156001, 2.1620958667561068)","(0.1557141124125257, 2.528986904956519)","(0.11341292786092086, 3.1777622198061204)","(0.1392792029189287, 2.7046238133068035)","(0.14293309084693717, 2.294456176313119)","(0.14239524151386088, 2.448863951687097)"
"(0.1525408419693734, 2.2692053533461354)","(0.1584702116371998, 2.304906061579297)","(0.1512504346243837, 2.705940138916234)","(0.11691074988132613, 3.002312653246253)","(0.15689942991805828, 2.0981733284837305)","(0.2551299319721543, 1.6945227881237657)","(0.20377601964391295, 2.0862844087459496)","(0.15784982224263583, 2.4869733886975145)","(0.14210918415042756, 2.3828560984962444)","(0.20400424790599592, 1.9612024840303641)","(0.16991647780240857, 2.1708511898450094)","(0.12225496115379239, 2.7783720519045465)","(0.13126227336972252, 2.7098233729828696)","(0.14346974084883882, 2.5870891953081814)","(0.17964549563602839, 2.168550045179643)","(0.21010044975292771, 1.9990141714048073)","(0.2430950292927497, 1.7035574593506846)","(0.19216541715643037, 2.12684758142235)","(0.16412487154107833, 2.4386051024146638)","(0.1868071114434222, 2.1163848343482163)","(0.12678757944175784, 3.202485546605211)","(0.16963503634394034, 2.247496138273504)","(0.1483277374578693, 2.5783534012130116)","(0.1618809455987401, 2.554978354836048)","(0.14547222371939444, 2.594245162831775)","(0.14135060359735196, 2.507474180832938)","(0.17126473603000922, 2.1194798463764033)","(0.14806235289786088, 2.6290125579593155)","(0.1086193116237263, 3.3413672954417066)","(0.13941481422556387, 2.7044108902585138)","(0.14479866057652574, 2.2533101243210214)","(0.1443557468153137, 2.4306208936486087)"
"(0.16376947307888387, 2.1325219714153856)","(0.1502947360766296, 2.4688018827546214)","(0.1506052613771375, 2.715867916731777)","(0.11539398919428862, 3.057183329148965)","(0.15646594467555805, 2.1090969778653874)","(0.24193267250546366, 1.76822549606426)","(0.20274668740711685, 2.1018961125359295)","(0.1508135115489829, 2.626872041524749)","(0.14655886850350597, 2.3354133017129985)","(0.20140815005252277, 1.9983738274364757)","(0.16935063148157806, 2.2514009396769206)","(0.12270414669705855, 2.8262766826138077)","(0.13687265852991426, 2.6054962966223965)","(0.13843154481048509, 2.686767288180726)","(0.17008619078020024, 2.2691452184637093)","(0.19090293620129148, 2.109347914965434)","(0.22218696498718674, 1.7510422600427002)","(0.18664608862871207, 2.0834436489109085)","(0.15898277400480687, 2.4017686409519987)","(0.1818932855807789, 2.0726127374045444)","(0.13635892544837808, 2.863213861661089)","(0.19478694651383463, 1.9545569149884259)","(0.15277508692644998, 2.4649337109854197)","(0.16379426204176453, 2.45239726936742)","(0.1463965968992068, 2.5359067954127226)","(0.15789598825551468, 2.2690084179377217)","(0.1730918759314162, 2.073161590540779)","(0.1362178363067781, 2.765942941838511)","(0.12620601744609591, 2.9392872062865907)","(0.15787668320693907, 2.3887041963491904)","(0.16670747493709087, 2.0026129480829433)","(0.17423123328884998, 2.038229655141455)"
"(0.1673197772720748, 2.0928974959872235)","(0.14483772459384528, 2.574487132518281)","(0.1310743071633443, 3.1034675132992113)","(0.11647904651465021, 2.9856407298311365)","(0.15661242990748606, 2.102806186957854)","(0.2251141601451994, 1.8758593709126858)","(0.19972483490880333, 2.1056390837495815)","(0.14489316164011048, 2.7021262160021338)","(0.1403707600667462, 2.4632686488050384)","(0.200141733727591, 1.9906244275072782)","(0.17977282965701163, 2.1121821680234794)","(0.11817072103463051, 2.948300691995285)","(0.14646899731767457, 2.3779585540807826)","(0.13293918288893036, 2.7431366496163303)","(0.16173868753605972, 2.339339590211434)","(0.1730439039035686, 2.2823119276757398)","(0.1938367417416279, 2.0005224149244047)","(0.168549092786595, 2.2441360024476475)","(0.16126090192775325, 2.219690689697071)","(0.16644287302117544, 2.199728406607465)","(0.12822736079505168, 2.8609042215403653)","(0.19452902364590183, 1.8733477150186804)","(0.16635645338110627, 2.1318815819547066)","(0.17183969226006218, 2.2547732306709785)","(0.16034028074270268, 2.2341022172124916)","(0.1680797426526035, 2.0957782897412685)","(0.17928514668347545, 1.9309066674829207)","(0.13318698974681226, 2.7137401327837125)","(0.1483887795937105, 2.455378388467502)","(0.1498051127153363, 2.4700204372715895)","(0.18257039446011397, 1.804967872969388)","(0.18111417504812766, 1.9336500317139502)"
"(0.15506972960081986, 2.2740721378971065)","(0.1191850577763833, 3.1244864015678573)","(0.10426773353414354, 3.909444776400789)","(0.10248493959702826, 3.380120806587059)","(0.15028007045038738, 2.225269272799286)","(0.1846930240170431, 2.287186434866803)","(0.1797029715925443, 2.318340367993502)","(0.14032676568663666, 2.7960724705064655)","(0.138652581173381, 2.4963342596972913)","(0.1897729665409504, 2.104247580152603)","(0.17641160003573628, 2.098781388720093)","(0.11564982485607798, 3.0335866044458664)","(0.1376821686071213, 2.543479831639352)","(0.1368647997505317, 2.635528911587773)","(0.16677184136533207, 2.2197224451741437)","(0.1680847568569116, 2.3205307675004407)","(0.17331082861816838, 2.2088826347232176)","(0.1445253708914195, 2.5692526694727627)","(0.14351113016804895, 2.438425327780648)","(0.14656042987897394, 2.4587319698239245)","(0.1136512128054591, 3.150629451999069)","(0.18462038629323976, 1.9661164734261445)","(0.16328921862817325, 2.1540445193227926)","(0.17121617199869804, 2.195318789284523)","(0.12189023695493126, 2.8751735591838896)","(0.16225734649636736, 2.1772368095652643)","(0.15162500144114432, 2.253476459876716)","(0.1055497695755786, 3.4019750874517722)","(0.13206042088394385, 2.7089491826082672)","(0.1314163631077999, 2.751749013343656)","(0.1813442766511609, 1.8384141745691027)","(0.1865673052718823, 1.8695706366686842)"
"(0.14320978502020096, 2.4928338685199276)","(0.10368139125320294, 3.6929828067160377)","(0.08657531045098235, 4.7460889407300675)","(0.0881219821773124, 3.8770409077401453)","(0.13239649573151438, 2.5489537947774643)","(0.1551880256073556, 2.7068785126718296)","(0.15978050833699378, 2.6299272770928024)","(0.1190798354436067, 3.316335859092947)","(0.1299134162391699, 2.6580467430416044)","(0.17531281374567448, 2.2719132513037303)","(0.16525993462474506, 2.219916641425492)","(0.12206906485035612, 2.8700067853547866)","(0.13681455824176292, 2.510336690103369)","(0.13285707722839854, 2.687646981466262)","(0.16973673233751424, 2.1536679289185185)","(0.16445040157440677, 2.3377206575866247)","(0.16808433313259152, 2.2437603764206755)","(0.14188577402681038, 2.551520184362792)","(0.14073282603591752, 2.3873012834577296)","(0.14587050874231686, 2.4304902544731166)","(0.11561516242286549, 2.977394468084667)","(0.18794353410314624, 1.9087533186665253)","(0.15616312655558184, 2.2494246186330504)","(0.1514427398488086, 2.443956949564443)","(0.09597651585493616, 3.678392992722967)","(0.15241962941649895, 2.3155220107864474)","(0.13207224608563223, 2.6191957916140955)","(0.07861195341175731, 4.56694122623118)","(0.10701714573166139, 3.4475123015063858)","(0.11875207662418584, 3.145951735746131)","(0.1704134095508089, 1.9823107574484808)","(0.18816364825132748, 1.8645427297629542)"
"(0.12971628383161787, 2.724748620925264)","(0.09614120364788574, 4.002793875118583)","(0.07837032645301945, 5.222479428181727)","(0.08090169489917197, 4.346564674365636)","(0.11480271903181814, 3.0282659691938236)","(0.13679979990634877, 2.9812271950400344)","(0.17688041761629972, 2.3671229609035818)","(0.10899203706720148, 3.561955899976333)","(0.1211029219250563, 2.8146074663658207)","(0.16696428532301785, 2.4035091693034807)","(0.16232462085820137, 2.230807576984122)","(0.11596269091987606, 3.0554916107968633)","(0.14164811095100857, 2.353717664068673)","(0.1272143195635672, 2.746164863546501)","(0.17436795645395714, 2.0191864716158054)","(0.1556522860514231, 2.358344361647883)","(0.1617008949945768, 2.199916230789127)","(0.13960449262313232, 2.4374336353947537)","(0.14061561792259603, 2.239971808706151)","(0.140693141271189, 2.381665561038644)","(0.11850498280636346, 2.7677193154231543)","(0.18225319543301494, 1.8789854591917592)","(0.16745186140113055, 2.0741945303224094)","(0.1450072245730642, 2.4908364721911904)","(0.09795045857849204, 3.608173924782235)","(0.15482759379427846, 2.3219280006202174)","(0.1419210669012031, 2.4958352217692577)","(0.09091010828178674, 4.160347033429533)","(0.1064283709929247, 3.475576485512007)","(0.12497899632049476, 3.0323475834047833)","(0.18182629735249628, 1.9266213276949036)","(0.19100255149287995, 1.845114554937784)"
"(0.13803780644952554, 2.659173159169424)","(0.09246910603495336, 4.277251934032743)","(0.07407204846459388, 5.54792396120669)","(0.08600837793103226, 4.13596072314744)","(0.12125825323240742, 2.8396388863389506)","(0.13270664940856194, 3.008651341666814)","(0.18485893308111787, 2.3065275324481243)","(0.11123092318722963, 3.530564823062325)","(0.1259005106494425, 2.724960769824776)","(0.17907316564511072, 2.250533925100964)","(0.16970053954005676, 2.1544047227744456)","(0.11818575553234899, 3.0222777692097362)","(0.1587898124003191, 2.113720852005024)","(0.13566295369851233, 2.552970747467844)","(0.18380552879097536, 1.8982367394706314)","(0.18152422301913582, 2.023749769515256)","(0.17464688671028114, 2.032364699257778)","(0.15084643335471065, 2.2263528931802568)","(0.14901451454043974, 2.0956063558563303)","(0.15503034978587418, 2.1396131149501)","(0.1391417624042135, 2.32556152297035)","(0.18681993799853264, 1.8091770670310678)","(0.1792438717867185, 1.9077322067810294)","(0.1634417054688344, 2.2001770083829975)","(0.15712093518119005, 2.4844138275461014)","(0.15172684293869276, 2.313638906545315)","(0.1458424907660682, 2.4610678174075287)","(0.10902036061467166, 3.496209869189346)","(0.11205866148454893, 3.3081248842325324)","(0.14420738396434196, 2.657439950371624)","(0.2165882529292849, 1.6375364026501105)","(0.19292228596746927, 1.8439258040516358)"
"(0.1412196118203257, 2.6579746876047095)","(0.091314192414163, 4.32158809337491)","(0.07539714521621808, 5.458209594246995)","(0.09056771808177436, 4.048425179037907)","(0.12358473181824779, 2.868534285786789)","(0.1315355050852368, 2.9369789006925893)","(0.19736877946560769, 2.1703872717640498)","(0.12429893371003181, 3.1147103528582027)","(0.12673359198919484, 2.706022456744127)","(0.19650841462040033, 2.055938152984976)","(0.17903842538849338, 2.062980178474533)","(0.12416758462114852, 2.897045498365142)","(0.17747764455300558, 1.9492571032871686)","(0.14952799486408816, 2.3166128192072684)","(0.19045943330643772, 1.8516371875641617)","(0.19328619923207974, 1.9780017646796852)","(0.19698450871076556, 1.9413515490845512)","(0.16976668084621574, 2.0972128288155885)","(0.16021618930841233, 2.0645128805220874)","(0.17424293461350882, 1.983578844498356)","(0.15826746458853602, 2.0595312958167376)","(0.17229615791927333, 1.986115342434349)","(0.16166731828585293, 2.1300765666043766)","(0.17161507110959748, 2.09306123046523)","(0.16893322889416623, 2.296913362268742)","(0.11872806213241141, 3.03066030942269)","(0.13275709174224648, 2.761047414507584)","(0.11304640142481896, 3.3845522801764116)","(0.11960002626593376, 3.1843633759990073)","(0.15470826899485288, 2.549832580429594)","(0.18797291226363963, 1.925796502190565)","(0.1700199473534815, 2.1332037179191086)"
"(0.12516758136052714, 3.006826567944496)","(0.09374710086190396, 4.20747164319304)","(0.07738400744076827, 5.27190931189201)","(0.0954357725550448, 3.8629840880967734)","(0.1173507704132374, 3.028615226588218)","(0.13065299348911233, 2.846882690448983)","(0.2058662934355886, 2.0817013671930726)","(0.11977910775097095, 3.2219566949569867)","(0.11799631405775987, 2.9131278084983427)","(0.20033358988365046, 1.993921392205364)","(0.1792123613203829, 2.038949076346329)","(0.1268193280404904, 2.8158060631862436)","(0.17081300743315567, 2.04488630894962)","(0.15083574514256032, 2.2468704830535002)","(0.17687456533875515, 1.9487690843544418)","(0.16689505143751898, 2.315357142963104)","(0.18777841774685416, 2.0998879094878005)","(0.16987556033742593, 2.1307203463010396)","(0.15744889433957499, 2.0678901238901566)","(0.17875580487852036, 1.921314573316484)","(0.16520032228915885, 1.9529969628492554)","(0.14276573725147135, 2.3903929172766687)","(0.1481854915062597, 2.3057628565327697)","(0.17664497693699907, 2.0530460931944496)","(0.1903987061385764, 2.1650618597645437)","(0.10098328485863975, 3.557375855603789)","(0.12175655665528869, 3.044772687778925)","(0.12138694665889044, 3.2372412641280013)","(0.11598124900765104, 3.2922240472043445)","(0.15278155275000863, 2.5830122372755677)","(0.14982366245812073, 2.4079077838704905)","(0.13248065090683972, 2.6831587426436894)"
"(0.1241708021716502, 3.047323624072722)","(0.09439641724392915, 4.212703523573538)","(0.07503304769733536, 5.481683422481074)","(0.093397151716939, 4.0479989419730416)","(0.10328998489030204, 3.573464015513508)","(0.12501472522537382, 2.9467684498431574)","(0.2042694402032032, 2.076576438983792)","(0.11835189053567768, 3.279228329385946)","(0.10804384118284759, 3.0420953082346354)","(0.2013315831598312, 1.9566443776725753)","(0.19133393694166861, 1.8808859956627881)","(0.12699605389714388, 2.7322743628754367)","(0.16083108798637896, 2.105200341814796)","(0.14468404245428987, 2.220139664868414)","(0.1691080257546028, 1.9810548351519792)","(0.15418216555729178, 2.486503874716966)","(0.17647933869603372, 2.2707438135145286)","(0.15915882578705554, 2.2527040142599333)","(0.14890152978632606, 2.1065477313388072)","(0.1596182215099299, 2.1029520126464827)","(0.15797706262942457, 1.9935404861761026)","(0.1333716567537492, 2.4850413005684313)","(0.14130459812683832, 2.380424799752884)","(0.16244882274264086, 2.226654034020203)","(0.18565738737368204, 2.242367781718298)","(0.10308037715291483, 3.5163224889708484)","(0.12332712221548851, 3.0206654588152757)","(0.11532060481443548, 3.417283985131739)","(0.11971937948908182, 3.1910229078900287)","(0.15330173195462668, 2.592382511781201)","(0.14616644320181885, 2.530418658422181)","(0.1172484756747256, 3.0317650305217674)"
"(0.12358613576750356, 3.0560640250122924)","(0.09298915416333128, 4.210151602195178)","(0.07055863013429771, 5.815654168406007)","(0.09113124265276526, 4.166530267683376)","(0.10438997159666032, 3.534992755897318)","(0.12216029686629483, 3.082720984589017)","(0.2055559282120442, 2.0493475638360334)","(0.11717623179605131, 3.316987003261276)","(0.10380063047783397, 3.1447860805518735)","(0.19344342286599991, 2.0758869138691085)","(0.17649182268100966, 1.9896496070074128)","(0.12408101541899799, 2.746783968085445)","(0.16241823088657786, 2.096121848730318)","(0.1366638150309482, 2.363723481043047)","(0.15834927931760354, 2.093827890452869)","(0.1531968864156189, 2.552483318018626)","(0.17488295955159586, 2.3362576683987357)","(0.15739346315492828, 2.308894046193439)","(0.1473054516310008, 2.150789913867254)","(0.15345269475442794, 2.2117662478402194)","(0.14883429242662732, 2.09541635824745)","(0.1364240910947508, 2.471525994686098)","(0.13134859623572823, 2.5328481807749057)","(0.14846734767017944, 2.433797549309002)","(0.18035427397906953, 2.3209867148961028)","(0.10290819936993875, 3.5144289483875855)","(0.12517841133149518, 3.0052530862766664)","(0.11999150252582146, 3.3642457531880114)","(0.12211696440374918, 3.124820467942242)","(0.14475524192603628, 2.7364403449738783)","(0.14862127839914635, 2.4504867168033746)","(0.12355832664818302, 2.8707553738706375)"
"(0.11606739092474161, 3.2703678850004914)","(0.0965314996766781, 4.020198693392766)","(0.06632045230941264, 6.086643264129451)","(0.0936643372387224, 4.063757667890083)","(0.1055404521829333, 3.5735702768588946)","(0.11979368732668655, 3.153989250396089)","(0.2114345454705857, 2.013238812861646)","(0.11255571109705584, 3.4854455051341624)","(0.10469231428346999, 3.290368572491408)","(0.18743032936366177, 2.1428103358761166)","(0.18667998382022924, 1.91781932119499)","(0.12422272568159437, 2.8061558607680746)","(0.1731610776684076, 1.9620146130480656)","(0.14089671622535982, 2.3692190923891223)","(0.16161371118609963, 2.0710563327288245)","(0.16408449559776273, 2.362784075412431)","(0.18563164586807318, 2.1569018352905203)","(0.16386543643546594, 2.2213911002501625)","(0.15462059894923377, 2.0868764169905445)","(0.151713670734105, 2.312350299916593)","(0.12995952045451686, 2.3664591546257343)","(0.14792141100449513, 2.279404188696258)","(0.14349502013034043, 2.3543275438649274)","(0.15192235413384295, 2.423165171167846)","(0.19566093191373599, 2.1499221450226544)","(0.10681358556731145, 3.404774837005677)","(0.1451223362649023, 2.6307060771567214)","(0.12967852575390199, 3.1355160841944123)","(0.1303990594995333, 2.9315260293170478)","(0.15196152845868036, 2.629819190696868)","(0.1536701496490886, 2.4092644742889973)","(0.1264363205607119, 2.8319108232285823)"
"(0.12128083922691967, 3.0939479416958604)","(0.09631698781379598, 3.9871370138181974)","(0.06703562486725419, 6.225379552791617)","(0.10117816124523721, 3.701884454780956)","(0.11649939516501977, 3.186287510218626)","(0.1223031598515456, 3.129392451786479)","(0.2115745167891232, 2.0387403667064445)","(0.11774784232836712, 3.3270921572304784)","(0.11194904775207444, 3.0016100830213177)","(0.18813792185678005, 2.1434758410226427)","(0.19100112769341002, 1.8825166438884604)","(0.14067358006721264, 2.3439491852965593)","(0.169944170186358, 2.066932636469914)","(0.15793397292179723, 2.0405933332472874)","(0.16887747263935943, 1.9934413483072915)","(0.1770308306542049, 2.2325149271222426)","(0.19701308433966558, 2.0529157219686773)","(0.1716296868088822, 2.166885328234208)","(0.15721876494527232, 2.115855051828369)","(0.15098960158477384, 2.3496345165228463)","(0.1321781767222308, 2.3789845718115337)","(0.14615183795383285, 2.342523402170624)","(0.14669888358976002, 2.3315097687803017)","(0.1514592736766152, 2.4532677659682194)","(0.18986721463193293, 2.2131318112959706)","(0.11589596479399737, 3.155917653719287)","(0.14180267118963283, 2.701032349632903)","(0.126081306835261, 3.2217704602610433)","(0.1253999777259141, 3.06493137840395)","(0.14666243513267183, 2.732289529537047)","(0.15444937884517618, 2.390808456185175)","(0.13898736279777452, 2.6313623711476968)"
"(0.13603882785366386, 2.734818557296781)","(0.10210029464494336, 3.7488567145607514)","(0.06998800438527682, 6.02637061738862)","(0.11198384408685759, 3.418273065023698)","(0.1296228118985907, 2.9054936232240025)","(0.13290447745800638, 2.9284254962796346)","(0.22505824767550464, 1.9240848020842298)","(0.12065394747144538, 3.258116493242906)","(0.10795048239335331, 3.1249532970938887)","(0.1869612786247759, 2.1528743664597902)","(0.19446432985246198, 1.882382491636264)","(0.15182683318322754, 2.117399701703771)","(0.14226847171855186, 2.3743712863036786)","(0.16381453896458892, 1.9338406228964413)","(0.17300101854703062, 2.004985824602556)","(0.1871512801146998, 2.1580829028707686)","(0.2135056710892737, 1.9036170300314181)","(0.18614469742870915, 1.9759944046409665)","(0.1647353146078805, 1.9698404499346047)","(0.1620920232147801, 2.158328862650098)","(0.13959199152187984, 2.1983445186251807)","(0.12117096160944207, 2.7320660833489927)","(0.12980735884520844, 2.534985740622261)","(0.15021635276497966, 2.428754520487746)","(0.18960105119134604, 2.2060186919717175)","(0.10792200240554321, 3.3772176911068215)","(0.13114945376738915, 2.890448549886109)","(0.12612837955818446, 3.188402322074216)","(0.12052871067016041, 3.17608372775058)","(0.14127982071193249, 2.814034841395345)","(0.1522430860267286, 2.3939791590606156)","(0.13411565556160146, 2.7374708860142865)"
"(0.16097864609661236, 2.2908391103973593)","(0.1278510781353798, 2.9994144411265937)","(0.08270887427953734, 5.037366292165427)","(0.14135257320263825, 2.7640285082772227)","(0.14828221721245038, 2.504466169518027)","(0.15421039439839454, 2.573073002542588)","(0.26639643021469933, 1.6326682885840091)","(0.12991439796299206, 3.018479701335529)","(0.10823765895198895, 3.3168643732719048)","(0.1972741919083499, 2.029657690113656)","(0.21014193307009377, 1.7310505315300833)","(0.16073780939409807, 2.0425007445253187)","(0.13764303293464186, 2.505773525074895)","(0.1645161523514723, 1.9592512845845635)","(0.17931696869840916, 1.9803221547536498)","(0.1854426452516518, 2.1591165686129874)","(0.21619413319346445, 1.867156223902527)","(0.19602605595497596, 1.8895532506159314)","(0.17171685805579276, 1.9533285779905818)","(0.16570460431703143, 2.1347740775474016)","(0.14413867217104834, 2.1694152746284314)","(0.1185522906287193, 2.8067697011929464)","(0.13351972367844375, 2.46626486741402)","(0.15563138614219568, 2.3600383501409246)","(0.20765125666076972, 2.0072670862840094)","(0.11077482069214718, 3.2816994810342313)","(0.13056260223812693, 2.8950126433139256)","(0.13796555449080158, 2.897073611105044)","(0.1301568638143305, 2.9176925258889104)","(0.14482728296022174, 2.7293076935095337)","(0.1561455922333066, 2.368031036467472)","(0.1377592372125979, 2.605040134487018)"
"(0.16979915574233256, 2.1637433531095644)","(0.15535064353264832, 2.501658804400634)","(0.09495925239256663, 4.345931427990775)","(0.1838012623637677, 2.157977736200303)","(0.15169307935872528, 2.4784616495341507)","(0.1896883329204797, 2.1534685658385735)","(0.27660528142893664, 1.605315008372151)","(0.1527224677749176, 2.609586723210446)","(0.10804727600175891, 3.324773979773344)","(0.21907407810586638, 1.846156530231792)","(0.20628928360977672, 1.8094787822634697)","(0.16745825139200407, 1.9833438763648397)","(0.1337759973868135, 2.568636391430586)","(0.16379303857406388, 1.9666899089504388)","(0.1744209659099057, 2.1027606397620406)","(0.1902380499797682, 2.1303303771480095)","(0.23528253959376785, 1.7540719009978871)","(0.2064202573439065, 1.8406556054634855)","(0.17728536029566752, 1.9793256818758473)","(0.188693288645577, 1.9453687344594546)","(0.14884016590596738, 2.1917578542405263)","(0.11765195952534034, 2.924321103088286)","(0.12938223008374405, 2.5923869182731067)","(0.16627126328028835, 2.275573470816141)","(0.2165919122425343, 1.924521917438552)","(0.10558454964035699, 3.4207336013154594)","(0.12290192762776951, 3.104523768041916)","(0.14262544286718104, 2.801172635759867)","(0.12234512895579425, 3.099469000432452)","(0.13454121974914363, 2.9204610048526294)","(0.14246691722417612, 2.573155579204037)","(0.13328934487425007, 2.6980926179485354)"
"(0.18189453461661842, 2.0029526874862005)","(0.18241972278354038, 2.147202176205117)","(0.11670422310394453, 3.47964188208369)","(0.20828173042880224, 1.8967023604259967)","(0.1565344858030477, 2.3808748984031705)","(0.21952530650637386, 1.9101990253758763)","(0.30959502576593023, 1.4084677083037636)","(0.16982824826457837, 2.3333797921194903)","(0.1098798691319533, 3.306780977119635)","(0.22947540496081092, 1.7605747815506254)","(0.21872414466240855, 1.6893468736459742)","(0.1809666831311104, 1.8309215131953582)","(0.13718007072768623, 2.5592002480541973)","(0.17084036062328375, 1.9351846113003324)","(0.18334746772759494, 2.0228710416549487)","(0.1896350227770821, 2.1382221019503107)","(0.23522911117536185, 1.7603428020403518)","(0.20975716234727246, 1.8330627407000808)","(0.18189951814137767, 1.9646689110906468)","(0.19501572619897267, 1.891924607368441)","(0.15135284368427784, 2.186494625005885)","(0.11737130470775926, 2.9840451973510254)","(0.12838812282759382, 2.6782010894185264)","(0.1773643178551431, 2.1071536848261916)","(0.20864226162054508, 1.9971895495217393)","(0.10517094064464187, 3.4924029464183484)","(0.12793853539753713, 2.964622456711887)","(0.14055261012901338, 2.827876930340616)","(0.12637779968737028, 2.955956212813785)","(0.13528179569706192, 2.839893620144681)","(0.1445115008741954, 2.5285955067654444)","(0.131478878563118, 2.796176809010156)"
"(0.18391805554475413, 1.9552793625214815)","(0.19385863472203893, 1.994513974484445)","(0.13361330398905785, 2.9657362800396645)","(0.21287999631861318, 1.8592650675551061)","(0.15639463159560552, 2.3424733998419787)","(0.2411738223624363, 1.7759668714491068)","(0.29963143262634845, 1.4542638704369872)","(0.15994970749016385, 2.497603691530497)","(0.11212994223597442, 3.2458034927838026)","(0.2191154937042098, 1.8257968505367623)","(0.220936910682175, 1.6554337646165975)","(0.18256244485237655, 1.8084741757961091)","(0.13563170810489839, 2.506676932018214)","(0.16907903066663035, 1.988404618411295)","(0.18461939125668314, 2.017697407347387)","(0.18470088904163803, 2.1464192954240433)","(0.21851534707548897, 1.8465575422226355)","(0.1973324217343317, 1.8686738441824085)","(0.17394823178070648, 1.930363604243173)","(0.18652256430565575, 1.8901433344070693)","(0.16337774098361732, 2.010007217899619)","(0.12095089612682414, 2.8571604417819034)","(0.15031318205862676, 2.2940062838404187)","(0.20523177524453096, 1.9074700670220992)","(0.2456542379101633, 1.7023465217196052)","(0.12891670483228057, 2.8145633857880417)","(0.15305793271073692, 2.4228626746211015)","(0.163693020840697, 2.4424841999430624)","(0.14100230801237218, 2.5933363736637025)","(0.14801132118142923, 2.4900058336971296)","(0.1580771459809437, 2.260397806491081)","(0.13328239708562895, 2.7456043759278117)"
"(0.20203071663920164, 1.7859849108933188)","(0.1856861513792387, 2.068624777795146)","(0.15816203183369368, 2.497301348767409)","(0.20878253803274038, 1.9021987874327515)","(0.16451444269822466, 2.2352981216889067)","(0.25736359866030195, 1.6820344559499534)","(0.2845645653721029, 1.5182205094448042)","(0.15974739130134036, 2.501471832252409)","(0.11408227894618228, 3.1948875321601804)","(0.21540548435662357, 1.8561607402144227)","(0.22614072239732516, 1.6191053551757857)","(0.18184156603166848, 1.8317547155505942)","(0.13673843493786242, 2.3940091112166124)","(0.1680601142152399, 2.02573596783622)","(0.18965423632822492, 2.017430803026555)","(0.19461418441338355, 2.001774883107924)","(0.2148937499628987, 1.8052824954091016)","(0.1889410091317496, 1.8468560877306137)","(0.16606329034118586, 1.932088595432233)","(0.17997046233939806, 1.8809002963467905)","(0.16036590342822415, 1.9566560570536213)","(0.13312069494958872, 2.4997440944313456)","(0.15449788898251343, 2.1837742823238995)","(0.21238871865249864, 1.8304023760565646)","(0.2569167038062577, 1.5372773435058327)","(0.17751420727296893, 2.0670602076226583)","(0.21198366229012658, 1.733346950350109)","(0.1921232706821074, 2.0323632184537566)","(0.19514928627372108, 1.8847026867700825)","(0.1955503021655052, 1.9016863974621376)","(0.19603375098668455, 1.8249300133985558)","(0.1584533956565562, 2.3155824061589407)"
"(0.20967765147493755, 1.7066593229677802)","(0.195937997410297, 1.977997514692393)","(0.1542887026051863, 2.5161523798606367)","(0.21796000924049116, 1.8014663623731348)","(0.1934257342320347, 1.8759488246459193)","(0.2588475647505009, 1.6687665179831317)","(0.2921289055048014, 1.4538535996004294)","(0.16795752402629066, 2.3279153329404036)","(0.11914877148928062, 3.1375592932637937)","(0.2135560971658146, 1.8792737772591965)","(0.22195321471857232, 1.6539610702760816)","(0.18309836833979845, 1.8232937762401127)","(0.14101916743646703, 2.4172110405580747)","(0.16668999081581645, 2.0390717680070214)","(0.18778658920315836, 2.0140027273688563)","(0.19804934353339174, 1.9542712649328735)","(0.2131804146993879, 1.8184313737587185)","(0.19477998499291496, 1.834075853636432)","(0.1775719588468564, 1.8985634218995184)","(0.18246597182692317, 1.895382207773442)","(0.15631530253061726, 2.030721306592693)","(0.14479670172992623, 2.37682590611993)","(0.1556049321301194, 2.203307424402233)","(0.22092389121245373, 1.7667166966811096)","(0.26059247110856565, 1.4867841178559955)","(0.18624599505021713, 1.9359830603673245)","(0.21991811206045017, 1.6426035846285654)","(0.20080065335275685, 1.9451724987445727)","(0.19824625686168898, 1.8247090765682645)","(0.21016473416382572, 1.713146439413726)","(0.2234627084728568, 1.581165127350746)","(0.20289253232924667, 1.835798601918814)"
"(0.21595103718755032, 1.6627923286423403)","(0.22966645531165214, 1.7096190110219573)","(0.19565657750600846, 2.0239599445768413)","(0.2515327113091204, 1.5399213287929032)","(0.21055015552298625, 1.7218442755306922)","(0.2923352649477228, 1.48489554418115)","(0.3053520840718352, 1.4130799117533355)","(0.18036557272078543, 2.202359041001818)","(0.12655561000616639, 2.9575945147008373)","(0.23614495622731424, 1.6723538466599668)","(0.22596027248715306, 1.635147623320935)","(0.18940552017623463, 1.7597217029983163)","(0.14631208843722676, 2.339395616958271)","(0.1882023223691188, 1.7976199812116387)","(0.18642414563148227, 2.0002275286075952)","(0.19668656716106672, 1.9094259452883304)","(0.21367287737878066, 1.7402035838802563)","(0.2024728677770739, 1.713583875306887)","(0.18579431806350707, 1.8093135960226858)","(0.1911683348919894, 1.7849335847695382)","(0.15916146661992456, 2.03120031804388)","(0.14514882774369722, 2.347474529678662)","(0.16336257770098503, 2.165142685404089)","(0.2506874714305585, 1.5735772810401494)","(0.27050811163900174, 1.4268705860069122)","(0.15217030490338437, 2.3664717341490613)","(0.21299467966588864, 1.6888919190815865)","(0.20505083772608837, 1.809594496124124)","(0.16612017513996377, 2.166473236177329)","(0.19121518550222755, 1.8892312907681674)","(0.20492809357645086, 1.7595660844568415)","(0.2107208422778524, 1.7932874900755935)"
"(0.23262976621554765, 1.5408980878334644)","(0.26142948088981577, 1.488912506434724)","(0.2650255653895369, 1.5347553431179595)","(0.2853136418873562, 1.3406600906384554)","(0.21669657895650968, 1.6474368554247187)","(0.3339597820339283, 1.2927598292413764)","(0.31724020008942844, 1.3353067997147898)","(0.20800747802551836, 1.9342556359878542)","(0.12553164295770441, 2.935282487122483)","(0.27532019469497043, 1.4422224857530295)","(0.21283062645571518, 1.6592638548577345)","(0.18194004345210515, 1.7953305315624175)","(0.14579424115229128, 2.3887756096320207)","(0.18807217351480388, 1.7998112660101628)","(0.18962268650451777, 2.004991073542564)","(0.19243261836109696, 2.0259472101509544)","(0.20137415093107647, 1.9358941722153005)","(0.18512070689495258, 1.920814660491354)","(0.17926537408498644, 1.9120871909124149)","(0.1826294137280488, 1.8563055946428504)","(0.16813830602389984, 1.9735518947176327)","(0.14494159184695005, 2.354743437291899)","(0.16191782087145917, 2.1943769180102985)","(0.2553857052628824, 1.5439505071208806)","(0.2637784223236886, 1.4465108163455807)","(0.15373089584797184, 2.288053485964653)","(0.20790663746183097, 1.7188642756958363)","(0.2120291259369495, 1.7530127138414755)","(0.15909968575533964, 2.2573305117384868)","(0.1869621578543226, 1.9274001428190923)","(0.20703018044194843, 1.7226039601133563)","(0.2081980553447584, 1.7992490860631003)"
"(0.22796980128897562, 1.6156056967434784)","(0.26596532171971626, 1.4952728893443576)","(0.27299040005693886, 1.4817849152325173)","(0.28944966950059037, 1.3681306837292746)","(0.2061246766889213, 1.7708049875104825)","(0.3489082637562177, 1.250522989061149)","(0.3216786699462269, 1.3109722307444447)","(0.2069815102993489, 1.969707658675006)","(0.12207759778370192, 3.0793425131150727)","(0.2877875208747109, 1.3813877579742717)","(0.20496881737972594, 1.7299934419579086)","(0.18287288558179376, 1.8757484904306077)","(0.14226916259970193, 2.4129501340362864)","(0.1893797546622655, 1.86784624770035)","(0.18564744406874675, 2.0334009569720566)","(0.1910124500628859, 2.0209605400234634)","(0.19992502106237142, 1.9402202080363669)","(0.17758542867760702, 1.96783810386867)","(0.17561605266377658, 1.956570766037164)","(0.18374103608673686, 1.8517746242277913)","(0.14742460001936253, 2.26497388740606)","(0.13949546339315907, 2.4655354978093795)","(0.14282728786484014, 2.523447978956526)","(0.22249104448268922, 1.7849878730136177)","(0.2561465760882749, 1.501566589940169)","(0.13844662434127197, 2.5543956006531876)","(0.19127349146266523, 1.8758319728203383)","(0.19701880843496083, 1.9182959991221207)","(0.15168036864451467, 2.387596684899209)","(0.17285192956286058, 2.1105348126160517)","(0.19591577795559414, 1.850383607500553)","(0.18683392953463757, 1.997637518333594)"
"(0.21840595855266345, 1.6986084318372958)","(0.2663365287481009, 1.5044949565479582)","(0.2848317799112363, 1.42449835565326)","(0.2889226629217948, 1.3634501111817818)","(0.18556984975882584, 1.928196955367522)","(0.3554456020636373, 1.2297433668749072)","(0.32052751924587863, 1.312826790135939)","(0.2047419284358459, 1.9594148823109534)","(0.12126999906427074, 3.1332271608287483)","(0.3000758000931912, 1.3423103354040478)","(0.22228287654975587, 1.667442129498033)","(0.18290793895887747, 1.9894288574976944)","(0.16908860499492764, 2.12822640823376)","(0.18054634818587048, 2.0759327621089056)","(0.18085787850526439, 2.1332451430152206)","(0.17412199050431384, 2.1972631316446476)","(0.18785294023088006, 2.085424155945541)","(0.18117163792489574, 2.028665467574213)","(0.18913463524741791, 1.912163992061004)","(0.1892278899304197, 1.8316429059825987)","(0.1555633048717272, 2.2604988686910072)","(0.16011190013137924, 2.259573464661584)","(0.1580835305073927, 2.38413180756362)","(0.22968808880865227, 1.7754076388122306)","(0.270954611292372, 1.4277946039166214)","(0.14231781397426688, 2.477678997359696)","(0.18855988042023925, 1.9081712397663437)","(0.20853582279711325, 1.8525589089196988)","(0.14511782868800577, 2.513137165735793)","(0.16736669065082205, 2.197217626311599)","(0.18945120263175982, 1.9125466632980415)","(0.1893424822585819, 1.9615299468781933)"
"(0.1976099041115269, 1.8686523814424332)","(0.22113509655659677, 1.7862912519459468)","(0.18324659088798767, 2.1825535696178555)","(0.214905203825943, 1.7778523035715932)","(0.16296773316185753, 2.2040196173969)","(0.30203123468867166, 1.4334679217190094)","(0.2816110167797661, 1.4756181925807872)","(0.2090181389748049, 1.9134724278462694)","(0.11692690950721686, 3.0995462628455703)","(0.3049449317255041, 1.3367195220615642)","(0.22818366205371313, 1.6333362353116114)","(0.17778384469156838, 2.0063712222211696)","(0.19588410997777725, 1.8318157890761835)","(0.1801639203416546, 2.0442802600972185)","(0.19053841851191006, 2.0113720528234875)","(0.1913534051013714, 2.016502313857329)","(0.18956090194198652, 2.0916941093121793)","(0.1691612330294296, 2.1572646108336992)","(0.18251751656407006, 1.9711675428642668)","(0.1756762993042628, 1.9050774264453403)","(0.15449987626000045, 2.258703372072843)","(0.180818319129487, 2.0272646535805223)","(0.16307875425919108, 2.2962327278801253)","(0.2098675512912467, 1.9188205941281353)","(0.24624441944172357, 1.560347474550644)","(0.14019970525996625, 2.487390051362724)","(0.18040536386491368, 1.9756943730520657)","(0.19882948045388718, 1.9513049921512222)","(0.13736595370363433, 2.5900416178382826)","(0.15094425423190186, 2.3455704750795534)","(0.183209736210261, 1.9283297808186748)","(0.19084528098261214, 1.9977377915830579)"
"(0.19688409212530367, 1.8847766041480154)","(0.2012262519256022, 1.970808152706186)","(0.14252106252680255, 2.754693517924423)","(0.18643688261211, 1.984747765484478)","(0.16573969363675325, 2.127389028409944)","(0.2712173279959855, 1.5801518528682261)","(0.2570806491425395, 1.5764362265756493)","(0.20379972561650136, 1.9210893473489465)","(0.11198185867386906, 3.257009179115452)","(0.2896656436624412, 1.3987363553887586)","(0.2172531703459977, 1.6916185219882263)","(0.1584871934128299, 2.2275211097934147)","(0.18750927871324696, 1.9358224634533274)","(0.16170523479509835, 2.2954086614623264)","(0.18443830733101846, 2.096706262460397)","(0.18765698785047033, 2.060445336766899)","(0.18063225418087686, 2.1656864826115707)","(0.1585726055171382, 2.303868364783249)","(0.1649965079631415, 2.155767117472415)","(0.16260165066257729, 2.0726993038877266)","(0.14162645746917296, 2.425832580867726)","(0.1840517967577673, 1.9604590221073706)","(0.15841866760872528, 2.3187988225831293)","(0.18248579266808623, 2.170264053317581)","(0.24075509057502545, 1.6058519292993958)","(0.14065019003479892, 2.449985101068349)","(0.16262572146695387, 2.1534863011572587)","(0.17833277900274533, 2.1614677561267173)","(0.1312960982093185, 2.7457677630265866)","(0.1370506650629352, 2.6140469583091885)","(0.18945225607851018, 1.8682244719689198)","(0.21764232962404267, 1.7053736106357105)"
"(0.18001008204318006, 1.9947024874800074)","(0.19009541810286482, 2.0321287861353268)","(0.12838152346220003, 3.0472559257497815)","(0.180929504559847, 2.0258675291924657)","(0.15358349989115097, 2.2932779672104013)","(0.25473449362267714, 1.6697707716607153)","(0.2382717215631508, 1.7005383725224295)","(0.19716884891714953, 1.9481546762585165)","(0.11068560139135668, 3.2149159447039044)","(0.28990043474944766, 1.388472057780406)","(0.21738093458269128, 1.6896577979534562)","(0.1582167632526453, 2.1568713256272387)","(0.17105860377272109, 2.126509106514559)","(0.14740482177705758, 2.4379567184215207)","(0.1640742417446049, 2.3085494988670843)","(0.17294749154351527, 2.213980456028736)","(0.17783681998281362, 2.180358664516077)","(0.1550486049265912, 2.3603586477310334)","(0.16247158558643088, 2.178723288696657)","(0.15834478180965014, 2.166044424215588)","(0.1381225295372105, 2.518453155509283)","(0.1802673689293537, 1.96286189492771)","(0.15092100517218, 2.409677894885599)","(0.18106069507185446, 2.2501397097750404)","(0.227170787385363, 1.7014862170311298)","(0.13726854604752908, 2.42061657199219)","(0.14441199657890036, 2.3803155959514264)","(0.1664083106727542, 2.340805970433327)","(0.12314989061362908, 2.908169452552229)","(0.12449977438337126, 2.88211496961422)","(0.1607822714580026, 2.129404592259808)","(0.19726698030422662, 1.8233908135846018)"
"(0.1635427048510559, 2.185385152365655)","(0.18662126228591608, 2.1304098779043383)","(0.13204358041669503, 2.9602978139557936)","(0.16107313875706641, 2.2095989479906617)","(0.13011485935054826, 2.74327300498652)","(0.25793928343049666, 1.6386836831291496)","(0.234861765965781, 1.6687317980415224)","(0.17102568023373804, 2.2188645118730563)","(0.11129041491906498, 3.176576576617674)","(0.28605352317240684, 1.411018338817432)","(0.20745718453413955, 1.7349918492676033)","(0.1529212220679297, 2.156136801451233)","(0.12815775665718798, 2.8128351162773733)","(0.12424106298217302, 2.788154764853711)","(0.12666220938232256, 2.9003239740041824)","(0.13023073775257735, 2.855881066588819)","(0.15120644661010504, 2.5246115171401504)","(0.12946128488686975, 2.8124231900618377)","(0.14528657033052914, 2.4550280662200348)","(0.1507060221212013, 2.3134919623187193)","(0.13758206414900082, 2.506029838162132)","(0.1643454745813588, 2.0777127535966806)","(0.1515832294561558, 2.33488106609326)","(0.17108719248329604, 2.2941775504956192)","(0.21178712980175013, 1.7954810644357686)","(0.12743910621790844, 2.5192221419923597)","(0.1278970982241539, 2.651243025326079)","(0.15426928343063756, 2.461479144549336)","(0.11281249801656502, 3.062639034891379)","(0.11307726218807808, 3.0664823969790733)","(0.13972297223986527, 2.473765923238484)","(0.19896057141165902, 1.7532745166507036)"
"(0.15732781387555828, 2.256661662424121)","(0.17650698004951243, 2.26348643671835)","(0.12988150580069663, 3.0350715550204272)","(0.1538976228363759, 2.271184766041711)","(0.11004222440045075, 3.181553760216473)","(0.2540173661186265, 1.628680959930651)","(0.22190896195841114, 1.7464191137122143)","(0.1715503858613362, 2.237740781587355)","(0.1252200733505894, 2.9322597305443527)","(0.27446520215991316, 1.5134297721909007)","(0.19690365215871417, 1.8486110181900677)","(0.15652421366437091, 2.161809341367668)","(0.13355797770696137, 2.750398692823392)","(0.11614722757319186, 2.8852577317148245)","(0.11454227223774069, 3.0929405483974888)","(0.12300670898520036, 3.102220976012766)","(0.14447453456022882, 2.751386296567279)","(0.12401276761932711, 3.1040206066503373)","(0.14542003231354161, 2.602005929368064)","(0.1422297127099688, 2.6315867886768687)","(0.14226706081611812, 2.539200346489999)","(0.18225775951035134, 1.9678238341053542)","(0.15972394852611083, 2.2430590850909913)","(0.16560971820742007, 2.3767195607334246)","(0.2032667225829988, 1.8804456937997458)","(0.12470975701247528, 2.5056744044437838)","(0.12263074284434763, 2.8158873522011216)","(0.14992816319596408, 2.5464689252525345)","(0.11208222567830918, 3.057348745369615)","(0.11128323077378766, 3.1413440192927693)","(0.12810394870503486, 2.685396152250411)","(0.1855957443403091, 1.8831950838773044)"
"(0.1557944709472671, 2.2999312572047086)","(0.17116660543012382, 2.317572149095617)","(0.13081279001608886, 2.997205053389425)","(0.15871792758069223, 2.2424627755134794)","(0.1103127097453648, 3.2967080150519243)","(0.25581598156055885, 1.6498556235798465)","(0.2237162372155426, 1.7736182151797075)","(0.1736804665173416, 2.2588425909195)","(0.13237418607302767, 2.70485144787658)","(0.2873433694071828, 1.4750264442115184)","(0.21058526333867794, 1.74027845559493)","(0.1695162716256524, 2.0171945746160813)","(0.14231175168262294, 2.5635923536402756)","(0.11978498145468833, 2.7880092127583564)","(0.11755488202753306, 2.992627396747953)","(0.12658089952903132, 3.077129268969785)","(0.14633112779757634, 2.7204161804973714)","(0.12240095841515258, 3.086647020312093)","(0.14579769656821293, 2.5321062585294536)","(0.13780802930259864, 2.724461664691983)","(0.1451992580385005, 2.5149468514508553)","(0.18657143435447818, 1.9247357590771943)","(0.1572205170047101, 2.2848021951998145)","(0.16415674563448313, 2.455131080668791)","(0.18886347505348128, 2.0223371540027157)","(0.12487927484606233, 2.590734453558689)","(0.1148069835827023, 3.0067716925721)","(0.14076717812067077, 2.6969694514387195)","(0.10264793309987726, 3.3409000861104445)","(0.10283103888759128, 3.4090823190171045)","(0.12136641879624885, 2.8259723407765556)","(0.18893118161581887, 1.8666796853144698)"
"(0.17138418025497668, 2.1314703945726157)","(0.17482812049166407, 2.1912820230888728)","(0.1302779945145829, 3.0152829418804132)","(0.1582665612809073, 2.253528089928504)","(0.10877238348287202, 3.3234973241325805)","(0.2642813578860916, 1.6083158605784553)","(0.21645340283364745, 1.8464244526548743)","(0.17933930760049116, 2.1637359702467887)","(0.1330118222594815, 2.7190848012697626)","(0.28143350277267265, 1.4913240241115218)","(0.21351762684938413, 1.7030873822806418)","(0.16961517897550776, 2.040014955299396)","(0.13970287446067153, 2.6040251621044015)","(0.1246727046875708, 2.6703672504850404)","(0.11741245919887758, 3.0023092915121903)","(0.12299740916077141, 3.1653575153866744)","(0.14203615865476263, 2.837912989669946)","(0.1206286713200005, 3.14330732712714)","(0.14171121911001006, 2.5823299201507455)","(0.13476660049766942, 2.743197552923648)","(0.14283469720958045, 2.5009419838841604)","(0.18518624565136288, 1.9448535588427078)","(0.1520314960651127, 2.3049519651109596)","(0.16434026826500991, 2.4163237385789404)","(0.17665210588177133, 2.130391921936694)","(0.14311559871792756, 2.301512443518156)","(0.10895052238958536, 3.194468193592044)","(0.14114371548752466, 2.671047280056738)","(0.10186831141720742, 3.388645085444169)","(0.09832732986514814, 3.5163070239212995)","(0.1237113248284703, 2.7932220580861897)","(0.18611951443499636, 1.861874053199595)"
"(0.17010068872891693, 2.1359800272030793)","(0.17536328257075792, 2.1957802024877298)","(0.12621532586155026, 3.0801943675431653)","(0.1582533455608268, 2.27490192707799)","(0.10250006899287381, 3.5450796636624107)","(0.2602633152709282, 1.6504684340443132)","(0.212460294313775, 1.914130659615782)","(0.18066429433070677, 2.0970281293094604)","(0.135312882855575, 2.6628678060312834)","(0.27046858011471453, 1.5454196214719378)","(0.21226016756958346, 1.7047246287530575)","(0.16990433327695884, 2.004057191799695)","(0.1407960429357605, 2.538233221979494)","(0.12575794017309402, 2.557923133394207)","(0.11629797399627902, 2.946381603489307)","(0.12983151408032612, 2.9622851400131545)","(0.1591192050992058, 2.5335536780093086)","(0.13556277947202283, 2.8257113495538917)","(0.1507509588229046, 2.4591107440694637)","(0.14297275808680265, 2.597413350525728)","(0.15055816294638222, 2.3949486195544436)","(0.1906073706315812, 1.8980022114105342)","(0.15645410282227515, 2.2468132513455945)","(0.16810890122190833, 2.3351922623920585)","(0.17701621775316384, 2.1356457665470994)","(0.13835037548309406, 2.391709444301717)","(0.10793809991698095, 3.188925195882575)","(0.1376677711826087, 2.7246771341186062)","(0.10496798968302729, 3.3164218584447855)","(0.09881314484688523, 3.4877743124694334)","(0.11121753072205316, 3.053734403378137)","(0.18215644357986985, 1.8818278424249013)"
"(0.16765506690713888, 2.1271113661897405)","(0.17744950809259985, 2.163939832148827)","(0.1274640456812333, 3.025281209181661)","(0.16165727204032507, 2.2449988124023736)","(0.09815919979138919, 3.685665715130217)","(0.260952707931539, 1.6085859696846267)","(0.21656889617431765, 1.8758964979093333)","(0.18630077400090553, 2.0487943327584173)","(0.13328627277664715, 2.753807296015602)","(0.2671755970971684, 1.5797781931520893)","(0.20944615929569646, 1.742886427002537)","(0.16319532062665817, 2.1217116628500556)","(0.1425846573932627, 2.549049311429304)","(0.12722765665206695, 2.576142750692167)","(0.11666850502335642, 2.9845196240326084)","(0.12943826851039145, 3.0133038138364063)","(0.1598552589702303, 2.5286894790296106)","(0.13699559983134235, 2.8450295945036)","(0.15245697385839668, 2.4536463912876085)","(0.1449069910820529, 2.5653252175366332)","(0.1846259826639581, 2.0091548949727924)","(0.1875156937742177, 1.960938049186526)","(0.1727600664987408, 2.1325068549586055)","(0.19111843713713186, 2.0622917575798385)","(0.19553193296357874, 1.98262521740048)","(0.14873849633475192, 2.244657193557835)","(0.11620507485533575, 3.0940336634041268)","(0.15251261029187055, 2.4841801655012663)","(0.10667546483665438, 3.289239676569513)","(0.10596413269710916, 3.368440469701117)","(0.11117782192326248, 3.1230648717781375)","(0.18670335460313425, 1.8911261090403375)"
"(0.1737357320304854, 2.083995697535126)","(0.177926498537377, 2.1375911927896154)","(0.12884576479245133, 2.9420039299542267)","(0.1689928520644277, 2.1560085844974304)","(0.10309268408103509, 3.5270641691417217)","(0.2658223099837628, 1.5571444584520029)","(0.21161505867172, 1.8968851670011027)","(0.1815461130448816, 2.1068441827127073)","(0.1301819026498987, 2.7646971810591787)","(0.2475989359759312, 1.7002921902129744)","(0.18857761479566415, 1.8840353506825287)","(0.15414231505266943, 2.165036400925579)","(0.14314371545487006, 2.5264503361698276)","(0.1264970842891542, 2.5198364803825375)","(0.1156336489738636, 2.891308462029099)","(0.14090333845112613, 2.759695407314351)","(0.16612790049328047, 2.4197125647876105)","(0.14062328854203435, 2.7427430216414614)","(0.14567673139277398, 2.569534074899795)","(0.14288233719591548, 2.631207772590055)","(0.1564450403468042, 2.363806237112627)","(0.1834865461335159, 2.0158678469859814)","(0.1761888836163404, 2.089637211118948)","(0.18820778097615434, 2.069621109472637)","(0.19433472663708878, 2.032549447372668)","(0.150532997210362, 2.207395935841554)","(0.12388796651035705, 3.0132672850232893)","(0.15267102164301627, 2.45301798623802)","(0.11433542662489864, 3.0391368416449853)","(0.10791524572778691, 3.310502005166847)","(0.11083690248273831, 3.181846241565945)","(0.17718074144500315, 2.0619395011898427)"
"(0.18898452441906227, 2.019932752847537)","(0.18646670537332255, 2.1089774535410464)","(0.13579266894123568, 2.8707103334796797)","(0.18893689461153873, 1.9532313774395764)","(0.10772382600633132, 3.3818155172214523)","(0.282616210197831, 1.4636361716926396)","(0.22136162021456457, 1.8118988915719103)","(0.18748043881442195, 2.0117955088065886)","(0.129108637770813, 2.831790494884681)","(0.23835848943594756, 1.7326932967185569)","(0.187169622190404, 1.8765726245401768)","(0.15776622537963284, 2.158982800996037)","(0.14944024439844258, 2.414089028193173)","(0.13454443680293687, 2.4117015643319397)","(0.11954230966717112, 2.7804185644316393)","(0.14672695598807925, 2.65110259208376)","(0.17461337834812052, 2.2872107173626963)","(0.15508888401500895, 2.4801800022965064)","(0.15120888076837086, 2.474222617459944)","(0.16005937616621913, 2.3969800098793868)","(0.15271305484907802, 2.4795935621736716)","(0.1808436037278253, 2.037335581510752)","(0.17916506555755995, 2.1010788535611935)","(0.19261505949559182, 2.025573709573775)","(0.2123173820493948, 1.8911597340886144)","(0.15154232703171136, 2.290359313581976)","(0.1261064982668744, 3.0015509928777764)","(0.14870605460448869, 2.5181016447899607)","(0.11716939405146937, 3.0943918672366317)","(0.10789262301123613, 3.40276289516993)","(0.11086896310882632, 3.3053542691614246)","(0.17448071053039207, 2.136640863830092)"
"(0.20117951811586957, 1.8465502746783384)","(0.2195166012548946, 1.7560199375986014)","(0.1608290899075708, 2.457144024789154)","(0.21132336236549598, 1.7329067853048)","(0.11338025826376368, 3.19806783809006)","(0.2975831365497975, 1.3972683487131619)","(0.23158138295024444, 1.7404693972431429)","(0.18422773159081118, 2.0738974047447845)","(0.1282367122746534, 2.835557205233258)","(0.23769850465111747, 1.7586670838868128)","(0.18485886957652714, 1.9177095038709842)","(0.17140271269272858, 2.0233976606839272)","(0.1799485462548317, 1.9927115199325955)","(0.1417639028173025, 2.279676726466342)","(0.12422486655630907, 2.6393986450415308)","(0.15067110109227663, 2.579902955622173)","(0.18383475539732866, 2.1641307976943085)","(0.17564459190739504, 2.17478472332943)","(0.1915301532275023, 1.9244437413147732)","(0.1995632608899402, 1.8936442402017957)","(0.1679675197971911, 2.179893515831911)","(0.2087579683481583, 1.7136747124529128)","(0.1964257064908924, 1.8319317502504866)","(0.222739578381979, 1.7298868789106165)","(0.2278608646846971, 1.7245559579946335)","(0.15652828378440853, 2.1750300988046862)","(0.13196575028422944, 2.796617631963235)","(0.1750877172931995, 2.083889646199417)","(0.1289395425554239, 2.7256187631154534)","(0.11192874524621123, 3.1964543579404494)","(0.11585416131261246, 3.097587177137167)","(0.17537650177197503, 2.1528472293875667)"
"(0.20663981603184556, 1.8035309422554635)","(0.21751806850314304, 1.7402447537253398)","(0.19831839673889004, 1.9640521192336637)","(0.22158683895155723, 1.6044546120789802)","(0.11759392633040486, 3.0349612538120225)","(0.319117729126566, 1.2991733809531782)","(0.24787554355278008, 1.6434544047219675)","(0.1848643301612239, 2.065514150919842)","(0.11785921934675758, 3.1109135095427844)","(0.23610141806000243, 1.768358389519255)","(0.1773477726904009, 2.017186386645025)","(0.15962603830731434, 2.2187229061343636)","(0.15301003808434024, 2.262643693901032)","(0.1301854665827642, 2.531831801226793)","(0.11770733557928015, 2.7815506456687684)","(0.14605450803368347, 2.646398634303615)","(0.17387252865338937, 2.2519614579274903)","(0.15589345666573373, 2.3763810104779806)","(0.17431343467555543, 2.094600338299028)","(0.18315930469537015, 1.9766497176969804)","(0.1815735611291513, 1.9765360975403483)","(0.17807358663499598, 2.0222125025833817)","(0.18188250592122826, 1.9766760370271883)","(0.2299288680762148, 1.6744916907666276)","(0.23596744801298244, 1.6564156979021514)","(0.16343978746816393, 2.1439168206608334)","(0.1444882553700612, 2.58974741476441)","(0.2013545295798107, 1.7851524985286096)","(0.14315533009498807, 2.443186384264827)","(0.12517688599426924, 2.8219209812136383)","(0.12095835742929174, 2.964891161518282)","(0.15173154712244188, 2.474185994978317)"
"(0.2013552756333676, 1.8138769508743102)","(0.21816950949480388, 1.6755591517594273)","(0.2179083366927, 1.7616512288641917)","(0.23345458767611577, 1.4875399027517242)","(0.1221880793193037, 2.848263771615445)","(0.3159605169121922, 1.301708457492187)","(0.2565512751274589, 1.5952176678395396)","(0.21540098156402582, 1.781665744982551)","(0.1070726911797598, 3.44024571052402)","(0.22926546368341258, 1.7943903072290455)","(0.17502386980171075, 2.0174916341027203)","(0.15629185691943884, 2.3238222716019017)","(0.14910734600941883, 2.2735278137269654)","(0.13871159263851485, 2.424438466243364)","(0.12948806959500977, 2.567598138669258)","(0.16849036464542871, 2.3045576748792587)","(0.18105904970436482, 2.1507493113361478)","(0.15914576949300407, 2.2693572354238887)","(0.15333702229719615, 2.285949510202542)","(0.1751572692419333, 1.9974183574403561)","(0.16755004011427782, 2.1060318716726982)","(0.1568289639656694, 2.264669163361418)","(0.14702804568936875, 2.372922737194177)","(0.2265693346598672, 1.6985447201685733)","(0.20112030666575648, 1.9655171284161097)","(0.1435980609159328, 2.380767625322017)","(0.1399329561169061, 2.6933992967955556)","(0.19706331685358497, 1.823603409851083)","(0.13532464793263596, 2.5781066033767956)","(0.12811319168310076, 2.8217885492637986)","(0.12296732720603346, 2.8923893109995116)","(0.12024130473342115, 3.1438550187914553)"
"(0.2111350360540402, 1.7048646856027576)","(0.21719790833592575, 1.6632438373134217)","(0.2464811924102669, 1.5407201026134718)","(0.25462356779553674, 1.3553807586127582)","(0.1469404259612842, 2.3412741854222023)","(0.32056617651443675, 1.2976181821300736)","(0.27432941056252264, 1.4918189427275848)","(0.19738520113425856, 1.9079610330928591)","(0.10518294145073474, 3.415138164060245)","(0.2231772260647327, 1.7755687646477019)","(0.19051755011032936, 1.8016822823046779)","(0.1592754879280521, 2.21288860911908)","(0.1512828946035847, 2.2090325645766504)","(0.15255664840733973, 2.2317184276506863)","(0.15085072866096483, 2.200219025572364)","(0.19802767032529575, 1.9231573013381005)","(0.19875764507069035, 1.9231387870481362)","(0.17154170422452503, 2.027175605793053)","(0.15817832915797556, 2.125521430926232)","(0.17568846652044215, 1.8970551621742018)","(0.16052889922445215, 2.096880860063482)","(0.15932018820921448, 2.1691651956980396)","(0.15240393982961328, 2.147510731505285)","(0.22845015031807994, 1.6568067944240772)","(0.2024648509798129, 1.9304764994638723)","(0.14916864579765204, 2.2736407266406227)","(0.1578493572535142, 2.3601415962744583)","(0.20809209691906516, 1.7291729605010537)","(0.15129732100807422, 2.3073726775876406)","(0.1515228463014009, 2.3874453381035257)","(0.1529326507151399, 2.3054013709100043)","(0.12489775715253174, 2.9719921096113286)"
"(0.21108502822896041, 1.6616554833279151)","(0.21684480492201166, 1.6226187578445692)","(0.24927527143507042, 1.5159821945191267)","(0.2470646335141958, 1.379315677841144)","(0.15105545627645872, 2.1967710149550377)","(0.32084145078525367, 1.2839158703330178)","(0.26822792342814866, 1.529766069246141)","(0.19087848357122744, 1.9461608536617603)","(0.10650047517288676, 3.296623781026181)","(0.22305912903561, 1.7244403100587355)","(0.18813998871329193, 1.9227203449479537)","(0.16833386958983368, 2.134681457929842)","(0.1467597747021565, 2.247731163180781)","(0.15508186538536897, 2.2888419601658594)","(0.1592082751415145, 2.1862444025838426)","(0.20541980121720507, 1.824834263179261)","(0.20140436942597628, 1.8776387694758752)","(0.168855465420509, 2.032566448264765)","(0.15581255632019567, 2.1347645898361076)","(0.18076399841482094, 1.7673361687862845)","(0.16227004801086561, 2.0498679289572963)","(0.15668966838135673, 2.0873938494349535)","(0.1582494242302446, 2.0011712799156487)","(0.2386809216733356, 1.5661742111546972)","(0.20838503598937178, 1.8580780109803658)","(0.15472406863859614, 2.0300431712380895)","(0.1637224196190063, 2.2264488002998597)","(0.2204013371973792, 1.6300608136263681)","(0.15922665086338747, 2.1785629481782225)","(0.1602032789500782, 2.2296178023529056)","(0.15831063492763098, 2.1498509950790536)","(0.12601362180141512, 2.7809016654956613)"
"(0.2082850227908507, 1.627274273270962)","(0.21499966232812096, 1.6131718394999683)","(0.25331960847823703, 1.4030936937161216)","(0.24723637807917462, 1.373475160741167)","(0.1578487327597693, 2.091086737892759)","(0.3158297838280436, 1.2925522409989076)","(0.27384332524089344, 1.4617599653870144)","(0.19397777070348063, 1.9257805960112995)","(0.11074260963462623, 3.035986578685598)","(0.22810891587950677, 1.7117589560598867)","(0.192825272715198, 1.9788652652134464)","(0.1738185059920638, 2.030199967458366)","(0.1421814038021322, 2.296108416391864)","(0.15674502972753487, 2.3061860750788488)","(0.1732451709246678, 2.0589445360921856)","(0.2186659830936626, 1.7135509510386706)","(0.21659862805595737, 1.7378814782176695)","(0.17776261353793207, 1.9152084712850446)","(0.16182032491057333, 2.062245784099427)","(0.18834837295107681, 1.7117828257471885)","(0.16793388962189099, 1.9932286635303489)","(0.15505989820646385, 2.1106367552840433)","(0.1585820142357715, 1.982065821106199)","(0.23986728236576854, 1.5763747196446563)","(0.2124615684202393, 1.806785109288723)","(0.14636180110652122, 2.14808089119439)","(0.1758826568727663, 2.0591365118265865)","(0.23611423057023687, 1.5169063299411756)","(0.1752704184466652, 1.9518855123604808)","(0.17181309115130966, 2.102255867760036)","(0.15700233293344076, 2.1329694979472014)","(0.11922150654582826, 2.9357949218783936)"
"(0.17877419717789586, 1.8926974418664477)","(0.1945903463251895, 1.7811948702922553)","(0.2438562755358048, 1.491884161298766)","(0.2278293332152315, 1.4864779525629441)","(0.15400719161809823, 2.1364071532256017)","(0.3189843694657027, 1.2754478927857626)","(0.2776858703435697, 1.4248648817553857)","(0.1823736226320476, 2.0548959729315186)","(0.10800462702885326, 3.0708831374496297)","(0.2335609459789126, 1.6943110003743596)","(0.19157966282298622, 2.051818282380957)","(0.1656039045648335, 2.148283954383546)","(0.14175361906046385, 2.277822472355696)","(0.15474175389262113, 2.346531158972158)","(0.17321292430700322, 2.067608591271838)","(0.198484078911815, 1.8374058028610591)","(0.1947224840837895, 1.8612776491696257)","(0.16483763727666098, 1.9770128537535825)","(0.15586579938198933, 2.049401019107225)","(0.17880630773558534, 1.788649400038732)","(0.1663461324268551, 1.9327157987538024)","(0.15661694457044326, 2.054836936854952)","(0.1583037833617799, 1.947226153875285)","(0.23440683889487818, 1.5918137165857864)","(0.20763450029957675, 1.8147359198027793)","(0.1467619664565891, 2.0865675686437464)","(0.17174834859239854, 2.0634224883012835)","(0.23728874668531644, 1.4952341289735511)","(0.17056976357809484, 1.9344826575913214)","(0.1740952772302571, 2.018894924420929)","(0.15369491189343223, 2.152871823289138)","(0.11507730940990618, 3.0582815387681244)"
"(0.16969829745060955, 2.012414484352676)","(0.1818668366455345, 1.9633182295757188)","(0.21552318336696763, 1.7386426257083072)","(0.20191983507274494, 1.6576519387667403)","(0.15336198000834364, 2.1163226911168995)","(0.31822024139572097, 1.3036731608374554)","(0.25293867126531955, 1.5601660595378681)","(0.15699435825854027, 2.3342592955827923)","(0.1007911684561486, 3.198788906393909)","(0.23215769208159281, 1.6501385125033377)","(0.1960446985321253, 1.9903041098931606)","(0.1700084965939478, 2.0190233073217847)","(0.13049236202197873, 2.451037301347983)","(0.14098984046081894, 2.584943716991096)","(0.17476972241368766, 2.064581786474199)","(0.2027341882356187, 1.791410379126398)","(0.20252512693326485, 1.799023087597313)","(0.1664603419664761, 1.9870578692921474)","(0.15809714318176038, 2.005653164098912)","(0.18335087057090646, 1.7817428201227936)","(0.1667608895177658, 1.8838081243288958)","(0.1450823176049588, 2.1563244032939908)","(0.15533421299764805, 1.8930697328636161)","(0.22912918838235677, 1.6013647771297126)","(0.20070415519329876, 1.8279467047985947)","(0.1528197640565962, 1.974888605291873)","(0.17037407812704136, 1.9971112964755422)","(0.2310122242853387, 1.4781616312446673)","(0.17131125400069952, 1.8888571094776387)","(0.16965922627692137, 1.9781185920849003)","(0.1518155479529351, 2.152692940492878)","(0.11129641566685164, 3.0021157905316156)"
"(0.16438537264971692, 2.045999842915415)","(0.17236876287239444, 2.024848840512898)","(0.19315662389963126, 1.9655398259812324)","(0.1864039887646549, 1.774200757918821)","(0.14872340712736368, 2.1929964244391615)","(0.31390086228948044, 1.3504546372365758)","(0.24562948586996697, 1.653385024298457)","(0.14602849574778198, 2.6088986261596707)","(0.09563841795951111, 3.3527575028438577)","(0.22274337313773224, 1.6958954757957359)","(0.20428674438535704, 1.904646686728294)","(0.15763484321241436, 2.1685709551344643)","(0.12467078038601402, 2.554110327882334)","(0.14140876338114522, 2.6678105114599293)","(0.19278839003832166, 2.000050897800892)","(0.19864945759282304, 1.828144561188405)","(0.19523498389399405, 1.8539489331611498)","(0.16205905404060636, 2.017490742189841)","(0.15472100770178532, 2.033429975756275)","(0.17150381222584019, 1.8763342842754551)","(0.17160749454102986, 1.827124241020015)","(0.13331239476530446, 2.3177767601115167)","(0.14962062800305467, 1.9451142400534018)","(0.22317444017807164, 1.6582463788160315)","(0.18627395770811445, 1.9272127486356323)","(0.15957576260982764, 1.9017030548623988)","(0.16731371241918475, 2.008450539855105)","(0.2096615717542461, 1.6503552160128707)","(0.1571566710780414, 2.108840803158775)","(0.1530735359763065, 2.2374433806766922)","(0.1554448667201901, 2.1340194375823787)","(0.10650039869536512, 3.0345888712771973)"
"(0.16626146423482, 1.9586184765144017)","(0.17434709697129577, 1.9374366459757892)","(0.1940225256919496, 1.9714132077949513)","(0.18101637689353808, 1.7755053055226713)","(0.150612480010255, 2.141149677098037)","(0.3119356166083592, 1.3636914514911975)","(0.25510927411657003, 1.5794621575937564)","(0.14279810463057785, 2.7314548108320524)","(0.10335964060286029, 3.053214539587941)","(0.22432824652979386, 1.6907378806448503)","(0.20762352075346036, 1.7994239914300303)","(0.16484513062588685, 2.0120025094728575)","(0.1374366586911502, 2.1621911227492694)","(0.15475989908666501, 2.2229470627575196)","(0.1996724215447297, 1.7737574919024042)","(0.18500380627853427, 1.7850273872135627)","(0.1861540415142992, 1.8074391594686023)","(0.1673934863571805, 1.7964549514673205)","(0.17150253716253142, 1.6932706952044572)","(0.16963331691184907, 1.7975383898085786)","(0.1759655507709118, 1.6513199575760633)","(0.14868771460198196, 1.9265248373333104)","(0.15109247220368602, 1.7965702339678424)","(0.22693659374245473, 1.5959604533262723)","(0.1732177400077157, 1.9781413771659924)","(0.15766319344635352, 1.8554874589141526)","(0.16494418654739162, 2.03177577976345)","(0.20570741314102067, 1.6547216686397357)","(0.1522829166190268, 2.109395603251457)","(0.14859765152179966, 2.2967604721880734)","(0.15800148121241644, 2.0470095928187093)","(0.10392383772079697, 2.847116770604208)"
