Fp1,AF3,F7,F3,FC1,FC5,T7,C3,CP1,CP5,P7,P3,Pz,PO3,O1,Oz,O2,PO4,P4,P8,CP6,CP2,C4,T8,FC6,FC2,F4,F8,AF4,Fp2,Fz,Cz
1.2246288958166236,1.2207990144154437,1.3008718676695832,1.231399777623511,1.202569055270769,1.3464171191275058,1.2733904272215633,1.2114138181982836,1.1662810312257912,1.2263867623160158,1.1860375613050493,1.1813689065015789,1.1709333372301411,1.1464361713163302,1.1701053323360346,1.1725539475156297,1.1825140721315437,1.1763573846474642,1.1811249579175502,1.1987411804812746,1.2222575064737453,1.1752379767321743,1.2077079316333654,1.274576797246118,1.261080627973619,1.2319376615885365,1.218020193626805,1.2547148098460463,1.2326407375982649,1.2224958250391242,1.197347258568524,1.1905211577397221
1.2175713270188522,1.2029446340850454,1.2636405877412633,1.2167681606244125,1.1968296094337554,1.3051930120959756,1.2341611231156373,1.1929696835862431,1.1668672713075514,1.2315608385335137,1.1861542628800048,1.1783208252105877,1.1675247414534449,1.1611410677487222,1.1767407197262612,1.1761272323303644,1.1851704061540063,1.1807881544141785,1.1727444967261982,1.1771199230962195,1.196776215990789,1.1741787872436842,1.2049056688172406,1.243176662848854,1.2342697265590472,1.2203764286115695,1.2020588995028798,1.2105415018758994,1.221315549724012,1.2026322514638437,1.1890520131443805,1.1849158006410512
1.2188291569290755,1.2142333760626087,1.2783605775152593,1.22193837383519,1.203125523325812,1.299465434655577,1.2467792281682242,1.1942571943533347,1.191620292285117,1.2364440865931137,1.2104290580827226,1.1849414363338124,1.1781721006913488,1.1693704664719191,1.1820790441522981,1.1740516956178964,1.1842940095334913,1.182998846555868,1.1819246291705663,1.1789018737880879,1.197676133003456,1.1803169518228045,1.180569978696276,1.2596329164188655,1.2232639516421748,1.2073598360928004,1.1954926123050609,1.2224693197672807,1.2136473177772427,1.194960642690105,1.1848413907394333,1.184389201148061
1.2168254644852503,1.2073250727604399,1.2527657873520797,1.2087130176570655,1.1911745707058372,1.317906920904801,1.2296367668932715,1.1893405770685128,1.1667065692764593,1.2384817176014342,1.2012309558805327,1.1722832974181225,1.162825566160297,1.1617525601364238,1.1678636596274874,1.1681890750048898,1.1725164143983158,1.1700081335001196,1.1664296254860513,1.1621855398154897,1.1908917588018957,1.1677756725490276,1.1869812708386085,1.2754551740776694,1.2618293381981966,1.2137815003064127,1.2238319176165475,1.250586079716335,1.2328889067123758,1.2111281250026888,1.2004152092824198,1.1924021292872555
1.2185563639118693,1.2145710622755943,1.2377699405688067,1.2181888051327276,1.2025172581616856,1.3159081029848196,1.2260424019510974,1.1924644986252129,1.1669332344985013,1.2626050385536418,1.2092684515623915,1.1769686964507706,1.1653743015893434,1.1728834175915872,1.1795023489389904,1.1792508407065767,1.1679458173447979,1.174332169569494,1.1691268034574132,1.1588791082857774,1.1863825696905712,1.1679096218333407,1.1747983310184633,1.2452880390067689,1.2397398658349936,1.219372263891625,1.210475595891464,1.2362500321151013,1.231449980289618,1.2106666898383647,1.1910994897918066,1.1906921868059956
1.2078390526282732,1.2083381602004506,1.2209407129678407,1.2122258298173025,1.1967507077163049,1.313471227657907,1.2261560255072226,1.1937407212580269,1.1734846834175052,1.2454550325379687,1.2201552159654205,1.1743584141885712,1.1718589973255584,1.183299149635199,1.1928111846210054,1.1805081037639638,1.1723149264545982,1.1758234213831391,1.1692406285538806,1.1560180635853337,1.1796619699662803,1.1794041611011192,1.1800097848665367,1.226681616464976,1.2255530444356353,1.211951295040296,1.2171480607771041,1.225598188504498,1.2263749140179705,1.2099183049295732,1.1969540621061596,1.2091110158422367
1.2151590736696598,1.206657482299789,1.2255224093769619,1.215759414994336,1.2058604308733583,1.3039806566073093,1.2399277953526577,1.1953728965185393,1.1760679545410295,1.2464316336960375,1.221171583216492,1.1763438308869825,1.1688364480519777,1.178051597444309,1.1913904948048437,1.1873749573757653,1.18616359061174,1.1818165365833,1.177230140749466,1.181215997910507,1.1988170153144022,1.1899814894552345,1.1836860180757325,1.2221821580033103,1.2070459456458358,1.226067376720463,1.2068873021390318,1.2298821767293868,1.225569309019136,1.2129373199866869,1.2052204970463787,1.2121905401596906
1.2039826233371307,1.2034760488231062,1.2047745326037123,1.203227505124102,1.189861876703419,1.3026765443448554,1.2287791183097752,1.187961760831592,1.1808284119917243,1.2593602292372998,1.2262650480145116,1.1719223065333222,1.1678034828827404,1.1864469915527884,1.1898156568590055,1.1964744050733158,1.18853718659324,1.17734001206767,1.168003281965151,1.1683517900692846,1.184018000499907,1.1885707695069572,1.185360976245115,1.2068281049729994,1.2078907606211893,1.2067959836938578,1.2036298098006908,1.2405064972630302,1.210890690732869,1.2058260355974921,1.195633696453574,1.2094948266352028
1.1927679826590656,1.1959173856013028,1.198350463629511,1.1953454541690496,1.1749514316641445,1.304691436486596,1.2453725603404837,1.1815258601431913,1.179136784016387,1.2335491201549136,1.2189079640620066,1.173119360569957,1.1687361264276255,1.1742728529808606,1.173974478094258,1.1879962654600607,1.1835145625733492,1.1685479579235467,1.1634816884853278,1.1711242796139831,1.1785248595428341,1.1805520731212396,1.1773355661260594,1.2176945240642179,1.1907910549065854,1.1953786805865678,1.1851223001664408,1.2283569131196304,1.1941503435744996,1.1903573632250184,1.1805279215356794,1.210410875107819
1.2142432825834006,1.2128627877590918,1.2075699763185537,1.2127197013270046,1.1847440656403394,1.308113120104009,1.242949741553923,1.1821914906114965,1.1799271869179426,1.2254886568695254,1.2144041439320832,1.1639020792451893,1.1712321038142441,1.178536182812668,1.185886555197419,1.191742350746817,1.1856754913703005,1.1678206068254655,1.1600764924383722,1.1713869095473108,1.1685743761898528,1.1827889450464082,1.1770429924679469,1.215070595786547,1.1935674050222802,1.1912745565160219,1.1918188769250095,1.2255904217497346,1.193791974543848,1.1978523495416946,1.186872642551028,1.2137677530225026
1.1996988111956743,1.2124288760731552,1.1972045086401522,1.2000532972269102,1.187516561997758,1.2921098822077606,1.2451563456757544,1.1859732349433834,1.1819586641852107,1.2072898320464223,1.2065469035470282,1.1489643424812879,1.1575850796820892,1.1818853029295129,1.1963558774316738,1.1927058749332335,1.1778909779419213,1.1636913248818466,1.1453035013192423,1.1542207764379688,1.1572341277117104,1.176785245358494,1.1778152168408753,1.1944890751972002,1.2039729575222098,1.197963650961941,1.1979456231368373,1.2307995862073313,1.1938517730248668,1.1982264267033085,1.186524344355942,1.2100116489537425
1.2109963693797672,1.2274144248533547,1.206218715953899,1.2103186687822067,1.2047557198582548,1.2916403093103763,1.227261770817403,1.1840772172907776,1.1764328187013302,1.1901671985214852,1.2059951612120978,1.1567165931230823,1.1612349948844507,1.1640945488266439,1.1834358901160096,1.1879076671271793,1.1801921832683975,1.160050573803292,1.1528257402637188,1.1666024792365262,1.1617401767246807,1.1756792322264376,1.1807043549628755,1.1899496694522003,1.2055477283797469,1.185139755427204,1.1894308500649098,1.2263071306589406,1.1889794613463551,1.1929769130409713,1.1982019257666705,1.201653405978996
1.1916551133697875,1.2064344702931995,1.1961540947400036,1.1838223104750092,1.1854374639038678,1.2620551965381772,1.2319906998305994,1.2031799915450618,1.1800876665461695,1.2085459053461236,1.2111629448692858,1.1711176819535118,1.156168085226651,1.1708373207327858,1.194033249604818,1.189820640338542,1.1731418041120907,1.1562531002982228,1.1465790137443859,1.1671652393965268,1.1653621896439408,1.175215473307979,1.1867963839052893,1.201414087116837,1.1872280527911587,1.1937640479200606,1.178501479584937,1.2018014965914345,1.174146190080987,1.1836886524875065,1.1750177338247518,1.205964840706975
1.1931525237271277,1.2061724924731738,1.196749458802097,1.188221054314905,1.186320361995282,1.2313881746662767,1.2210733326715002,1.1975260199674371,1.167667092407734,1.1806446007917715,1.195658509529474,1.1580066062596113,1.129992289180804,1.1545774601828784,1.1900644401286384,1.1823406653118074,1.168524824105404,1.1350308980745696,1.1332355183431657,1.1573402266772774,1.14134472891487,1.1623426961302654,1.1730460754786374,1.1698602733752879,1.1703789357278431,1.182913561583819,1.1673225434560113,1.185280259981515,1.1671539645001368,1.1827938159732232,1.17060637618548,1.211466606500353
1.1838485122730436,1.2027404009512193,1.1954500623039401,1.188188825975401,1.1841513470212486,1.2555476061606934,1.2429413475172624,1.1844920020417786,1.1762085881143447,1.1782437360462577,1.198368504231512,1.1763531542762562,1.1344737974362513,1.168557101110872,1.2006021380058425,1.2047163720342875,1.1884480093488914,1.1512564817907656,1.1373237080369247,1.1862380723930688,1.1567208390481099,1.1580013501638267,1.1702273675250796,1.1982635974840203,1.178565526283985,1.1769393641953723,1.1600292784741395,1.1911717734378728,1.1574294896647055,1.1657973920079066,1.1656630014123082,1.1861302167474266
1.184935160592286,1.2021920352445519,1.1898632777476534,1.1867198697707761,1.182392222515985,1.2273759724215811,1.2293471896694712,1.169337899975924,1.180878005489623,1.1566088870127336,1.1672362141742267,1.1678730321927075,1.1475587962290417,1.1623096811050058,1.1794446921927209,1.1960134042374841,1.183209382725051,1.1578380666212407,1.1466461483270212,1.1758693576749202,1.148807717768241,1.1425028064018103,1.1556495581083188,1.1878078106248757,1.1847663146222478,1.1594494782949922,1.1593994997304815,1.1818469832180571,1.1631266880691,1.1733099484840162,1.1714212403202433,1.1709632434934552
1.1888483775371452,1.2120091243577658,1.1845569466032793,1.1955654911960005,1.1922167105421886,1.2177151005861704,1.236054822018739,1.1552558683415581,1.168828356160425,1.1562014224741948,1.1703317060143994,1.1535194243668678,1.1314019588431272,1.1475259105958435,1.1652291243372952,1.1787993324453896,1.1706710521875519,1.1298296715021496,1.123854472267266,1.1550489222748217,1.12722544290151,1.1328360882419621,1.1473572851301097,1.1851944094733986,1.1785081994846045,1.1578585688648553,1.1642219606734636,1.1701498451929264,1.1682768374256187,1.182204981610731,1.1829489183047985,1.1456674147610024
1.195042971265065,1.2075008421732119,1.2026462827156323,1.1874426311468644,1.1827804667553241,1.2309866843376767,1.242277175730205,1.160347633123395,1.175461889633788,1.1469115747455578,1.1558601106285016,1.1420293571924423,1.127726544456713,1.1564043082366144,1.1773982409717882,1.1700450598842913,1.1650102172240715,1.1239417399438039,1.1145395059938275,1.1452156111205933,1.1182378233616568,1.1210252406696368,1.136385776417665,1.188945496358736,1.1846423699153155,1.171484748772127,1.1838627755438202,1.1784522657739167,1.185522494937674,1.2009166458507123,1.1883890445846834,1.1469267687817029
1.1882273593104253,1.1994867628136427,1.2008593444417446,1.1820828816759106,1.1758632961513884,1.2306207654069905,1.2216596801066795,1.1512183899259556,1.1524301252678828,1.1425037075701907,1.152919474652253,1.1338337698339551,1.1380707882209122,1.1473868384568835,1.1601278403459598,1.1611368422426291,1.1583235654100466,1.1226730485330145,1.110154833101609,1.1335191077278401,1.1118561060056753,1.1237413326463377,1.1227025832492679,1.1746076679441126,1.1733869817670306,1.162327219477686,1.1680208967100227,1.1784519958446038,1.1898877655372895,1.1977469341854161,1.18418405656241,1.1589778528164096
1.2035813157428952,1.197921476057943,1.208964993119656,1.1905894782806787,1.1815387663098116,1.2269312878240595,1.232690799891386,1.1558617692565392,1.1476092091268597,1.1581803730749005,1.165635320759524,1.1506582823657296,1.1410502506550366,1.158244418186786,1.1602502788250733,1.1783199954412282,1.1726271284438041,1.1396259121744214,1.1234581763627822,1.1505640444888579,1.1301408571524394,1.1271890119358952,1.133281714597056,1.18999567228675,1.1793533896113348,1.1477500952133348,1.1805732118920638,1.184587347755392,1.1932896421483399,1.2084460256634981,1.1978194924553958,1.1636079590173882
1.1947159129433307,1.185836969458001,1.2086008837635278,1.179600092776422,1.1672501610643493,1.2428667260765214,1.2384715555605168,1.1507137991066834,1.169584770715861,1.1643667481034397,1.1663481366076427,1.1540234439973782,1.1380920856284027,1.1611187087730732,1.1601968686618582,1.1623703229639022,1.1677181646765358,1.13682592426692,1.1201649868574435,1.1569651782900163,1.1275796672913805,1.1132548528655957,1.1267743189646098,1.2030140799105962,1.1819504238184348,1.1497304590311497,1.1759896833151493,1.189588801821267,1.1892046318709373,1.1996855983493144,1.1943384744451402,1.159560857429579
1.1959096260285083,1.1825987243966656,1.1987830738603162,1.1871400834258772,1.177336870921738,1.2381876941577914,1.243860395238967,1.15199473857411,1.176554797664965,1.1876529358428178,1.1811868652103024,1.1595079953510479,1.1315158583611347,1.1733535544698959,1.165355430159417,1.1705552575129756,1.1773521007901477,1.1356051521016601,1.1112392304746892,1.1646589968472973,1.124647039740579,1.1050185884481054,1.120923388677672,1.2058845415689354,1.1772314981835548,1.140336694647459,1.1722723284101264,1.1855857800710694,1.1887807450307557,1.1989208868722254,1.1917782530675949,1.1497782542011683
1.1965122668783188,1.1805739346561752,1.2107611997722088,1.1769643944180654,1.1734603356531355,1.2432074136153204,1.2156256384008692,1.1450288252829286,1.1576912193883768,1.157365701894402,1.1530304217928562,1.139070052068234,1.1238717110258207,1.1460573251299038,1.1574569692564174,1.1592776129762663,1.17220607813487,1.1228931418359476,1.108938394787027,1.1723429898836162,1.1277399067780334,1.1033900118923006,1.1369915367168422,1.2266973560068415,1.2106544993339345,1.1517279465484012,1.174979595228291,1.1971658635623805,1.1876516747441406,1.1986229481144375,1.1800583865171137,1.168871147269578
1.1913511690033258,1.1823434702262614,1.2044164025082262,1.1818445812135572,1.1701223794912088,1.2360282502545625,1.2102534494087218,1.1437029299566905,1.153538513352684,1.1605314873146932,1.1688631634681268,1.1464469730402624,1.1231214788600266,1.1487004076786564,1.1673572851202099,1.15449220424069,1.1673493745852614,1.1235303686370115,1.109986432495961,1.167116443554654,1.123147827082757,1.10916606840156,1.1391795760305328,1.2229024498326744,1.2160731315987978,1.1485214554976921,1.1649140418872015,1.2003121491317552,1.1869864973598088,1.1918656830823662,1.1802688551655878,1.1852041955681611
1.2070805839816792,1.1924331561608936,1.2321272618397319,1.1865816375925458,1.1659978371835897,1.2446886553218794,1.2057046101450053,1.133828968560102,1.1474800467858586,1.1656813286666121,1.1777776436944114,1.1436989253159977,1.1318223504008977,1.1547944636267142,1.1753901908841295,1.1664476739630574,1.174814894292074,1.1189197317423525,1.1057399038050166,1.1788502828262921,1.1226889310836314,1.1070720644992833,1.140496621748162,1.225921202094373,1.2237414098016768,1.147865148008939,1.1748828677989382,1.227201805694234,1.1831458565567263,1.196398463997097,1.1862596941063392,1.1958645772152203
1.2147007662220983,1.1951838485315682,1.2431789016889818,1.1927089791592682,1.180571218591881,1.2502050038782397,1.2053915532518131,1.1391283213523953,1.144969082199987,1.159495319867708,1.169280815698215,1.1426843393464288,1.1473231538313122,1.1555020288727427,1.1916450227029103,1.1954656930006888,1.2076147709008145,1.1453729833876025,1.1227786747324129,1.1871018877669077,1.131889989016806,1.127975674555507,1.156669836189085,1.2316131927118101,1.2218211020997216,1.152390928841754,1.1887451267729028,1.2277790478142583,1.1913373028407535,1.2072352082629727,1.1879773541272596,1.2141628001766072
1.1991889659938535,1.182400135832092,1.2365645283605806,1.1832122858938834,1.15958814538182,1.249355825025713,1.1984923619504773,1.1583722207379181,1.1337461557387822,1.1682688653037325,1.1713250540454374,1.1538229219829372,1.1349473774296308,1.1589959241489534,1.186619603172544,1.1999305492713028,1.2115714696446578,1.1461321337626122,1.1253248363134565,1.1853970847188506,1.1351287292229566,1.1298600002646066,1.1565612408243795,1.239685244221999,1.2504320215614728,1.16271634883813,1.2035086105464794,1.2487160209471702,1.1861143965902847,1.1971007166009506,1.1769814609307727,1.2071531363649386
1.1998975105481597,1.1819768654903386,1.2358025726133712,1.190319453438756,1.1696199006055843,1.2605846236782217,1.213123998487643,1.1538227911955783,1.1360713860850713,1.1722841726504871,1.172660251981878,1.1469631210811413,1.1346316696927705,1.1518468462955143,1.1838795671094284,1.2009603457012843,1.2054932879660072,1.1501340028896336,1.1380989303301317,1.1861455355768264,1.1465728956234211,1.138011088932397,1.1685966857251417,1.2459573737798444,1.247425066907315,1.1498552478991666,1.1995384329691348,1.2393254756192327,1.1839383875305975,1.193523181581397,1.1677170024057728,1.2083506951535303
1.1823059278778858,1.1784947115242892,1.2138714568087068,1.180708793404118,1.1574453743890307,1.2580978641640355,1.2223130538472524,1.1578679311049211,1.129734771087407,1.1780053133094444,1.1758130711370132,1.1514446198155264,1.1366719720661216,1.1537869531873408,1.191278202211815,1.1992491408734878,1.2082950896145501,1.152607085455818,1.14198537907581,1.1708180090745661,1.1352149049298463,1.139673821963571,1.1705449037939668,1.229940076297249,1.239183408176017,1.1387463248432712,1.1830242772271475,1.2273152705707802,1.164430938967245,1.1733616049917157,1.1532344793529734,1.2012345478051272
1.1656399423712769,1.162100062754165,1.2084243459652084,1.165160412698281,1.1427114567023022,1.2452317508679889,1.2490918831072058,1.1598269658832279,1.1288927032441438,1.1735828344781731,1.1734735512368144,1.1341204034918315,1.135556144661779,1.1507674424413372,1.1991308489650818,1.1998654875957755,1.2029829345495957,1.1424037816939376,1.1291676249219607,1.1595250738470735,1.132366073667702,1.1355478750936363,1.1625422543126123,1.2402596948930502,1.2236346807934975,1.1501901531650967,1.1683674059114377,1.2241202490325387,1.1500088252025686,1.1610850086110795,1.1399650538974562,1.1976360800670516
1.1655539806915085,1.1678580654097417,1.2161250145674187,1.1698921418134718,1.147018928546517,1.2535057035283554,1.2409829416846687,1.1516817992531228,1.1204381585176928,1.163585694706673,1.1576697449173983,1.1284245459926672,1.151919674547857,1.1408707746469702,1.1836056570253595,1.2045452529111307,1.2076664169218307,1.161061123630911,1.1534942539459443,1.1780553096130588,1.1578349357797046,1.154700338958094,1.1672300646235472,1.2309891110772802,1.2309273819759476,1.1557138390476498,1.1732155476350272,1.2149533870990539,1.1489550339924661,1.1584024948327842,1.1518962940675272,1.2072598632001852
1.1708522415381424,1.1842103478016732,1.2354316998769073,1.1802128147098574,1.1549101128578916,1.2532035468305827,1.2581505490292186,1.1618178526712237,1.1157502901301386,1.1449537383069661,1.1508028861217299,1.1183156175055426,1.150821619654938,1.1455724819465323,1.189221021467256,1.209927497201466,1.2109879906832024,1.1544571396948733,1.1438206770741013,1.1782288327271997,1.1525705642061723,1.157259807796874,1.1589781739133485,1.2443580518175645,1.2276378275248794,1.1501504577919957,1.1639624789457954,1.217668299505231,1.1502600014993523,1.1576334257162484,1.152978287910063,1.2110816318390187
1.1620462648926488,1.1684550496376913,1.2390728579851964,1.1787567590444963,1.1526203472315446,1.2540100010321258,1.2862005238630514,1.1836853643856067,1.1371944886157084,1.15850676258064,1.162575853178591,1.1283306681315706,1.1730771368105184,1.153920785255157,1.198204520552589,1.2173461681214575,1.222619915845108,1.1705959081159194,1.1742583817726489,1.1884352492976047,1.1770085814756976,1.1864179770376926,1.1648405631402021,1.2305696895062965,1.2294115145515745,1.158632950978846,1.1612443749741919,1.2116196463223772,1.149402059758578,1.1556697956218385,1.1484338084094703,1.21037538007724
1.1694646275322487,1.18606269215943,1.2350608638558558,1.1909809071671835,1.1720795774665378,1.2669141952042295,1.2953643454912198,1.2130899775352846,1.151208038657378,1.1885180903408796,1.1383854940499167,1.1270245249955846,1.167639132254247,1.1488118446270477,1.1838924550253358,1.1981684384644522,1.1999759558327865,1.1718771651807243,1.1686532583995015,1.1847584685094896,1.1723889983867521,1.1827387222019612,1.1548004069607503,1.2312469655981955,1.2063259099018442,1.1526866587299487,1.1704933215557751,1.2229408682587315,1.1678679428826886,1.172677784279057,1.1537999996169723,1.2139055450719527
1.168452232968364,1.1793139556772538,1.2178760814216378,1.1798809004874338,1.1697316610766049,1.2674989612261014,1.3056416886460716,1.216347031755271,1.159374326634053,1.189413881197584,1.1595359750527576,1.1538096410791472,1.1935837633327442,1.1718174230777114,1.1947906896408604,1.1961967954109316,1.1934747663133212,1.1749296962420155,1.1926201550933704,1.1909074336043284,1.1925040578573072,1.1903532963512422,1.156699519353427,1.2186542005948846,1.1894732302018138,1.1654070321099466,1.1637543282378289,1.2083518523097259,1.1676216187581419,1.170903547629423,1.1527840523457367,1.2034651013962658
1.1802208254943662,1.1924636285925927,1.2230466078362756,1.1894432778245252,1.1852803246901513,1.2610071702075096,1.2927046801716664,1.2277632644078438,1.1573219119936182,1.1919511828139597,1.1597787304522105,1.1451674752092995,1.1811637657318144,1.154066662984947,1.1780576152853208,1.1829617820450993,1.1942125380070623,1.1664679962850006,1.1814674495305315,1.195820254821868,1.1966205293276722,1.176397867758728,1.1606483405610366,1.2325404307650907,1.200886852310672,1.1665748459610543,1.1665079637635212,1.2121300230606618,1.1656698491547992,1.1745058136436537,1.149339952897867,1.183383373142091
1.195083624335192,1.200203675516933,1.2452042173069644,1.207549209846998,1.204752561164727,1.2761379527687469,1.3150814564076676,1.2193615620649354,1.1564470358970744,1.1779882847605214,1.157052283996831,1.1494365768735295,1.1532713615686783,1.1487747318862862,1.1820822441236254,1.183032866631901,1.1816279310414883,1.1569406335271346,1.1778629990119227,1.1890518284777292,1.185565267184179,1.1917203182189195,1.1627674383427908,1.2303742186327309,1.192979420135016,1.16275704144272,1.161008573957179,1.2326096827601312,1.1741404124145416,1.1811608490250185,1.1543701992752664,1.178085189000036
1.1952886961258808,1.1994349608782389,1.232958680971424,1.2043145779361792,1.2015122466263377,1.2577672498203338,1.322896177983454,1.2217138377221621,1.174003826353473,1.2078348946439654,1.1566970611478204,1.1630712524917997,1.1683982365602357,1.1517645117995958,1.1842094423270024,1.1786876224090923,1.1742582999656521,1.1396553045068263,1.1627554336437245,1.1892631471285797,1.2045483784524265,1.194830647492797,1.1649314891694738,1.2167035637012664,1.2176536345688571,1.1617494187062274,1.1546583759075846,1.2236897145026857,1.168837151327151,1.1740016600384824,1.1583645916695442,1.196684575558137
1.208026638902704,1.2211791110665904,1.2504251754694677,1.222377161788326,1.255202731202725,1.2864827175696363,1.314373168800286,1.2456809685674928,1.2187342847982623,1.2189978966256256,1.157087212380549,1.1461201724410384,1.1843613287521693,1.1640001080721991,1.184527175027443,1.2097071614166666,1.205062327751359,1.1667683365724801,1.182338939697718,1.2090935526610913,1.2137972275463538,1.2187622907032223,1.1810794803788134,1.2299589420545831,1.2441000560292692,1.2246044372824203,1.1796484269387373,1.2340992020949701,1.2048206103894423,1.1975056943719706,1.2035247811901535,1.2597807133557077
1.2146149240756812,1.225666686279589,1.263074897980895,1.2304503115165806,1.24129259616284,1.2881326797431523,1.300827203201745,1.249796478407518,1.2323346920964067,1.2287422631919405,1.17454025287163,1.1589467262306987,1.20093668832326,1.1746864508887283,1.197440790389727,1.216700230995234,1.2161673751220918,1.1819416540071355,1.1971399586640783,1.227724274027407,1.234592171967328,1.2221763986993057,1.1871310944001197,1.252786075285183,1.2509845653696083,1.2178453193930343,1.1842399768259535,1.2404537177275206,1.2048519009015792,1.2026003371747773,1.1850319609934723,1.2799728317113261
1.2307162620203604,1.244058481290642,1.2770498109132882,1.2404789423686475,1.2711624237438233,1.30409995118128,1.297016850920484,1.2610293500226806,1.2403572175554842,1.2592620922533573,1.1923804196271108,1.177243219787241,1.1985254051742633,1.1828833294264907,1.2032809051755762,1.222831504658926,1.216328294984306,1.184579427470556,1.1982386611110019,1.2178771726279063,1.2308669345530603,1.2213705025398707,1.192761206680932,1.2576109210136055,1.2637816262249526,1.2234756158431777,1.1928203033761484,1.2517916892416978,1.225484517120438,1.2244364657753395,1.2028059456507918,1.283157329586595
1.2519231091787115,1.2347511723445637,1.295202554756546,1.2443419106934688,1.2819505965478233,1.314791131323881,1.3052469195330332,1.257010837254231,1.2541948762350728,1.290108745971294,1.2118634990395725,1.1878310521828712,1.2017551427685094,1.1977192247158839,1.2188769348593231,1.23255338976666,1.2224840102085976,1.1928106302850727,1.198469546591707,1.208425050981452,1.225115648797784,1.220776653223902,1.2005288764963618,1.273316422435119,1.2708711426952837,1.2111318274688176,1.2085826981755448,1.2745166932194218,1.2428096107521132,1.2436972789095704,1.2099135146125806,1.3027741785952687
1.2460547953126404,1.2565299809247068,1.27949314634305,1.235825092520014,1.268726460772543,1.3216257493519112,1.2955197594162,1.2550855429622734,1.2386498349681239,1.2875618904123212,1.1923515667612323,1.1831406997694005,1.197445454494118,1.1866814645848487,1.2069275539248472,1.2212257956388983,1.219527796887683,1.1787036916149365,1.1977901917955673,1.2002095376971,1.2271511045831769,1.2204430653620835,1.214618588421137,1.2905760522435077,1.2761271180642066,1.2267940124635912,1.2252331408091495,1.2884285159471789,1.2433609608350915,1.241536261525354,1.2159809413005673,1.2915183951966562
1.2445520825722947,1.2517011811575707,1.2778853636296368,1.2393126936300058,1.266554171130556,1.314466061896018,1.2738216536157072,1.2464794577298735,1.2390117714799078,1.2756570860434995,1.1974526299298829,1.1886704888720525,1.1857664514327986,1.1958104318882807,1.2066028373431799,1.2313879168975763,1.2345486390617848,1.2020587313597226,1.2084539307598943,1.2146099039868934,1.2378641633387906,1.2178751056576487,1.2148951124831175,1.29761732078015,1.2768288486999113,1.218032288704511,1.2117118789128045,1.2663567208707998,1.218799152404561,1.2224599042385258,1.2223224594026676,1.303796139308328
1.2436560178479237,1.2460014705891276,1.2874342185119427,1.2477469887445571,1.269676524740022,1.3316351197346459,1.2714499454743224,1.2355211372161383,1.245312741011414,1.2949273950310982,1.2053345477929187,1.1745754505934698,1.1836941407232366,1.1774235831836062,1.1844364291701275,1.2262468500091004,1.236920061207878,1.2005774234737197,1.2111742566414048,1.2123801184888756,1.243333877947283,1.2193659973011173,1.2337696126903577,1.3248615779966162,1.2916364171471906,1.222040130456744,1.2329629561709075,1.2834767194536594,1.234267823376777,1.2373799128541472,1.2416859673726666,1.3093322995260157
1.2572308501270244,1.2493476334849969,1.2999192448705135,1.2563380735705285,1.262814238828798,1.3383631369421576,1.2791848506451078,1.2405885833352714,1.259749330954572,1.2930014756679737,1.217413745787151,1.195968043236229,1.21252767477103,1.2048152247162431,1.207271194185916,1.2391843282104917,1.2472224951478168,1.2259445158478692,1.2343593672085083,1.2227127480650921,1.255186035338349,1.2334391380856926,1.2228306904616006,1.3005981879397883,1.278403145341846,1.2296852769719888,1.2175733149867474,1.2703812974479312,1.2308092112207234,1.23112129879738,1.25131058780371,1.3099815496612754
1.2617920554490385,1.2621863754775329,1.3021676570064422,1.2528756292803898,1.282207260202112,1.3224577724196152,1.281488970081869,1.2535707523678983,1.2610447250667705,1.2708569405952301,1.2103780212108677,1.1797147710475084,1.217278256490422,1.1919578178156585,1.202532604066862,1.2422693739020378,1.257967999346509,1.221411301760825,1.2368242788615704,1.231515023701954,1.260427288424031,1.241617047886656,1.2272288063573078,1.3078748112511673,1.279652274909615,1.2331170157388163,1.2385946336970675,1.268035385907131,1.233439725826272,1.236299370891508,1.2545264611864586,1.3185126293908183
1.2766871688342176,1.279152121503153,1.3245279905289797,1.2601482394656915,1.2805385603289987,1.336408730087336,1.2729150553588626,1.2667434662831372,1.2725816631859856,1.2613436155087108,1.2133914561558252,1.2181991273401922,1.2333607540863945,1.1992440448208617,1.201616143222063,1.23454875560859,1.2526189442768696,1.238202234769301,1.247831037002473,1.226437321836639,1.2551252161177309,1.242546656062322,1.234947710302913,1.3008201120808918,1.2600935119077121,1.2263850886447851,1.2299939388901862,1.2778544294807517,1.2228118377909494,1.2375210321759675,1.2605647560444115,1.3101989036837558
1.2903328395338103,1.2841397859027126,1.3202065747102105,1.2799311409167162,1.2925818718913773,1.3449287325950536,1.2625982873494392,1.261890456851043,1.2604208449171816,1.2593947611456064,1.2151567256795244,1.1988545575764955,1.2006052969665155,1.1853962519176484,1.1875739445713804,1.217264989909998,1.2182662005537792,1.1950441116059465,1.2159761453366447,1.193017169179432,1.2291570565970626,1.2226428878811377,1.2145426884236161,1.2950498605723952,1.2414746052873946,1.2061211303843218,1.215150034286241,1.2652143241428617,1.2267142294152316,1.2427159465006115,1.2597207959969388,1.3130439223130246
1.2420508486095916,1.2381548469331183,1.288549024210679,1.2369613369286159,1.2524060904298058,1.3291337425411502,1.2475853463335023,1.2474687378291005,1.2357607998912534,1.252912773298444,1.2067135807125258,1.189156408391708,1.1819170902439895,1.1800754786820142,1.1823411969105366,1.192838138755827,1.2067548729426947,1.1785036989942026,1.1911281345455274,1.1752486011873013,1.1888237742459546,1.1990203111147308,1.1939574286660575,1.2753796617537139,1.2069240065206848,1.1867454872272591,1.183967764944919,1.2663589257012287,1.1916111645609844,1.2038591896098905,1.2302320049722708,1.266976930369642
1.2435895482120172,1.231510314894134,1.257992266735825,1.2374161434204736,1.2421000906511663,1.3136721000814748,1.2458965804485955,1.220724205102704,1.2307819004650358,1.256429375726249,1.2003579190021767,1.1990313257922904,1.1834570132306992,1.187915715822197,1.192275869762929,1.2041027751330045,1.2232168331330082,1.1949285095912903,1.1999608009583196,1.1859145817457382,1.1986245097282218,1.1877832939399247,1.1889849613751886,1.271123342276533,1.2071848894361326,1.1940322536722214,1.1836434882498297,1.2621447769011866,1.193501530920749,1.1998622814983326,1.2280980729977096,1.251292745336277
1.2384227642743963,1.2293696224836594,1.2443684786572886,1.232603567646325,1.2500635033471965,1.3027401265836103,1.2441491598107917,1.2141271393536104,1.2403339031952103,1.236927125819598,1.2028012893944509,1.198008854937056,1.1934869339663183,1.1836999704050233,1.1753763429954023,1.191421779447323,1.2078055969328196,1.187221068852627,1.2033139096251382,1.1820425394541128,1.195471708870427,1.1913955746976626,1.1871254447546897,1.2544807615775913,1.203100014927582,1.2167038450719623,1.1801543681886795,1.2549147461890398,1.1902575159457505,1.1949792600129054,1.2345972472652476,1.2431396006842266
1.2456953183070152,1.2258175075993425,1.2379470786772595,1.2319020493199497,1.254013257184215,1.315160342237205,1.2358627555031303,1.22213762258098,1.2299091818326293,1.2385546852423908,1.2123974551380512,1.2007397433100873,1.1839830651807997,1.1970572015548762,1.1930555536212555,1.2127328354692544,1.2218959224844683,1.1895860483757283,1.1838281332121536,1.1831020405821935,1.204691785864007,1.1771949142345421,1.1891391234259003,1.2635958401357004,1.2135027735115382,1.2288348568113605,1.190057314332311,1.2590191541649356,1.1914396373226468,1.1957953559515313,1.2474994528850731,1.2434304873069975
1.2326098287483664,1.2299183272798655,1.2648326752475585,1.221531198036423,1.2337758675934483,1.3030875361609549,1.2617101431596909,1.230660061778823,1.2296420257383742,1.2493562733916477,1.2162103940482887,1.204971588157813,1.1959765638649336,1.2017129843977052,1.2083239573754498,1.2238044917564308,1.227057160960083,1.1847414566586234,1.1782032037035712,1.1856119980051767,1.194420571898624,1.1784240973791427,1.1864091807707802,1.2560103183624718,1.2214942295581213,1.2161109109468125,1.1715601730867544,1.266889709169755,1.1817756418527199,1.1859781577471618,1.2145821176062854,1.2329757598878537
1.228836044484267,1.2302579601468469,1.2503087781936137,1.2195183278035362,1.2349434472274434,1.294300732432238,1.2809296393716987,1.2243499187759619,1.2248782204796298,1.2617860539407602,1.2257935791821286,1.1988844136067498,1.195171040707367,1.2063192236005595,1.2078399770504544,1.2091229012452644,1.2178663780723264,1.1803997734185168,1.1808915515520604,1.185801637073401,1.1970597509582275,1.1927628115763915,1.1985221963049668,1.2404320311194992,1.2205237096263075,1.2163998011518211,1.1607535290390507,1.2736024719571555,1.1842595608318185,1.18655812416019,1.210187714456898,1.2407370982922608
1.218616332648175,1.2174253970334983,1.268806377608499,1.2092146081185626,1.229724147546936,1.3155525132248684,1.2969700299828526,1.2197757875259407,1.2455071103950408,1.2621013865135629,1.2239043940721581,1.215476699938158,1.2082361133315918,1.2265512831794514,1.2216700992765694,1.2150019533182437,1.222004674176819,1.1832240388580553,1.2015555480348652,1.186707124163216,1.2053253093960161,1.2065483622151578,1.2006178224717399,1.2459029597757627,1.2093199601710565,1.2443485031558832,1.1655708816269417,1.275021029524381,1.1894209851265967,1.188043328741171,1.2124659672159475,1.248818785048893
1.2279672635650671,1.232042296292818,1.2779370423739427,1.210886003507836,1.2311504414728895,1.313319028520295,1.297158997693338,1.2099318065149054,1.2425745663780554,1.251186647433926,1.2339886041896309,1.2200974918302752,1.202488851227372,1.2336592567051876,1.2305527042901148,1.2191509557751103,1.2325148037022744,1.19176175798604,1.2058531007318238,1.2086486318220628,1.2130281370518916,1.2023412684023442,1.1951976261822592,1.250449764822278,1.2265810971307858,1.2510083930242326,1.1851546364104815,1.302102444824607,1.2200491143035903,1.2159441194260614,1.2269518888368587,1.216782805919793
1.2191815800279062,1.2274602425614436,1.2737263195824393,1.2053219595261744,1.202610973099479,1.2841820340502264,1.3038309291236985,1.1985390445068729,1.2373952986413175,1.2477284487526628,1.2254214913322654,1.210991903913043,1.187936667349814,1.224193016034473,1.2192187050219334,1.2078008888461618,1.234557913920933,1.1832236563755223,1.1818072797954777,1.1925988070408229,1.195656073163343,1.1799827031887946,1.1763719855837542,1.240158750969629,1.2073168490529826,1.2331365724091554,1.1727223820999446,1.2878320052975956,1.1921190707400986,1.2019818244223934,1.2141632845882955,1.2173266839322987
1.2421109002694233,1.24815586796917,1.3177286476258019,1.223625767237596,1.2202464919502485,1.2916359327222342,1.3010501432797157,1.2147164213819108,1.2254550676229696,1.251654897514812,1.2582223962035606,1.2347439586514544,1.201676789609263,1.2649820612102132,1.25710557469278,1.2181059529229072,1.245655456093608,1.20751525660601,1.2008217740485108,1.2213254948303365,1.225757994025226,1.1925834703849323,1.199720507608016,1.2584915549448508,1.2354191214598553,1.2433877540105156,1.2006211801098987,1.3082052913983644,1.2198794509336064,1.222496539540626,1.2317173991868207,1.2285326212664263
1.2411790554960216,1.2575435578537633,1.3195460628560438,1.2288931831576355,1.2108114861315968,1.2860072549705241,1.3016339626351128,1.1728233652206221,1.2067100525180021,1.2249077853496786,1.2636030229780237,1.2267931576939815,1.213282290551189,1.2628268129991826,1.2642044058292083,1.2500778175349383,1.282900718177437,1.2302865494346957,1.2061113624657724,1.2352017734420582,1.22648829701334,1.1891884968189808,1.1909479268581906,1.2597995826459336,1.2405858825389056,1.2264688471956906,1.19681747876712,1.2918263436858166,1.2051462472892094,1.2169567128896377,1.2181995880606546,1.1903099515225912
1.2445856240621567,1.261212579466087,1.328793737715125,1.2273521766322815,1.2084864707526801,1.293667588675736,1.323435020989535,1.1778469393044166,1.2029272220286928,1.224868214327123,1.2830492637227076,1.225328408159672,1.207199956784731,1.2632386587678512,1.2733944399248007,1.2588813892717514,1.2782281089068748,1.221445095573952,1.1756600845094027,1.214734656446848,1.2191732294169455,1.1758006375255978,1.196305010292137,1.2463633913097796,1.22059776736201,1.2353266097951991,1.2027573575270116,1.2801714921671912,1.2163042416632,1.2261200708014175,1.21340652557364,1.2010076771037685
1.2404781388591521,1.2432814690946152,1.3287210635539457,1.2415200349114162,1.2128474245514653,1.3028270439785286,1.2941940776638892,1.1764393957999473,1.206440717067394,1.2132348315187917,1.2657773105095496,1.2261382744263383,1.2138502698305336,1.2679143488071636,1.274993936773936,1.2541991821043146,1.2732695069453355,1.2231228446996794,1.1911633585579433,1.2372766534121098,1.226358720819705,1.175309742381828,1.1926178960139113,1.2542792335216293,1.2372370659663257,1.2241161558099174,1.2070240404411126,1.3142298187749544,1.2207096938305446,1.2252111838032977,1.2143978473445889,1.2046311546794557
1.2443229806486549,1.2597019827023286,1.351884492120608,1.2428948202575127,1.2137155888369384,1.287937651541752,1.2839364485136615,1.1745004707839837,1.2151968189383708,1.2092931391040094,1.2661621433294552,1.2280131738264914,1.2222415621422098,1.2699130099533866,1.2832621684751138,1.254923836940225,1.281795508149367,1.2295717173943523,1.1971362188848667,1.2361814770667308,1.213045642133407,1.1773551609591901,1.1768934104059048,1.228943561283391,1.2154965361179688,1.206356596275845,1.193875912480733,1.301898656596424,1.207570163518011,1.2120128921777078,1.2037501352375213,1.2020397392857598
1.2341563153384216,1.2498403804879612,1.3212554313573261,1.233631795033245,1.1959618884617316,1.2787082684364293,1.2604378640967637,1.1769770977126186,1.2091739616527775,1.2177953219748838,1.2728126784924814,1.2153846423500474,1.2036317081014887,1.2687828196609492,1.2799311252430534,1.2507290616663276,1.254975098946575,1.2140193133653365,1.1838348326692936,1.2305205289398158,1.2118564312530147,1.1740995910877232,1.1809916546980967,1.2297120610224184,1.2094319368605058,1.218595326650333,1.2162292766240257,1.2924546216143855,1.2175992107276226,1.2205328419206738,1.2050634596049852,1.2092740518395537
1.2451404641787196,1.270686678931124,1.334608270526761,1.2479915760211162,1.2085516398023093,1.297386532110135,1.2564197064212368,1.1769638425585414,1.2042764283253269,1.1981560299749077,1.2682338263163244,1.2012632811696218,1.2076898355713934,1.2601377207330708,1.2595338594539214,1.2200909576532952,1.2380828534692045,1.2017415083243075,1.1762370442553405,1.2223419285987447,1.1996900336516878,1.1740155734455093,1.170423878800617,1.2213788180451264,1.191157976920241,1.192276675838693,1.198450835497093,1.2820975600166393,1.1984267818928183,1.2057166753706803,1.19892655233996,1.1921390244068146
1.2273531156585575,1.2507562301278203,1.3123468313357471,1.2302927392085392,1.2027132520222268,1.2764985090007732,1.231765647094546,1.162753507615038,1.17725059250936,1.1887268979188543,1.2387215159591616,1.1958276308614437,1.179946595964893,1.232007474891568,1.2320615313654562,1.2006914702282683,1.217560074526484,1.1738647879932889,1.1477147308643953,1.194046233483898,1.1665728096108856,1.1662285721650727,1.1743377679725915,1.2166681446803398,1.1912899522639404,1.1829272258063566,1.1961490916186648,1.300578317772523,1.1946461751648276,1.2019718735790954,1.2022303462489394,1.1902772132745338
1.2184977745597234,1.246380942501259,1.3222400734024216,1.226939879381006,1.198119883017715,1.273267591161243,1.24257410416755,1.1611243945739396,1.159938930024822,1.1878761431181706,1.238613675606809,1.1848447893735956,1.1528141108770837,1.2196934914476074,1.224359578392595,1.1822543655759072,1.1937573783569337,1.1489699447553814,1.1286932643143066,1.180363263610179,1.167631575148528,1.152848948376985,1.1700106683916531,1.210793711201338,1.1781612318211805,1.172480346561401,1.181334686708428,1.29595501507082,1.1755168565183176,1.1881723792880952,1.1882963430842073,1.1786644562471822
1.21342529830685,1.231737957999756,1.3129301153109407,1.2239225544799073,1.200387513997937,1.2750262794809413,1.2375200336744316,1.166945342527973,1.1725406133939973,1.1932828828074784,1.2274322611480684,1.1846674774602213,1.1470929971907933,1.2218927460975801,1.2106838174576204,1.1800397243667335,1.1802054968471005,1.1318338383335254,1.1115595855560318,1.167541888469282,1.1521621476295316,1.1413056728298911,1.1607749000186685,1.2053147346033137,1.1940836888360125,1.1743693739451095,1.1780150208483107,1.2973289848972227,1.1808326451221993,1.1838193805712458,1.1743124249666586,1.1765177246829641
1.21609250867146,1.2308614220030258,1.289500369828665,1.2281398412945206,1.212899762715606,1.286991051532336,1.2628610449666047,1.1925412108676203,1.173454989759869,1.2014851717618655,1.2318479614702007,1.1924526322709106,1.1501585249036232,1.2129928957092004,1.2035836854310065,1.1727648202581986,1.1703793330151986,1.130257143029725,1.123009207134608,1.1742288181744198,1.1727719363717983,1.1548091876297357,1.1874342856903892,1.2418115792289848,1.2001311679871836,1.1797513086797216,1.1792765550423154,1.3015558036173707,1.1813314157704786,1.184176268827664,1.1809744465953502,1.1931707970407437
1.2208480683163607,1.2387849201212906,1.2843170259685548,1.2414182601440131,1.2190682646510422,1.3009749945148181,1.257474793037403,1.177469489187328,1.172540679708763,1.1955757441583488,1.2291963735580809,1.1883888550243449,1.1392417944999766,1.21323859145874,1.199580359495448,1.166903355381561,1.1649985917716195,1.1281011942125283,1.1234654501085288,1.1662182924923743,1.1627735439724156,1.1593153098142897,1.1848542854752404,1.2309924348384667,1.1931362087289616,1.1678547649030615,1.1808187105252466,1.3041984893113356,1.184220277478037,1.1865396331948481,1.1942986077320443,1.1891772589848857
1.2208017126441961,1.2341196842533586,1.301124759295836,1.2265910007669238,1.2129815165249507,1.2966695984502206,1.2646869355685588,1.1790892251927156,1.170858277621465,1.2050232939091692,1.2045906701426716,1.173746608869397,1.1328343606737465,1.206722937857786,1.1908663391903185,1.1609535417727372,1.1518407335481469,1.1165169589433361,1.1168862013111676,1.1570592044916532,1.1550811798449094,1.1546947723204508,1.183174088322478,1.2372362609652736,1.2107280837201717,1.1668405053748072,1.1867493240036517,1.325610229106823,1.1956285928838417,1.1955975860700498,1.1904674233693326,1.1958599523859565
1.21997495064045,1.2281845740765291,1.2682502458243818,1.2286176479197335,1.2079831507826124,1.29549299279593,1.2697463600476833,1.1815189243357078,1.1752227650306588,1.1891360525448234,1.1999500635242275,1.1709721446241046,1.1451802030313494,1.199258866949292,1.1816186349513675,1.1635813558099417,1.161841988203702,1.128292498290245,1.1348602063739117,1.1700695032115953,1.1746354054605628,1.1816555537864137,1.200487939617097,1.256855083592659,1.2221333557069922,1.1738151454891539,1.183272235799903,1.3137835624890282,1.185588764061506,1.1853011822997204,1.188890028750985,1.1894970752850367
1.2094451688423014,1.2234392940438388,1.2686609083075542,1.225300456443842,1.2008812770923725,1.303147584190639,1.2643139284430724,1.1797516069716574,1.1788514839357873,1.1906095246141606,1.200897410767561,1.1780547515506579,1.1496541426842466,1.2110172528596208,1.1902444008638489,1.1724017867630618,1.1770844770047495,1.1300683634999895,1.1319508334466446,1.1692308642793492,1.1745953769950315,1.1813966109689114,1.198935346146854,1.2340606845817192,1.2298012451297773,1.1724787022905352,1.1820460631230456,1.314352304394646,1.1801454187558087,1.1798751986703901,1.1781400657823524,1.2055047081063706
1.2132277133900273,1.206870304977099,1.280126345549964,1.2307347757913871,1.1991086497701997,1.3076549709631717,1.26842788642813,1.1934752939091886,1.1785531131144344,1.201260914744972,1.2119575855406146,1.1750625410482547,1.1418171140485782,1.2066747900400854,1.1848529400829597,1.1709268140576647,1.1717258608901215,1.1254630442889229,1.1311233496231752,1.164885401710885,1.1681421944729453,1.160460391536958,1.1834201890411449,1.2305891982725088,1.229215770196386,1.1780312166362128,1.1828944071550442,1.3045557565375467,1.193007151274191,1.196926001828339,1.186849360969943,1.2068062222657598
1.2192621656099933,1.2107443912506097,1.2821400889736314,1.229475056180619,1.2062095845175496,1.3292907612840672,1.2744104228855697,1.1742209713159184,1.1839063015299558,1.2008368861599172,1.2078811776721086,1.1768685006069182,1.1533929459679881,1.2142550240886802,1.206520394209427,1.2042635381956988,1.1972254214078104,1.1513696005503278,1.146728545761378,1.1901242577690485,1.1869472484382175,1.173867175956642,1.1991308562778868,1.2499325984815817,1.2333399610919389,1.1820318904685456,1.1890680306107224,1.3223080050881688,1.1946067342663615,1.1959506804954467,1.1978027724920706,1.2044096889000024
1.2288672985157978,1.2155125219937062,1.2613036677059062,1.2182187378877218,1.1973179509105896,1.3169907744963751,1.2675059216178788,1.197361972350672,1.1812767998061957,1.2036902361853594,1.2207919453845906,1.1768140671098735,1.173162152533831,1.213126041988669,1.2104250447266538,1.2149534692902324,1.2150051979232637,1.1650072183666735,1.1635646644583957,1.2005368892846573,1.1950992602966923,1.17946641259439,1.1913689465595754,1.2850014038672892,1.2596151365941293,1.1855674553001938,1.2148554583272004,1.3167525943923597,1.2159288098021315,1.2221715831647844,1.2049900005769298,1.212528454982683
1.2213815768550138,1.2026212854363705,1.2629635339082428,1.2131190907111986,1.2020960937948428,1.3082859194768086,1.2444839493996642,1.1774633579895355,1.2041583283858641,1.1921395445150322,1.2041052565126327,1.1836007516430849,1.1726679949275753,1.2035358709128723,1.2077246250737814,1.2100471976883365,1.2057852007901753,1.1651797837296474,1.1701228080386017,1.2077438688602722,1.2066749739923213,1.1987134945975213,1.2139363109011152,1.2749494760403661,1.2610091282996723,1.1989626445845938,1.2200351058246208,1.3235340172915897,1.2240380883077502,1.2241764444607937,1.201885208678041,1.2244806572313043
1.2061818620556801,1.1931089430735657,1.254081587259709,1.1979305978788097,1.1946720249551899,1.3055811072252352,1.2303451511841321,1.1924524896684157,1.1622061931992576,1.1991246613445554,1.201704577251516,1.160354468917295,1.161920429517994,1.180548093805694,1.1949047087828644,1.1995635847163317,1.2091209331493324,1.1815406222305649,1.1983762452533715,1.2106619674071075,1.2181223666651975,1.1934199048281875,1.196852862821044,1.2697059981774115,1.2286542386844237,1.170079124249142,1.1867596232665458,1.2973326061655304,1.1944200178244389,1.2012049234594753,1.179434542125643,1.1998161951442086
1.200499697862439,1.1914671283248934,1.265406604385873,1.1924559989444998,1.1841953758724688,1.3019930068121948,1.2149229550437164,1.1600126360709742,1.155436254828719,1.166850744360658,1.198594865204277,1.144440135326173,1.161078692738027,1.1767277172557358,1.2135483958728757,1.2034140519381609,1.2141014364897407,1.1704734983082128,1.1761706884327565,1.1987929098753956,1.1932062506785746,1.1789516434342002,1.170340645701689,1.2522778414565732,1.2312044621821197,1.1622140897960183,1.1866285739173046,1.295963272333164,1.1918956260325528,1.1975462917241875,1.1732183361542234,1.1868618324230804
1.1792421399631743,1.1676971489520516,1.2566509224275626,1.1869029508396907,1.1603317725051419,1.2995409968037357,1.2073978479746794,1.1588291939434765,1.1432645944186686,1.1817324053421125,1.199167769176548,1.1493420012926039,1.1689610941581663,1.1886985288754195,1.2304761872042769,1.2176289561850098,1.2227444890765875,1.1809728304673373,1.1893108964420642,1.2012619798028081,1.1966325037592591,1.174511536671283,1.1661964523401418,1.2318569361232377,1.2229098307152995,1.145075203065057,1.1646754980822052,1.2868472211369912,1.168019146352334,1.1742416784789251,1.1482798409032233,1.1714016835115404
1.1718238990804162,1.1676143957227365,1.2614734576309643,1.1751870684494077,1.1555293157063806,1.2663378821506501,1.2150366669537578,1.128941722790003,1.1517623126919883,1.1761801344428742,1.219831368849241,1.1623497796967273,1.148979032352313,1.199893763389933,1.2383962183568549,1.2176655292736047,1.2143550373504306,1.163771142591984,1.163148530201107,1.1928039842029368,1.1816317736211075,1.15123292752253,1.1490880833752537,1.225426139273835,1.2073057443541415,1.1299197161436865,1.1581702975938493,1.2821693022901517,1.164449315869788,1.1707312715528155,1.1422369152111262,1.1450396466469657
1.1625553248633667,1.1630667577902507,1.2542252599985377,1.1659336253065464,1.1527952102414176,1.2401634734314948,1.2294983191344686,1.1358663021778301,1.1408709264285863,1.1720439407467453,1.2172243243518126,1.1503240100923076,1.1407965081264604,1.1768453213782277,1.2252697197443727,1.1957138060533499,1.1954926260752543,1.1528162793048478,1.1539847733499389,1.1766388886821892,1.1702862846145365,1.1446714147699175,1.14225542235614,1.2195529227820812,1.1996384110660787,1.1352498180983102,1.1543261202569617,1.2760726848938408,1.160476882847373,1.1649770150717615,1.1383485248102008,1.1457677905291968
1.1616823226981647,1.1546508192234968,1.2581865851348095,1.154710348966208,1.1441448520808366,1.2762653456358866,1.2287328146606673,1.1391501553802283,1.1310571957341287,1.1645708800855437,1.2038444623391569,1.1457183830053566,1.1401971416245915,1.1686976025354165,1.2109292711112623,1.1846878950290458,1.1803061319373567,1.1483675391267607,1.1531818154981133,1.1702686553592763,1.1717779217794717,1.150013971751671,1.1520833735145029,1.2206346209459533,1.197582209717669,1.1356531919797628,1.156905904275479,1.2757739570081505,1.1602294264089439,1.1660648220095584,1.137226351762684,1.1489539668203095
1.1531258151454964,1.1535543462832063,1.248828318786143,1.147339789818742,1.1335800341908449,1.2589447516758332,1.2454694176273544,1.1327374042139737,1.1362585331285717,1.175635955237614,1.2175577939379052,1.1617623932234944,1.1387351919885629,1.1785196226507078,1.2127450254574206,1.181816189546363,1.177696705402753,1.1459705724627156,1.1513237306503041,1.1660280439355162,1.1677119531930185,1.1447593394277074,1.1416886681208143,1.2152283551880352,1.1848097549681835,1.1178603329511363,1.1473690378120578,1.286140333930952,1.1538340916410377,1.157347912514464,1.127035432889594,1.1301475758687232
1.1437348571705295,1.1551374153084548,1.2600415692861326,1.1382145860837418,1.1299200981709374,1.262824536150994,1.2516546578042025,1.1296627265672055,1.1392477579730742,1.190071291224677,1.2250391966565217,1.159259139786373,1.128409799968498,1.174536341323768,1.2133761627438968,1.1700485082208385,1.1717852137846574,1.13678718244788,1.1392073882456264,1.1603255894082596,1.160083176743962,1.1332163331223866,1.1395935073216585,1.2119978260463837,1.1882568965724334,1.1258211076055409,1.144959067487328,1.278451423433858,1.1512433107221158,1.1528720650496649,1.124843658349595,1.132624850660396
1.1288215334153868,1.1458217512826885,1.2540475895730192,1.1321946871030046,1.11911429843627,1.2552680440883681,1.2779029486582554,1.1381953201603696,1.1352754636676579,1.1927874909903216,1.2316443255396154,1.1542092008349827,1.1284883667191623,1.182930244292589,1.2133756386388355,1.1850083388050328,1.1777691108399935,1.13824176653648,1.145057198524208,1.169269654952462,1.157721284376769,1.129025866825865,1.13135711555552,1.194408634171899,1.1721624884949642,1.1053907814999278,1.1236346497538396,1.2708985502651455,1.131489453233358,1.130679923038413,1.1032966617709643,1.1213808604304205
1.1464944679425764,1.1612513104959394,1.2480907582499294,1.1500761581024779,1.1461489517370227,1.2582434652600274,1.2868656325219727,1.143405552646334,1.1681649986439273,1.2047658061123698,1.2350801678797116,1.1696235428987105,1.1378423480410753,1.1876234661778469,1.2095770782072894,1.1855865312122336,1.1769218995380686,1.1370362506004221,1.1291224310288102,1.1613252049181388,1.1478061731772762,1.1256591966761227,1.1418154630234496,1.1816927438866072,1.1783649840163752,1.1237690108908653,1.133339470944888,1.2753494658439435,1.1417860589509161,1.1403881461243675,1.1232092389288169,1.1355945788026727
1.1433669269157236,1.1609781962188168,1.2504215231391473,1.147101493415418,1.1293179035393444,1.2468841821025078,1.2791358723787827,1.1475567031602376,1.1641326008453623,1.1856068953881358,1.220043904661949,1.161541707020047,1.1487243700641887,1.1915430740137372,1.2090888643919313,1.1893096686284301,1.1866662174607807,1.1508306677111255,1.1377191089406609,1.1769216897596175,1.161267148421966,1.1292633234591682,1.1390722858308817,1.196819916190872,1.1775623995608262,1.1162949947057066,1.1247198023347678,1.2649575707713268,1.1343409594796456,1.1344829316683442,1.1159750950203484,1.123522542574108
1.152452294385063,1.1619967433042138,1.2627453672885063,1.157416648342579,1.1363919942846494,1.2554063495455943,1.2750017710035753,1.161024012475709,1.1726694761937124,1.1928715015612887,1.2220197550443292,1.157663863778413,1.1380672727694519,1.185988020366162,1.195472621339259,1.1804782338198676,1.1768481228279046,1.1360235866973294,1.1185359217994524,1.1683541696457085,1.1396161327175998,1.1168688563376103,1.1256001147760764,1.1955594169463366,1.1729996618791019,1.1343414914058814,1.1411389971620862,1.2651148879495413,1.1493184581611657,1.1470398066286205,1.1297474151244582,1.1353559073121227
1.1497849946464407,1.1607489624229927,1.2501415210837636,1.1438357213678494,1.138615566201314,1.2511603382358498,1.2845629555626903,1.1444555863744565,1.1787313767343934,1.191163151128981,1.220912245082828,1.1586693448959138,1.1425714218323888,1.164375655496674,1.1775602443514508,1.1527078796938555,1.1514569480749492,1.134531620577541,1.132799669254964,1.1697904842574973,1.1555273212882766,1.132672935644931,1.139907494327858,1.208400822527226,1.1730768400583136,1.1488353166952656,1.142765341870815,1.2603964715391072,1.1479939714001661,1.1447305606699347,1.1285432679703258,1.1587827789372462
1.146628686890896,1.1600950625512527,1.2577656501366978,1.1460589938335868,1.1416607016936982,1.263391564672049,1.2603460501127426,1.1459370271652278,1.1651002505380836,1.199031417125413,1.2097228968580191,1.1652234578719012,1.1487271595756514,1.17250767045874,1.1845900889484406,1.156874929623303,1.1617908480461088,1.1518094761514506,1.1464929024402444,1.183737786086267,1.1756272158552858,1.1399248156448274,1.1604749770857958,1.2124215521280701,1.1780417294181642,1.160450175475004,1.1463999844882444,1.264221556797857,1.14987453325121,1.1457757767688501,1.1342454588675466,1.1572921555090272
1.1612021837434507,1.1798514733563779,1.260036918764236,1.1666403308967206,1.1550552437703883,1.2662026100085946,1.265524506256828,1.1545381999090736,1.1849017514551432,1.2039751186637573,1.1858884524238764,1.1663230478661144,1.1541406827164395,1.172377056375896,1.1714388861472658,1.1715124841027895,1.179108214953012,1.1611617149341318,1.1472657514828508,1.1936057217454878,1.16757628857098,1.1379457732594458,1.1513658753125362,1.224633190222657,1.1887369647359622,1.1761161550171277,1.1543832166315227,1.2889069256160546,1.1631505676198897,1.1555458408372576,1.1490599818688285,1.1521961249756751
1.1582088155914387,1.164703977855979,1.2408437021891245,1.1682528014814955,1.1501256681561765,1.263017910485501,1.2405472718582728,1.1621587856463265,1.1766148185802805,1.2115223812354805,1.200552736583913,1.1620331028793134,1.1553333969072528,1.1810861266046213,1.17604960139643,1.1711982845698885,1.182852727787552,1.1621788825933872,1.160957363769194,1.2170902070669796,1.1881703706811568,1.1569251843162986,1.1825129061726412,1.232226098187915,1.2067831304520278,1.1775304102770598,1.1657675459252264,1.3022342302973877,1.1641843663119993,1.1555072419230832,1.1466214073070595,1.1651631473387352
1.1523294228215313,1.162688755271613,1.2330418134052301,1.1585882456669938,1.1459789865086216,1.2554855991160963,1.2355493294537796,1.1555332573831658,1.1604319768196762,1.1880876291240676,1.1846892661717725,1.1435125768524728,1.1552911938928963,1.1654957602267677,1.1635790776614832,1.1601739752120135,1.169262347198338,1.1560194034842206,1.1567159603526627,1.2217125154511257,1.194499837675631,1.1561489349579135,1.169105608705699,1.2393821410405281,1.1995468133858422,1.1624914539779538,1.150025111989288,1.2718412324421624,1.1526265264867888,1.1467691599920116,1.1352746807324199,1.1632265980155614
1.1603647702679256,1.1642819593487408,1.2392241631637333,1.1628937955529906,1.147303418488379,1.2499862386493437,1.2368871225068474,1.1473920768231605,1.1609948592385977,1.1861914818300092,1.180067112698144,1.1459121464026891,1.1577737210365122,1.1600773003047775,1.159824521724396,1.1606982651515991,1.179327686150077,1.1628943505979645,1.1696058956184647,1.2216004759078793,1.191940960857363,1.1610249835797073,1.1637845884849318,1.227996667111665,1.2013075185828699,1.1713896655694762,1.1650865517906415,1.2815445762523958,1.16464904212533,1.1617852564797198,1.1453485748386192,1.1754985284390083
1.163046289048581,1.1652289308320438,1.2403392478408104,1.164119397118115,1.1576497941187291,1.237693424677576,1.2086569676917782,1.1401127420427724,1.1595562350340505,1.1831107407449506,1.1855089274883395,1.1525854291703477,1.1529259280825845,1.1684105398331939,1.175394562599314,1.1725630405682046,1.1811463861159963,1.15583401709058,1.153312147476447,1.1965511158796192,1.1759710117390494,1.1540742171210276,1.144291313098394,1.2348821629913422,1.1970158815705547,1.1701776007308593,1.1647385513484896,1.2682398614064732,1.1621428936889098,1.1596970844721086,1.1515743113516879,1.1767339013536722
1.14608087709209,1.155741500861365,1.230885579697827,1.156202290358195,1.1418662649665885,1.2539755656982783,1.2210517174465232,1.1605180541239692,1.1479429611348557,1.1932148237105304,1.186055483793126,1.152981217420843,1.1458148774411103,1.1594582653882985,1.164582259018578,1.1612248461429995,1.17195324380203,1.150132680972476,1.1492677444205837,1.1958139750072494,1.1765106092383795,1.1462016943027211,1.1402906438373763,1.2316451385789464,1.1989102336048874,1.1604478173388613,1.1602815017401542,1.281447194780308,1.1591442548001663,1.150118911847233,1.142276776195815,1.1747489793771422
1.1547664876773889,1.1578800094019561,1.2361300402025914,1.1580145445623427,1.150279954176388,1.2642203024105154,1.2226654540042068,1.166367323180242,1.1583812427063123,1.1978063190474462,1.1896913324235976,1.16732447441158,1.1549564704333282,1.162270233500785,1.1710207658754654,1.1625512458816234,1.1748484592107324,1.1517231678268967,1.1619194148313554,1.1943970997993367,1.1798226991925596,1.164041106750729,1.1592466783886541,1.214571562398315,1.2066969343085863,1.1702892646727505,1.1714767354632185,1.27807665760283,1.1651236975312083,1.1577002591680046,1.1512093468082636,1.175496590514146
1.1549120835577393,1.1660830399526447,1.237005161155156,1.1662584374385239,1.1481757793267378,1.283897016931044,1.2499488959753753,1.1817965465454254,1.1562685304004328,1.1961739185713094,1.1973650132031244,1.1688834390054488,1.1702581205066065,1.1797570999908278,1.178772383271665,1.1882084187013815,1.1814324843613115,1.16145455324145,1.167735332526939,1.2013382060942055,1.1786309606584973,1.1720357898293372,1.1539061299923377,1.2152089382046465,1.2073995952669736,1.1667509806424292,1.1656153188576246,1.2800336400451024,1.1586087170791797,1.1516675969915682,1.1509516287781008,1.181892307922254
1.1745469442413858,1.187146104062938,1.257952304095751,1.1836460020047035,1.1581902953924335,1.2955845658964849,1.2537704497975377,1.1793168180788944,1.156820492979335,1.1952946623286196,1.1924093169990617,1.1681145439856921,1.1662197613955863,1.183053719708648,1.1868150481646251,1.1916886830088356,1.187656570965344,1.1586396533431707,1.166530895036492,1.1984684545363788,1.1849447777691053,1.1767957019868316,1.1613887273439152,1.2222689582907043,1.2256172373999188,1.172984826079004,1.187098777828217,1.293104130255889,1.1822743573447905,1.1743203439613148,1.1636997337657538,1.1835985275675187
1.1721048368212281,1.1853287086904223,1.247566078213411,1.181359262551857,1.163532872738689,1.3036779938172174,1.2586823286908337,1.1774549709645927,1.1623197170476354,1.2145435991032647,1.2181987420253737,1.1807309423318246,1.1632660743069352,1.1919105140649553,1.1942028503084503,1.1957420418795086,1.1810200429336941,1.1470390424155184,1.1551956107809194,1.1802373374835826,1.1651766883847499,1.171690432190802,1.148323744639978,1.2122369687961707,1.210280393025875,1.167335347246874,1.1725442338450336,1.2632012429926704,1.1697549705286627,1.1614685107415037,1.1632764995531164,1.179345181127868
1.1826931306289983,1.1908498572569597,1.2602702633914191,1.189718349787751,1.1666603008927146,1.3253760603241147,1.2597163038406274,1.1715411538774532,1.1541707556821708,1.2017274977587673,1.2115114068715234,1.17675985343611,1.1719029625891528,1.1851779307409065,1.1930628379736181,1.1794086268249222,1.1742236899381686,1.148870698902146,1.1646451137109846,1.1851360954467265,1.1663592469979536,1.1698850433265047,1.1441048883567786,1.212126585623952,1.203216993715989,1.1666814734310307,1.177333368702137,1.2599575728228098,1.178918269489825,1.1732990085796278,1.1681676309010869,1.1745724275074245
1.1903438885197328,1.1964753339400809,1.2696000345082532,1.202437923195095,1.170429546488415,1.3148628864652228,1.2600049294423101,1.1772074779042598,1.165387521964136,1.2089667165097138,1.2200776187096631,1.1879408465938548,1.176089585626927,1.190586246317554,1.1899100907508962,1.1785214295018591,1.166117367428042,1.1375319520958305,1.148315358049399,1.1694297471869026,1.1565069552207135,1.1675341711557579,1.1405611052612235,1.2147188479234523,1.20728661877806,1.1657678495853054,1.1779470514296455,1.2671232966393267,1.179054511842251,1.1747139856805964,1.1716609566288516,1.1722008184363069
1.199853041630326,1.2118804871491724,1.2785466574181474,1.2053333297634437,1.172303942192027,1.3420329181940678,1.2642318656601823,1.1814535067787475,1.1627570824540134,1.2271677892688064,1.2377876748023675,1.1936670143226948,1.175920093980922,1.1938472783478609,1.20277450897029,1.18004090254984,1.169458708683953,1.1461261195632817,1.1489933246516384,1.1641253464305463,1.1521032144056385,1.1691345084679974,1.153755738397418,1.2277708847834385,1.2082344673694096,1.1792345076235715,1.1908643861465082,1.2668702847256719,1.1909131637571149,1.188674057834332,1.1814904997015692,1.1798494560068824
1.170836536900497,1.1836349986999701,1.283663585520181,1.1910375308169092,1.1634271254045023,1.3620065337586356,1.267338913529931,1.1816299686467477,1.158073111171615,1.1988902539878763,1.2140187085716936,1.1890911264598807,1.1877738286375015,1.1828902908855325,1.1980093194019568,1.1896511880051373,1.1729903187732253,1.1441556894164642,1.1445763484673206,1.1545466305461036,1.144263569654276,1.161639068942652,1.1446450373458528,1.212198413863483,1.2002354087261222,1.1677647806004245,1.1743228694149934,1.2781968096669114,1.1757268640470548,1.167336128677992,1.1657674935043527,1.191260294792048
1.18825495623931,1.2073110607532758,1.2703483024359323,1.2215687823740649,1.1658870126447556,1.368841421434183,1.262721793078787,1.1804054205269983,1.1659140399505634,1.2067448257634537,1.2128993436265207,1.1880643710108696,1.1847392516135915,1.1853463458463545,1.1932661577169899,1.1842277308817184,1.1784811197610312,1.1489130909697083,1.1496251640606252,1.1719068613877266,1.1537872145650403,1.1681583785754943,1.156193704959745,1.221947018269336,1.2211740192582807,1.1849188701549052,1.2001956211348417,1.2827546122680547,1.199111382718999,1.1947801786535748,1.1785542051946913,1.1817794942529367
1.1850025006856457,1.200966028997033,1.2798735650507385,1.211523175645846,1.163166521379792,1.364813180679092,1.2794220767877196,1.1703967586053348,1.1759809364998153,1.2011064901916244,1.2195156528922657,1.1951913205138027,1.1827491506799326,1.1858749772138462,1.1881607445438112,1.1824442870645635,1.177563697039233,1.1498666512801343,1.1384750043933953,1.1765519444969672,1.1504890244297792,1.153437057512362,1.1367232599345616,1.2149074630932866,1.2058183587241986,1.172525029621061,1.1889470294526936,1.277019323764111,1.1935023916808427,1.1928465280276095,1.1802108358394654,1.1733190509493854
1.1755298632996238,1.1889012428400614,1.2829416211832463,1.201597827896452,1.157286373276664,1.3460656068415575,1.2643037070182177,1.1648722266405442,1.1541440445932305,1.1856599693040373,1.2163184366407902,1.1784946006096833,1.1607790120151689,1.16587951040437,1.170556039048078,1.1654652621107622,1.1646398581044382,1.1369277451130064,1.1228744109221946,1.1656273778504256,1.1385307734185233,1.125016534246289,1.1297816542104269,1.214215222181444,1.1960218645183933,1.1719489237231908,1.1859333307982123,1.287535104072872,1.187150185708963,1.1852312608319373,1.1696973761340317,1.161311434813409
1.1710740087117741,1.1784579718054773,1.284212929948632,1.1915161364985938,1.1537498674572928,1.3433655999559624,1.265447576014425,1.1586367700370814,1.1665906144416835,1.2098737591635496,1.2211333990512079,1.173378234589397,1.1723636831823327,1.161935458246878,1.1740834859017293,1.1664979793587584,1.1703745816210953,1.1341369863213053,1.125853509432559,1.1677122452981812,1.151448578132602,1.130392874100088,1.1354507663481188,1.242706946631574,1.20053948354031,1.1678621866568204,1.1863998047034272,1.3071535567266444,1.1912319602848067,1.1895999259037455,1.1591414846588235,1.1672652174315767
1.176043139159339,1.172312577129301,1.2793938796553188,1.195118581762406,1.1625331266347312,1.329827463244749,1.267467220981493,1.1619416280422066,1.1641389686564638,1.2122118962721355,1.2280270812542815,1.1829133460649057,1.174153536586804,1.1569769143756683,1.1601810260537142,1.1471697615533254,1.1616449168530907,1.1370383246020552,1.1379544727089397,1.1741975138655996,1.1583451249737697,1.1416045997098867,1.1475514390485078,1.2582253120833666,1.2186832003171237,1.1844721666164235,1.2042314257555664,1.3179176055084534,1.2087618028648215,1.2024208000169532,1.1702461757641107,1.1763322404748198
1.1778628966759748,1.1747363849705013,1.2890197252121776,1.1916059138366673,1.159174459883439,1.3099390990621504,1.266681048850307,1.1746407181856817,1.1675321629060837,1.195240793984641,1.1967446980978953,1.153040570569439,1.1559508362243547,1.1518904175454034,1.151359185051646,1.1486125989214322,1.1578735935225042,1.1270739916462789,1.1205729934256836,1.151814232060025,1.1371086439363252,1.1170701535853893,1.1267212594035245,1.249125320063,1.2170773045328487,1.1755676585327541,1.2068301410986115,1.3104152888209513,1.219100218261675,1.2099979449281162,1.169150680115029,1.177682192258574
1.1603955073400711,1.169133065421764,1.2778012599978064,1.1836872448202593,1.1545168433124309,1.2895645661290664,1.264409441177662,1.1824518223061087,1.182751313689489,1.1940880869094503,1.1978866402715176,1.1492835549109932,1.1725958777207588,1.144325299264956,1.1532618449583942,1.1561268829576468,1.1650233754729389,1.1292991180163587,1.1288727477297398,1.167614453468577,1.1598180720144866,1.1199920389191096,1.1294709114969184,1.2577354171932429,1.2214365627392532,1.1670026686366115,1.2033953924277403,1.3200969069263415,1.2115796066590994,1.2029414048156732,1.1590855163835716,1.169202498845473
1.1715863314766173,1.1791207376079196,1.272516896054345,1.1904651826884758,1.1693141201449748,1.2876982593735438,1.2608398380535017,1.17003617815492,1.193591471751468,1.1902550116616815,1.1884923700359045,1.1548358314393607,1.175949768529796,1.1579220328409596,1.1564142296824111,1.1483053544488675,1.1465592496365131,1.136533056296521,1.1327177678015663,1.165797380720629,1.1541573561151064,1.1284480712102085,1.1341187956279608,1.2484667700189775,1.213614965089422,1.1751933560638312,1.2094782517674865,1.3236249110192688,1.2162457953358807,1.2074108640970875,1.1722905377694393,1.1728920870012052
1.1663304425777474,1.1686737166904841,1.2499945466589097,1.1854466062313755,1.1645534004677556,1.2883491978683,1.2809150954767408,1.161299018999592,1.2027141025855101,1.197250906842019,1.2028773650058053,1.1571652669696932,1.180929268460001,1.166358313708228,1.1581663933250335,1.1449474274021758,1.1495115730423469,1.1431465968762153,1.1474771963160095,1.1917191596295773,1.180056252814042,1.131359311554138,1.1444625105655901,1.2597651177916052,1.2138887459882086,1.1638506964389344,1.2065011572581965,1.3072482901622986,1.212180952771579,1.2023363733286925,1.1534630708985736,1.171771227730238
1.1725453422868461,1.1827838076047152,1.2797885177512696,1.188628604108089,1.175989232643579,1.2785769980106216,1.2890847029876586,1.166075565394456,1.2016781095203537,1.1894664480372175,1.196988286146006,1.1708334480740543,1.1928018706233023,1.1899978713806614,1.1696025684427207,1.1570774049997514,1.1560905765171965,1.1594371287101384,1.1653204279315788,1.2031480454442993,1.1897930964958547,1.148165700834748,1.148668073893388,1.26966790505319,1.2345842745926594,1.1668603736287624,1.2174874597713026,1.3173345876428073,1.2210265346102591,1.209116129448251,1.1687206178404643,1.1768599935737596
1.186190466861415,1.1901647643562578,1.2936000629822544,1.1857846277787791,1.187538036676268,1.2600025077617039,1.289505852177383,1.1758325558671154,1.1824421692746863,1.1887655166841302,1.1708602428051016,1.1579507979114734,1.1619808531998543,1.1553465403122496,1.1385361885143832,1.1237933855178428,1.1164893676134187,1.1250807115273556,1.137969525520928,1.1696690188702767,1.17446799552749,1.1443959684229068,1.1522557208331623,1.2522951945810823,1.2359052578125456,1.1799646434933355,1.212843220579275,1.3100682097201786,1.2202705071283997,1.2130090594929064,1.1724880358233432,1.180896034023707
1.201299459361937,1.2069186120660682,1.2785575018458366,1.1979050363703372,1.214042610038386,1.2671397513082787,1.2797926326114726,1.1739522604097283,1.2180739056576573,1.202651375105203,1.1619377484097524,1.171232962392387,1.1620433199008189,1.1447326196914729,1.1362374050291542,1.124285460693742,1.1173574770765373,1.1267565230165522,1.1424780183806968,1.181501273519773,1.1854034042972796,1.141523187575133,1.158470220544537,1.274904457889986,1.2429638017632827,1.1917986844853907,1.2312299267864262,1.2999083237546734,1.23588593867158,1.2272319546871504,1.1988966928066467,1.1605389134218735
1.218835583563207,1.214330215768515,1.2884722289303558,1.2048005382619336,1.2248719659928482,1.270935826619891,1.2723932094678663,1.16440578522377,1.199113115558572,1.1780033864299628,1.1724301319394013,1.16415981601913,1.1436672494845803,1.1459873459698289,1.136828748177327,1.1292177844184592,1.1160514570789144,1.1175922646228602,1.1243760471164495,1.185141711150196,1.180740308933366,1.1342624611006213,1.1519072364938043,1.2635751223136902,1.2598938183157988,1.181561230613098,1.2348598377988795,1.2936324006431408,1.2577049864647685,1.2465919451544103,1.2121759443938205,1.1624765326538744
1.1995762066683855,1.2016891423609193,1.3043110435266219,1.1853877060740012,1.1975391108073945,1.2817810927199818,1.2633231371918996,1.1688654676341719,1.1863272705998296,1.189656054445753,1.1837526996928696,1.1642777564597866,1.1379863375389048,1.1552139210928676,1.1501263098787582,1.1254183183941855,1.109400843494872,1.1148330429052977,1.122969018736551,1.1692821205365482,1.1673133324651892,1.1405258055991463,1.139237752267527,1.2355105325185618,1.2266436276096238,1.1715758835913586,1.2023790012242221,1.2807833544462062,1.2101103618433011,1.209962430208308,1.1860113497310556,1.1534964094312006
1.2080977839540508,1.2314919626127139,1.3053339785368634,1.2069113789050283,1.2147098284018831,1.296476482487477,1.2584389735505992,1.1732569563392743,1.18926834474036,1.1940044476799592,1.1596262283107595,1.1897070877851113,1.1496235071034981,1.141012132520738,1.13703319973601,1.122543516996633,1.103385996659266,1.1263440145405752,1.1445896511573717,1.1838081343816529,1.1894436053528752,1.1643942142119406,1.1595018196205567,1.2174861645196402,1.2279709122289422,1.156172004770913,1.1953378141496829,1.277865438556725,1.2162951170034513,1.2163138988009512,1.1827027070188316,1.1669508352061193
1.2057239031459925,1.2222576720896399,1.2983698981581888,1.1965011465388964,1.194593473256337,1.3090260166156287,1.2566316503784225,1.1792989545491412,1.1916740719599443,1.2007436788934245,1.1661510942614177,1.1918715755153761,1.141961848082242,1.123666360598737,1.1209990683301843,1.115419611841594,1.1019538544602872,1.120977075087062,1.12340452851945,1.1687064795106346,1.1644164713930834,1.1509935336956025,1.153926708709058,1.2231946392941715,1.2298242461436424,1.1761651529775337,1.1985626129782454,1.2850277019215153,1.2173943593919025,1.2212052756148983,1.1915108509077368,1.181668485716805
1.1948549514614144,1.2123672085838775,1.3157154175206098,1.1916990051729826,1.1866417425726528,1.3299365598569186,1.2385709181170794,1.1766828283803947,1.1629193247314062,1.1856617144533679,1.1514115169471228,1.1964232933042238,1.1304659382137854,1.1354717554837137,1.1397356156573353,1.1462754201101522,1.1316159210413486,1.1398813428455496,1.1251389804237808,1.2007552252793774,1.1721553938636606,1.1449007067307353,1.1436179768486212,1.220366833157006,1.2328062712642456,1.1607988148616306,1.1882712572011158,1.2768973922269031,1.2159878429927315,1.2191523418926569,1.1764541094107344,1.160985023209286
1.2014597884843545,1.2046986116016705,1.3094993511261617,1.187642661699726,1.1779727702686227,1.3426690198803843,1.2512188548447296,1.2013234338163834,1.1614806192754847,1.1821623616175894,1.1485960574392873,1.197356995139682,1.11405821847168,1.1411576729003061,1.1357566538438983,1.1461133311163842,1.1408298380637947,1.1277049878760894,1.1129118159611067,1.1945586732998066,1.167047112135018,1.130175879148045,1.1358534028608764,1.218087763053421,1.2336883341447105,1.1836317412956725,1.1947397643624482,1.2607234528252016,1.2101168794072374,1.2162037021857683,1.1896681215787814,1.1501725776328842
1.2025912899723326,1.208024173992236,1.3123305998415549,1.1977319112247067,1.1798359421465623,1.3594012303967349,1.2291092215714177,1.2150954969408252,1.1733402454476223,1.1973010186332942,1.1634002698346817,1.198712460268855,1.1360547741719298,1.151645459563175,1.1599761071596664,1.1654051213226844,1.1545817655390254,1.141222966772111,1.1175888965591358,1.188936422914971,1.1694570938778475,1.1429832099891846,1.1386151710347154,1.2183124395747404,1.2321041483043742,1.1829188581671668,1.1896547480523987,1.2616321297884827,1.2032251205313589,1.2089798346177312,1.1828829970113648,1.1562775451993883
1.1994247475294322,1.193286616378853,1.2877851122096757,1.1940852901418533,1.174020431403722,1.3577944513803801,1.2302820180187122,1.2262680281850558,1.1852461210087133,1.1886849293148674,1.1829820325775209,1.1969140375105711,1.1436882473460832,1.158972107266095,1.1774948539263546,1.1683037739346913,1.1572714687312857,1.142013816146579,1.1286957788474927,1.19391317880978,1.1716767861576944,1.1576035799005908,1.143344566382848,1.2126866205979132,1.2095412950219566,1.1841611819924125,1.1789241010444447,1.2406763974034374,1.1894306635083773,1.1926745226385462,1.1745841882228414,1.168741588228844
1.1976778858415875,1.1947027932974674,1.2866499803491918,1.19760783799523,1.1694492257452538,1.3449379067441358,1.2038453094440766,1.213905525616355,1.1831821710034502,1.1887061987498266,1.1888863060852548,1.188276611140358,1.1465905305396273,1.162183521110991,1.1770072314260076,1.179643649246121,1.1660869505167506,1.1556126200628578,1.1433044190992931,1.2060842834082095,1.1754900796148802,1.1666789740414627,1.1511096180840867,1.209082389426832,1.1993458576078826,1.1863446686051895,1.181265000381726,1.2419456027390092,1.184036636468825,1.1865701457098337,1.171134572051232,1.170351400928283
1.2009416419881869,1.206373520612221,1.2878723580637583,1.1971873873378616,1.1756793663595484,1.3240452822359476,1.20672115000917,1.2327050338021437,1.1997338736861356,1.2049764253370012,1.1955544352695906,1.1976337845721199,1.1606302468560152,1.1751578890372854,1.1823631637884047,1.1801485555711841,1.1745591228773196,1.1685286725698816,1.150170962438215,1.2008493488356056,1.1637683323148784,1.1617021199732915,1.144381966434097,1.2253531119842223,1.2155982937519927,1.190735865402298,1.1938584922977038,1.262151220221465,1.192103497488841,1.1991087939869722,1.1797009129108535,1.1774912887958489
1.196980424800738,1.2091700775238083,1.2843728483909636,1.2070287950569867,1.178723334455995,1.3196435139384106,1.2027543771469895,1.2165045123767482,1.1767842827387842,1.2031488258067284,1.1802449223247555,1.18328368202861,1.1407594629943685,1.165603767788666,1.1729513821016369,1.1651865060874291,1.1571412589932817,1.1408636875338027,1.1295559097303682,1.1642100972830072,1.1451118643974714,1.1511806625709158,1.15401721692144,1.2180020981611914,1.2123963680269545,1.1958244016746817,1.1951347438834672,1.2592534586186286,1.189381076588956,1.1957260861869292,1.1842748885916345,1.1869511039059355
1.1952479154585884,1.2127253745310609,1.261756716741478,1.203082823412236,1.1803354661938756,1.311477442754025,1.2009826499657286,1.196360882972854,1.179681934207147,1.1777592209360161,1.1776123380221668,1.178949909894717,1.1631279078445778,1.1763122087420141,1.193791619729604,1.1832733380367886,1.1702536382236282,1.1546403055807404,1.1368426269067828,1.1648487491163022,1.1406986806316688,1.1497082079414844,1.1399995839124255,1.213729404651244,1.21264087809183,1.1865634331214192,1.2057783456497912,1.2531678341716643,1.2065848146135263,1.2126173747686526,1.188673346470242,1.1658431134085923
1.1756205463706646,1.1852176131170675,1.2659942772755306,1.1833744744814745,1.1643127560405562,1.2957370815289522,1.2024190987817094,1.1884349710228275,1.1563412701886078,1.1688134980638814,1.1738612669094035,1.159692284501591,1.1452061403578957,1.1688977424416984,1.1842617957272312,1.1771309413623585,1.1663076210867445,1.1480596890452375,1.1340445795777057,1.1714597734872638,1.1456314492976778,1.1415350164121594,1.1494272805743397,1.2168598872996694,1.2000852759097633,1.1902104220549705,1.19152206032953,1.2391851556416278,1.1784868977351277,1.184447965723554,1.1712229106359955,1.1620060008352497
1.1826890886994132,1.1833378934284327,1.2529475359933477,1.1895200734983675,1.16781077357246,1.2967521468536147,1.220831556124564,1.190674845449633,1.1632725387208616,1.169167698107353,1.1855162842137654,1.1563711946599986,1.1471841075874905,1.1648603229365087,1.188289612576743,1.180715716855856,1.1645698982210682,1.1461407371750831,1.1315514134994273,1.1586156077505767,1.1323409632319874,1.1390101943329478,1.1403794722725402,1.205415307526208,1.1959985960287258,1.1804583407315126,1.1921920389915703,1.2433568436085296,1.180296518515287,1.1852622261644656,1.1733546523396077,1.15118206442259
1.1888863353415666,1.193070103084088,1.2492321876438712,1.2039531733713706,1.1643905140704376,1.2872151460171983,1.2248412345914612,1.1678131950453188,1.1481141207965053,1.1509646291773363,1.1895465183518186,1.1325503744437724,1.1406170153888733,1.1518685257069208,1.17300937913445,1.1639138233646815,1.1485098358244168,1.132754709938588,1.1234682282232331,1.1422751283381565,1.1235009454458182,1.131343162671439,1.1298772182123438,1.214938551480905,1.1977319607887373,1.1803913187783597,1.1921596611953493,1.2445845209065263,1.1877792305411567,1.1938297297050044,1.1738808722520213,1.15069112841362
1.164453740630627,1.1656174340524441,1.2459291238441892,1.1720118956257426,1.1547918597543276,1.238132542661217,1.2078040210317083,1.1475286391692596,1.1556917304503733,1.164432904557293,1.2048137153490237,1.1488458597902476,1.1286509703233767,1.1611303821128622,1.1803396585808419,1.1542696812912931,1.1335645523824258,1.123504668044915,1.1176732683868493,1.1316329430724512,1.1253771141180238,1.1265249533317327,1.1420231720429783,1.2099781733530042,1.1908857834353683,1.1597701501845443,1.1784539667692997,1.2406381243431008,1.17835767412122,1.182357707348714,1.1584946051630216,1.1401274870500284
1.161935131437504,1.1806627905503522,1.2640622800404226,1.1787400268964996,1.1569984314207011,1.2359665899822632,1.217781006010785,1.1496418021651635,1.154237647451418,1.1671256085659953,1.2010145635709928,1.1508846261073515,1.1135550835403005,1.158639044814319,1.17436696170209,1.1490578112872398,1.1285503832534562,1.1083179953173814,1.1045830910353676,1.1102134314238026,1.1101600588023457,1.1079438072064955,1.1320798866567883,1.19471372652355,1.201580681291691,1.1643991434985201,1.18133604313142,1.2419284494974165,1.1830268415823553,1.1801519833270233,1.1657036176333186,1.1438342804394253
1.1631662158796137,1.1755553020071838,1.2441671747561234,1.1763387147985316,1.1500607623925403,1.2442556907208326,1.2355855314655992,1.1356758405059943,1.1555724437240151,1.1703204875276298,1.1906184385491,1.1408092887627999,1.1132919309624272,1.1388752619041962,1.1510976997313604,1.1245165196816245,1.1104156700445018,1.100732055566773,1.1011421507831984,1.096413099086502,1.101369943116731,1.1172940227465245,1.1439564494701275,1.190954708755148,1.1955169439202966,1.1657639878545938,1.186024317570769,1.241556153385033,1.1871797534166197,1.187662545399797,1.167299461566354,1.131794386625731
1.1563671877831718,1.1755831722893146,1.240191719004311,1.1714143333155296,1.1456872130853528,1.2313615901981367,1.2429925153380714,1.1288821072305544,1.1544988966922338,1.1669595950994989,1.1903049295900183,1.1449932803077623,1.1175285487782745,1.1507366945838282,1.16211291411366,1.1401448820131075,1.123387879460209,1.1061249199827135,1.1002844836723369,1.0975496241735159,1.1107466782783981,1.1074408485136646,1.132999654882792,1.1921542881500529,1.1937638149120788,1.1511303616224833,1.1739442898782115,1.231746482553908,1.1799265793479559,1.179054449561816,1.1563345963765048,1.12348302133714
1.1309053030960796,1.1457011212784407,1.218022232871976,1.1503229553761947,1.1379676991496797,1.2179318708138067,1.22955608076474,1.1189105879786654,1.1726624938451313,1.1535516354866255,1.1890532522891786,1.1526667651060853,1.1175853346604723,1.157337184709805,1.16484135574103,1.1416792705798022,1.1280588662608406,1.1146074493836313,1.1054176657534271,1.100704155021592,1.112941946284989,1.1132173436969859,1.1306858525355894,1.1620035378930087,1.1578042702775222,1.1355317792339334,1.1367215898239817,1.2042497787061237,1.1444447367299082,1.1395134598281595,1.1325256814396565,1.1224983618652138
1.1371620052873133,1.152611719497402,1.2149370401144786,1.1494270072352932,1.142939935553714,1.222985953859087,1.229612978570995,1.1331176478178768,1.1534855755408895,1.147865929653287,1.1754795926704562,1.1414187811105232,1.1222068038746984,1.1433147031303732,1.142725836102776,1.1454078431830512,1.130200766399267,1.1217629509258011,1.118324020110395,1.1120933839455367,1.1255757517215623,1.1169679697443873,1.1375274219039715,1.170520754815308,1.1576963569273635,1.141840691164114,1.1396284381221573,1.1942415531654027,1.1456087276607225,1.1431845020471068,1.1366625973240851,1.1271154070910079
1.1501531599734796,1.158161976820861,1.2283633602554709,1.15661834399598,1.1489296998303475,1.2339900134773483,1.2111208764278436,1.1266340723777193,1.15620589996684,1.1420871150503185,1.1601282598840597,1.1345587724962485,1.1225144625496761,1.1320226430481168,1.1431525684476003,1.143186297249927,1.1346895402744375,1.1277185734045407,1.1288550636676502,1.1253048270310748,1.1325388343329439,1.1284404113205382,1.1471900168162268,1.1699060292940981,1.1682139824793398,1.150065782796624,1.144479608048781,1.1867029414210768,1.1462816745850384,1.1467239351473915,1.1474385161652527,1.132574418161333
1.1444297221426667,1.1616194738891212,1.2116433030164866,1.1548038955753168,1.151202819564397,1.2282886525464392,1.21449997295481,1.1174310845237796,1.164594648597408,1.1428290309986373,1.1794748514327515,1.1501721256995516,1.1300626290333424,1.1547204808122555,1.1653796237863439,1.1592459237443324,1.1424579616918988,1.122481573022951,1.1182051291648603,1.1167333702861846,1.125344935110377,1.131287794001224,1.1442178584450402,1.1649410818225576,1.164010386743303,1.1520438410282758,1.1349911339782959,1.168129961719819,1.1362991077020874,1.134496722944715,1.142603787392769,1.1316198588388342
1.1368353169948753,1.1558963392212176,1.2108091354270965,1.156834554450899,1.1395930198355062,1.231622578640704,1.2102384031686806,1.135329285022996,1.1525019464123665,1.1502803054673036,1.1638196046766858,1.1482403185944208,1.1312466617232626,1.1452522670286784,1.1629982622675428,1.1599880036236239,1.1456606100936566,1.1274788860397602,1.1246409705266571,1.123535147475482,1.1308535150225958,1.1370370063276227,1.1510233869767643,1.16639444852551,1.1621715916966344,1.1539669108119348,1.1310759153658088,1.1648065230763638,1.125144657002641,1.1233752647349788,1.1326787337817295,1.1525660716672779
1.1446488218879853,1.1626174347238638,1.2150816612887338,1.1590492061344944,1.144125231696126,1.2462994738567559,1.19119075950814,1.1356499904942117,1.1675654295237508,1.1394096278070325,1.1551949741437824,1.1408350911619747,1.1331774520296205,1.1444989502293865,1.1659608600089588,1.1608342337225372,1.1463702489152017,1.1356411035622418,1.1296484609508706,1.1260964105139923,1.1340326861879586,1.1397237754792995,1.146023669310079,1.1625427028995678,1.1536611133004857,1.1479645449467528,1.1300073384361802,1.156332391140158,1.127798620949167,1.130470053110507,1.138613487861968,1.140756148585084
1.1620111424043778,1.1882492943556602,1.2065162588461984,1.1800035024052398,1.1659361424760577,1.2532222071444747,1.1871398423942674,1.128166049572708,1.1551985652051973,1.1226431354711988,1.1586115965059038,1.127461303428087,1.1509400111844,1.1472091726490867,1.1794625841381092,1.1671393407086619,1.152404606143207,1.1447507729204502,1.1385627627971617,1.1295587795176678,1.1430697933614649,1.1551200196593403,1.1614622728457096,1.1676748408364575,1.1497317531490787,1.1595872748327385,1.1366712309923326,1.1650175935543576,1.1363710786988157,1.1414603467438236,1.156428546954251,1.1549630639795196
1.1621156562993886,1.170809150173039,1.2017204897033302,1.1680295888448216,1.1609380376611447,1.2343301578842096,1.1831789806375068,1.1471377936448526,1.1426242789734635,1.1227693656117954,1.1462373227443177,1.1254998259411018,1.1527837484374228,1.1431314267694077,1.1801880829932094,1.171696618251925,1.1586990272208628,1.149505586486052,1.1408652443616405,1.1293872750715583,1.1403608019306835,1.157298422330105,1.151402294724349,1.1704151072135387,1.1518049137524298,1.1602850933643996,1.1463363808217384,1.1612592400263422,1.1395241814386163,1.1466005247192963,1.1551540341393445,1.1490846945519424
1.1627313138985225,1.1787754002922335,1.1878241032725543,1.1643587667141755,1.1630445345787286,1.247576888555529,1.1850643896795625,1.160608776838803,1.147877565239028,1.1120482548315256,1.1396764668058659,1.1160718744201967,1.1538606997393412,1.137951632564621,1.1832283309240361,1.1654175774829176,1.1524744402101745,1.1464929233022219,1.1458161952733839,1.1455972380323214,1.151128777978416,1.171877133077396,1.16619428733159,1.1972352035224347,1.1706504386853782,1.1798558577871157,1.160145287976116,1.189329307025295,1.1495301036491965,1.1570595856557861,1.1643270675406623,1.1691179770776907
1.159458436453569,1.1646308176210025,1.1868661523022073,1.1580186456035433,1.1491956261682486,1.24708023287141,1.181545653235228,1.1560916787697157,1.1508557013035965,1.133147080386935,1.1540350753934183,1.1321941296568225,1.1508492768637062,1.1503924653545852,1.1897059547003643,1.1609501882691886,1.150517019269987,1.146093427362509,1.1427564245078476,1.1408879929265066,1.140283506642269,1.1579947991219384,1.15033889308712,1.195520843266998,1.155550657708276,1.1700628812848062,1.1559777345599487,1.165777114096609,1.15021375492218,1.1565053177432905,1.1572454611711136,1.1474135949984754
1.1456644989989757,1.1520387840001582,1.1701091764694385,1.1533796402157304,1.1440511161314366,1.2588041039399993,1.1905474495298545,1.1366789660728984,1.141158386357413,1.1224127332182712,1.149190395632051,1.1273714465596048,1.1360891658012766,1.141627725948907,1.18562472070295,1.144797316826697,1.1282854731937055,1.129793569852484,1.1283434327055564,1.1345291316889452,1.1332432096547744,1.1460347760581682,1.1469689029923502,1.182801976829521,1.1549386901863354,1.155992766425224,1.1406196225057779,1.1587002609221295,1.1313507559743743,1.1400140683883475,1.1432971953625342,1.1370468404134622
1.1359015979666687,1.1465796115199638,1.161573518274619,1.143795095483219,1.1450934030212048,1.2659451330546518,1.1814912453868502,1.139022310828818,1.1575072037057608,1.134680596460239,1.159214941983841,1.125050961153543,1.1334610516064643,1.1422679486381393,1.190351893487982,1.1558961318154397,1.1381685240217156,1.137384568969184,1.12434337966198,1.1323274726712356,1.129222974600713,1.1423404816205247,1.136018768848338,1.1682574000843058,1.1530802878241388,1.1460738418159868,1.138839895197126,1.1656127167340289,1.1358160734687426,1.1409968068433363,1.1405269063610584,1.1369882921775814
1.1439106287481566,1.1480806854991903,1.1502545928382228,1.1482888415311643,1.147155428204688,1.2558213401915013,1.1948073221921753,1.1395104073581914,1.1624245954209755,1.136952086643482,1.1557553427081664,1.1263964826619726,1.142175470380758,1.152813278397144,1.1999407607341588,1.1533440474938572,1.1295902484613296,1.128246538877704,1.1249045780647078,1.1214841621593652,1.1253167260407966,1.1377364264092686,1.1384801042909416,1.1721839654834354,1.1358797974532215,1.1432307032020053,1.1363418782709866,1.1648161777118233,1.1361287896122243,1.1425713873409984,1.1403325443647456,1.13048286385463
1.1535648878951792,1.1468893616934432,1.167482734323948,1.1520673576795577,1.148168880037912,1.2624845323018414,1.2169178181592166,1.134567363941448,1.1678815113730234,1.1350071411405804,1.1776904030307924,1.1407118667762217,1.148285737727358,1.1540564274700233,1.1839773932926423,1.1437769482879863,1.145545052284578,1.140176094618771,1.1359680991370738,1.1484078086897451,1.1400998492130914,1.1417599125867202,1.1462362485734108,1.1741791315022696,1.1381466065995587,1.1326065850060398,1.1399734726794652,1.1646976605801294,1.137264748714598,1.1460187765599577,1.1396165843676742,1.1231003850779258
1.1547698694970083,1.1473585253369436,1.1618239196298612,1.1513236244296923,1.1555134838485768,1.253138394259738,1.224124142414207,1.157603233890168,1.176327722627977,1.1574482382130182,1.1736009247641421,1.156635916967298,1.166993507150592,1.1615794745299952,1.1949109018709014,1.1588707791305761,1.157673712316414,1.159015560707172,1.1540184467387524,1.1598957618982673,1.1539254287392646,1.1603965697264695,1.1487582881052107,1.1715784508026192,1.137081939703051,1.1353917080725473,1.1445901915098433,1.177427624863264,1.140966014029264,1.1506213921822865,1.143108372077942,1.1338858924781294
1.1456480011497707,1.147205729311622,1.176941002670563,1.1434435856928626,1.144296680789742,1.2617967329455249,1.246690445010388,1.1330020721169576,1.172709265263333,1.1663904433519279,1.1801946594414445,1.1541671187508167,1.1512715279397052,1.173196150174923,1.1963606225712609,1.1458668934914178,1.1474503582105495,1.1517574279373173,1.1500254035445503,1.1718285510243918,1.1487761585399983,1.1481915649684256,1.1451983512550803,1.1667940902704041,1.1353290571561936,1.1318325077855578,1.1341667344214026,1.1723611699477006,1.1387394286728432,1.1467987107891575,1.1348287073838992,1.1325736544845197
1.1599446854167041,1.1581005392297434,1.1755940143484258,1.1603571278945986,1.1566018554370694,1.262289104057002,1.2623376485530378,1.13131284895816,1.1784926910092985,1.1793054653725064,1.1866974127216592,1.153485610546428,1.1538636410099739,1.1800194655148952,1.1944509448017229,1.1507284591500326,1.1575084910972144,1.1612802734882375,1.1558950087327224,1.1915740012180227,1.1567330904903843,1.1489296175564556,1.1560595113150203,1.1784822844762446,1.1635708348211669,1.1303679925837329,1.1404821640465108,1.1813138662336837,1.1430292857606619,1.1471980064404403,1.1445518974314446,1.1294682278271941
1.1668994840141849,1.162105842516439,1.1942528461599191,1.1591637044234446,1.1604725190497538,1.2845107059839902,1.2711793292350935,1.1323962868094757,1.181434762870081,1.1841148212785158,1.204108340328671,1.1621142554699357,1.157634313700525,1.18334593059169,1.1996148492927545,1.1597023370717081,1.166728229060235,1.1709502139098258,1.16671192450969,1.1881771367260239,1.1620769893705845,1.1597702504941372,1.1749639075320326,1.175136313584765,1.1646105153200779,1.14331616632368,1.155491624887456,1.203380306189388,1.153819280959557,1.1573820994961295,1.14823348871351,1.1262098089624835
1.1563970366361402,1.1617548023741968,1.192943141159047,1.1564497095355333,1.1552778189448063,1.258258189228952,1.2866093679799,1.1377424732404768,1.1829201535506058,1.1820094176183946,1.2057233547443527,1.1684065901900154,1.16364623879112,1.1976763143395093,1.20614762420079,1.1722539389637714,1.1892104238896788,1.1775080139695586,1.1613577753322133,1.2039692730887492,1.1556713239869854,1.144767360208994,1.1512436930173773,1.173122932057487,1.154309784365852,1.1296465495669819,1.1479387268499877,1.2041653210847445,1.1548368764733616,1.156627567033209,1.1399740396817848,1.11627875899664
1.1711291077008168,1.1921381864157603,1.2120436383632482,1.1741203126614406,1.1657171549659877,1.275609666101017,1.2972551536671644,1.165716304460489,1.1829128883571027,1.193523085550674,1.1919887849394346,1.1776902872146895,1.1757508093630153,1.194325374342925,1.2048996363633748,1.1887898349009134,1.2016617950377648,1.1923757010282434,1.1698744843839792,1.2058507796525362,1.160932597381247,1.1515089070341944,1.1479831054363925,1.1746304797500604,1.1635477885596706,1.147051785773728,1.1506862979374923,1.213010296360858,1.1664465973600515,1.1725280062059265,1.1525570410456276,1.1261009878073482
1.1892241693944061,1.2043183358413563,1.2266531981233109,1.19153699896654,1.1798646739109975,1.2706134683806471,1.2935079558105018,1.16063865367569,1.1935283799528562,1.2073256592023431,1.2292463216500444,1.1905814008919724,1.1747721941248843,1.2175423701557402,1.232071863671595,1.2000368121369849,1.2156751394892409,1.1878676351312814,1.175231959873588,1.2288982691412644,1.178395821802254,1.1515928997953995,1.1567802381252994,1.2003270291688528,1.166252502945246,1.1539546006695487,1.1622294708756442,1.2105468632513305,1.1723720918439027,1.1801602487577114,1.1638051552682573,1.1408637286300056
1.2023215711292532,1.214675112867841,1.2495754038463605,1.1974654768318358,1.184799517772772,1.271754606576501,1.3051405947313963,1.1455510946442613,1.188629852164073,1.1909131858720154,1.235229360910609,1.1875594595177283,1.1707590195765807,1.214102146539968,1.2174906453670882,1.2143362828657045,1.2306348819260442,1.2003238689089537,1.1889707113269714,1.244076105751107,1.188624084096062,1.1596909686662347,1.1705699975939796,1.2083181214709309,1.1822184845999084,1.1638510133980988,1.1811166198269534,1.2052693681551323,1.1912654871774386,1.1994854542848195,1.1695229998703136,1.133941953529891
1.1990305168818054,1.2109569738501298,1.2512819814848726,1.1877308449397495,1.1819375081943346,1.2681160820075632,1.3190875745537496,1.1541918611297455,1.1981739943886502,1.1911162359392315,1.229482814751927,1.1853834916548949,1.1822665854829166,1.2108379088661319,1.2157531209374335,1.218327684358521,1.2360212811423923,1.203517029397647,1.1845125704684671,1.2464631194771163,1.1802168982719106,1.1648765723593095,1.1648283687752563,1.2105027420918213,1.1838333518712738,1.1685787812077026,1.1827265851316175,1.2166843753597294,1.1886056415743518,1.2012761748487293,1.1758482827615093,1.1466102189644702
1.1762472245482918,1.2072120660854955,1.2322808501356761,1.1693666548382966,1.16867529141123,1.2604260268226546,1.318363908156495,1.1471610791717717,1.1829777296497161,1.177898887850876,1.211643148190709,1.1703502456157175,1.189239255998951,1.209075592423598,1.236655933389205,1.2252097885287896,1.2379371679843185,1.2170755341386816,1.1936806241759168,1.2526534678836545,1.193597735320712,1.1637653738679254,1.161613305469996,1.21705137182054,1.1737993696077402,1.1630842504622698,1.176707266989298,1.2224865251753105,1.1852210194216561,1.1928662692483485,1.1656800285719424,1.1349058594151444
1.1858243967882245,1.2104233165235438,1.2354160869331936,1.1682136017623266,1.1762096067093395,1.2701305827285123,1.3231639197302698,1.1634369382112983,1.1825517675741284,1.181599384955958,1.2148935616169934,1.1812295888987816,1.1816213203131885,1.208678163404525,1.2322228690984656,1.2200799056081497,1.2332589002940089,1.2067067217345284,1.1819032239278195,1.2314787885627514,1.1791027529946274,1.1596449206320587,1.158987410661674,1.2236975865273911,1.1875837851085524,1.1636143922314834,1.1793242977976668,1.2031370278815594,1.1879459685186229,1.1975221128024809,1.1701467790994509,1.1436886106245534
1.1704796561310655,1.200419789765791,1.2186596398340501,1.1692604449047588,1.161278365913794,1.2515479145652209,1.3109697487357257,1.1799319956603282,1.1651120045124261,1.1696108716896423,1.1993267418765095,1.1758261754947494,1.1812489946568527,1.2086856071247778,1.2324873804611007,1.2391089666235364,1.2425851318426657,1.217263984133845,1.1888814185724124,1.2371653711404311,1.1854931700322386,1.1649185100521824,1.161585695497741,1.2286096052774746,1.1890385476052248,1.1640378674248715,1.1729498014776205,1.1952010069933208,1.1617028969764276,1.1770906021940646,1.1587604291391858,1.1503294337669665
1.1869151509375524,1.204980306716953,1.2320468129070068,1.180524402340011,1.1763215302329904,1.2772656567310192,1.32527537449825,1.1766533692677017,1.163674220533544,1.1657554691383156,1.2110286470255647,1.1856229027836753,1.171207074792336,1.211187895064894,1.2274710757824296,1.233276614197372,1.2321791384903156,1.1972454073093726,1.183388986715936,1.2428695227852196,1.1844618941352572,1.151299469258825,1.1618055819618125,1.2566019357493656,1.197077936638497,1.181881639264949,1.1932164363058304,1.220437180431327,1.1852089134336088,1.1986187229633045,1.171911295364271,1.1492314985158354
1.1920290841242656,1.201293110801869,1.2320149667715172,1.180502049483867,1.1767402961923332,1.2721551107047657,1.3186342213237188,1.1884157161876456,1.170095006749511,1.177758873808095,1.2113496949058724,1.1938581852529846,1.189991184896473,1.2163627066242384,1.2186570425812677,1.2311587743969739,1.220718272372087,1.2023523146526889,1.2015764649170007,1.2468696505246701,1.1949897859119134,1.1602169067822448,1.1697217922683347,1.2606290867564611,1.218181287377552,1.190351549810846,1.2009031036964104,1.2142397517226486,1.1996911988544419,1.2063415751164401,1.1781081062308632,1.1602964102403845
1.1822274196646145,1.1933791743559032,1.2277541958702307,1.1764982309641296,1.1638556446954709,1.2735682910984132,1.3019741239227274,1.1532093844858984,1.179584316143435,1.1563014433214527,1.2088504327744136,1.1986667276960994,1.1787587170402678,1.2113904200178984,1.2149019229263018,1.227021828823092,1.2245589438452382,1.2057165862317332,1.194465744114195,1.242844498167371,1.1911886407488752,1.1587218889675566,1.1706530770999297,1.280058096976195,1.2263418639727943,1.1701517893112103,1.201620001913691,1.2231930613468216,1.2008734811916995,1.2069291604862145,1.1624941181431394,1.1574369268101432
1.1795480254586654,1.1817492111066967,1.227563016788923,1.1726082546573644,1.1529134961440402,1.255436892867545,1.2867140997098085,1.1444401426987847,1.1595464049090862,1.14932742980648,1.2061913154712889,1.1794826476526183,1.167988529685375,1.220451250994216,1.2368381762792624,1.2428088591329343,1.236694107503923,1.2023986279928984,1.1887476297006143,1.2455049002229819,1.1860509259683074,1.1431279695231416,1.1603807746936434,1.2856714423393978,1.2152379957413435,1.165619214727061,1.1920476280351138,1.2154379284486598,1.191644022460525,1.195056850631258,1.161970347523402,1.1250155291793416
1.1919672149501743,1.1882924422949461,1.2328855762876425,1.1881788657380827,1.168134022888509,1.2664641986793808,1.2915354193834268,1.1593314354480728,1.1706181472837607,1.1573066793710758,1.2016694209088221,1.194069247302025,1.183147430259031,1.2217356997398006,1.2448465108269207,1.2362111465018741,1.2310994597482252,1.2107264105629012,1.1903763742676732,1.239612430505528,1.1871398977730718,1.1379294555312762,1.1553774919884425,1.2725654256934813,1.2205450111930123,1.1711489349372814,1.1966694030060516,1.2131849813215823,1.1997580098081833,1.2008556158669794,1.1733193708525214,1.1348256510304284
1.1752941297944333,1.1812376994659464,1.1986784934754455,1.1760763226134356,1.1612496388644966,1.2373615694423306,1.2760543475878143,1.150659560593959,1.161756455459834,1.1621573856496372,1.1947999157835383,1.1858000224064256,1.1781911462322114,1.2116935913726556,1.224256176093396,1.206831027575477,1.203665184794594,1.1868198129858432,1.1714968430996937,1.2145985746067842,1.1700999049605039,1.1337850178990694,1.1489138476865752,1.252554607203766,1.1973544794873852,1.1641761696886783,1.1797755784280524,1.2104610910130167,1.1816208760330502,1.182956642685479,1.1623058143802567,1.1311610521745505
1.190028462938985,1.189604786457387,1.2269177011671126,1.188900502605369,1.1731308992279479,1.2471033622079237,1.2649795749035009,1.1541008286777048,1.170212129948286,1.1634724169855524,1.1899096383042713,1.1908937799885388,1.1730713631836978,1.2147722524044506,1.2262540980456778,1.2067799403562105,1.2084447017747,1.1805151071889655,1.1720130704905745,1.2229132164888308,1.1842547046339678,1.1399234758764145,1.155886902125878,1.266666103462913,1.2270937668686124,1.1767600034248513,1.1930772451534035,1.2126231324221055,1.1919413286807998,1.1910711296332515,1.1742842663213162,1.1319044598671142
1.1947998157319268,1.1853891740280151,1.2220684415155028,1.1848428834132652,1.1758155524102873,1.2404005973045948,1.2384968389001525,1.1596930140645567,1.1814752388228846,1.1888613991169596,1.217624159320604,1.2185375794151345,1.1901100009933214,1.24030832414737,1.2286209325432682,1.2069478741076636,1.2044332079157343,1.1869727162809816,1.1918458742195046,1.2198525769577688,1.1943196515530972,1.1535602175040556,1.1720735391910617,1.2544770044009679,1.2270400894749618,1.1818375345192977,1.1999834915092784,1.221815861279609,1.195931225706004,1.1961688207184693,1.1777138491228039,1.1386657087673944
1.1859708121155026,1.177944516214757,1.2022516652759943,1.1912333083923927,1.1775178147102476,1.2323938572179303,1.2367646028514232,1.1679831767537503,1.1932509329245176,1.198600045352623,1.2099251500743828,1.225742953330373,1.1903302977197405,1.2309008654746394,1.2197031918849477,1.193220627649596,1.1912362358942095,1.1821007181948608,1.1932818378973877,1.2085653275539368,1.1951356688486607,1.1674527482004715,1.1708584622833957,1.2410044442700168,1.21892164857071,1.183167552773178,1.1913683805907944,1.2091866001753522,1.1898939972296942,1.1885112011645094,1.1717801964236159,1.156788412180356
1.1936988004710805,1.189011986682269,1.1991428646844642,1.194028406356918,1.1886600721901985,1.2435637016257188,1.2421777386595623,1.163676994080304,1.1949193772842102,1.1940279767225932,1.2192915744240416,1.206502526811814,1.1921481899292714,1.2097168138346113,1.2081870634797316,1.1831460585627367,1.1821734216258792,1.168290672622259,1.1897228276116831,1.1995375126149581,1.193062665797865,1.1715584019303644,1.1703026304612316,1.2394194038175377,1.2146950854919978,1.1788910020115622,1.200962409914146,1.203474935222337,1.1967606951921892,1.201451661776989,1.1840129998330242,1.149802615047477
1.2124782032619021,1.20436902687327,1.205537727388759,1.2121166443179185,1.1953355576682858,1.245181476938277,1.231617334411394,1.168067845912861,1.1982118542066613,1.1999413939710695,1.2101366982772679,1.2072007516686962,1.192312979649786,1.2103873048311262,1.2122810506398871,1.1977614226278601,1.2002256005699414,1.1784718999593307,1.1874178903554793,1.1995346398250986,1.1961599104902414,1.178297596784821,1.1808494682771475,1.2294239907205078,1.2090237834738904,1.17623361333481,1.2002243515764948,1.2160433970496927,1.2010874054242464,1.2065766262912614,1.1973179055779268,1.1424120234152135
1.2062533337813521,1.2195331396766147,1.235103156583716,1.2178038507348778,1.199395340685393,1.2342275955092028,1.2530237147090133,1.1800738777032942,1.1920133925033782,1.193031033509151,1.1847197890358254,1.197626697803926,1.1858485749605345,1.1929991584571933,1.1907284610364393,1.1854477635451934,1.1885553492347345,1.1745337409817904,1.1828533768848235,1.1980512379580306,1.1923804691366244,1.17952278841903,1.1784561829637532,1.2298007355643024,1.2076880662143572,1.181851083508465,1.195920077483276,1.2228924542063646,1.1933006442544083,1.2052410403318152,1.1964355574377292,1.156838768418189
1.1915177536304866,1.2064307003179329,1.212310269821603,1.199474278430561,1.1776919944993112,1.2316758556358987,1.2582334077526984,1.2054299244646594,1.172710393758992,1.2000846892060373,1.1839122882276847,1.1736255651022391,1.176112839350975,1.18424406463332,1.1993971715329572,1.185158641633249,1.187633946926536,1.1634230085037873,1.1678808762051567,1.1841914669887381,1.1779006183738865,1.1733276134792172,1.1671516666403132,1.2042697489881216,1.1907425758755266,1.1986373731933797,1.1861604579105596,1.2004217993598283,1.187100922085203,1.1943051609169528,1.1992101193661913,1.1872509302697234
1.1968863704538033,1.2007536230181697,1.214195260788891,1.1944365882126562,1.196035876892446,1.2259993793189978,1.2882001405490577,1.183919176584983,1.203102025873999,1.2109380930448115,1.1798486450838421,1.190186144611322,1.1884871873702774,1.1986837549445077,1.204501691678773,1.2078791036298662,1.1976136156000494,1.1761832991909522,1.1641821135898656,1.188216826368165,1.177596023233836,1.1626520476536704,1.1602991626328487,1.204945699860038,1.1984078092615942,1.1743885504206,1.184699891378426,1.212240130664748,1.1842691329970731,1.1919208408409987,1.196862174439684,1.1590422189620704
1.184516230718878,1.1950537579606664,1.2326733148399638,1.180249926832999,1.170794435596386,1.2539563025342202,1.289636388405036,1.1763254629366482,1.1760965059685657,1.2023740450366684,1.1944469425450956,1.2027975755308773,1.1885284327269567,1.2047886388926017,1.2143753796010028,1.2170784164763049,1.205728544381389,1.1832110962733906,1.1773696385225783,1.2065541044149528,1.1917156469654349,1.1694116852435834,1.1656057403850903,1.2263452369927021,1.202022762753062,1.172765682717404,1.1742253497487674,1.2032975488544304,1.1738833096897847,1.180514499524346,1.188794801382933,1.14780450256419
1.1890853558444314,1.1902594283268564,1.2353516215239522,1.182740054113071,1.1693087017247563,1.2449300253891364,1.2914989345062797,1.178296938608294,1.18058240063997,1.1932508913262316,1.1850691565994909,1.177797771059728,1.1817142397067468,1.1928848267839691,1.1985176304507792,1.2001007968439152,1.195077046942912,1.1676745106110777,1.1591319768165094,1.181041382394428,1.159629063456367,1.1574958833773876,1.1457564615658808,1.2029931772272626,1.207347036051896,1.180998285866724,1.18484381893242,1.2044673685087024,1.1857380428699749,1.1903465113301746,1.1973595132310977,1.1529956586183905
1.2028914903106112,1.200550246374148,1.235796474052459,1.192810010633303,1.1875687759789242,1.254922700823917,1.302592363386322,1.1761616587832864,1.170263952853164,1.1906065307500997,1.189367309219392,1.1670058166487367,1.1706776844344644,1.1911565179730377,1.2179059316704584,1.207114941006572,1.1999396638768745,1.1664561211423743,1.1525983899724086,1.1748484656681772,1.1573282280754813,1.1511702561635544,1.1419075254766797,1.2077626830685069,1.1948131021642188,1.1869050907297614,1.184868893728896,1.203163471810379,1.19808789326325,1.203236623812583,1.2040784219228369,1.15571684667503
1.1872428206652883,1.188840917065043,1.2389005335936825,1.1874117851826362,1.1752768534021634,1.2608285075486303,1.2994589321391923,1.1732681673021905,1.1667785200265308,1.1831755429582562,1.181402997044657,1.161132418828269,1.1543078732584744,1.1763521626093505,1.2171732528425774,1.2123482068170264,1.2059950000509807,1.1658384444500183,1.1431982007257337,1.180157729271459,1.1525942475213689,1.1404940938403285,1.1239892208914788,1.2232770360128438,1.1750032070889058,1.1695402167875824,1.1656903753541987,1.1889849065105416,1.1816207905969025,1.1874691529660117,1.1876476162441802,1.1483979334614234
1.176848198086924,1.185681249574434,1.2348173402313083,1.17626951982367,1.1682221191953175,1.2709780825126926,1.2990199802024665,1.1737067943351276,1.1620827579396962,1.1749127458850295,1.1821793942634284,1.1615031018140713,1.1495294981939297,1.1828495421908307,1.2122705182457403,1.2197448499220862,1.2194811776699874,1.1792575163930075,1.1523147776216438,1.1850901351922114,1.1599102893201345,1.1457164442834877,1.1259337158773854,1.223139519035353,1.182641073354929,1.1671816501718963,1.1536012518130598,1.1899482154380336,1.1710205346515612,1.1715902806099687,1.1892649812625407,1.1529155283367856
1.1841904762007676,1.1806164488575488,1.2292902997975765,1.1849043148496428,1.1590001327066253,1.2627389832765512,1.296951300662544,1.1755017840760795,1.16066277906683,1.1807328546150304,1.2049560711550322,1.1579619311464893,1.1490370141299069,1.2076095544415117,1.2420012255823019,1.2371031753392816,1.2281489386648492,1.1746738455041956,1.1397246567745694,1.1798614921503991,1.15060049490653,1.1353284577458005,1.1155242681332516,1.2280490517616438,1.176873063292512,1.1508134421963963,1.1657405743078015,1.199984955155657,1.1745032277319418,1.179045347930414,1.1778140624206401,1.1478592024858525
1.187896610322474,1.1774158612714118,1.2223234131433371,1.183870465168946,1.1583306160562052,1.273628111081217,1.2984565054801653,1.1622633939706088,1.179628578059947,1.1826205474957967,1.2003049603430742,1.1717857602653323,1.168057861241738,1.2079853434163144,1.225834884697837,1.2346716642702489,1.2192868325577284,1.175805224832832,1.1479519216412897,1.2015668518130007,1.1713867983001771,1.136911023710742,1.1430032557109098,1.257080413832907,1.1930917091048365,1.1652644533437908,1.1715982057802032,1.2046658129705354,1.1768668496027406,1.17963610081933,1.1763304230000833,1.1530172414153916
1.1878757054396758,1.1724242074888047,1.2164275501485564,1.1776267015753412,1.167269169525525,1.2585563021723305,1.277270736075485,1.1557003301537725,1.1783334113831823,1.1762726216572132,1.2035998031005823,1.1551149447952438,1.1774202673466054,1.2068695230610638,1.2198080511643545,1.2220820805987442,1.204842244972376,1.1721980927781859,1.1499105608958184,1.1738628300055574,1.1610280585020127,1.1359928026723098,1.1319425879908134,1.237940674626466,1.190583343460957,1.1697149140065843,1.166523121040433,1.1993747120469782,1.1736772716700015,1.176786249420654,1.1817384811781868,1.1449103588147227
1.1741357183295875,1.163501017371865,1.2190609717829453,1.1665104962772188,1.1555886294332955,1.270019727007817,1.263709223547609,1.1620677276500404,1.1828645775434095,1.1865095074733976,1.2109149189488515,1.1742853576287762,1.190633189561683,1.213296378767464,1.218009724312366,1.2241423742701198,1.2015976741801704,1.1909370453227872,1.159383669375796,1.1889136363589845,1.1689991826231023,1.1437643283106056,1.135153372785763,1.2284544767300485,1.1782336351392952,1.1657035365306239,1.1642528987635612,1.1923427771447397,1.1749730276523254,1.17291193095742,1.1677235181687522,1.1461662765855343
1.1792080824549251,1.1646384388666833,1.2100472947307674,1.1798356615576393,1.1641161332200278,1.2527223411302473,1.2384881046299279,1.160796455190858,1.1748127452754666,1.1709739724135386,1.2001192972111576,1.1588408781078698,1.1567511434422582,1.1972604965861502,1.2131906817767626,1.2088714942445078,1.1963759638343414,1.168162390929141,1.1318505474729372,1.158950199940704,1.1364524354037129,1.1250080161012146,1.1273820983577005,1.1898956707452681,1.1664973363590017,1.1615849095684767,1.1622910477806927,1.1970301998644093,1.1762775574832132,1.172311944739706,1.1765564214451099,1.1372740061952826
1.1720654558199446,1.1668256203082725,1.2245623786239193,1.1829016081397656,1.1545765158036694,1.2511505127751972,1.2523170462278324,1.1718380842558538,1.1753362209431053,1.1702124653333605,1.1954185371551045,1.1590823738475657,1.1545594453385455,1.1939657681242346,1.2098474484675645,1.205584353336776,1.197066358863476,1.164711093381448,1.1342701146349177,1.1725225802363475,1.148688977285598,1.1248975270291202,1.1146107337400488,1.1993882035691013,1.1732908427118771,1.1567025177223627,1.1484148370710967,1.1975510559479938,1.1613422176565351,1.1573847707420453,1.1630273966053932,1.143792886348747
1.1651109637276786,1.164264961152484,1.2262586955271675,1.1822025849286117,1.1532591275856443,1.2603649909248935,1.2399212471095877,1.1693117194961646,1.1761132814315263,1.1801256176777817,1.1852971380177264,1.1589701761756044,1.1463311366617797,1.18537159699346,1.1988773374897497,1.1930513552413464,1.176714846111237,1.151719382013645,1.1308519020919747,1.1581657873654265,1.1475410399900514,1.131282586011738,1.121247521710177,1.1869916885180138,1.1709010572331668,1.1572787294952929,1.1462402563309169,1.1907379837397667,1.1591052931137191,1.156218238712843,1.1618266211526367,1.1550706969320328
1.1694839834194375,1.1622847927227256,1.2093329757867453,1.1784172457443614,1.152658962789296,1.259230401923776,1.242824539113761,1.145403969779578,1.1909008168499193,1.1705382946819898,1.1929635579269013,1.1639430760445202,1.161068777711492,1.1988027766577292,1.2130160648521553,1.2159379750133312,1.2010372598484589,1.1723820956161288,1.1475738387009287,1.1708895306533995,1.1613153507624716,1.1380130810840503,1.1352863753485485,1.2001641007945119,1.1943192927048751,1.146748947304443,1.1534315271506757,1.2013439575947,1.1681307996775943,1.1602194329507383,1.158389048930903,1.142132927767962
1.1778852754487348,1.1733582041362067,1.2198094546768916,1.1855462875515481,1.1782926091342734,1.2584557035852302,1.2538388338159578,1.1594353913345086,1.1953863181743953,1.1781905927483571,1.201995957492592,1.1744885550896245,1.1566333792238255,1.19604570810745,1.2014086317375743,1.2033413988623824,1.193788093598537,1.1604983438278291,1.1272222297110088,1.1602344203085824,1.1454824835491197,1.1310019197820087,1.1342651960799979,1.1804857770532569,1.1874729637170696,1.1800790159178454,1.1623235654891542,1.2059815398474556,1.174788018298382,1.1688422140492634,1.1775590636191573,1.1626389696852946
1.177966496317131,1.1633702994386186,1.2093535827732709,1.1831665602333559,1.167653428912048,1.248559954070261,1.2447761892170408,1.146500760041845,1.1840620610989405,1.1700500820424364,1.1887581443326423,1.1583067506544074,1.139522117186556,1.1828845398918981,1.2035542692045649,1.1978936907328168,1.1757864600665746,1.1515845006920686,1.1290144867231056,1.1642707805381733,1.1548017157020418,1.125021241720781,1.1460039804660591,1.206792305703445,1.1893681270228391,1.1750949735021086,1.1675046050852202,1.2116127108078751,1.1813786655631255,1.1714382630654603,1.16711777122282,1.1411836665589505
1.1620879959234043,1.1623490026234125,1.19674327768892,1.1686789693746968,1.16099441335761,1.2523308097958032,1.229573750094198,1.1526066944603295,1.187802765033773,1.1782716479675515,1.1852369353490193,1.1596263454997746,1.1538679076878835,1.1726828165312644,1.195510604240364,1.1976544816153927,1.1878574018082055,1.1609742684703082,1.135364179231306,1.1689914575172538,1.145840257615053,1.1261592798038784,1.137699592853627,1.1806268575771424,1.1881081987903215,1.1687947733162092,1.156349543144348,1.216699516863329,1.1731166108640565,1.1619947732030096,1.160319041502725,1.1278428073413669
1.1645523163449776,1.162561118147759,1.2163071911112788,1.1745574091982378,1.164891840061326,1.2678993654101194,1.2367006910448313,1.163631236198119,1.1912758440398634,1.1857061522414598,1.1992039952212146,1.1869858619799767,1.1485589788185329,1.1905794139101373,1.2105899029734917,1.216979121145763,1.2053113781540303,1.1710333783997966,1.1431316838781675,1.1754374009373165,1.1587234355132707,1.1408865126384127,1.1462211711023937,1.196009697172657,1.190802467441797,1.1537758202588333,1.1514517905390076,1.2145635141082987,1.1732451668327855,1.1597228098309185,1.1544935202390048,1.1352943929008519
1.1727834698309096,1.1677474098397334,1.2200360864363753,1.1790061045660853,1.1704021412491972,1.274840313428675,1.2470413979036818,1.1674807326237135,1.1968427719800743,1.19379189124954,1.2053518942945654,1.1877863640546367,1.1348662104115121,1.1909414723545342,1.2098808897975994,1.2184765435884173,1.2025115649749725,1.158177933830303,1.124682301921861,1.1551383100774806,1.1372069458796963,1.1336061658368153,1.1462832402206797,1.172972230528751,1.1917123053003897,1.1608598040176459,1.159165711955431,1.209763627693252,1.1684223784746908,1.1621821544174746,1.1564414805059633,1.1421188626837688
1.1770479511629504,1.1785702203877508,1.202282529514021,1.1938355457969907,1.17743204761285,1.274053093445115,1.244053503400575,1.1687004107443684,1.188711939161684,1.186193225471477,1.201568288853432,1.183903957904554,1.1414609112497804,1.1913997452914373,1.224285505316975,1.2308255466586482,1.2232452657179165,1.1814634316436294,1.164292040648473,1.1812650592608531,1.1780268227504207,1.158112117309806,1.1680796391360242,1.203015433925247,1.2197283094932179,1.1694328734426982,1.1620705437520664,1.2082707041633864,1.1626790663360265,1.1567541014845157,1.1612070780288082,1.1606532940647634
1.169374667638906,1.1715530110615535,1.2016872127937317,1.1856390059356128,1.1698033631359575,1.2889889345588181,1.2617393931482639,1.1635160184962914,1.2000630085168023,1.1838791044941148,1.196166806610102,1.1939378266677243,1.1548437559914158,1.2008985248799628,1.214102819651392,1.2215446335823628,1.2031520104676656,1.1525029357793257,1.1519759845880444,1.161355860775137,1.156952528920165,1.148764129640843,1.160694448279579,1.2123116807347036,1.199049920508625,1.1551991072439498,1.1514004775739923,1.2067165836535478,1.1525398052497011,1.1471437518667587,1.1399395913836745,1.1483639033055888
1.172591660024053,1.1689150874852932,1.2034744739695167,1.182407163337245,1.169380227521774,1.2873616362325873,1.2748486584265915,1.1589469178053982,1.1916587661725653,1.1726428008472618,1.1751204484972908,1.1769446554070835,1.143191246996544,1.1696815780187955,1.1976330378880982,1.2066512870352084,1.1880877328891468,1.1426445943565007,1.1439049841427333,1.1635414712308556,1.1498515386904402,1.1386128092230106,1.157972357920459,1.217612852171581,1.198642264387577,1.1657260135605407,1.156644836420574,1.2111379261309165,1.156089637656009,1.1525884374994861,1.144525433700709,1.1455397598397146
1.1885335900982001,1.1848681650205615,1.2159629087763684,1.1914614138196324,1.187397703926717,1.2774317860700117,1.27158722353088,1.1766057524096092,1.1855957352774602,1.1790199817546816,1.1828895049867167,1.1824004712796907,1.1348132018547368,1.1749817581114168,1.1916199867435913,1.206891203852694,1.1836873338910074,1.140485090313351,1.1503120215943392,1.1662501340763478,1.1564611365142554,1.150279161885675,1.169110438891008,1.2170359751236821,1.1985165256263728,1.1786169984151658,1.1618103253446206,1.203781061265842,1.165128595247429,1.1616265227569387,1.1617723101671338,1.1604203928489958
1.1863440663550961,1.1860181546176074,1.2182493621852268,1.1950750977704974,1.1787674815093072,1.2876895370660295,1.2727581414021696,1.1669634844789307,1.1780794384269466,1.1737124346748693,1.1847819920633096,1.193090240850671,1.1672689893890629,1.184157684197587,1.1891999948713565,1.212065679984596,1.2002139437910255,1.1676454313320295,1.1760646670429311,1.1715272410049,1.1673232393108783,1.1732733027800524,1.1846648467247758,1.2188870407448211,1.2237042264029265,1.205219606297738,1.1719245081790022,1.2311085046590127,1.1675147821120866,1.1607245701917583,1.1577885154207388,1.1543329436181669
