Fp1,AF3,F7,F3,FC1,FC5,T7,C3,CP1,CP5,P7,P3,Pz,PO3,O1,Oz,O2,PO4,P4,P8,CP6,CP2,C4,T8,FC6,FC2,F4,F8,AF4,Fp2,Fz,Cz
29,23,37,25,15,39,36,24,15,35,33,28,19,29,35,35,35,31,30,34,32,28,34,36,35,21,31,41,39,35,27,36
32,22,38,24,14,40,38,26,12,35,33,26,16,25,33,35,35,30,28,31,28,26,33,39,32,25,32,46,40,34,28,36
33,25,39,25,15,41,42,26,13,34,35,27,17,23,29,33,34,33,27,34,30,25,33,43,35,25,29,45,39,33,27,37
33,25,37,25,16,43,41,26,17,33,33,25,23,22,30,34,34,33,29,33,29,27,33,44,30,23,27,38,39,31,27,36
34,28,33,27,18,43,39,22,18,35,32,26,25,23,32,34,36,35,29,33,31,26,33,44,29,24,25,37,37,29,26,36
34,28,32,24,16,45,40,21,17,32,32,22,25,25,31,33,39,33,29,31,27,27,35,41,27,30,23,35,37,29,26,34
33,28,31,24,14,43,36,18,17,31,31,21,23,23,33,32,36,31,29,26,26,30,35,42,26,31,24,34,38,30,23,33
32,32,31,26,14,44,36,16,16,29,29,18,24,21,34,29,33,33,29,23,27,29,35,43,25,29,23,30,35,30,20,29
32,32,33,30,18,45,37,19,16,25,28,18,21,19,37,29,33,31,26,20,25,26,31,39,21,27,23,27,27,27,22,28
29,33,31,24,19,44,38,23,19,29,25,16,23,16,36,31,35,31,27,20,27,31,29,38,18,25,21,27,25,27,21,30
27,30,34,23,20,38,35,23,23,32,24,15,25,19,39,33,39,29,26,16,24,28,28,36,18,28,20,24,24,26,20,28
25,33,31,28,20,37,33,21,20,28,24,14,24,22,40,28,38,26,23,18,23,24,23,36,15,29,23,25,25,23,18,24
26,30,34,32,18,39,33,22,17,30,21,13,24,23,39,27,38,24,21,15,21,24,19,35,12,26,23,24,24,22,18,21
28,32,38,34,18,37,38,23,14,31,23,16,21,21,36,26,38,24,21,16,22,23,17,35,15,26,27,23,23,23,18,24
24,28,35,29,16,36,36,24,12,30,24,13,21,19,35,23,33,21,19,16,20,21,20,32,16,24,26,22,22,22,18,21
25,26,32,29,18,33,33,25,12,28,23,12,19,17,35,23,31,23,17,19,25,19,19,33,15,20,25,19,19,19,17,22
25,30,35,32,16,30,37,27,12,30,26,14,20,20,35,23,31,25,16,19,27,16,18,35,17,18,23,19,17,17,17,18
24,28,30,32,20,27,40,28,12,28,24,14,18,20,34,26,34,24,14,22,26,14,20,33,19,22,26,19,18,20,18,16
25,31,26,33,20,25,37,29,12,31,23,14,18,20,30,26,37,26,16,24,28,14,24,37,24,24,28,19,19,21,17,18
28,31,23,36,22,21,37,29,7,27,23,14,16,21,29,27,38,28,18,24,25,14,28,40,27,29,28,16,16,18,16,16
29,29,22,33,23,21,38,33,6,26,24,15,18,21,31,23,35,29,22,27,27,16,28,42,26,29,24,12,13,15,17,17
29,29,19,27,24,23,37,35,8,31,25,17,22,24,34,30,37,33,27,27,30,18,34,44,30,27,25,12,12,19,17,20
26,32,15,22,24,24,36,35,10,30,26,18,23,24,34,30,37,35,30,28,31,17,36,42,30,26,24,11,13,18,16,23
31,32,13,25,28,26,31,38,10,26,26,16,20,22,34,29,35,33,27,26,26,14,34,41,28,26,21,11,14,17,16,17
33,35,14,29,32,25,32,41,10,29,26,17,19,23,32,30,36,32,30,25,25,17,33,41,27,23,23,11,15,17,17,22
32,37,17,28,30,26,37,42,11,34,29,20,21,24,32,30,36,32,32,24,22,16,32,40,28,26,24,14,14,18,16,21
31,36,12,26,32,28,33,40,8,33,27,21,20,20,33,33,37,31,32,25,21,14,31,35,27,26,25,15,15,19,15,24
33,35,13,24,28,29,31,38,8,33,27,23,20,24,33,35,39,34,32,24,23,14,27,33,25,22,21,14,15,15,15,24
32,32,11,22,26,25,29,35,13,31,29,25,23,27,33,37,35,37,33,25,21,17,25,34,23,19,23,14,18,18,17,24
30,35,14,21,26,29,30,31,17,31,31,29,24,29,31,35,33,36,32,29,25,16,24,33,22,18,24,16,21,23,22,24
29,38,14,24,24,34,32,30,16,33,30,30,26,29,29,39,33,37,32,29,27,18,24,31,23,19,27,18,22,24,20,26
30,38,14,27,25,33,32,30,14,30,28,29,26,27,27,37,33,35,31,28,29,16,22,25,23,16,28,16,24,23,23,22
32,38,15,30,28,29,31,28,14,31,29,28,22,28,30,40,35,36,30,28,32,14,20,28,24,16,30,20,24,24,24,20
26,37,17,26,23,31,31,25,18,33,29,28,22,30,33,40,36,34,30,28,32,16,20,29,23,17,31,22,22,24,23,22
25,37,16,26,22,36,32,25,20,36,30,30,24,33,33,41,39,35,28,29,33,17,17,28,24,21,33,24,18,28,23,19
26,36,14,28,26,41,28,24,20,35,32,27,22,32,30,41,38,32,26,28,30,16,16,28,24,18,34,22,20,30,26,17
26,32,19,26,28,42,31,24,22,36,35,26,24,34,28,42,40,34,28,30,32,20,16,32,24,16,32,20,18,28,26,18
23,32,19,24,28,39,29,22,22,33,33,23,24,30,25,36,34,28,28,28,27,22,16,30,24,17,32,20,17,28,26,21
22,32,20,24,27,44,30,22,19,35,31,21,21,27,27,33,33,23,27,25,27,21,17,25,21,20,27,19,13,23,27,20
24,25,17,22,24,46,34,25,16,38,32,20,22,25,31,32,33,21,28,25,28,22,18,27,24,20,28,19,12,22,26,22
23,21,15,19,24,43,31,23,17,37,30,18,18,25,31,30,32,25,26,26,26,20,19,30,24,19,30,17,13,26,28,24
21,17,15,15,21,41,31,20,20,34,30,17,14,21,31,26,31,27,25,26,23,24,21,34,22,19,25,13,9,23,28,25
24,14,14,12,20,41,29,19,20,33,29,18,19,17,27,21,29,24,23,26,21,27,21,31,19,19,23,9,7,22,31,23
24,14,12,14,22,35,29,19,16,33,29,16,20,16,24,18,26,24,24,26,22,26,24,31,20,23,21,8,8,24,34,24
22,10,11,10,18,28,27,15,17,28,29,14,19,14,25,17,21,23,22,23,20,25,27,31,16,23,16,4,8,18,30,24
18,8,10,8,13,22,24,12,16,24,24,16,20,12,26,15,20,24,22,22,22,26,27,29,13,23,11,3,5,13,28,24
16,6,4,6,8,17,24,10,16,20,23,16,21,14,26,14,20,22,20,20,20,26,30,27,13,27,15,5,8,15,34,20
17,4,2,8,9,16,26,12,17,22,24,16,23,16,28,17,22,24,22,22,21,27,33,29,15,28,17,5,9,15,37,21
20,4,1,12,10,15,31,14,15,25,29,19,27,19,27,19,27,29,23,25,21,25,29,29,17,24,15,5,9,15,33,18
16,8,4,12,10,13,28,13,14,26,28,20,22,21,22,17,26,32,22,24,18,20,24,25,15,20,13,7,7,11,28,14
14,8,6,12,8,14,30,12,13,28,32,22,22,19,23,18,28,26,20,21,15,20,22,22,14,19,10,8,6,8,24,10
12,8,6,12,8,14,28,12,10,27,30,20,22,20,20,20,25,23,19,20,14,20,17,18,14,22,12,10,8,8,22,15
10,10,6,14,12,12,26,10,11,24,32,18,21,23,22,25,26,24,20,19,12,19,20,18,20,22,19,10,12,11,21,20
14,12,6,16,14,13,26,11,13,26,32,21,25,25,25,29,29,27,21,19,13,21,21,20,23,22,21,11,15,11,18,23
17,14,7,23,18,18,30,16,10,26,33,23,26,27,26,31,31,29,23,23,14,21,19,20,25,17,23,13,15,13,20,24
22,20,9,28,24,24,34,17,10,29,35,23,24,28,26,30,32,28,24,22,14,20,21,23,27,17,25,15,17,15,22,25
24,22,15,32,24,31,34,21,10,35,35,27,22,27,25,27,33,29,27,23,16,19,19,26,28,18,25,20,14,13,16,24
29,26,19,36,27,36,36,23,12,39,37,31,24,28,29,28,35,31,28,24,17,20,21,29,32,20,28,24,15,15,19,26
30,28,24,36,28,37,36,20,14,37,37,32,24,27,32,28,35,31,27,25,22,24,26,35,36,27,34,30,20,23,25,29
36,28,27,39,34,38,37,21,14,35,37,29,26,27,34,30,34,30,26,24,21,26,26,37,39,30,36,29,26,28,28,34
38,32,28,44,38,42,40,26,12,34,36,30,26,28,32,33,35,33,28,27,21,30,25,41,43,30,37,31,29,31,32,39
38,34,32,49,43,47,43,29,15,37,35,31,30,29,31,31,33,31,29,27,21,32,26,44,44,27,39,30,27,31,30,37
38,36,36,52,41,54,48,34,16,40,34,32,31,28,31,31,32,28,30,28,20,31,24,46,43,28,36,36,25,32,32,34
36,36,36,51,38,59,48,35,14,40,32,32,27,27,29,31,33,25,31,29,19,29,21,42,40,24,32,34,22,30,32,30
33,39,35,50,34,62,50,32,16,44,37,34,27,25,28,27,31,23,35,27,23,29,20,43,43,24,30,33,22,28,30,31
30,34,35,44,28,56,48,32,16,45,39,32,31,25,29,29,31,25,35,29,23,31,21,41,43,25,31,33,23,29,30,33
30,32,29,40,31,51,44,29,15,44,38,26,28,22,28,32,28,22,30,26,19,30,20,36,40,25,28,26,23,29,31,37
26,30,25,36,28,48,41,26,14,42,37,26,25,20,23,31,28,21,30,24,18,29,18,33,36,23,22,24,23,27,25,34
22,29,24,31,26,49,37,26,16,40,36,25,21,20,19,29,24,18,28,20,19,26,19,30,34,21,16,20,18,19,19,35
17,28,22,28,20,49,32,29,16,40,34,28,23,18,20,30,24,18,28,18,23,27,20,32,33,18,14,19,12,14,16,30
18,28,22,28,19,48,28,28,20,44,36,28,24,19,19,25,21,17,25,15,25,24,21,28,27,18,11,17,9,11,15,33
22,30,20,27,17,47,29,30,21,45,39,27,24,20,19,27,23,17,23,17,27,22,21,23,26,22,10,17,10,11,17,33
24,31,18,26,16,44,29,32,25,46,40,26,22,20,20,26,26,25,25,17,29,28,25,25,27,23,7,13,9,11,12,32
23,28,22,25,14,42,30,30,26,44,38,24,25,19,21,25,25,27,25,19,30,29,25,29,33,27,9,17,10,12,10,31
27,28,26,26,14,39,28,32,24,42,33,22,27,21,21,30,26,29,21,20,24,29,27,28,32,28,10,19,13,14,10,30
31,29,25,31,16,43,31,35,24,41,33,21,23,21,21,31,29,29,21,21,25,27,27,28,36,29,11,20,16,16,10,25
31,33,27,35,16,45,35,33,24,40,30,26,27,22,22,30,30,32,24,27,27,30,32,32,41,31,15,25,18,17,12,23
32,32,32,38,16,49,38,32,22,42,31,24,28,21,22,30,30,32,23,28,28,27,29,35,41,29,18,25,17,19,13,22
34,31,33,42,16,47,41,36,18,43,29,21,29,19,21,32,29,31,25,31,26,27,24,35,38,26,18,26,18,20,14,18
38,32,33,46,19,46,45,30,22,39,31,19,29,20,21,34,33,33,26,33,21,26,25,34,37,29,21,28,23,24,18,21
38,32,34,44,20,47,47,31,23,38,29,20,29,21,25,38,38,32,28,35,21,28,27,35,41,30,23,29,25,25,17,17
36,30,35,42,25,49,48,32,22,38,32,22,26,22,28,38,40,34,32,36,22,25,27,38,43,27,26,32,26,26,19,15
31,29,37,39,24,51,49,27,16,39,31,21,26,21,27,37,37,28,28,34,22,22,26,34,39,25,25,37,26,24,20,12
31,28,33,36,26,51,46,26,14,39,34,22,22,20,26,40,38,28,28,33,24,20,26,33,35,23,26,35,26,24,20,14
29,25,30,30,26,54,42,22,14,36,35,20,18,18,26,39,37,28,28,29,23,18,23,31,31,26,24,33,23,22,20,12
26,26,31,28,27,54,41,21,18,37,35,24,22,20,28,38,34,30,30,28,24,22,22,32,28,25,20,33,17,17,17,15
28,26,34,26,29,52,43,27,20,36,38,22,19,22,30,38,36,30,29,24,27,18,19,33,27,24,21,33,17,20,18,19
31,31,34,27,33,53,41,30,20,38,38,23,17,27,32,37,37,29,28,24,25,18,22,30,28,24,23,34,22,23,20,18
33,33,35,25,37,55,42,26,22,37,40,28,20,32,36,40,40,32,29,23,25,21,25,31,30,27,27,36,24,27,23,21
33,31,35,25,38,55,40,30,21,43,39,31,18,33,35,39,39,30,28,23,27,20,24,31,30,28,28,37,24,26,24,20
33,31,35,24,37,52,38,29,20,41,40,31,16,29,30,38,37,28,28,22,26,19,24,30,30,28,28,40,24,26,24,19
33,31,35,25,33,49,35,27,20,40,38,30,18,28,30,37,35,27,26,23,26,21,25,30,31,31,28,40,26,28,23,22
39,33,37,29,33,47,35,30,22,38,38,32,18,28,30,39,37,29,27,25,26,21,25,32,32,35,29,38,29,29,27,25
41,38,42,33,35,48,36,30,24,37,36,32,20,30,32,34,36,30,26,24,26,20,26,30,32,37,31,40,31,31,31,25
42,40,42,36,36,48,40,33,26,38,35,34,22,32,32,32,38,30,26,26,28,22,28,32,36,34,32,44,34,34,32,26
42,40,41,36,36,46,39,33,23,37,33,33,19,31,31,32,38,29,23,27,28,19,28,32,36,33,34,43,37,37,33,25
38,36,36,36,32,46,35,29,21,36,32,32,18,30,30,32,36,28,23,27,25,20,26,27,35,32,32,40,37,34,30,20
34,32,35,32,28,44,34,28,24,33,34,33,20,27,32,32,36,28,26,28,26,22,26,27,36,34,28,39,34,30,30,22
32,30,33,32,24,43,33,30,25,32,35,31,20,24,29,29,33,27,24,28,24,20,24,26,35,32,26,37,33,28,28,20
29,33,31,31,23,45,35,30,26,31,35,31,22,23,29,27,29,25,23,27,23,19,23,23,33,29,23,33,29,27,25,21
27,31,29,29,21,42,32,27,25,28,32,29,21,23,30,25,27,25,23,26,24,17,24,24,30,31,24,32,28,28,23,21
26,30,28,28,20,42,34,26,23,28,29,28,22,21,27,24,26,26,23,25,23,17,25,23,29,29,23,31,27,28,22,18
24,30,26,26,21,40,31,22,22,27,31,26,22,20,26,24,27,27,22,24,23,16,23,21,27,28,24,29,26,28,22,17
21,27,22,25,20,38,32,20,20,26,30,24,20,18,22,26,28,26,22,24,22,18,22,22,26,25,23,26,25,27,21,17
19,25,24,23,21,35,30,21,18,26,30,22,20,16,20,24,26,24,20,22,22,18,22,23,25,27,27,27,27,27,23,18
20,23,25,24,23,38,32,22,20,26,32,20,22,14,21,25,29,23,22,24,22,20,22,23,26,27,27,27,29,27,25,21
21,22,29,25,27,39,32,22,22,26,34,20,24,14,22,26,30,24,22,24,22,20,25,24,25,27,27,27,29,27,27,20
20,20,28,26,28,40,35,24,18,28,31,20,24,16,22,28,30,24,20,24,22,20,22,24,26,24,26,28,30,28,28,18
17,17,29,23,29,37,31,24,16,26,26,18,24,16,22,28,30,24,22,24,24,22,24,24,26,24,26,28,30,28,27,17
21,17,30,23,31,33,32,25,17,25,28,18,27,17,23,28,34,26,24,24,26,23,25,27,27,27,31,29,35,31,31,20
24,20,34,26,34,37,35,27,16,27,29,18,29,18,26,30,34,28,23,24,25,25,25,28,29,27,32,31,37,31,34,21
24,20,34,26,34,38,34,28,18,28,30,18,28,18,26,30,32,26,22,25,25,26,24,29,29,26,30,30,37,31,34,22
20,18,32,24,32,37,34,28,20,28,28,19,27,18,28,27,30,26,25,25,27,29,27,31,31,23,31,34,35,28,29,20
19,18,33,21,32,35,33,31,22,29,29,23,31,21,33,27,29,27,27,27,29,31,29,33,33,25,29,33,32,25,27,20
21,15,34,24,34,33,34,32,22,32,30,26,31,22,34,28,30,28,29,28,29,31,28,31,31,23,25,29,27,23,25,19
20,18,33,22,32,30,34,29,22,31,27,28,30,22,32,28,28,28,28,26,30,30,26,32,28,24,26,28,26,24,24,16
23,22,33,23,29,30,35,30,22,32,28,30,30,22,32,28,30,26,30,24,30,32,26,34,31,23,27,31,25,25,25,18
24,24,34,22,28,30,36,29,25,30,29,29,31,21,31,24,30,28,32,23,30,34,30,40,29,24,30,29,26,26,24,20
27,27,33,25,28,31,39,31,28,30,30,30,30,22,30,26,30,28,32,22,30,35,31,40,30,23,32,28,27,28,26,24
24,25,31,23,27,30,37,30,25,31,30,26,25,20,28,25,27,27,31,24,31,37,32,37,31,22,27,27,23,25,24,22
22,23,31,22,25,29,35,30,26,30,29,27,25,21,27,25,27,25,31,25,30,34,30,33,32,21,26,22,19,22,21,21
22,26,32,22,24,32,36,30,26,30,30,30,25,23,29,25,29,25,31,24,31,33,33,31,31,24,30,22,22,24,24,21
24,28,34,26,24,36,36,30,24,30,30,29,26,22,26,27,29,24,30,24,30,30,32,30,30,29,32,19,23,27,28,23
26,28,34,26,26,36,36,28,24,30,30,28,25,22,24,28,30,24,30,22,28,30,30,30,28,29,36,22,27,28,30,22
27,29,33,26,26,35,37,27,27,27,29,27,26,23,25,29,31,25,30,23,28,30,32,31,29,30,39,23,29,29,33,23
26,28,30,26,26,37,37,29,24,28,30,25,25,25,29,33,33,29,33,25,27,29,35,31,31,29,39,25,29,29,32,22
26,28,28,26,24,39,39,29,25,28,26,22,25,25,27,32,32,28,31,26,27,27,33,31,31,29,40,23,33,30,32,22
27,29,29,29,27,41,38,27,25,27,27,21,25,25,27,34,32,26,30,28,31,26,30,25,30,29,39,22,31,29,33,23
27,28,28,29,29,40,36,26,24,30,28,20,25,24,28,33,35,25,29,29,31,26,28,24,28,30,36,22,29,26,31,20
27,28,27,31,29,41,33,25,25,26,24,21,25,25,29,35,37,25,29,30,33,25,27,26,28,30,38,24,30,30,32,19
29,29,25,33,31,40,33,24,24,26,27,20,26,24,28,34,38,26,30,30,32,26,28,26,25,29,36,24,31,31,31,20
28,26,26,33,32,39,34,22,22,26,24,18,25,24,28,36,40,30,30,30,32,25,25,28,25,27,32,24,28,28,28,19
26,23,22,30,30,34,35,22,20,26,22,20,23,24,28,34,38,27,27,27,29,25,23,25,23,24,26,23,25,24,25,21
24,24,20,30,28,34,34,22,19,26,22,22,23,23,30,32,37,26,26,30,30,24,24,22,25,27,23,19,23,25,24,23
24,26,22,32,28,34,32,24,18,30,24,24,22,25,29,34,40,26,26,30,30,24,23,22,24,25,22,18,22,26,27,23
24,26,24,32,28,32,29,20,18,27,21,24,24,24,26,27,35,23,24,29,29,26,22,21,23,26,22,18,22,26,26,24
20,22,24,28,28,29,24,18,17,26,24,26,25,24,26,30,34,27,26,29,30,25,22,18,19,24,18,16,16,22,22,24
17,21,19,25,23,23,23,20,18,28,26,30,28,23,25,30,35,27,25,28,26,26,23,20,19,25,17,15,13,21,23,24
15,21,17,23,19,21,21,18,17,25,25,33,28,24,25,29,31,27,26,28,26,24,24,21,17,22,17,13,11,21,21,24
17,23,20,23,19,20,24,17,18,25,26,33,28,24,25,27,31,29,27,27,23,25,25,21,16,22,16,12,11,18,23,24
18,24,23,24,18,23,24,20,19,28,24,33,26,23,25,27,36,28,26,28,26,26,26,24,20,22,20,14,14,22,26,24
20,26,18,25,20,22,21,19,21,27,25,35,27,25,26,29,35,26,23,29,23,24,24,23,19,24,22,12,16,24,28,24
22,26,19,26,22,22,19,18,22,26,26,32,26,26,26,30,38,28,22,30,22,22,24,22,20,23,24,12,18,28,29,23
21,27,21,27,19,25,17,17,21,23,25,27,23,26,23,29,36,27,21,27,21,19,21,21,17,21,22,12,17,25,27,20
19,25,19,23,17,26,18,15,20,20,24,24,22,25,25,28,34,28,24,27,21,18,24,21,17,22,22,13,17,24,24,21
20,28,20,24,18,26,18,16,20,22,28,25,23,27,28,30,36,30,26,30,24,17,25,25,19,24,24,14,18,26,26,24
26,30,24,30,20,29,22,16,18,26,26,22,20,25,25,28,35,25,22,29,23,16,26,25,20,26,28,16,22,28,32,24
30,32,28,32,24,32,18,14,14,24,20,18,14,23,23,24,31,23,19,29,23,14,27,21,20,26,28,14,26,28,32,26
34,34,32,36,28,36,20,16,12,22,20,15,13,22,24,24,31,21,16,28,24,14,28,20,22,31,28,16,30,28,34,29
34,34,29,36,28,38,18,17,14,23,20,16,15,24,23,26,32,23,17,25,27,16,30,21,24,34,30,20,32,30,34,32
32,34,28,36,30,36,20,16,15,23,21,15,16,25,23,27,27,25,17,25,27,14,29,19,23,32,28,18,30,30,32,30
32,34,30,36,30,38,23,17,12,23,23,11,15,23,21,25,25,25,22,25,32,18,34,23,27,32,28,22,30,30,32,32
35,36,31,38,33,38,24,16,10,26,24,14,18,22,22,24,22,24,24,24,34,22,36,24,28,35,28,22,33,28,33,32
40,36,28,42,37,36,24,18,10,28,24,15,21,22,22,24,22,26,26,22,36,28,40,24,32,37,34,22,38,32,38,35
43,37,27,44,40,37,22,17,14,26,22,16,26,20,20,25,24,24,27,21,39,32,41,25,33,40,34,23,41,32,39,33
44,36,24,46,42,34,22,18,14,26,20,14,22,20,18,27,27,24,26,20,36,32,40,24,34,39,34,24,42,32,40,32
43,38,18,44,45,33,20,22,18,22,24,17,24,26,24,29,29,29,31,23,39,37,43,27,37,40,34,24,42,34,39,34
42,36,16,44,44,32,22,22,18,20,26,19,28,26,24,30,32,32,36,22,38,38,44,30,40,38,34,24,40,34,38,33
40,34,14,42,42,30,22,24,23,22,26,22,32,28,22,30,30,34,40,20,36,40,44,32,42,36,34,22,38,34,38,32
40,34,17,42,42,32,23,26,21,23,27,22,31,27,19,29,29,31,38,23,35,41,44,31,40,36,35,19,37,33,37,33
41,34,14,37,43,31,21,25,22,20,26,25,32,28,18,26,28,29,39,21,31,42,43,31,41,38,34,20,36,30,36,34
39,33,15,35,42,31,21,26,24,24,27,29,35,31,22,28,30,30,40,22,32,38,42,31,39,36,33,19,35,29,37,31
36,32,14,32,37,32,20,26,24,20,28,30,36,32,26,30,32,32,42,24,34,38,41,32,38,34,34,18,34,30,37,33
32,30,18,28,35,35,24,26,27,23,31,34,36,31,30,32,33,31,43,29,33,36,41,37,36,32,30,20,33,30,34,33
31,29,19,28,34,35,29,29,24,25,35,37,33,33,29,31,33,33,41,31,31,33,40,37,35,32,31,19,31,31,34,34
30,26,22,26,34,36,28,28,26,24,34,38,36,34,28,28,31,34,40,30,32,36,38,34,34,33,30,16,30,30,30,34
27,24,24,24,29,34,31,29,24,27,34,40,37,34,25,25,31,33,37,27,29,33,35,32,31,32,28,16,28,28,27,32
24,24,24,20,26,32,32,30,28,30,36,40,39,36,28,26,30,32,34,28,32,32,34,32,28,30,26,16,28,27,24,29
22,24,22,20,26,30,30,26,23,28,36,36,36,34,28,24,30,30,30,28,30,28,32,28,24,31,24,16,28,28,24,28
19,22,20,21,22,31,31,24,23,27,36,36,35,32,30,26,31,32,29,29,27,23,29,28,23,27,24,14,28,28,23,27
18,20,28,23,18,32,33,25,18,30,38,34,34,32,32,26,32,32,28,28,28,22,30,28,20,26,22,14,26,26,22,24
17,21,25,23,16,29,31,26,16,29,35,29,29,27,26,22,28,28,22,24,22,22,26,23,19,28,24,13,27,27,20,24
16,20,26,22,16,32,32,26,16,28,32,24,24,24,20,18,26,24,18,20,18,18,23,22,18,25,20,12,24,24,16,19
17,21,24,21,16,33,32,24,13,23,27,19,24,23,15,17,24,23,14,16,16,16,20,17,17,23,21,11,21,21,15,17
15,21,25,19,15,31,30,23,13,24,25,17,24,23,17,16,20,23,15,15,19,17,19,19,17,18,17,13,19,19,11,15
16,24,26,18,14,36,30,24,12,24,28,18,24,22,24,18,19,20,12,12,18,14,20,22,16,18,18,14,18,18,12,10
16,26,28,18,16,36,28,20,10,21,27,14,26,19,25,18,18,18,16,14,19,15,22,24,16,18,19,15,18,22,13,8
18,26,32,22,18,39,32,17,6,21,22,12,24,17,24,18,20,18,16,14,18,17,21,24,16,22,22,18,18,26,14,10
22,28,37,24,18,44,36,22,8,25,22,14,22,20,28,20,22,18,20,16,20,18,20,26,16,22,26,22,18,24,16,7
26,30,40,25,22,45,38,19,9,26,23,15,21,21,27,19,21,16,21,15,21,19,23,25,17,23,24,25,15,26,16,7
26,32,37,25,24,46,38,21,13,23,24,15,21,20,25,20,25,17,23,18,22,21,25,29,20,22,26,26,18,26,16,10
24,28,38,25,24,49,38,18,14,22,24,16,24,22,28,24,30,18,24,18,22,22,26,30,18,18,22,24,14,22,14,10
24,28,36,28,26,48,40,18,14,22,26,20,27,24,31,27,31,21,26,18,23,24,26,28,16,18,22,24,14,23,15,10
27,29,39,32,29,50,42,20,14,29,32,22,28,27,33,30,36,23,26,22,26,24,26,33,18,18,26,26,16,26,20,10
28,28,38,32,30,54,41,19,16,28,36,24,27,27,32,29,38,22,25,23,22,22,28,31,20,22,30,25,18,28,24,16
26,26,39,33,29,52,46,18,16,31,36,23,28,26,26,28,40,22,28,24,22,24,26,30,22,18,28,26,18,30,24,18
27,26,40,36,31,52,45,22,16,32,34,26,23,26,25,28,38,22,24,22,21,21,23,31,22,18,27,27,18,27,24,20
26,26,37,33,30,52,42,23,16,33,38,29,24,30,27,30,37,22,24,23,21,22,22,29,23,17,27,25,19,25,25,23
27,27,35,33,33,51,46,20,16,29,41,28,27,30,29,31,41,25,23,23,21,23,23,29,25,15,27,23,21,27,23,25
27,27,31,33,33,46,44,25,16,32,42,30,28,30,30,33,45,25,24,24,20,24,20,30,26,15,29,23,25,27,25,25
28,26,28,34,34,46,43,24,15,33,41,32,29,29,31,32,41,27,25,24,20,23,19,28,24,18,28,24,24,28,26,24
30,28,30,33,34,41,44,24,14,32,40,36,28,30,32,30,40,26,26,26,22,24,20,30,28,20,30,26,26,30,28,26
31,31,31,33,35,43,45,27,16,35,39,37,27,30,32,32,42,26,26,28,24,26,24,32,31,25,33,31,31,32,30,29
30,30,30,32,35,40,41,25,19,29,34,36,26,30,33,28,36,23,28,25,21,28,25,33,32,26,30,32,32,32,28,32
27,31,31,31,31,37,42,28,20,31,31,35,26,32,36,30,37,26,30,25,22,28,26,35,30,22,28,30,29,29,25,28
27,31,28,34,29,40,41,29,21,32,30,34,23,29,37,29,37,27,29,27,23,25,27,35,26,23,26,30,28,26,25,26
26,32,28,34,30,38,41,30,26,32,30,36,24,32,38,32,40,26,31,28,25,29,31,35,29,25,29,32,31,28,27,27
28,33,29,37,34,37,39,31,31,29,27,35,23,31,36,30,38,25,31,28,26,27,32,35,30,23,31,33,31,31,27,27
29,32,30,37,34,35,35,31,31,31,26,35,24,31,32,30,36,26,32,28,25,28,33,35,31,28,32,33,30,34,30,28
27,31,32,34,33,37,37,30,32,32,23,30,24,30,33,28,32,26,32,30,30,28,36,34,30,27,29,33,27,31,27,24
26,30,34,32,32,36,36,28,32,32,21,28,24,32,32,28,32,23,29,29,30,28,34,34,30,26,30,32,29,33,28,24
26,32,34,34,32,38,35,28,33,33,21,25,25,31,31,26,30,25,29,28,31,29,32,32,26,26,28,30,28,32,28,22
27,31,36,36,31,36,34,28,33,32,22,24,25,31,30,26,32,25,28,28,30,26,32,32,27,25,27,29,25,31,27,19
28,34,34,32,32,38,34,33,34,33,24,26,24,29,31,26,32,25,29,28,31,26,33,28,26,28,28,27,26,32,28,18
28,33,35,31,34,39,32,34,34,32,26,28,25,28,28,26,30,25,29,29,33,26,33,27,25,28,28,28,26,32,28,16
31,35,37,27,38,37,33,35,33,29,24,29,29,29,31,31,33,25,31,27,33,29,33,27,30,29,30,30,28,36,30,18
33,33,37,26,35,40,33,34,30,29,24,26,32,26,31,29,31,27,30,26,33,29,32,25,29,28,29,29,27,33,28,17
33,33,37,25,33,43,37,35,29,29,25,27,33,25,33,31,31,29,31,25,32,29,34,25,28,31,27,29,27,31,29,15
31,32,35,25,32,43,36,36,30,30,22,28,32,22,32,30,30,26,29,26,31,27,30,27,29,28,26,31,28,28,28,15
33,34,36,28,33,41,35,37,30,25,23,29,29,19,29,29,29,25,25,23,29,27,31,29,31,31,29,29,31,31,31,20
33,32,35,29,30,39,35,38,26,24,22,28,26,18,27,27,27,24,23,21,26,24,28,29,31,28,29,29,31,31,31,18
34,30,32,28,31,46,35,36,25,21,23,27,25,15,27,32,28,27,25,22,30,24,32,30,34,31,33,34,33,33,33,19
34,30,33,25,32,45,33,37,26,21,23,25,27,15,27,33,27,30,28,24,32,26,32,32,34,32,36,34,36,36,34,24
32,28,36,28,30,42,36,33,25,22,23,24,26,19,27,34,28,32,30,26,35,26,34,33,36,30,36,37,36,34,32,24
35,28,35,33,31,41,35,30,22,23,21,22,27,17,27,33,29,30,28,24,33,28,33,30,39,32,37,37,39,37,35,26
33,24,34,36,26,41,35,28,22,23,20,20,24,16,22,28,24,29,25,25,31,26,32,30,35,32,37,33,39,35,32,26
32,22,34,37,28,42,35,24,20,23,21,21,23,15,21,27,25,27,23,24,30,25,31,30,34,33,36,33,39,36,33,30
31,21,32,35,27,41,35,21,18,24,24,20,20,16,20,28,28,26,22,25,32,25,30,31,33,31,35,31,37,36,31,33
29,19,31,34,25,41,31,19,20,21,23,20,20,18,22,28,30,28,27,26,36,29,34,30,33,29,34,30,35,34,29,32
28,16,27,32,22,39,29,14,16,23,22,22,22,18,22,28,30,28,28,26,34,28,30,26,28,28,32,28,34,32,28,28
30,18,27,33,26,43,34,12,16,24,24,22,25,20,24,28,30,30,32,28,38,30,34,27,30,32,34,29,35,33,30,30
29,19,26,34,28,37,32,12,18,26,26,26,26,24,25,27,29,30,30,30,34,28,34,28,30,31,34,30,36,34,30,33
29,20,25,37,27,37,33,13,18,25,25,27,23,23,27,25,27,27,27,27,31,27,33,27,29,29,31,29,35,31,29,31
28,19,22,37,26,38,34,12,16,27,25,30,26,25,29,28,28,26,28,27,28,26,30,26,26,28,28,26,32,30,28,30
29,21,21,35,26,37,38,10,14,25,23,29,24,25,31,29,31,29,29,29,30,26,30,29,24,29,30,27,32,30,26,30
27,25,23,34,30,37,37,10,12,28,27,33,22,27,33,31,33,30,29,31,31,24,31,29,25,32,29,29,33,29,28,28
27,29,27,33,29,37,39,15,14,26,25,34,22,29,36,34,32,32,30,32,32,24,32,30,26,34,29,30,33,31,30,24
28,30,28,34,33,37,41,18,15,27,23,33,24,30,36,30,32,34,32,33,32,25,32,28,28,36,30,32,34,32,32,23
30,32,30,36,35,38,45,21,14,31,27,34,24,30,36,32,30,34,30,32,30,26,33,28,29,38,32,30,37,35,35,25
32,36,35,38,36,43,44,21,17,28,26,32,22,30,39,33,31,32,28,30,28,22,34,28,32,38,34,30,38,36,36,28
31,36,34,36,36,39,39,22,20,33,25,35,21,27,39,38,34,32,27,29,26,23,32,26,32,37,35,27,37,34,35,28
33,36,36,38,35,38,40,22,18,30,24,34,22,25,38,39,37,29,29,28,29,27,33,27,33,37,34,23,37,33,34,30
32,36,37,36,35,40,38,20,21,33,26,36,27,27,38,43,40,30,30,30,30,27,33,26,32,38,36,22,34,34,36,30
32,36,38,38,34,38,38,20,24,29,25,31,26,22,37,40,42,30,30,26,28,28,32,24,30,36,36,20,32,32,36,29
30,34,39,36,30,37,35,20,24,29,26,32,26,20,33,41,43,31,28,23,24,28,30,20,30,37,38,17,32,30,38,30
31,33,39,33,26,37,33,23,25,24,22,30,27,18,34,40,44,30,29,23,25,31,30,18,28,34,38,14,30,28,38,32
32,30,34,34,26,32,31,22,24,25,25,30,28,21,35,40,44,32,30,26,24,32,30,18,28,31,39,15,31,30,37,34
32,34,30,34,26,32,26,21,24,26,25,32,26,19,33,43,44,30,28,24,22,30,30,18,26,32,40,16,32,28,38,35
30,32,28,32,27,32,27,21,22,25,24,31,25,19,33,41,43,29,30,26,22,28,28,18,24,31,36,16,32,28,37,32
29,31,26,33,29,31,30,24,23,27,26,32,26,22,33,41,44,32,34,28,24,30,26,21,20,32,35,18,31,26,37,32
30,31,27,35,26,34,29,24,24,20,28,32,26,24,34,39,44,31,35,28,24,29,26,20,19,34,36,20,34,27,38,35
29,33,29,33,22,37,31,26,26,24,28,33,24,23,35,38,38,29,33,26,21,25,23,19,17,33,35,23,35,27,37,34
32,32,32,33,23,35,35,26,22,22,27,29,19,22,33,36,39,29,34,25,22,25,23,21,20,34,38,25,36,30,36,34
34,34,34,34,26,39,34,30,18,25,29,33,18,23,29,35,37,27,30,29,24,24,24,24,22,36,38,28,38,32,38,36
36,37,35,36,30,43,36,32,18,26,30,34,18,26,31,34,33,23,34,32,24,22,26,30,24,36,36,34,38,34,38,33
36,36,34,38,34,43,40,27,17,27,33,33,20,30,32,34,32,24,34,32,24,22,27,33,27,37,37,37,40,38,39,36
35,37,37,39,33,47,43,25,18,32,34,34,18,30,28,32,34,22,34,32,25,22,27,34,28,39,38,35,41,37,39,34
37,35,38,41,33,46,44,26,20,32,33,34,21,32,30,34,35,25,37,35,25,25,27,37,31,37,39,35,41,39,39,32
38,36,40,44,30,46,41,25,18,33,37,33,21,29,27,35,37,25,35,35,23,24,26,36,34,36,40,35,37,35,39,30
36,34,39,42,29,47,42,24,14,34,38,32,20,28,25,33,35,23,36,35,21,24,27,35,37,33,40,35,38,37,36,28
33,31,39,41,30,45,42,24,10,36,37,29,19,27,25,31,33,23,35,35,21,24,28,36,37,32,37,33,33,36,33,24
31,31,38,39,30,38,41,22,10,35,35,26,18,27,23,29,35,25,36,36,20,26,26,34,34,28,35,29,29,33,33,22
30,31,36,36,32,39,39,20,14,37,38,29,23,30,22,27,33,29,36,37,18,28,26,31,32,28,31,27,28,26,32,22
28,30,30,32,28,36,36,16,14,37,37,27,22,30,24,26,30,29,36,38,18,28,24,30,30,28,28,26,26,24,28,20
24,26,27,28,24,30,34,14,14,34,34,24,23,28,22,24,28,28,32,35,16,30,20,24,26,25,24,20,22,20,24,19
21,23,23,25,20,26,29,15,14,34,32,22,24,25,20,23,27,27,31,34,15,27,17,24,23,21,21,17,19,16,21,15
21,23,21,23,19,27,27,18,14,32,30,20,28,22,20,24,26,28,33,34,17,28,16,24,22,19,17,17,16,15,17,13
16,18,20,18,17,26,26,16,12,30,30,18,24,22,18,26,24,28,30,32,14,28,14,20,20,19,16,12,10,14,14,13
13,15,15,13,15,21,24,12,12,26,24,16,22,22,19,23,21,27,29,29,17,30,14,19,18,18,16,13,9,13,13,16
11,14,13,10,12,17,20,10,12,22,21,14,22,21,20,24,24,28,26,28,18,31,13,17,15,20,13,11,5,9,11,16
12,14,10,8,12,18,17,8,12,22,19,13,25,21,17,23,23,27,23,27,17,30,14,19,18,20,14,14,8,10,12,16
14,12,8,8,15,18,16,11,12,19,19,12,26,21,17,23,23,29,24,29,20,30,18,22,22,20,18,18,12,14,9,14
15,13,6,9,15,18,18,12,11,18,17,10,23,17,17,25,23,27,24,28,22,29,20,24,22,19,25,20,15,18,13,13
13,17,9,13,19,19,19,16,10,19,15,8,22,15,15,27,25,28,24,26,23,28,23,25,23,19,25,21,15,23,15,12
17,20,12,17,21,24,20,19,10,22,18,10,19,18,18,30,28,30,24,29,26,28,27,29,27,23,29,25,19,26,17,12
22,22,12,20,22,26,20,19,12,22,20,12,16,20,20,29,27,29,24,30,26,29,30,27,32,26,32,30,22,28,20,15
24,24,9,22,26,23,18,14,10,18,18,10,11,24,21,29,27,27,21,27,22,31,27,23,32,29,34,27,26,25,24,16
27,28,12,26,27,26,20,14,11,18,16,8,11,20,18,22,24,22,21,27,24,29,28,27,32,26,32,30,28,24,26,17
29,33,16,29,31,31,25,18,16,24,19,10,12,22,20,26,26,26,20,28,22,27,30,28,30,26,33,28,31,25,27,14
32,37,24,35,32,36,29,20,16,26,24,10,14,27,21,26,24,27,19,30,21,25,30,29,32,25,35,29,35,27,28,14
30,37,24,34,30,33,30,20,16,24,22,10,10,26,22,28,24,26,18,30,20,24,26,26,26,24,34,26,36,30,26,14
30,39,26,34,30,40,34,19,16,27,25,15,11,27,23,29,23,23,15,29,16,27,26,23,22,27,30,23,36,27,27,15
26,40,27,36,25,40,36,20,14,26,24,12,10,26,22,26,20,22,14,26,16,24,24,22,21,23,22,19,34,24,25,16
30,39,29,36,26,43,39,16,14,21,23,12,10,26,22,22,16,18,12,27,17,22,23,21,23,24,24,18,36,22,28,16
30,39,33,37,28,42,38,15,16,22,22,12,12,24,18,18,14,14,13,26,18,18,22,20,22,24,24,18,34,21,30,19
29,42,38,37,31,42,42,16,16,22,20,10,14,22,15,20,16,15,15,25,18,19,23,20,18,24,24,14,33,22,31,20
26,39,43,38,30,43,45,19,20,25,21,13,19,17,14,18,14,17,17,27,20,15,24,24,17,23,23,18,31,24,29,20
26,39,41,37,29,41,46,23,19,26,24,14,19,16,14,18,14,18,15,26,19,13,26,20,16,24,23,19,33,25,29,21
27,39,40,35,27,37,48,22,16,26,24,15,19,15,15,16,14,15,15,25,21,14,22,23,20,24,23,24,35,29,31,20
24,39,35,31,26,37,47,20,16,26,20,18,18,12,15,16,15,16,19,25,24,15,22,23,18,23,23,23,33,29,32,18
29,42,37,35,27,41,47,22,16,30,23,18,18,16,19,17,22,16,22,28,26,18,24,26,20,23,22,24,31,27,37,21
30,43,37,38,28,37,45,23,15,30,22,15,21,15,18,16,24,19,28,30,26,19,21,26,23,20,24,26,28,28,41,21
31,39,39,34,28,39,40,20,14,30,24,16,22,16,22,22,28,22,30,32,28,22,18,26,23,22,27,25,28,28,38,22
31,34,38,31,25,39,36,20,14,30,26,16,24,16,24,26,30,24,32,30,26,26,20,28,22,22,27,26,29,29,37,22
33,33,34,33,23,38,36,18,12,28,24,16,23,14,24,27,28,25,30,27,22,29,19,27,23,21,27,23,33,31,37,19
31,29,32,31,19,38,34,16,10,28,25,18,22,14,25,25,26,25,28,24,20,28,16,29,25,22,28,25,34,32,36,16
34,29,31,28,17,38,30,16,8,30,30,20,18,17,25,27,28,26,28,24,22,26,18,27,24,18,26,23,32,30,37,15
36,30,31,30,17,40,25,13,6,31,28,20,18,18,26,28,30,26,28,23,21,28,14,25,24,17,28,19,30,30,34,12
34,26,29,30,15,41,21,10,6,28,28,19,19,19,25,29,29,27,29,23,17,28,14,21,20,18,26,14,27,26,30,14
34,23,27,28,14,37,20,10,6,26,26,16,18,16,21,28,26,24,26,20,16,25,14,22,22,18,24,14,28,25,28,14
33,17,27,24,14,33,21,9,6,24,25,16,18,12,17,24,20,24,24,18,16,22,12,20,20,15,26,16,27,25,24,12
30,16,25,22,14,32,17,8,6,24,22,16,13,12,16,23,19,21,19,14,17,17,12,18,18,20,26,14,26,26,23,11
28,18,20,24,14,30,15,8,6,24,24,14,10,12,19,21,19,16,14,12,12,14,12,16,16,18,22,14,24,24,22,8
24,16,16,22,12,24,15,8,6,24,24,14,8,12,18,20,20,16,12,12,10,11,8,12,14,15,20,12,20,20,18,8
18,14,13,19,10,22,14,8,6,22,26,12,9,14,20,24,24,19,13,12,10,13,7,12,13,13,18,13,17,20,14,8
20,20,14,19,13,23,13,9,8,21,25,11,10,15,21,25,28,22,16,15,14,12,6,12,14,11,16,14,16,20,14,8
19,20,15,19,13,25,18,9,9,23,23,9,9,17,23,25,26,19,15,15,13,15,5,11,15,13,17,12,17,19,15,9
18,23,15,16,12,22,18,10,9,21,21,9,9,19,23,27,27,21,15,17,13,13,5,13,13,14,13,13,16,15,15,14
20,24,18,16,12,25,19,10,8,20,23,11,9,19,23,25,27,21,15,17,15,15,6,14,16,14,16,14,15,14,14,14
25,25,23,20,13,30,18,12,10,24,28,14,12,20,24,26,28,24,16,19,17,16,7,13,15,15,17,14,16,15,15,16
23,25,21,20,14,32,19,12,13,29,31,16,15,25,27,31,33,25,17,23,15,17,11,13,17,17,18,13,19,15,18,16
26,24,21,20,12,32,19,10,14,30,33,20,18,26,27,30,32,25,17,27,15,20,13,17,19,16,19,13,23,13,17,20
29,25,20,21,15,28,19,10,14,32,32,20,20,24,25,32,34,28,21,31,19,20,16,22,25,22,24,17,27,16,23,20
32,28,22,24,20,34,19,14,14,36,30,20,20,24,24,32,34,30,24,32,21,23,20,26,30,28,30,22,30,22,26,22
33,31,27,27,21,37,23,19,16,41,28,22,20,22,22,28,30,26,24,34,24,18,23,27,30,27,31,22,31,21,29,23
35,27,26,30,21,38,24,21,15,42,30,24,19,20,22,29,31,24,22,33,22,23,26,27,29,28,33,20,29,20,29,26
34,30,24,31,23,38,21,17,14,37,28,24,20,15,19,27,29,23,22,31,20,22,26,29,29,29,33,21,31,21,31,28
33,27,21,31,22,43,23,16,17,37,31,23,25,15,23,25,34,25,25,31,21,27,27,28,30,27,37,20,31,21,31,25
34,26,18,32,24,43,24,18,17,35,28,20,24,13,23,23,35,27,28,33,22,28,31,31,30,26,34,20,32,24,34,25
36,30,16,33,29,43,28,18,17,34,26,19,24,14,24,26,39,26,30,36,19,28,33,31,29,25,35,20,30,23,38,24
37,31,19,35,29,42,30,20,18,32,24,21,25,10,22,26,34,26,29,31,21,30,31,35,29,25,36,19,29,22,37,26
36,32,20,36,28,46,34,20,19,36,25,20,23,14,26,30,38,30,32,28,21,29,30,32,32,22,33,22,25,23,35,22
34,33,22,35,25,48,39,24,20,38,22,24,23,16,25,29,36,29,33,27,20,33,31,31,31,21,33,21,25,23,32,24
33,34,22,34,21,48,40,24,22,40,26,28,27,22,29,33,38,29,34,28,20,29,27,27,25,17,27,15,21,19,31,25
35,35,21,33,25,47,40,22,27,42,31,31,27,25,31,35,41,31,33,29,21,29,26,24,22,19,25,12,18,19,30,29
35,34,20,28,27,47,40,20,28,44,30,30,29,26,30,35,41,33,36,31,24,28,26,22,22,22,26,13,20,20,33,31
37,29,18,28,29,47,42,20,27,46,30,31,29,28,32,36,42,34,35,30,26,27,25,20,21,21,25,12,17,23,31,30
36,26,18,28,30,44,42,18,24,48,30,32,24,28,29,36,40,32,33,32,28,23,27,24,22,23,25,14,21,27,33,30
35,26,20,31,29,45,44,18,23,51,32,31,25,32,28,40,40,32,33,33,27,23,23,23,22,24,27,16,22,26,33,29
30,26,18,27,26,43,42,20,25,53,33,33,23,34,32,41,41,33,31,30,29,23,23,25,25,27,29,21,25,31,31,31
30,27,18,28,26,43,38,20,22,48,30,30,22,34,28,36,38,30,34,31,30,23,24,22,26,28,27,21,24,31,30,30
30,24,20,28,28,38,36,22,20,42,28,28,19,31,23,33,35,27,33,29,30,21,25,21,25,30,28,17,26,30,32,28
31,22,20,28,30,38,34,20,18,38,28,28,21,30,22,30,35,27,31,28,27,17,23,19,23,29,25,17,25,29,31,28
31,20,21,28,31,38,33,22,19,35,27,27,20,27,20,26,33,26,30,28,28,20,26,22,25,31,27,19,27,29,31,29
31,19,19,27,29,39,31,21,14,30,24,24,20,26,22,28,34,26,30,26,26,22,26,24,28,34,29,22,30,29,32,28
28,20,22,32,26,42,32,24,12,28,22,22,20,26,21,27,33,24,27,24,24,21,25,25,27,31,27,21,29,28,26,27
26,22,25,32,22,39,33,25,13,26,22,21,21,25,19,25,31,23,27,26,24,23,28,28,29,31,28,24,32,24,24,27
24,22,28,33,23,38,32,27,12,25,21,21,22,24,20,26,32,22,27,25,23,23,27,25,27,32,26,25,30,22,22,26
26,24,31,30,24,35,29,27,15,23,21,23,23,23,23,29,31,21,25,23,23,20,30,29,29,33,30,27,31,27,24,25
29,21,34,34,27,38,31,25,13,21,19,21,24,21,21,26,28,20,28,26,24,22,30,31,31,33,29,28,31,27,27,25
30,23,34,34,26,41,36,22,16,24,22,24,26,22,24,28,32,24,27,27,24,23,30,32,32,34,30,30,33,28,28,26
30,26,34,34,26,42,36,21,16,24,22,22,28,22,26,28,32,24,24,30,26,24,30,32,30,34,30,32,32,30,28,28
31,27,35,35,27,45,38,22,18,26,24,22,26,24,29,29,31,25,25,31,29,27,31,33,31,33,31,33,33,31,29,30
31,27,34,35,27,45,39,18,19,27,25,23,26,25,29,29,30,24,24,30,28,26,31,32,31,31,31,33,33,31,29,27
30,26,35,34,26,45,41,20,19,28,27,26,29,23,25,25,27,25,25,31,31,27,29,33,29,26,30,33,31,30,28,27
31,27,33,31,27,41,39,18,22,32,32,28,29,24,27,27,27,26,26,32,32,28,30,34,31,27,31,36,31,31,31,26
35,29,34,29,28,39,37,17,20,30,30,26,26,22,26,26,26,24,24,29,31,24,25,31,30,28,30,33,33,32,32,22
38,33,34,33,29,43,36,15,20,27,28,24,24,22,24,24,24,22,22,26,28,23,22,28,28,29,32,30,34,32,33,21
36,37,33,37,29,46,37,16,18,28,28,22,24,20,22,20,22,22,22,26,28,23,21,24,26,30,28,26,34,27,32,24
35,37,33,35,27,44,35,17,16,26,26,20,24,18,22,22,24,22,21,22,27,24,21,22,23,29,27,24,33,25,31,23
34,36,32,32,28,42,31,21,12,23,24,16,20,16,18,22,22,18,19,21,26,22,20,20,19,27,25,18,32,24,29,23
34,38,34,32,28,44,33,22,13,23,24,17,18,17,21,22,24,16,20,20,24,20,20,22,20,26,26,18,34,24,30,22
33,39,33,31,29,43,32,22,14,22,20,14,16,14,18,19,21,13,17,17,21,17,19,19,17,27,25,15,33,25,31,23
34,40,34,32,29,42,31,25,14,21,17,13,17,12,14,17,21,13,17,18,22,19,20,21,17,27,25,15,33,25,31,23
32,40,33,32,29,40,29,24,15,20,17,10,15,15,17,21,23,13,17,19,21,19,21,21,17,28,24,13,33,24,31,22
32,38,34,32,29,40,32,25,12,16,14,8,12,14,16,18,22,12,16,20,20,16,22,23,19,27,25,14,34,25,31,22
30,38,32,34,28,45,32,28,12,22,17,12,16,16,18,21,28,16,20,23,24,20,26,27,18,23,24,15,29,26,30,22
27,34,31,30,28,42,32,30,13,22,18,13,17,14,18,22,27,17,21,25,23,20,27,29,19,20,24,17,28,27,30,24
28,29,30,25,27,43,34,29,16,24,17,16,18,18,20,24,28,18,22,26,24,22,28,30,20,18,24,20,28,30,30,24
28,31,29,24,28,41,35,28,17,29,21,17,17,21,21,23,29,19,22,27,23,20,28,31,21,20,26,21,26,26,28,24
29,31,28,27,29,39,35,28,20,32,22,20,18,24,24,24,32,20,23,30,24,19,29,34,24,20,27,25,27,27,29,25
29,28,27,27,29,36,34,29,23,34,22,23,20,23,21,24,31,22,24,33,27,20,29,35,22,18,27,26,24,27,31,26
28,26,28,26,28,38,34,27,22,32,26,24,24,26,24,28,34,26,28,36,30,24,30,38,26,20,28,30,26,24,28,28
29,27,28,28,30,38,35,24,21,32,29,24,23,27,27,33,37,29,29,38,28,23,31,35,26,22,30,31,28,24,30,30
34,31,30,30,33,40,38,26,20,34,28,26,22,26,28,34,40,28,28,36,28,24,32,34,30,26,34,34,32,28,33,33
33,31,29,31,34,41,39,24,25,34,28,30,22,26,28,36,42,28,28,34,28,26,33,31,26,28,32,32,31,27,34,30
33,31,29,32,36,37,39,20,27,28,27,26,18,24,28,37,39,26,25,33,26,22,31,29,28,28,36,33,32,28,36,32
34,32,30,30,34,35,41,22,30,32,28,27,19,26,30,40,41,27,25,33,28,24,32,30,30,28,36,34,33,28,36,32
34,32,30,30,36,32,39,21,28,28,29,26,19,23,26,39,40,26,25,32,28,25,33,30,30,30,36,32,30,28,36,32
32,30,29,31,36,32,37,21,32,23,25,29,21,21,25,37,37,25,25,31,29,26,33,29,29,28,35,31,30,30,36,33
33,31,27,27,33,34,36,18,29,20,22,27,22,18,22,36,34,27,25,29,29,28,34,25,28,26,33,27,29,29,35,32
31,31,24,24,29,37,34,14,28,18,23,26,22,19,21,35,34,27,26,26,31,32,36,20,26,26,32,28,28,25,29,32
36,32,30,28,28,37,37,20,31,20,24,29,22,19,22,36,36,28,26,26,32,32,36,20,26,20,28,28,28,28,30,30
35,31,29,27,27,39,39,20,32,20,22,30,21,20,24,34,34,25,25,23,33,31,34,22,25,20,27,27,27,29,29,28
34,28,24,26,26,36,36,16,34,18,21,28,22,19,24,33,34,26,26,24,32,30,34,23,26,20,26,28,29,28,28,27
37,28,24,24,24,34,34,20,29,20,20,25,26,21,22,34,35,30,26,28,36,33,34,23,28,20,29,29,31,31,29,28
36,26,22,20,22,32,36,20,27,22,18,28,28,25,20,30,34,28,26,27,36,37,35,24,28,22,28,30,31,30,28,30
38,27,27,24,24,35,36,20,24,22,20,29,28,25,21,29,33,29,28,27,37,35,33,25,25,23,27,27,29,29,29,27
36,28,26,24,24,36,36,20,24,24,20,30,25,28,22,28,32,28,25,26,34,32,28,22,23,21,23,27,31,26,30,25
38,30,28,24,22,38,36,18,20,24,20,30,27,32,26,30,34,31,27,26,36,33,30,28,26,22,24,28,32,28,32,25
38,30,30,26,24,37,37,18,19,27,21,29,28,34,30,29,35,32,28,26,36,32,28,32,29,26,26,34,36,30,34,26
40,31,29,29,28,35,41,22,16,29,20,28,28,33,33,33,37,30,26,24,32,30,26,32,31,30,28,34,38,34,38,26
38,30,22,28,28,35,41,21,16,29,17,25,24,31,32,32,38,28,24,25,30,28,26,34,30,30,32,32,40,34,38,25
38,32,24,30,30,31,36,22,16,28,19,24,24,29,30,32,38,29,24,25,32,28,28,34,33,30,33,36,41,35,40,26
38,32,26,28,30,30,38,26,18,28,21,26,25,31,32,34,38,30,24,26,34,26,30,35,32,26,34,34,40,36,40,25
35,30,27,28,32,34,36,26,20,29,24,27,25,30,32,32,36,25,25,22,34,27,28,36,33,26,31,34,39,35,40,26
36,32,28,33,32,34,34,29,20,30,28,24,26,31,34,35,39,28,28,24,34,25,27,36,35,28,32,35,41,36,40,26
34,32,22,30,32,29,33,29,20,31,27,24,27,30,34,36,40,28,27,24,35,27,29,35,39,29,33,37,43,37,39,29
34,34,24,30,32,30,34,29,19,30,26,24,28,30,36,36,46,28,28,24,36,27,31,36,39,29,35,38,41,40,36,29
33,33,21,31,32,29,34,34,22,34,28,24,24,27,33,35,47,26,26,25,35,28,29,31,37,29,35,36,41,38,35,29
32,30,18,32,32,31,35,36,22,33,29,26,24,27,31,37,47,27,28,27,34,30,30,30,35,28,34,33,38,38,34,30
30,28,20,30,30,30,32,34,22,31,29,26,24,26,30,36,46,29,31,29,37,28,30,29,35,28,32,28,36,36,32,30
29,29,21,29,31,28,32,31,22,31,31,28,27,28,30,37,45,31,31,28,38,29,29,27,35,31,31,29,32,37,33,32
29,27,20,26,28,30,32,30,21,32,28,29,27,28,28,36,44,30,31,28,35,28,29,26,33,29,29,26,32,35,30,32
28,26,22,26,26,32,33,30,17,34,28,28,27,28,26,34,42,30,32,28,34,32,28,26,30,30,28,24,29,32,30,35
29,28,23,27,24,29,33,28,16,32,27,26,25,28,29,34,42,31,31,29,33,29,28,25,28,28,28,22,29,30,29,36
29,29,24,27,27,33,34,25,18,30,26,28,25,25,30,34,43,35,31,29,33,29,27,25,29,29,29,23,29,31,29,35
28,29,24,26,26,36,31,24,18,28,26,25,27,25,28,30,42,36,32,28,32,30,28,24,28,27,28,22,28,30,28,35
29,25,23,28,25,37,29,27,18,29,25,23,29,23,25,29,41,41,35,27,33,32,29,23,29,27,29,21,29,29,29,37
31,27,27,28,27,37,33,26,16,31,25,22,31,25,26,31,39,41,35,28,33,31,29,23,30,27,31,24,31,31,32,37
30,28,26,28,27,34,33,24,18,35,24,22,30,26,28,30,40,40,32,26,32,28,28,24,30,24,28,23,31,29,29,36
31,29,27,30,30,37,35,24,18,37,25,21,29,25,25,29,37,37,29,25,31,29,27,27,31,24,31,27,33,31,31,34
31,30,29,30,30,38,34,22,13,36,24,18,29,24,24,27,35,35,27,25,31,30,25,27,31,21,29,27,34,27,31,33
32,31,31,29,31,37,35,21,16,37,27,19,32,27,27,29,39,37,30,25,32,33,24,27,33,19,31,29,32,29,33,32
32,34,33,32,34,39,35,23,17,37,25,18,30,27,27,27,39,36,28,25,30,30,23,27,32,20,30,31,33,30,32,32
35,37,33,35,37,42,34,24,20,37,23,20,32,27,25,27,39,36,30,28,30,33,24,27,35,21,33,33,35,33,35,31
35,37,32,35,37,43,34,26,20,38,22,20,31,28,24,26,36,31,29,27,29,31,23,27,33,17,33,31,35,31,35,31
38,39,36,38,38,43,38,30,24,41,25,24,28,30,26,30,38,32,30,30,30,29,20,30,34,19,36,34,38,34,38,28
39,41,37,39,39,43,39,27,25,42,26,26,26,28,30,34,36,28,28,34,30,27,20,32,35,22,38,38,39,35,39,30
39,42,37,40,40,45,36,28,28,41,29,27,28,27,30,33,37,30,29,35,29,30,21,33,34,23,38,35,40,36,39,30
39,41,41,41,43,48,37,28,26,37,30,26,26,26,30,34,36,30,30,36,28,28,22,34,34,25,39,37,38,36,40,31
41,43,42,41,42,50,38,31,26,35,32,25,25,28,32,32,38,32,32,36,28,27,26,34,33,27,39,36,37,37,41,32
42,44,39,42,44,49,37,32,26,34,31,26,25,27,31,31,37,33,33,37,30,23,28,34,32,30,42,38,38,40,42,33
43,45,39,45,45,49,39,32,24,32,31,24,24,27,31,31,35,33,32,39,30,22,28,35,30,34,40,36,38,38,43,33
44,44,38,44,44,49,39,29,22,33,33,24,24,25,29,30,34,31,33,40,31,22,28,34,32,33,39,34,37,37,44,31
42,44,36,42,39,47,38,30,20,31,35,25,23,23,29,29,33,31,35,38,31,18,26,36,29,31,35,33,33,33,39,27
41,45,35,39,36,45,37,31,20,31,35,26,22,22,28,28,32,30,34,36,30,18,28,34,28,32,32,32,28,30,34,24
38,44,32,36,35,46,34,28,16,27,31,25,22,21,27,25,29,27,31,33,27,18,27,32,28,30,30,29,24,26,32,24
36,46,28,36,34,43,31,30,16,23,32,24,20,22,22,20,24,24,30,30,26,18,26,31,27,29,27,26,21,23,32,22
33,43,23,33,31,39,31,30,14,22,29,22,18,19,19,18,22,22,28,26,24,15,24,28,24,24,22,24,16,18,30,22
35,45,20,30,31,39,31,32,14,22,28,24,18,23,19,19,21,23,28,23,24,16,24,24,22,25,23,23,17,19,29,19
35,43,16,29,27,32,26,32,16,24,27,28,20,23,20,22,22,21,27,21,23,16,22,23,23,20,20,21,14,14,24,17
35,42,16,27,26,34,27,33,18,25,27,28,19,23,19,23,21,21,27,21,21,18,21,22,22,18,20,18,14,14,24,16
30,38,12,24,22,34,22,31,21,25,28,29,18,24,18,20,18,18,26,22,17,19,19,23,26,14,21,16,13,12,20,15
28,35,8,22,23,28,18,30,20,22,25,29,19,25,17,20,16,18,25,19,15,18,20,25,25,18,20,16,14,12,20,16
29,34,7,24,23,24,17,26,20,23,24,29,18,27,17,19,15,17,21,19,13,20,22,24,23,18,19,13,13,11,21,24
27,31,7,26,22,26,15,23,18,21,21,27,18,26,18,18,14,16,22,22,18,18,24,26,22,18,18,16,16,12,24,28
29,30,6,27,21,24,14,22,19,22,21,25,20,25,18,19,15,17,24,23,19,16,26,27,17,17,15,16,15,11,21,28
30,26,6,26,18,23,14,21,20,24,17,23,25,23,21,21,17,19,25,21,17,17,27,28,22,15,16,21,16,12,17,29
30,24,6,26,18,20,12,16,19,26,17,27,26,27,21,23,17,20,26,21,18,19,26,31,23,17,19,27,19,15,17,29
28,24,7,27,14,21,11,16,22,26,20,28,26,29,20,20,19,19,24,24,17,20,25,34,26,14,20,30,20,16,18,30
27,27,10,27,15,26,13,15,20,25,18,26,26,30,20,21,18,22,24,27,20,18,28,38,28,16,20,34,24,18,18,29
29,27,14,28,12,28,14,13,20,26,19,28,26,31,22,20,20,20,24,25,20,18,30,38,28,14,18,34,22,16,14,26
30,26,18,30,12,29,18,15,15,27,17,29,26,27,23,23,25,21,24,23,22,16,28,36,23,14,15,34,21,16,14,28
31,27,19,30,8,32,23,16,13,25,16,26,22,24,22,22,28,23,23,23,21,17,25,31,21,13,18,33,22,16,12,30
29,25,20,27,11,39,24,20,11,25,18,27,23,23,24,21,33,23,23,22,19,15,21,31,20,16,20,32,22,18,13,25
29,22,18,24,10,36,25,21,14,27,21,29,27,27,25,23,34,24,22,20,16,20,20,28,20,16,22,30,23,20,12,24
29,22,20,23,13,38,26,23,17,29,25,33,26,29,27,22,35,23,22,20,15,22,22,26,22,18,24,28,24,22,18,24
26,20,20,20,16,40,30,24,18,28,27,36,23,35,25,27,36,24,22,22,17,21,21,26,15,20,24,21,24,21,20,24
29,23,22,20,15,47,30,24,19,25,29,33,24,32,27,27,36,23,21,24,19,21,22,25,16,19,24,15,23,19,19,24
30,21,20,22,19,46,28,23,20,23,28,32,26,26,29,29,36,24,24,25,25,22,23,24,15,23,23,11,19,15,19,22
33,19,18,23,23,43,28,24,25,25,32,32,26,24,28,29,39,22,24,26,23,24,20,21,13,23,25,7,15,19,23,22
33,19,17,23,28,44,29,23,26,27,34,31,30,26,29,30,39,26,26,27,22,26,18,23,14,24,26,12,20,24,30,24
36,24,18,24,32,44,28,25,29,29,35,29,29,27,25,27,33,25,27,29,25,31,23,23,17,27,29,19,25,29,32,23
34,23,19,26,33,44,23,22,29,29,35,29,29,27,25,27,29,23,27,29,26,32,24,25,19,25,27,21,25,29,36,22
34,26,18,24,30,42,24,18,29,27,32,25,27,25,22,27,24,21,25,28,29,35,27,25,19,25,25,21,25,27,34,19
33,28,23,25,30,41,25,17,26,27,29,23,22,22,20,26,22,21,25,27,27,31,27,25,18,24,24,18,23,26,32,18
34,30,24,28,30,42,23,17,23,26,25,22,19,19,17,24,19,21,23,27,27,33,25,25,17,25,27,18,25,27,31,21
39,33,28,33,31,44,22,14,19,26,31,20,21,17,19,19,19,20,22,25,29,35,27,24,20,26,30,20,27,32,34,22
37,33,28,34,33,39,22,14,16,24,28,18,17,15,16,16,20,18,20,24,26,36,25,22,18,28,28,21,25,31,35,24
39,37,33,33,32,39,24,14,12,26,26,16,14,16,14,14,16,16,18,22,22,34,22,18,15,26,27,21,25,31,38,27
33,36,36,33,28,39,27,11,10,22,24,14,14,14,12,10,12,14,16,20,20,37,22,17,13,28,25,21,27,27,39,31
32,34,34,30,26,40,27,13,8,19,21,13,9,11,9,8,8,10,16,18,20,35,26,15,10,30,22,16,23,24,34,34
31,31,33,30,24,37,27,10,7,15,19,13,13,11,11,9,9,11,17,17,17,32,25,15,7,27,21,9,21,21,34,32
33,33,34,30,26,38,29,10,8,18,21,16,14,13,13,11,11,13,17,19,18,29,28,15,6,26,26,7,19,25,31,31
35,28,34,32,28,36,29,10,8,18,22,16,14,14,16,13,14,14,16,22,16,26,28,16,8,25,27,9,22,28,34,30
35,28,33,33,31,39,30,10,11,18,25,19,17,17,19,15,15,14,16,22,18,26,27,16,9,26,27,11,21,27,37,30
34,25,32,33,30,41,35,7,12,17,25,19,18,18,20,16,16,14,16,22,22,22,26,14,8,26,24,11,20,26,34,28
34,22,31,34,30,43,37,6,12,15,18,16,16,16,22,19,17,15,16,25,22,20,26,16,7,25,23,9,20,23,32,23
33,23,32,36,31,46,40,6,12,20,20,16,16,16,26,24,18,16,18,28,22,16,32,16,6,22,27,8,26,28,33,18
35,25,27,35,31,42,40,6,12,20,20,14,18,16,26,22,18,14,16,30,22,14,36,18,9,19,28,11,32,30,31,15
37,25,26,37,33,45,37,7,10,19,16,14,19,18,26,24,20,16,18,30,24,13,40,17,11,21,28,11,32,32,30,12
36,30,28,42,31,40,34,9,11,20,16,19,20,18,28,25,25,17,17,31,23,12,37,17,11,19,29,9,30,31,29,7
35,31,29,40,28,41,31,8,10,21,17,17,17,21,29,25,25,15,13,27,22,12,33,15,11,21,27,9,29,29,26,9
32,30,26,36,24,40,29,8,8,18,17,15,17,19,27,23,25,14,13,23,22,15,29,13,11,24,21,9,28,24,24,10
33,34,30,34,23,42,27,10,8,18,16,14,18,18,24,21,22,14,14,20,23,16,27,11,9,23,22,8,25,21,21,11
34,33,31,32,22,41,28,14,7,18,13,13,15,15,21,19,21,14,14,20,24,20,28,12,12,26,22,8,28,22,20,13
30,31,28,27,20,37,22,14,8,18,15,10,16,16,21,19,21,13,16,19,20,24,28,13,13,25,21,9,29,21,18,14
25,31,25,21,15,31,17,14,10,17,15,11,16,15,21,19,21,14,16,17,18,24,26,12,14,26,20,12,30,22,15,16
24,29,25,18,13,32,16,14,10,12,17,12,16,17,19,15,19,13,14,15,19,24,21,13,15,29,16,13,26,17,12,19
19,24,29,16,10,37,17,17,10,12,20,14,16,18,20,19,25,16,16,16,21,28,20,13,14,33,15,12,22,17,10,22
19,25,31,14,11,35,18,17,10,13,22,14,13,16,22,18,26,16,16,16,23,27,18,15,15,30,16,13,24,18,8,24
24,25,31,12,16,36,19,15,8,11,21,8,14,15,21,18,25,16,14,18,24,30,20,20,20,32,20,19,28,20,14,26
22,24,26,12,20,33,20,16,11,10,21,11,17,13,21,17,25,19,17,19,24,30,20,20,20,32,20,20,26,20,18,25
22,22,28,14,22,32,20,16,12,10,22,13,19,16,26,22,28,24,21,24,25,31,22,24,24,31,24,24,30,24,22,22
21,18,26,14,24,32,22,18,12,12,26,16,19,19,27,23,29,23,22,26,25,32,22,25,26,31,24,27,34,28,25,22
18,18,22,14,22,29,20,15,15,11,27,16,19,21,27,23,31,26,22,26,22,30,22,24,28,28,24,26,32,30,26,20
20,20,25,16,24,28,22,16,17,12,27,17,17,19,26,24,30,28,22,29,22,30,22,25,29,25,25,27,31,31,28,20
20,21,27,16,24,30,23,16,19,16,28,19,17,20,22,22,30,27,23,28,21,32,22,22,26,22,22,24,30,30,30,20
25,23,27,19,26,29,20,18,23,18,26,21,19,20,21,21,29,28,25,28,22,33,22,22,28,20,24,24,32,34,34,21
25,26,24,24,28,28,20,20,27,17,24,21,20,20,24,21,29,32,28,27,21,32,22,22,26,19,25,25,33,37,36,20
23,22,21,22,26,30,20,18,30,19,25,25,23,23,23,21,29,33,29,25,21,32,21,21,27,22,27,27,31,35,37,18
16,17,18,20,20,29,16,18,32,20,28,26,22,24,21,24,30,36,32,22,19,28,20,18,26,18,25,25,32,34,30,18
17,17,19,19,20,32,16,16,32,22,26,24,20,24,22,30,32,36,31,23,22,27,24,21,29,18,27,25,35,37,28,16
20,20,20,22,18,35,18,16,32,29,26,24,18,23,21,27,27,32,28,20,20,24,24,18,26,16,26,22,34,36,28,16
21,21,19,25,18,33,19,12,36,30,24,22,21,23,21,27,27,31,26,20,20,26,25,18,24,16,24,19,32,32,26,18
24,22,22,26,18,34,22,16,34,34,26,23,24,24,26,28,28,28,30,20,20,24,24,19,20,16,24,22,32,30,24,19
24,22,24,26,18,35,27,14,29,36,28,23,27,25,27,27,29,27,29,18,22,23,24,20,20,20,24,24,32,30,24,20
26,25,25,30,20,36,27,16,26,34,27,21,25,25,27,27,25,25,25,19,21,19,23,22,22,20,24,26,30,30,24,18
23,23,26,27,16,35,28,14,21,34,27,19,25,25,28,28,28,25,25,19,21,21,23,23,21,21,23,27,29,28,21,17
23,21,27,25,14,37,29,9,18,36,28,20,23,25,25,27,25,19,21,19,18,19,20,23,23,21,22,26,28,24,20,17
23,23,29,27,14,35,29,11,17,35,28,18,22,24,26,28,26,18,20,18,15,21,21,21,20,20,20,21,28,24,20,22
24,24,28,27,14,39,30,10,18,36,26,20,22,27,27,24,25,13,17,16,16,25,20,18,20,20,18,20,23,20,20,20
24,24,30,27,12,42,31,14,17,35,28,22,19,26,24,18,20,10,16,16,14,22,18,15,19,20,18,19,22,19,20,20
22,22,31,24,14,40,32,17,16,31,28,23,20,27,23,19,23,12,16,16,14,20,18,16,21,20,16,22,20,18,18,20
24,24,32,26,14,45,33,18,12,30,30,26,19,28,23,23,25,17,21,15,15,19,18,17,20,22,20,25,22,20,20,20
24,25,35,28,16,50,32,14,10,30,32,28,18,26,19,23,24,21,19,19,17,21,19,20,21,20,22,24,24,22,22,19
24,26,31,26,14,52,29,20,12,29,31,29,16,25,17,24,24,21,20,20,16,22,22,19,26,16,20,25,24,22,24,18
25,27,31,25,15,55,31,20,14,32,36,32,19,25,17,25,27,25,23,23,19,27,27,21,27,18,25,27,26,24,23,22
23,30,28,25,15,54,32,22,18,32,38,32,22,26,18,26,26,26,24,22,20,26,26,22,28,19,25,27,27,25,25,21
25,31,31,27,15,51,29,25,20,34,36,32,22,26,16,24,24,26,24,21,21,26,27,21,29,16,27,27,31,29,29,20
26,30,29,24,13,49,29,25,18,33,36,34,22,27,17,25,23,27,27,23,23,26,26,27,32,16,28,31,31,29,29,15
26,30,29,24,14,49,29,24,14,30,36,32,22,26,23,26,26,30,30,24,21,22,27,26,28,16,30,28,32,30,30,14
26,32,31,26,12,44,29,20,12,31,39,31,22,26,25,25,25,29,30,22,22,22,26,28,30,20,30,34,32,30,28,14
27,35,31,29,13,48,31,17,15,34,41,34,21,27,27,25,25,29,31,23,23,23,27,29,29,19,29,31,35,29,27,15
26,36,34,26,10,49,32,20,15,34,40,32,21,27,26,20,26,28,28,29,26,20,27,30,30,20,28,29,33,30,26,16
25,36,31,24,10,45,33,20,14,30,40,29,20,26,26,20,24,23,29,25,26,21,28,30,28,24,27,28,31,29,24,16
24,36,32,26,12,45,31,14,16,29,39,27,20,29,26,19,25,23,28,24,26,22,26,31,24,26,28,23,33,28,22,16
25,36,32,27,11,44,30,12,15,27,35,27,20,30,26,17,24,22,28,23,27,20,23,29,23,26,25,19,30,24,23,16
28,33,33,26,14,45,29,14,17,27,33,27,17,29,27,17,25,21,28,24,26,22,26,27,20,25,23,17,29,21,21,21
27,34,30,25,17,47,30,14,16,26,34,26,18,28,28,18,26,22,30,24,26,24,26,26,18,28,20,16,25,16,18,21
23,34,31,23,20,51,27,14,16,26,30,24,18,25,25,15,23,19,27,23,28,20,23,20,14,24,16,12,21,13,15,22
26,38,35,24,20,54,26,16,16,27,30,26,18,24,17,14,20,18,26,24,30,22,22,20,14,24,14,12,20,12,14,22
26,37,33,20,22,55,25,19,18,27,25,26,20,25,19,18,24,22,26,28,30,22,20,18,10,18,12,6,18,10,14,24
24,32,29,16,20,50,20,21,18,24,23,25,22,24,17,19,21,20,26,28,30,24,18,18,14,20,12,6,14,10,18,28
20,28,24,14,20,45,15,17,18,23,22,24,19,25,22,23,21,19,26,27,26,26,18,18,16,18,12,9,15,10,16,26
19,25,21,12,20,44,17,16,18,26,22,28,18,28,24,26,24,22,24,26,26,22,18,15,19,14,13,9,17,11,16,26
22,25,21,14,22,43,18,16,14,26,22,28,16,26,25,26,24,20,22,26,24,18,16,12,18,12,14,10,16,12,14,24
22,22,18,16,22,40,16,19,17,25,21,27,15,25,25,27,25,19,21,24,22,16,14,12,16,10,12,10,14,12,12,20
22,24,16,18,22,42,19,20,16,25,19,27,17,25,21,23,21,20,21,22,22,14,10,14,16,11,14,10,12,12,13,18
24,23,14,16,19,38,20,18,17,24,20,28,17,25,21,23,23,19,21,23,23,13,11,15,17,13,15,9,11,11,16,19
26,21,12,18,16,34,23,16,18,22,22,26,18,26,22,24,24,20,20,22,22,14,14,16,18,16,16,10,12,12,16,20
24,18,11,22,14,31,29,16,18,25,22,24,16,26,24,22,24,18,18,22,22,12,12,16,18,16,16,10,12,12,18,20
23,16,10,25,13,32,30,14,18,24,23,25,16,24,24,20,22,16,18,20,21,16,16,18,18,16,16,10,12,12,19,20
24,18,12,26,14,32,34,14,21,26,23,23,15,27,25,21,24,15,17,19,20,16,18,18,16,14,18,14,16,14,16,18
26,20,14,28,16,34,36,14,22,26,25,21,18,24,22,19,21,13,20,17,20,18,17,16,16,14,21,13,14,13,18,18
29,25,17,31,17,36,32,16,22,26,24,16,18,20,24,16,18,10,19,21,23,21,21,19,15,19,21,17,11,13,21,19
30,27,18,30,16,35,34,16,24,26,24,16,20,20,26,18,18,12,20,22,26,24,24,24,16,22,24,18,12,16,26,23
27,28,20,27,17,35,36,14,25,26,24,15,21,19,25,19,14,10,23,24,28,27,28,24,21,27,26,20,15,19,27,26
26,26,22,24,18,33,37,11,24,25,25,15,19,19,27,19,15,8,23,28,30,27,30,24,21,28,27,23,15,19,26,26
24,26,26,26,20,36,38,16,25,28,26,18,21,23,29,19,17,13,23,28,31,29,34,25,20,25,27,25,15,23,21,26
24,27,27,28,20,35,39,18,26,30,28,20,21,24,33,21,21,13,23,32,30,28,36,26,20,22,30,26,18,24,22,24
23,25,25,23,21,32,34,17,29,30,26,19,25,24,34,25,23,17,27,33,30,30,38,28,22,22,34,26,18,24,23,24
22,24,22,20,22,28,31,20,30,31,30,19,26,24,32,26,24,18,28,36,31,28,36,30,24,22,38,26,20,26,28,25
20,22,20,18,21,28,30,18,27,30,31,18,26,22,32,21,22,20,30,36,31,29,37,29,21,25,37,21,15,23,27,24
22,22,20,18,22,26,30,21,26,32,28,18,24,20,32,20,22,20,26,36,30,26,37,28,20,24,34,18,14,24,28,22
19,19,19,19,20,23,30,21,26,30,26,18,26,22,30,22,24,22,27,34,27,23,33,23,17,19,29,13,13,19,23,19
16,17,20,21,18,22,30,22,26,28,24,16,25,22,26,19,22,23,27,33,24,22,30,18,14,16,24,10,10,14,18,18
16,16,20,22,17,23,28,24,22,30,26,18,26,22,26,16,25,25,25,33,23,21,29,17,10,13,23,9,8,12,18,19
17,17,18,25,15,23,24,26,19,32,26,18,26,24,26,18,26,26,23,31,21,20,29,17,12,13,22,8,12,14,19,22
18,16,14,26,16,22,22,21,18,28,24,12,22,18,22,16,20,20,20,29,19,16,23,16,11,12,20,6,13,11,20,20
16,14,12,22,22,22,20,18,16,28,24,12,23,18,21,16,19,21,22,27,23,18,19,19,11,12,19,5,11,11,20,20
16,14,12,22,24,24,20,19,17,27,26,13,23,16,20,17,19,21,22,27,24,16,21,21,9,13,19,5,15,15,20,23
16,14,12,22,22,22,21,18,15,26,24,12,21,20,22,16,20,22,22,23,25,18,20,17,9,16,15,5,13,13,16,22
18,18,14,22,23,22,22,20,16,26,25,13,23,21,19,19,23,23,21,27,27,17,19,19,15,13,17,11,17,17,17,22
17,21,14,22,24,22,22,19,16,24,26,16,24,22,22,22,26,25,23,27,29,17,19,20,14,17,17,12,18,17,17,25
18,22,16,20,28,25,22,21,18,25,28,18,24,24,24,24,30,26,23,27,29,19,19,22,18,18,18,16,20,20,18,27
19,22,14,19,26,25,21,23,17,28,32,21,24,23,28,26,32,25,24,28,30,21,20,23,19,20,19,17,21,23,21,28
20,22,12,14,28,22,20,24,18,30,32,22,22,26,28,28,32,26,24,24,30,18,18,24,18,19,18,16,20,24,20,24
19,21,18,11,25,19,22,22,18,30,35,25,21,27,29,29,33,27,25,25,31,17,19,25,16,18,20,16,19,24,19,18
16,22,18,8,22,16,22,24,14,30,38,28,22,28,34,34,36,30,28,28,33,20,22,27,20,18,20,16,22,23,18,18
20,27,20,10,19,15,22,27,16,32,36,28,20,28,35,35,37,32,29,29,31,22,25,25,23,22,23,21,23,23,20,20
20,28,20,10,18,15,24,25,13,34,38,29,21,31,33,31,35,29,28,29,31,25,24,22,24,24,22,24,22,24,18,18
24,32,22,14,18,16,26,22,12,33,40,27,22,29,31,31,33,28,32,32,34,26,30,28,22,21,26,28,28,28,16,16
24,30,20,16,18,14,23,20,10,34,39,25,18,28,33,31,33,26,32,29,32,26,30,26,18,24,24,25,26,28,16,14
27,29,21,16,18,14,25,18,12,33,40,24,19,28,32,28,32,27,33,28,33,29,33,27,19,25,26,25,29,31,16,15
27,33,19,17,15,17,25,18,15,37,41,26,18,29,31,25,30,27,35,28,33,31,34,29,19,25,27,25,29,29,19,17
26,33,18,18,17,14,24,16,16,35,39,26,18,30,29,23,30,27,36,29,36,30,36,28,18,23,28,28,30,30,18,18
26,32,23,25,16,18,26,12,16,32,40,24,20,30,32,22,30,26,36,30,36,32,36,28,20,24,32,32,32,32,22,20
28,32,20,31,18,20,25,10,16,33,37,23,19,25,31,22,30,27,35,29,34,31,35,27,22,21,30,32,34,34,26,23
30,32,21,35,18,23,23,12,19,31,33,22,22,28,30,22,34,30,36,28,34,32,35,25,20,22,32,35,32,36,26,24
27,28,19,35,16,22,21,10,17,27,31,21,21,27,27,19,31,27,33,25,30,29,33,23,19,19,30,32,32,36,23,25
26,26,18,34,14,20,18,12,16,25,30,21,16,27,27,18,29,26,30,22,30,26,30,22,20,16,30,30,30,32,22,26
23,23,17,31,14,19,16,12,18,26,26,24,16,26,28,19,29,27,28,21,27,24,26,19,23,16,27,31,25,29,23,28
25,27,21,31,15,23,17,12,20,23,23,27,18,29,29,23,33,29,26,21,27,22,24,21,27,15,31,35,29,31,25,30
24,28,23,35,15,21,16,16,23,27,23,29,19,29,31,27,31,27,27,20,27,23,23,22,26,11,28,33,25,27,26,28
26,27,26,32,14,16,18,15,18,22,20,27,17,26,30,28,32,31,29,22,27,21,20,20,24,12,30,32,26,30,26,25
24,28,26,30,12,16,16,14,16,22,20,24,18,26,32,32,34,30,28,20,24,20,18,22,26,14,32,28,28,28,28,21
22,26,21,23,10,12,14,14,14,20,16,22,15,25,29,31,33,28,28,21,21,21,18,22,24,12,28,26,29,24,24,18
18,24,18,19,8,14,14,14,17,18,16,19,19,27,33,35,37,26,26,22,21,26,16,20,31,12,26,28,28,20,23,16
19,24,19,16,9,12,14,11,14,18,17,19,16,28,34,34,32,22,24,20,18,24,13,19,30,10,26,28,28,18,24,12
18,24,20,14,8,12,14,10,16,18,18,20,16,28,35,35,33,23,25,21,20,25,15,24,33,12,25,28,26,18,25,12
18,26,22,18,8,14,16,8,16,17,18,17,20,27,38,38,36,26,28,24,20,28,18,30,36,14,26,32,28,20,26,12
21,27,26,17,8,16,16,9,14,13,22,15,18,27,38,39,35,27,28,23,21,30,18,30,35,14,27,32,29,23,27,10
21,25,24,19,10,14,17,12,13,16,29,17,17,24,35,38,33,26,30,23,21,29,18,28,31,12,23,32,25,19,26,9
18,21,21,14,8,14,16,13,10,18,27,16,16,25,29,33,31,25,29,21,20,24,21,27,33,11,23,33,25,19,22,7
16,19,19,20,10,12,17,12,10,22,28,16,18,24,31,35,29,21,27,21,20,22,24,30,38,10,24,33,26,18,22,8
18,16,21,18,10,14,18,12,10,22,28,18,20,26,30,34,28,22,28,20,22,24,26,35,42,8,22,37,24,18,18,8
24,19,23,21,11,16,24,12,10,24,31,21,26,26,34,38,30,27,29,23,27,25,28,37,48,12,28,40,27,24,20,12
29,26,28,26,15,18,28,14,10,28,34,23,24,29,35,34,28,30,31,22,33,25,35,42,46,19,33,39,31,27,21,17
32,27,31,27,16,25,32,21,14,33,36,26,25,30,34,36,30,32,34,26,38,25,41,45,50,23,36,41,36,29,23,21
34,30,35,30,20,33,38,26,14,40,40,28,28,34,38,39,31,33,33,25,41,23,40,43,53,22,36,41,37,31,25,20
40,34,37,32,22,40,41,28,16,44,42,30,28,34,39,37,29,31,34,24,46,22,44,41,54,23,38,38,39,30,26,21
42,40,39,39,27,43,46,30,18,47,39,32,30,34,37,34,28,30,34,28,48,22,48,46,58,30,42,38,44,30,28,22
42,40,43,40,28,49,47,35,20,48,34,29,35,35,38,33,26,32,34,30,50,23,52,51,60,35,46,37,48,34,30,23
44,44,47,44,32,56,49,36,21,47,34,29,38,34,40,35,29,33,35,35,54,28,52,55,61,38,50,41,52,38,34,28
44,46,50,44,34,61,50,42,24,47,35,30,36,36,40,34,32,33,33,34,54,28,52,52,62,42,50,42,53,39,35,27
49,53,49,51,37,65,56,48,26,49,37,31,33,37,41,33,33,31,33,39,57,27,50,49,62,44,54,45,56,40,40,30
49,56,51,54,40,68,54,53,26,53,36,33,29,36,37,29,29,29,33,39,58,28,50,51,62,42,52,44,56,40,40,28
50,53,53,53,40,65,53,55,28,51,35,33,30,36,33,32,27,30,36,44,58,28,50,52,62,39,56,47,56,44,39,27
51,56,53,57,40,61,53,49,26,47,33,30,29,31,34,27,25,27,34,41,60,27,52,54,64,41,58,46,56,47,41,27
52,58,54,60,38,57,55,47,24,44,31,28,26,30,36,26,29,30,34,42,62,28,54,58,61,42,60,50,56,50,38,28
49,57,55,61,41,55,57,47,24,47,31,27,23,29,34,26,32,32,34,44,60,30,52,58,59,44,60,54,56,49,41,27
50,56,54,60,39,55,56,50,27,49,28,27,27,29,37,29,35,35,35,43,59,31,53,56,62,41,63,54,57,55,43,28
49,57,49,61,39,53,54,49,22,47,26,24,21,25,35,27,35,33,33,41,58,29,51,49,63,39,63,50,51,51,41,31
50,56,44,60,38,52,49,49,19,47,27,25,20,27,37,28,36,34,32,40,56,24,50,44,61,40,61,43,49,48,40,28
49,55,40,58,33,51,44,41,17,42,31,25,22,29,41,33,39,34,32,40,56,26,50,46,60,39,63,43,49,47,39,29
43,49,38,52,30,54,42,37,16,41,31,23,23,27,41,35,39,41,37,41,57,25,48,50,54,40,58,38,47,46,34,28
42,48,39,50,28,57,44,33,19,37,32,22,25,30,45,39,43,43,39,41,55,25,47,50,51,41,57,37,45,43,35,31
36,47,34,44,24,60,40,30,14,36,30,24,26,32,48,38,45,42,36,37,50,22,43,47,49,39,51,33,40,38,33,29
30,44,29,38,22,60,35,28,12,36,30,24,27,32,47,37,47,42,35,36,45,21,37,44,43,33,43,30,34,34,28,25
28,42,25,36,22,61,27,29,12,37,29,25,26,29,41,35,43,38,36,35,41,23,35,38,39,32,40,23,32,28,30,24
27,41,20,33,19,59,20,33,14,31,26,25,25,31,43,37,41,37,35,35,41,20,33,35,37,28,37,19,31,29,27,22
24,36,14,29,21,62,15,31,13,27,33,29,19,29,45,37,39,33,31,31,42,17,28,32,33,28,32,13,27,25,24,20
24,34,16,26,18,63,16,26,15,27,34,31,20,32,46,38,41,36,34,32,41,20,26,34,30,26,28,16,28,24,24,20
24,34,17,26,18,61,21,23,17,23,31,29,19,31,47,37,39,34,32,31,38,22,24,35,31,24,30,18,27,24,24,20
26,34,17,26,20,57,24,24,17,25,27,29,20,29,43,35,37,38,32,32,38,22,24,34,26,24,26,18,24,24,24,20
24,35,19,28,20,53,21,22,17,25,23,31,20,27,43,34,36,34,24,26,32,20,24,29,26,20,24,17,21,22,24,20
22,32,15,28,19,52,17,20,17,27,22,32,19,24,40,34,35,33,23,24,30,17,23,26,25,19,22,18,18,20,23,19
24,35,16,30,20,51,18,24,18,26,22,28,16,20,34,30,32,30,22,24,28,18,24,24,24,18,22,16,18,20,24,18
26,34,18,32,22,50,20,26,18,27,23,27,15,21,35,34,30,31,22,24,28,20,24,24,24,20,24,18,20,22,26,22
27,35,21,33,23,49,23,26,20,26,24,26,19,22,38,36,29,31,23,25,27,20,23,24,25,21,25,20,21,22,24,22
27,35,25,31,23,49,27,21,18,27,26,26,22,20,34,34,28,30,24,24,24,21,23,24,25,23,27,20,21,23,27,22
26,38,28,32,21,42,29,19,19,29,23,25,26,25,33,33,31,33,27,25,23,24,25,23,23,23,25,26,22,23,28,25
24,38,30,30,22,42,32,20,21,29,25,26,27,27,35,32,32,31,26,26,24,21,26,24,22,22,26,24,22,22,26,22
24,38,31,30,22,41,29,19,21,32,28,28,31,28,34,32,33,32,26,26,26,19,28,25,22,24,26,26,23,23,26,24
24,36,32,30,24,44,29,18,20,33,29,27,28,27,33,34,34,30,28,26,26,20,24,22,20,22,24,22,26,22,26,24
28,35,33,28,24,40,29,18,20,32,32,26,26,28,30,31,31,27,29,26,24,21,24,20,20,24,26,24,30,24,28,24
29,35,36,27,23,38,32,19,17,31,35,26,22,29,31,30,30,26,28,27,23,22,22,19,18,26,25,19,29,23,26,22
27,33,35,23,21,35,32,16,18,30,36,26,24,32,33,33,34,30,30,27,25,22,22,20,17,27,25,25,29,23,25,23
28,34,36,24,22,36,32,14,18,30,35,25,23,29,33,32,32,27,28,28,24,20,22,20,18,28,28,26,32,24,28,25
26,30,35,21,20,34,33,10,16,29,38,25,21,28,32,33,35,29,30,30,24,18,21,18,16,26,26,26,30,22,28,24
23,27,35,23,17,33,31,11,14,31,38,28,20,30,36,36,40,28,26,28,22,15,20,16,13,22,21,24,25,19,23,26
23,26,34,20,15,35,31,12,11,30,37,25,18,27,33,35,37,25,23,27,17,14,18,15,13,22,24,19,24,16,24,27
27,27,29,21,11,31,28,14,8,29,35,23,16,25,31,36,35,24,23,25,15,17,19,15,15,20,23,21,25,19,25,29
26,26,28,20,10,32,28,15,9,25,31,19,17,23,31,35,34,24,23,26,14,19,18,14,14,18,22,20,25,19,24,30
24,28,27,22,8,29,25,18,12,21,31,21,20,25,33,31,30,24,21,26,14,20,21,18,18,20,24,22,22,20,24,31
20,30,24,24,10,32,22,20,12,19,29,19,20,25,34,31,32,25,23,26,14,21,24,22,19,19,25,20,19,21,25,30
18,28,24,24,10,34,20,21,11,21,26,19,22,24,34,32,34,26,22,24,14,20,26,22,22,16,28,22,22,24,28,28
20,30,28,24,14,36,23,21,12,22,26,20,20,22,37,33,35,26,22,25,13,20,27,22,22,15,28,16,25,26,28,27
24,32,28,26,16,36,22,24,16,22,26,22,20,24,34,31,35,28,22,24,16,20,28,24,22,16,26,16,24,26,28,26
27,35,27,29,19,38,18,27,18,19,22,22,22,25,33,30,32,26,20,22,17,21,29,27,25,19,29,17,26,29,29,26
30,36,29,31,20,39,22,26,18,18,20,18,25,24,32,30,30,30,25,26,23,27,33,33,31,24,32,22,26,32,32,28
31,35,30,34,20,38,26,28,16,21,18,19,28,22,30,30,30,30,26,28,26,27,33,36,34,23,31,26,25,35,34,28
31,35,34,36,22,40,29,25,17,23,20,20,31,23,30,29,31,29,23,29,25,26,31,37,35,28,34,27,25,33,35,29
29,37,35,37,21,41,29,24,14,25,23,24,28,22,30,28,29,27,24,27,23,27,31,35,33,33,31,25,24,33,35,28
28,34,34,31,24,40,30,22,12,26,20,20,28,18,26,27,28,24,25,24,26,25,29,32,34,30,30,26,24,34,32,29
30,32,34,32,24,36,30,20,12,26,18,20,32,16,24,27,28,25,24,26,28,26,28,30,35,31,29,28,25,33,31,30
30,34,31,32,26,30,29,18,12,22,16,16,30,14,20,26,28,26,22,26,28,24,26,30,34,30,28,26,24,32,28,32
29,33,28,35,22,29,28,16,9,19,13,13,31,11,19,25,27,25,21,25,31,21,23,32,37,29,31,30,24,33,29,31
25,33,26,35,19,26,28,16,6,22,14,12,31,12,20,26,28,26,24,26,28,21,23,31,37,26,33,31,23,35,28,29
27,34,28,35,21,28,33,13,5,21,18,11,29,11,21,24,29,25,22,27,25,24,24,32,36,23,32,30,24,36,29,26
25,36,24,31,21,29,32,12,4,20,20,10,25,10,22,24,30,24,21,24,20,19,19,28,35,21,34,30,28,37,27,23
22,36,24,31,22,30,30,7,4,14,18,8,22,10,24,25,33,26,18,20,18,19,16,24,32,22,35,30,28,36,25,23
19,31,24,30,20,26,28,6,2,10,16,5,23,9,23,29,35,27,17,19,21,17,13,19,29,20,33,29,27,35,21,19
23,29,25,31,18,27,29,4,4,11,17,3,22,10,25,30,36,28,17,23,25,16,15,21,31,12,36,33,26,35,22,15
27,35,28,34,17,32,34,6,5,12,20,4,21,14,28,32,38,28,19,26,25,17,15,22,26,13,36,30,25,34,23,15
30,38,30,36,20,34,37,6,6,12,24,4,24,16,32,33,39,29,20,24,26,16,16,22,28,14,38,34,26,36,26,20
33,39,29,37,21,37,39,6,6,12,24,4,28,18,32,30,36,28,24,24,28,20,18,22,30,16,38,36,27,36,29,21
31,35,32,37,24,39,40,6,6,15,27,5,28,21,31,31,37,28,26,24,26,24,22,20,32,20,39,36,25,35,27,22
31,32,31,35,26,42,40,5,6,13,26,6,29,20,35,33,37,25,27,25,28,26,20,19,31,24,39,35,27,33,29,25
32,32,26,35,26,39,36,7,7,13,26,9,33,22,34,34,36,26,31,22,30,25,21,16,30,29,42,36,29,34,30,29
34,33,27,38,28,35,31,10,7,11,21,9,33,21,29,32,33,23,29,21,32,27,24,17,27,28,42,33,29,34,32,30
36,37,26,39,27,34,32,12,10,14,24,12,33,24,32,35,30,22,31,23,35,26,27,19,27,29,41,30,31,35,34,29
39,41,27,39,27,38,30,14,10,14,24,12,32,22,30,30,26,20,34,24,34,28,30,22,26,31,42,26,33,38,37,33
38,44,23,39,28,35,27,14,9,14,23,12,32,21,28,29,25,19,34,21,31,27,29,19,23,33,42,21,38,37,36,36
39,41,23,43,30,29,21,13,10,13,21,17,33,20,28,30,25,21,33,21,31,31,31,19,25,36,44,25,39,39,41,37
36,39,24,42,27,31,23,16,12,18,20,22,29,20,26,28,24,20,32,20,30,30,31,19,25,39,46,21,42,39,41,32
37,41,28,43,29,31,26,20,15,22,24,26,28,22,30,32,26,20,32,22,32,28,32,20,28,40,48,22,43,42,41,33
39,43,26,43,30,29,26,23,19,25,24,31,29,22,30,30,24,19,31,23,33,27,31,21,25,39,46,21,44,42,44,34
40,46,25,44,29,27,27,24,19,25,25,29,29,23,29,28,24,22,30,23,32,27,31,20,26,38,44,22,42,42,42,31
38,44,25,39,26,27,27,24,19,27,23,27,25,21,27,29,23,21,28,25,32,26,31,19,25,33,41,19,37,39,40,27
35,40,23,37,23,29,27,24,19,30,26,28,26,24,30,27,26,24,28,28,34,23,28,20,26,34,40,20,35,35,37,27
34,38,23,36,23,27,27,21,18,29,26,28,27,24,28,24,27,25,29,29,33,23,27,21,27,31,39,22,31,31,33,25
30,34,19,34,24,23,27,19,18,33,27,30,28,26,30,26,27,25,29,27,33,22,27,21,29,28,35,23,27,27,30,22
29,29,19,29,23,21,27,19,18,31,23,31,26,26,28,30,28,26,28,27,33,24,27,21,33,28,33,24,22,26,30,22
23,27,15,25,17,21,27,17,15,32,21,25,23,23,25,27,25,23,25,23,29,20,25,19,31,23,28,21,23,21,25,20
22,27,14,23,15,18,28,14,12,32,22,22,20,21,27,28,26,24,22,26,28,18,23,17,29,17,24,19,18,19,21,18
20,24,10,18,10,20,26,10,9,28,25,18,20,22,27,30,27,24,20,26,24,18,22,18,22,14,22,18,14,14,18,15
20,24,12,18,9,26,27,7,5,23,25,13,20,24,28,32,26,22,18,26,25,19,22,17,19,13,19,18,12,10,16,12
19,22,12,17,7,27,30,5,5,22,25,16,21,24,25,32,26,22,18,25,27,21,24,19,17,12,19,20,9,7,13,12
22,28,14,18,10,26,34,3,8,22,28,16,26,24,27,32,28,22,19,24,28,21,23,24,20,14,22,24,13,10,16,16
23,27,16,18,8,23,36,1,8,21,27,19,25,23,28,34,26,22,16,22,26,23,25,23,25,11,20,23,16,10,16,18
20,21,13,15,8,23,33,1,6,21,28,18,22,24,29,35,28,22,14,22,26,22,26,22,24,10,20,24,20,10,16,20
22,24,18,17,11,26,35,1,6,19,33,18,20,24,33,38,31,25,13,24,26,22,23,23,25,12,22,26,23,12,18,17
21,27,20,20,13,28,40,6,7,22,38,19,23,27,34,36,34,25,17,23,27,19,19,27,21,13,22,26,26,12,18,14
27,31,27,23,19,29,47,10,7,24,39,21,25,29,37,39,39,25,17,25,29,17,19,29,21,13,21,25,23,11,19,11
29,31,30,25,23,34,43,14,9,21,35,21,27,31,37,38,38,22,19,21,29,19,19,29,21,13,21,25,23,11,21,17
32,34,30,30,28,29,45,17,9,21,28,21,23,31,32,35,36,19,17,17,29,17,19,27,23,16,23,23,25,13,25,21
31,36,28,32,31,27,44,19,9,25,26,21,20,26,28,30,36,18,18,16,29,13,19,26,26,16,28,21,30,15,30,25
31,33,30,29,29,22,41,18,8,23,26,17,18,23,28,30,35,15,17,15,29,11,18,25,26,17,26,16,31,16,31,24
26,27,28,28,26,20,36,18,6,20,27,17,16,23,31,28,32,15,17,14,28,12,19,22,25,16,22,11,32,16,26,22
24,26,26,26,26,20,34,18,8,18,28,18,19,26,29,25,31,17,21,17,29,15,21,24,20,19,24,10,30,20,24,18
27,29,29,29,28,21,35,18,11,18,29,19,21,25,28,24,29,19,25,19,31,18,23,25,23,22,27,9,31,23,27,16
27,29,27,26,26,19,34,20,13,19,25,21,19,25,27,23,25,15,25,16,32,17,25,28,22,21,30,10,31,24,27,22
31,31,26,28,25,20,31,18,11,16,20,17,15,21,26,22,20,13,21,15,31,19,27,25,25,21,31,11,33,27,29,23
27,25,19,23,21,20,23,14,11,12,19,15,13,19,23,19,15,13,21,13,33,19,31,27,27,26,34,13,39,29,31,26
23,22,14,21,17,14,23,10,12,9,21,13,12,18,22,20,14,13,20,14,32,19,29,28,25,31,35,13,37,29,29,25
20,22,12,16,12,15,23,9,11,13,27,13,15,15,27,19,15,17,23,17,33,21,29,31,23,32,35,13,35,27,25,23
18,21,9,11,7,13,19,8,14,12,29,16,19,18,31,23,19,23,24,18,32,21,30,33,23,30,32,13,30,27,21,21
16,25,9,11,11,19,16,9,15,17,31,19,20,20,32,26,20,26,26,18,30,22,30,32,25,29,31,15,30,29,20,21
21,29,10,13,13,22,18,10,16,20,29,21,20,23,31,26,22,27,27,21,31,21,30,33,28,31,33,20,29,27,23,21
26,32,14,18,16,26,20,10,14,22,26,16,16,20,30,26,22,22,24,20,30,18,28,30,28,31,32,20,30,26,26,26
25,31,11,17,15,26,19,10,11,20,23,13,17,19,29,25,21,19,21,17,27,16,27,31,29,32,29,21,27,25,25,28
24,28,8,16,12,24,16,8,9,17,21,9,19,19,25,21,21,20,20,20,26,16,30,27,29,35,26,19,30,22,27,24
23,27,9,15,11,24,16,6,12,18,22,10,24,20,26,22,24,22,20,25,27,16,30,29,27,34,29,16,31,21,25,24
24,28,12,20,10,28,20,6,12,22,27,15,25,25,31,28,29,25,23,30,28,20,28,28,28,31,27,14,28,20,22,23
24,27,12,20,10,30,20,6,10,22,26,16,26,24,30,24,28,25,23,29,27,18,28,27,28,26,24,14,30,18,20,18
24,24,13,22,10,29,16,5,12,20,20,18,22,22,24,23,24,22,22,26,26,18,26,24,28,23,20,14,30,18,20,16
29,21,13,25,14,27,19,7,11,17,19,15,22,20,21,18,21,20,20,24,24,19,23,22,27,26,20,15,31,17,21,17
28,17,11,27,12,23,26,11,14,15,17,13,21,22,24,16,18,16,18,29,24,18,23,22,23,27,21,13,31,17,20,21
26,14,13,26,12,23,29,14,12,14,18,12,18,20,22,16,18,16,18,27,23,18,20,19,19,27,19,9,29,15,17,22
25,11,9,23,15,19,32,17,14,17,16,12,20,18,20,16,16,16,18,24,20,18,18,18,16,24,16,8,24,12,14,20
27,9,9,25,20,19,31,19,19,19,15,15,18,22,20,16,18,16,18,24,20,18,16,14,10,22,14,4,22,10,16,20
27,9,9,25,26,21,33,19,23,21,17,17,20,26,24,21,20,18,20,26,20,20,14,12,12,18,12,3,17,10,14,22
23,5,7,22,29,18,34,18,24,22,20,20,18,29,29,26,26,20,22,25,21,22,16,11,12,18,9,4,11,9,11,22
22,8,8,20,30,18,32,22,24,18,15,15,21,25,25,21,21,19,23,25,20,23,16,10,14,18,12,8,10,10,12,23
24,14,8,20,33,18,34,27,27,21,17,17,24,25,27,23,20,21,23,25,21,24,16,12,20,20,16,10,11,13,14,29
23,13,8,19,35,20,35,30,29,23,19,17,29,27,29,27,23,21,23,27,21,25,21,11,23,21,19,11,13,17,15,31
18,12,8,16,32,18,31,27,29,23,17,19,28,28,30,29,22,20,24,28,22,26,22,12,23,17,18,9,13,17,13,31
18,12,8,14,33,17,24,22,26,20,14,18,27,24,24,29,22,20,22,22,20,30,25,10,23,15,17,9,11,17,14,28
16,14,8,18,33,18,21,18,24,18,14,18,26,24,24,29,23,21,20,23,21,31,27,13,25,12,17,9,11,21,16,26
16,21,11,19,29,20,19,15,25,16,17,19,25,27,27,32,27,24,18,24,22,33,28,13,26,16,18,10,12,22,18,25
13,21,14,18,27,26,22,15,23,16,18,18,28,23,27,33,25,24,18,24,24,36,26,13,30,15,20,13,12,24,14,26
12,25,14,18,21,24,20,18,20,16,20,18,25,21,27,32,27,24,16,20,25,34,27,13,29,16,20,15,12,24,12,27
14,29,14,20,20,24,20,18,16,14,16,14,24,17,19,26,20,22,14,18,24,32,24,10,28,14,20,14,14,24,14,26
12,26,10,16,18,24,22,14,16,16,18,14,20,16,20,28,22,22,10,16,20,30,22,8,22,12,16,10,12,22,12,26
10,20,11,16,17,25,19,9,14,14,18,12,19,16,18,26,23,23,12,16,22,29,24,9,17,12,14,12,11,21,14,20
12,21,14,19,19,27,21,9,13,13,22,13,14,17,20,25,25,23,13,17,22,28,22,9,17,14,14,11,13,21,16,20
14,24,16,20,21,30,24,12,15,18,26,15,17,19,21,23,25,25,13,16,24,30,22,7,17,18,17,12,15,23,21,19
19,29,19,23,19,34,29,14,18,21,29,17,18,23,25,27,29,27,19,19,25,25,17,11,21,17,19,15,14,20,21,19
22,29,18,25,23,35,31,16,18,25,33,21,18,26,27,26,30,30,23,18,25,25,15,8,22,20,22,16,19,18,21,20
22,24,20,24,24,33,33,22,15,23,35,23,19,27,25,27,27,30,24,18,26,23,14,9,22,16,22,16,18,18,20,17
25,27,22,26,24,28,31,24,17,25,36,25,18,28,26,26,28,31,25,19,25,21,19,12,21,20,25,13,23,21,25,19
27,29,27,31,28,33,35,24,20,25,33,27,18,27,25,26,28,34,27,21,24,22,19,15,22,20,29,15,25,25,27,17
27,26,29,31,30,35,37,28,25,28,35,30,16,30,30,28,28,35,29,23,25,23,21,17,25,21,29,19,27,25,29,18
31,27,31,34,35,36,38,30,26,26,34,30,18,30,30,28,28,36,32,24,29,25,25,20,28,25,32,23,31,28,33,19
33,29,32,35,37,38,40,33,28,30,34,32,18,32,32,30,32,38,32,28,28,26,25,20,32,27,35,22,33,29,31,21
34,31,32,36,38,37,41,29,27,29,31,31,20,30,29,30,31,38,32,29,30,26,24,23,34,26,36,26,34,29,32,19
36,32,34,36,38,36,42,28,27,26,28,31,19,31,31,35,33,39,35,33,30,27,26,25,38,26,36,26,36,32,28,21
35,31,35,37,41,36,41,29,28,27,29,31,20,28,28,30,32,40,32,32,30,27,28,24,38,28,38,26,40,36,31,23
36,33,35,36,40,35,42,29,30,26,25,27,23,28,28,32,34,36,30,32,30,27,31,28,38,29,38,28,40,38,34,24
35,35,34,37,40,39,39,27,33,27,21,27,25,25,29,33,37,35,31,35,31,27,35,29,39,31,41,29,41,39,35,26
34,37,33,37,40,40,41,25,32,27,22,26,25,25,29,35,37,35,31,36,32,29,34,30,40,31,40,33,40,38,34,23
33,35,30,36,38,41,41,24,28,27,23,23,24,23,27,33,35,31,29,35,33,28,32,27,37,32,35,29,40,33,35,23
34,38,30,36,38,42,42,22,23,24,22,21,25,23,26,28,32,27,26,32,29,26,30,26,33,32,34,26,35,32,32,20
35,41,31,38,37,40,41,21,24,26,24,22,26,25,25,28,31,25,27,31,30,27,31,28,34,33,36,25,36,34,33,21
34,42,29,36,34,37,40,20,23,27,26,21,25,22,26,26,28,22,28,28,32,28,32,26,30,30,32,22,32,32,32,22
30,44,25,36,30,35,37,23,22,27,26,21,27,25,27,27,29,21,27,27,31,29,33,23,25,30,28,18,28,28,30,23
30,44,26,38,30,36,36,22,18,26,24,18,22,20,22,22,24,18,22,22,26,26,30,22,22,29,26,18,26,26,32,23
28,42,27,36,28,38,36,21,16,24,22,16,24,21,23,23,23,17,21,21,27,29,28,21,20,29,24,17,24,24,30,22
25,39,26,33,26,38,35,23,16,26,22,18,25,19,21,21,20,17,23,21,29,29,27,21,19,28,22,15,21,21,27,24
27,39,26,34,26,37,36,22,16,26,23,18,22,20,22,20,18,18,24,20,28,29,25,22,23,29,22,14,24,23,29,26
24,37,26,29,24,39,35,23,15,25,21,19,19,17,22,18,19,15,22,16,24,26,24,18,20,25,18,10,20,20,26,25
25,37,26,29,23,35,36,24,14,24,24,18,20,16,22,18,18,14,24,16,22,26,24,22,24,25,21,13,19,23,25,27
26,36,24,30,24,34,32,24,16,26,27,18,21,13,19,22,22,16,26,17,24,26,27,23,26,27,23,15,22,25,28,29
25,35,23,29,23,35,32,27,18,31,26,18,21,15,17,22,23,17,25,17,21,23,25,21,26,27,24,15,24,27,27,27
26,34,25,30,24,37,32,27,17,27,25,17,19,18,16,22,24,16,22,16,18,20,24,20,30,28,28,20,24,28,30,26
28,30,27,28,27,39,33,29,18,30,26,21,19,20,19,25,25,19,23,17,19,21,25,23,33,29,31,23,27,31,31,28
29,32,26,27,28,39,34,31,20,33,29,22,24,22,23,29,30,20,26,20,21,22,25,23,33,27,33,25,26,31,31,27
30,34,26,28,28,36,33,32,23,35,30,26,24,25,25,31,32,22,28,23,23,23,26,25,35,31,35,25,29,33,33,25
31,33,24,27,26,32,34,31,24,34,32,26,24,26,26,32,36,24,29,25,21,22,26,23,35,30,34,25,29,33,33,23
31,33,23,27,29,32,34,30,22,34,33,27,28,25,26,32,36,24,28,24,20,23,25,22,33,31,35,26,27,31,33,25
34,34,19,28,30,29,35,29,23,35,34,27,30,27,26,30,34,26,30,26,22,24,24,24,33,30,36,27,30,32,36,26
33,33,19,27,31,29,32,28,26,36,31,30,32,30,25,30,37,32,30,25,22,24,24,22,30,29,35,26,33,31,35,25
34,30,22,24,30,30,32,27,24,35,29,31,30,31,29,29,39,35,30,27,23,24,22,23,31,30,37,27,35,33,37,25
34,29,23,23,28,29,32,28,23,31,29,35,31,31,33,31,43,39,31,29,25,25,24,23,29,28,33,27,31,28,35,28
36,32,25,24,30,27,35,28,22,30,30,36,32,32,34,34,44,42,32,32,26,26,24,26,26,28,30,26,32,28,34,28
38,36,25,26,30,29,34,26,21,31,32,34,33,32,34,29,41,39,33,31,27,25,25,27,27,26,31,27,31,27,36,24
35,34,24,28,25,29,34,27,19,31,29,32,31,29,30,28,39,39,33,32,29,25,28,27,27,24,29,25,28,23,32,25
32,30,21,27,23,28,35,27,15,30,28,30,28,26,28,26,36,36,30,30,29,22,30,27,27,17,26,23,23,19,28,28
32,32,25,30,24,33,33,30,16,31,27,30,28,24,29,27,35,35,28,28,30,22,30,27,27,18,23,21,24,18,26,28
30,30,23,28,20,34,33,32,18,31,29,30,27,26,31,29,35,37,31,31,33,23,33,27,27,16,22,21,26,18,24,26
29,31,29,29,20,37,31,34,19,29,28,28,27,26,30,30,36,37,31,31,35,24,33,27,30,21,23,20,25,19,23,28
31,32,28,31,20,36,32,33,18,29,30,27,25,25,32,33,36,33,29,32,35,25,33,27,31,23,25,18,26,21,25,31
29,35,25,33,19,33,34,36,21,30,30,30,29,26,30,30,30,30,30,31,37,28,34,26,32,22,24,14,22,20,23,32
28,33,22,31,18,34,36,36,22,31,31,28,28,25,29,28,26,28,28,31,36,28,32,26,32,20,24,14,22,20,22,28
28,32,19,30,18,31,31,33,23,30,30,29,29,25,28,28,26,27,29,29,37,29,33,25,33,22,25,13,23,21,22,28
25,26,17,26,16,26,30,32,23,24,25,29,29,23,25,28,26,28,28,30,36,30,32,25,31,25,25,9,21,21,19,31
27,24,15,23,19,22,29,30,24,25,30,30,28,28,30,28,26,28,28,27,35,30,31,25,29,27,25,7,23,23,23,32
30,26,15,23,21,20,28,32,26,28,32,31,30,30,32,29,27,29,30,28,34,32,30,24,26,30,28,8,26,26,26,34
30,26,13,22,24,17,29,31,26,28,33,30,30,34,31,29,27,31,31,29,35,33,31,26,26,30,29,10,24,26,28,32
33,28,15,22,26,16,31,30,26,29,31,32,29,35,27,25,25,29,29,27,33,31,28,24,24,33,31,10,23,29,31,33
33,25,11,21,28,9,31,28,22,27,31,29,30,35,27,25,25,29,30,29,32,33,30,25,23,30,31,12,22,28,30,31
29,22,10,18,26,8,28,29,21,25,27,27,31,33,25,23,21,27,29,27,31,33,31,23,25,27,29,15,23,27,27,28
26,18,11,14,24,11,28,26,18,24,26,24,30,32,24,24,22,26,29,27,28,34,30,23,25,24,25,17,23,23,24,24
26,20,11,16,28,8,22,22,14,22,24,21,31,30,24,25,23,27,31,27,30,33,27,22,26,26,24,16,22,22,26,26
22,16,10,14,24,8,22,24,13,24,26,23,29,31,27,24,22,28,34,27,29,35,28,21,25,25,23,15,21,21,24,24
21,16,10,14,24,8,21,24,13,26,29,23,29,33,27,23,21,25,31,25,29,37,27,20,27,24,21,21,24,21,23,23
19,17,13,12,23,11,22,26,17,23,27,26,31,31,27,23,21,25,31,28,30,39,25,21,27,23,19,21,25,19,19,19
16,19,13,13,20,15,23,26,18,24,27,26,33,31,28,22,21,25,31,27,30,40,24,21,30,22,18,20,24,18,16,16
17,19,13,13,17,15,21,22,19,19,23,23,31,25,25,19,19,25,29,26,29,39,23,20,30,20,19,20,25,19,15,18
14,21,12,13,15,14,19,20,18,18,22,20,32,24,30,20,20,24,28,26,27,38,24,22,33,16,16,20,25,16,12,13
15,23,11,15,13,17,18,20,24,24,22,22,35,26,30,18,20,26,28,26,27,36,22,22,36,16,17,20,26,18,14,14
16,24,12,16,14,22,20,19,27,27,25,25,35,29,33,23,24,29,31,28,28,34,22,24,34,18,16,18,22,16,14,14
17,28,15,18,14,19,19,21,28,31,26,28,34,34,38,30,28,34,32,30,29,35,23,23,31,21,19,17,23,19,17,17
17,27,19,17,10,21,23,23,29,33,26,28,34,34,36,32,30,32,30,31,27,36,26,25,31,21,21,19,26,21,17,18
20,30,22,20,12,24,26,23,30,32,24,24,36,32,34,33,31,31,27,32,28,34,25,26,32,21,22,21,26,22,18,20
23,35,25,25,15,29,27,24,33,34,23,23,36,29,33,33,32,34,30,34,28,32,25,26,31,22,25,17,26,23,21,21
22,33,25,26,16,29,24,22,30,34,20,19,33,28,32,33,33,33,29,32,27,31,27,26,33,23,27,20,25,25,22,23
22,29,25,25,18,25,21,21,26,31,19,20,33,29,33,35,34,35,31,34,27,31,28,26,32,25,27,20,24,24,22,22
21,29,27,26,18,27,24,24,24,32,20,20,34,32,32,36,36,35,32,31,26,30,26,25,31,28,29,23,27,27,23,24
21,29,28,27,21,28,24,22,24,28,20,18,31,28,26,36,35,33,35,30,31,32,28,28,29,32,32,26,29,30,27,25
21,29,31,27,19,27,24,20,20,24,22,20,27,26,26,37,34,31,33,29,31,29,29,27,27,35,31,27,29,29,28,25
20,28,30,28,20,22,22,19,17,21,19,17,24,23,24,31,31,27,30,27,29,28,28,24,24,36,32,26,30,30,28,26
21,27,27,28,22,24,24,17,15,19,19,15,23,19,19,24,28,23,29,25,29,23,25,25,23,35,31,25,27,27,28,24
21,29,25,31,24,26,22,17,15,20,20,17,22,18,21,20,24,20,26,20,27,21,23,22,21,33,29,22,23,24,28,22
21,29,22,33,24,26,20,15,14,18,20,18,20,18,22,20,25,19,25,19,25,19,21,21,21,31,28,21,25,24,29,21
19,25,19,29,21,22,18,12,10,14,18,16,20,18,22,22,26,20,24,18,25,18,21,18,20,30,26,20,25,26,27,20
21,27,17,29,21,19,17,10,8,12,20,16,21,18,20,22,26,21,25,19,25,18,23,19,23,30,28,21,29,29,31,22
24,29,19,30,21,21,17,8,11,11,17,13,18,19,20,25,29,21,21,20,23,17,20,18,22,28,28,22,28,28,34,25
24,28,18,29,23,22,16,11,12,14,20,14,18,17,23,28,29,17,19,21,25,17,21,17,21,24,25,19,25,26,33,22
24,23,14,26,18,24,16,12,12,16,20,16,20,20,26,28,31,19,18,24,23,16,18,13,19,21,21,15,21,23,28,23
20,18,10,22,20,22,18,12,10,16,20,14,20,21,26,30,31,19,19,23,25,16,18,15,19,18,20,15,20,24,28,20
20,18,10,20,18,22,18,12,10,16,20,14,20,22,28,33,35,20,19,23,25,18,18,16,20,16,19,18,18,22,26,18
18,16,9,18,16,22,16,11,10,15,20,14,21,20,30,35,33,18,17,20,23,19,19,15,20,14,16,20,18,22,23,20
18,16,10,18,14,22,16,11,11,14,18,12,20,20,29,34,32,18,18,23,24,19,20,17,20,13,15,20,18,22,21,19
17,15,12,15,12,20,18,16,12,16,18,12,20,19,26,35,31,17,17,25,25,19,22,18,20,17,18,18,19,23,20,19
16,14,12,14,12,22,20,16,12,19,21,15,20,19,27,35,32,18,18,24,24,20,24,20,19,17,15,19,16,19,20,17
17,15,11,17,9,27,24,16,12,22,22,18,18,20,28,35,31,18,20,23,24,19,22,18,14,17,13,18,14,16,17,13
16,19,7,14,7,29,23,14,9,21,21,17,18,16,24,30,26,14,20,20,24,17,22,16,12,18,14,16,16,18,16,9
13,17,5,11,3,31,21,11,6,17,18,20,16,16,20,25,21,17,19,21,23,17,23,15,10,21,14,14,16,20,16,12
14,22,8,13,5,28,22,12,6,18,18,18,15,16,22,28,24,19,19,18,21,19,25,16,12,24,17,16,18,20,20,14
18,26,12,16,9,30,23,12,8,21,19,19,18,17,24,27,25,19,19,19,19,18,24,15,11,22,18,17,18,18,16,14
18,30,17,16,10,32,24,12,8,22,20,20,18,18,24,25,23,20,20,20,20,18,26,16,12,22,20,16,20,18,16,14
18,30,19,17,10,31,23,12,8,21,19,18,15,20,22,22,22,22,21,22,21,21,29,17,12,24,20,14,22,20,18,14
16,33,17,14,14,30,21,13,10,20,21,21,17,23,24,26,26,23,23,20,20,21,28,16,12,27,20,15,24,24,20,16
18,34,15,18,18,34,23,10,12,20,20,18,19,25,25,25,25,25,23,16,18,20,26,13,9,25,19,15,21,25,21,14
18,38,16,22,18,34,22,12,14,19,19,17,17,25,25,23,21,21,21,16,17,17,21,11,8,24,18,12,20,24,20,16
16,38,19,21,22,30,21,12,16,18,19,16,18,25,25,22,21,20,18,15,17,17,21,12,10,25,18,12,19,25,21,17
16,35,21,26,22,29,23,15,19,20,24,18,21,28,30,26,24,24,22,16,18,20,26,14,12,26,16,16,16,22,18,22
17,39,22,29,25,25,26,17,21,22,28,16,21,30,34,28,27,23,21,13,15,21,23,13,12,24,14,16,16,18,17,20
16,38,22,31,27,24,28,16,21,22,28,19,23,31,35,24,26,22,20,16,18,19,24,12,14,23,13,16,14,18,14,16
12,37,21,33,24,23,25,18,22,19,27,20,24,29,34,26,29,23,24,18,18,22,26,10,12,22,10,12,12,16,16,16
14,38,20,40,24,24,24,24,22,18,28,18,24,32,36,28,31,24,22,18,18,20,22,9,11,22,8,11,12,18,18,16
17,44,22,42,29,26,26,27,23,18,30,19,27,35,39,33,35,25,21,19,17,17,21,11,15,25,11,12,13,21,21,16
18,40,24,46,24,28,30,24,21,21,32,18,26,34,37,31,33,28,20,20,18,20,24,12,17,24,13,14,11,19,24,14
17,38,26,44,23,22,30,24,18,18,30,18,23,31,39,31,35,29,23,23,21,24,27,15,19,25,13,17,13,17,21,16
20,38,30,42,26,22,28,24,16,16,32,18,24,28,40,30,39,30,26,26,23,24,32,18,22,25,16,17,16,20,24,18
18,36,30,42,24,25,29,28,14,15,32,18,24,28,40,31,41,31,27,27,23,21,29,18,20,24,14,16,14,18,22,18
20,36,31,42,30,26,27,26,15,18,30,19,23,27,39,31,41,31,27,29,23,20,27,20,20,25,17,14,14,19,23,18
22,34,33,44,32,27,29,22,13,18,28,18,26,23,38,34,42,33,31,33,27,22,32,23,21,28,21,15,16,23,24,18
22,32,34,42,28,28,26,20,11,16,26,16,26,19,33,36,40,32,30,30,26,23,32,24,20,26,22,14,16,22,24,20
24,31,31,39,28,30,25,18,8,17,23,12,20,17,30,32,37,29,27,27,26,22,28,26,20,30,24,14,18,22,24,20
24,31,30,33,28,26,27,14,10,19,23,13,22,13,29,30,39,29,29,28,29,25,31,28,22,33,27,17,16,22,24,21
24,24,26,32,26,26,24,12,12,18,20,12,24,10,26,26,36,28,28,26,28,29,33,24,21,32,29,17,16,20,24,20
24,25,23,28,26,24,20,12,10,14,16,10,22,8,24,24,37,26,28,26,28,26,30,22,18,32,28,14,20,20,22,20
21,28,25,27,23,26,20,11,10,16,21,11,24,12,23,28,40,24,26,25,27,24,29,23,17,31,27,15,19,17,19,18
20,28,22,24,22,28,24,14,10,20,22,14,26,16,22,28,41,28,26,26,29,24,28,23,17,31,30,21,20,18,20,18
23,32,22,22,22,26,25,13,10,22,23,14,24,16,23,30,42,26,26,26,30,24,30,25,21,31,34,23,23,21,22,19
24,33,24,21,19,26,26,13,8,21,24,15,25,17,24,33,42,26,26,25,28,27,30,23,23,30,34,23,25,24,27,17
24,34,26,22,18,26,23,18,6,22,24,17,20,19,22,28,38,23,23,21,24,21,25,21,24,26,36,24,26,26,28,16
22,32,24,20,18,24,20,19,6,22,24,16,18,20,22,24,36,22,22,20,20,18,20,20,20,26,32,22,24,24,26,16
23,33,27,22,16,22,21,20,6,20,25,16,20,22,25,25,37,25,20,21,18,16,20,19,25,24,32,25,25,26,26,16
24,35,24,27,17,25,20,21,6,18,26,18,18,26,24,26,33,24,20,19,15,13,20,18,24,22,33,26,28,29,29,17
24,38,28,31,14,26,22,22,5,24,29,20,17,27,25,27,37,26,24,23,16,14,16,22,24,22,32,24,30,28,29,20
24,40,32,35,14,27,25,24,4,25,31,20,16,28,26,28,36,26,22,23,18,12,14,25,28,20,32,24,28,26,28,20
26,41,33,34,14,28,22,23,4,24,29,21,14,30,26,28,34,30,22,22,16,10,12,22,26,18,32,21,28,26,30,20
27,39,31,39,15,25,24,20,4,22,26,16,10,28,27,30,33,27,21,22,12,10,8,21,23,18,29,15,27,24,29,16
28,38,28,40,15,27,25,22,4,23,26,16,10,28,27,29,28,28,20,23,12,15,6,19,19,22,27,11,25,22,31,15
28,35,23,38,15,24,23,21,5,21,23,13,7,28,26,25,29,27,19,28,11,13,3,20,15,23,27,11,28,20,29,15
26,36,21,38,12,22,23,19,7,22,26,14,8,28,26,26,30,30,21,31,12,16,6,23,16,28,25,10,28,14,28,16
26,41,21,43,12,23,25,20,12,23,27,17,10,29,27,27,31,31,24,32,12,16,6,22,16,26,24,10,28,14,28,14
26,40,18,43,15,25,28,21,13,25,28,19,10,29,26,30,31,30,26,32,12,16,8,22,11,28,22,7,26,13,28,14
24,34,18,40,12,22,28,18,14,26,28,20,10,28,28,32,31,32,26,34,13,17,8,22,12,27,19,4,27,10,24,17
20,30,14,33,12,21,27,16,13,22,27,21,11,26,26,34,32,33,25,33,13,15,8,21,12,22,16,7,22,8,20,12
21,27,12,28,15,22,29,14,18,25,29,24,14,26,26,34,34,34,29,33,13,19,14,23,11,24,16,9,22,10,20,16
23,27,8,31,18,21,31,16,19,27,32,27,17,27,29,32,32,32,29,36,17,23,17,27,15,27,17,9,23,13,21,21
20,24,8,30,19,20,25,19,19,27,31,32,21,30,32,33,33,35,29,37,19,25,17,25,17,30,16,9,21,11,18,23
16,22,8,30,20,16,22,14,19,23,27,36,25,34,31,34,35,38,33,35,21,24,19,23,19,27,15,9,19,11,16,26
11,22,8,29,17,14,24,14,19,22,30,38,26,36,34,34,32,38,32,30,22,24,22,22,22,26,14,7,17,11,17,26
16,22,9,24,16,17,24,11,17,20,28,39,27,38,38,36,34,37,32,28,24,24,22,24,26,22,18,13,18,16,20,26
20,19,11,21,16,19,27,11,12,19,29,35,24,39,39,39,37,37,30,28,26,24,24,29,32,28,22,16,24,22,24,28
21,21,14,19,14,21,27,9,13,19,31,35,24,39,39,39,39,37,30,29,30,26,26,34,37,25,23,22,28,26,24,30
28,25,21,22,18,28,30,14,14,22,30,36,28,40,38,39,40,38,31,29,31,28,30,38,40,28,28,26,28,26,30,30
32,32,26,30,22,32,34,21,13,22,31,37,27,45,41,37,39,37,33,29,37,29,38,37,46,34,36,27,34,30,34,36
29,31,28,33,21,29,32,22,8,20,28,34,28,44,43,38,38,37,32,28,36,26,35,34,50,35,38,29,36,32,34,33
28,29,30,33,23,31,35,22,11,20,30,31,30,43,39,37,39,40,34,27,36,26,36,32,51,36,43,35,42,38,36,32
34,36,35,34,23,34,39,18,13,21,33,32,31,42,37,37,39,39,37,25,37,30,42,37,54,36,48,41,48,43,41,36
39,39,41,39,23,39,43,22,16,24,38,29,33,40,34,40,42,40,38,29,39,31,45,43,59,37,55,47,55,51,43,37
43,43,45,45,27,43,46,29,16,31,40,32,39,42,33,43,43,43,41,33,43,35,49,48,62,38,59,54,59,53,46,39
42,43,47,47,31,45,47,37,16,33,41,31,40,41,31,43,43,46,42,36,46,36,50,42,61,41,57,52,60,54,44,40
44,46,44,51,36,47,42,37,16,33,38,30,44,40,28,38,38,46,44,36,48,40,54,37,60,40,58,50,62,54,44,40
40,47,43,55,38,49,42,42,20,36,36,34,46,42,28,36,36,46,44,36,48,40,56,33,60,42,64,44,59,49,45,41
38,47,40,55,39,47,38,38,20,32,34,30,45,38,26,36,36,46,42,34,47,39,52,29,60,40,61,44,59,51,41,40
36,44,38,50,38,44,36,35,20,30,34,28,45,34,24,34,33,43,38,33,46,39,47,34,57,36,58,44,58,52,40,34
38,42,40,48,38,50,36,36,22,31,35,30,48,37,25,35,37,47,42,37,46,42,48,37,55,34,58,42,58,50,40,34
38,43,43,49,36,53,36,40,22,32,29,34,47,35,25,37,35,43,41,37,45,43,47,39,55,34,54,40,54,45,39,34
34,41,40,48,35,56,37,42,21,30,31,31,42,32,26,36,33,42,38,36,46,38,44,38,55,30,50,38,50,42,36,32
32,38,40,44,36,57,36,40,20,30,33,32,37,31,29,33,32,38,35,36,43,34,41,35,54,30,46,36,46,38,34,28
31,33,40,39,36,56,37,35,22,26,28,30,34,26,28,28,32,34,30,32,38,30,36,32,50,28,41,33,42,36,30,26
28,31,40,37,37,51,36,30,24,22,26,34,32,24,26,26,30,30,28,28,34,28,34,34,47,27,39,32,38,34,30,26
24,29,44,32,34,45,38,29,24,24,26,34,32,24,30,30,34,32,26,30,32,26,30,38,44,24,36,34,32,30,28,26
27,28,45,28,33,40,39,26,18,21,25,30,29,21,29,29,35,33,27,31,31,27,27,39,45,25,33,37,33,33,28,26
25,28,41,28,31,37,41,28,18,22,27,32,32,23,33,31,37,36,28,32,32,28,28,40,42,25,32,34,34,34,30,24
25,27,42,29,32,37,41,26,18,24,28,32,31,24,34,32,37,35,29,33,28,26,26,35,39,25,29,34,32,31,31,27
27,33,37,29,31,33,41,27,18,26,30,34,28,24,34,32,31,31,25,27,27,25,25,35,37,27,28,34,30,32,31,29
31,34,38,28,33,30,43,27,18,27,30,30,23,22,32,28,30,30,24,26,29,22,24,32,34,28,29,33,31,33,31,28
32,32,36,27,32,26,41,25,19,28,27,29,25,24,33,30,31,32,26,28,30,25,29,31,34,30,31,33,31,32,32,27
32,34,36,29,31,27,42,28,20,27,23,29,27,25,33,33,32,34,27,26,31,26,31,31,32,30,30,32,30,32,34,28
31,35,34,29,31,26,39,27,18,27,23,27,24,25,33,33,29,33,27,25,31,25,31,30,32,31,32,30,29,31,34,26
31,35,33,29,27,27,39,27,20,28,25,24,24,27,35,35,31,33,26,25,33,27,31,29,33,31,31,29,29,29,31,25
32,36,32,32,28,33,43,28,24,29,29,25,23,27,33,33,29,31,27,23,33,27,31,27,33,31,33,27,28,31,32,25
33,35,31,33,30,35,41,27,26,29,31,29,23,29,35,35,29,31,25,21,33,25,31,27,33,31,33,29,29,31,33,26
33,32,35,31,30,39,43,28,27,31,32,30,20,30,34,34,26,28,24,20,32,24,30,26,32,33,33,31,27,29,32,28
33,31,32,30,28,36,46,27,28,31,31,29,21,28,36,34,27,28,26,20,31,24,30,27,31,35,35,31,29,31,29,29
33,29,35,31,31,37,43,25,26,29,28,27,21,26,34,34,28,26,26,20,32,23,32,26,32,35,36,32,30,32,31,27
29,27,31,29,29,37,39,21,24,27,28,26,23,26,35,35,28,27,27,21,29,23,31,27,33,32,33,31,27,29,29,27
28,26,36,28,28,41,38,20,24,28,26,28,22,24,32,31,25,23,26,19,26,22,27,27,30,32,33,29,27,30,28,25
28,26,35,30,31,37,35,17,23,30,27,25,21,21,29,27,23,21,23,21,25,21,25,29,29,33,34,29,26,30,28,27
30,28,36,32,32,40,35,19,22,31,29,25,22,21,27,25,23,21,24,21,25,21,27,29,30,33,34,32,29,32,28,28
31,29,36,33,33,39,33,16,22,28,30,24,24,19,27,22,21,21,24,19,23,20,27,29,29,31,33,33,29,33,29,27
28,26,33,30,30,34,27,14,21,26,26,25,25,19,28,22,23,23,23,19,23,19,27,31,29,29,29,33,30,30,26,27
26,24,35,28,26,37,29,13,21,27,25,23,27,19,27,23,23,23,25,21,23,22,28,31,26,26,28,33,28,28,24,25
26,25,34,28,26,40,28,10,20,24,23,20,28,17,25,21,23,23,24,20,22,20,26,31,24,24,28,30,28,28,23,23
28,28,38,30,26,42,28,11,22,27,26,19,25,18,24,22,24,25,21,23,26,19,29,33,29,24,28,31,29,28,24,23
27,27,36,27,23,40,28,16,22,30,30,24,28,23,29,23,27,29,23,25,27,22,30,31,29,26,27,29,27,27,21,26
28,28,36,28,24,39,29,19,22,31,31,25,27,24,32,24,33,32,21,26,29,21,30,30,27,27,28,29,30,28,24,25
29,28,37,31,22,39,29,19,24,28,32,24,30,26,32,26,34,32,22,28,32,23,31,29,26,26,24,28,28,26,24,26
28,28,37,30,18,39,32,20,27,28,32,25,33,27,33,27,35,33,21,25,29,25,31,29,23,21,22,27,30,24,24,23
26,26,36,26,18,36,29,19,32,27,32,26,35,28,32,30,36,35,23,25,31,27,31,27,24,22,22,26,29,24,26,25
28,28,36,26,18,40,30,23,28,32,30,26,34,28,30,31,38,36,24,28,32,26,32,28,24,24,26,26,30,24,28,25
31,33,39,29,22,47,35,25,26,33,30,29,34,31,30,32,37,37,26,31,34,28,34,28,26,26,30,26,32,28,32,26
34,36,37,32,24,44,33,27,26,32,32,30,34,32,32,32,38,38,28,32,36,29,35,30,28,28,30,25,32,28,32,26
33,35,37,36,26,40,31,28,25,33,32,31,33,32,32,31,38,37,28,32,36,32,36,33,31,30,32,25,30,28,34,29
31,35,35,33,27,35,26,28,24,30,30,32,36,32,30,30,37,36,30,29,35,33,33,30,29,27,29,24,26,25,33,26
31,34,37,35,27,40,28,24,26,28,28,30,34,31,29,30,34,34,28,28,34,30,32,31,26,26,26,24,24,22,34,27
31,36,38,35,27,41,29,23,26,28,27,30,36,30,28,30,28,31,30,27,33,32,33,33,27,25,25,24,22,21,31,28
30,36,35,36,30,38,26,24,25,26,26,28,32,29,26,26,28,30,30,26,32,30,33,36,27,24,26,27,22,22,32,26
29,35,31,35,31,35,25,24,23,23,25,29,31,29,27,25,27,29,34,27,35,28,34,35,31,29,29,29,23,25,31,28
31,37,31,37,29,35,30,24,17,23,23,30,29,28,28,27,29,30,33,28,35,27,33,42,33,28,29,30,23,25,31,27
31,37,29,39,32,34,31,25,20,21,23,30,31,29,31,29,29,31,35,29,37,31,33,43,33,27,29,31,25,27,31,28
31,35,27,39,32,33,29,26,23,21,25,29,30,25,32,29,29,29,34,27,36,30,32,42,32,28,28,32,24,26,31,28
28,32,28,36,34,36,29,26,22,22,24,26,30,24,30,26,27,27,31,23,35,28,31,39,32,28,28,32,24,28,30,30
30,34,30,34,32,36,32,29,25,24,26,29,33,27,33,30,30,28,32,28,36,30,32,38,33,26,26,34,27,29,29,29
30,33,29,35,32,40,36,31,26,28,28,30,32,28,34,33,31,26,32,31,37,32,30,41,35,26,30,36,27,31,29,29
31,37,27,36,35,37,37,28,28,28,25,28,29,29,36,31,29,25,31,31,35,33,29,41,37,26,33,38,32,35,32,30
29,32,24,33,33,36,34,26,26,28,28,28,30,28,36,32,32,26,32,32,37,34,32,40,41,27,31,39,35,35,31,31
32,34,23,32,30,38,35,26,27,30,33,31,33,32,41,37,35,31,33,35,35,34,32,39,43,30,32,39,38,38,32,34
34,36,26,34,30,41,35,26,25,31,31,27,31,29,37,37,35,29,31,35,31,34,26,36,42,26,28,37,36,36,32,34
34,36,30,34,32,41,33,27,26,33,31,27,29,27,35,37,35,27,29,34,27,33,25,36,41,28,28,36,36,36,32,34
31,33,31,33,30,40,29,23,26,34,32,29,29,28,30,32,32,24,26,32,25,32,26,36,43,29,27,36,35,35,31,35
32,34,32,34,30,38,30,22,23,33,32,29,26,30,30,34,34,26,26,34,24,34,26,36,42,28,26,36,32,34,32,34
34,34,30,36,30,36,32,25,23,33,31,29,25,29,31,35,35,27,26,36,22,33,24,36,40,28,26,34,32,34,34,32
35,35,30,36,30,35,32,24,19,32,28,28,22,26,28,32,31,26,24,34,23,30,24,38,38,28,26,34,31,33,34,30
37,37,29,35,31,32,29,20,16,28,27,26,22,24,25,29,29,29,23,31,20,28,26,33,35,29,24,33,32,31,35,31
34,33,31,33,29,30,29,20,14,30,29,26,24,21,22,30,31,29,23,31,19,26,25,33,35,26,23,31,30,29,32,28
36,38,34,36,30,34,31,22,16,29,27,26,24,24,20,30,30,27,21,29,17,26,22,32,32,26,24,28,26,28,34,27
34,36,32,34,34,30,30,21,13,27,23,23,23,18,17,24,24,22,20,24,16,26,22,30,30,24,24,26,24,26,32,26
31,33,27,31,33,26,26,20,15,24,22,23,22,19,16,22,22,22,18,22,16,26,27,29,29,23,25,25,21,25,31,22
29,31,22,29,31,26,30,20,15,24,23,21,25,21,19,21,21,25,19,23,19,29,27,25,27,20,24,23,18,24,29,21
31,33,23,29,30,27,31,23,17,23,25,20,23,20,22,24,22,26,18,24,17,26,24,24,25,21,22,19,16,22,27,22
30,32,22,28,32,26,28,23,20,21,22,20,27,20,23,21,19,23,19,22,18,25,23,24,26,25,24,20,20,24,27,25
29,33,22,25,29,23,26,22,20,20,22,20,27,20,24,22,20,24,19,24,18,27,24,24,27,25,26,20,22,23,25,25
28,32,17,26,30,22,25,21,20,17,23,17,29,19,26,24,22,25,23,23,19,29,26,22,30,28,26,20,24,24,26,27
28,28,20,24,28,24,25,24,19,19,22,17,28,20,26,22,20,22,22,22,20,28,28,24,30,30,24,20,23,24,26,24
31,31,19,25,29,25,26,24,18,21,24,18,26,20,29,22,23,25,25,23,21,31,29,25,31,33,27,21,25,27,29,27
30,26,19,23,29,21,25,25,16,22,24,19,25,16,28,19,21,23,23,21,21,31,28,25,31,32,29,21,25,29,28,26
31,27,20,23,29,22,26,24,16,23,27,21,25,19,28,21,23,25,22,21,21,30,29,25,31,35,31,21,27,31,31,27
34,30,26,25,32,26,32,27,13,25,28,22,26,20,28,26,26,26,24,24,26,30,29,27,33,39,34,24,32,34,34,32
37,33,26,27,34,29,30,28,13,24,30,24,25,19,31,27,27,23,23,23,25,27,31,27,33,42,36,22,32,36,36,34
35,31,23,25,36,27,29,27,12,25,29,27,23,19,31,25,25,21,25,23,27,30,33,26,35,41,38,24,32,36,39,32
36,31,24,25,33,27,31,27,14,27,31,27,20,19,30,26,26,22,24,23,29,29,34,25,35,37,38,25,34,36,37,31
36,35,24,29,35,31,32,26,14,28,32,28,21,22,30,26,26,20,23,20,29,25,33,26,35,37,36,24,30,35,37,31
32,34,24,28,32,33,32,24,18,30,32,30,20,25,30,24,28,22,24,20,28,27,32,26,30,32,36,22,28,34,34,31
31,37,20,29,36,32,34,23,22,30,36,31,23,26,34,24,32,24,27,23,31,29,31,27,31,31,37,21,29,35,33,31
28,34,18,28,34,30,31,26,24,27,35,33,24,27,33,23,30,23,25,23,31,27,30,26,29,30,35,21,26,32,32,29
26,35,16,28,33,31,34,23,28,30,38,36,26,31,34,24,32,25,27,25,32,26,32,28,30,32,38,25,28,31,32,31
25,35,14,27,31,32,34,25,30,29,37,35,23,29,39,23,33,25,28,27,33,24,31,27,29,29,35,25,25,29,29,33
20,32,8,23,27,32,32,21,33,29,38,35,23,29,42,22,32,26,28,26,30,25,29,27,27,27,30,22,21,25,25,31
20,32,7,23,22,29,32,20,33,32,36,33,23,29,39,21,31,27,29,27,31,23,29,29,29,26,30,25,24,23,24,30
23,35,9,25,20,33,35,22,32,29,35,28,27,28,41,24,35,29,29,27,31,22,29,31,27,27,29,27,25,27,23,32
24,36,9,25,22,33,37,23,32,31,37,29,29,29,40,23,34,28,29,26,29,22,29,33,28,28,30,24,23,28,25,30
24,31,10,20,23,28,37,21,34,29,37,27,30,27,39,23,35,31,32,27,31,26,32,34,28,30,30,26,26,28,26,32
28,32,14,22,24,29,36,24,31,30,38,26,31,25,41,27,36,31,31,30,31,24,30,36,30,36,30,30,28,28,28,32
29,31,18,23,21,29,36,22,26,28,36,23,31,25,40,30,34,30,32,28,29,25,29,35,31,35,29,29,27,27,29,33
32,36,22,24,23,30,37,21,28,30,35,23,36,23,39,29,32,29,32,25,27,26,30,36,33,35,29,31,30,32,30,34
36,39,26,26,25,30,34,26,28,30,32,20,37,23,40,30,30,28,32,24,25,27,27,37,33,31,30,29,29,36,34,32
36,38,30,26,26,30,32,23,26,28,30,18,38,24,36,32,30,28,32,24,25,30,30,38,34,34,30,30,30,36,34,30
40,38,31,28,28,30,31,26,24,28,33,19,38,27,36,30,32,28,34,26,26,31,30,40,36,36,34,34,34,40,36,28
37,37,33,26,30,31,30,25,24,24,32,18,38,26,36,30,32,30,34,28,28,34,27,39,32,35,32,32,30,38,34,25
33,39,33,25,30,27,25,22,22,25,31,19,35,26,33,28,29,29,35,29,29,33,29,41,33,35,31,33,29,37,33,23
33,39,31,26,30,28,23,19,19,21,27,15,33,23,31,27,27,29,36,33,29,34,30,41,35,36,29,33,29,37,31,22
34,42,32,28,26,35,28,21,19,23,26,16,31,22,28,26,23,26,35,32,28,33,29,41,35,36,29,33,29,37,32,22
35,43,28,26,25,35,27,22,20,24,26,16,30,22,26,24,20,24,36,30,30,32,31,40,38,30,31,33,27,39,34,22
32,40,24,24,26,39,28,25,22,22,24,18,28,20,24,22,18,24,34,31,28,30,32,40,38,30,34,34,31,42,32,24
28,34,19,24,24,40,28,26,22,19,24,18,26,20,22,22,18,24,36,32,30,32,34,38,38,30,36,30,32,40,28,24
24,30,16,22,20,36,26,22,22,14,22,16,24,16,21,19,17,27,37,35,33,33,37,35,39,33,35,29,33,37,22,25
22,28,12,20,16,34,30,22,22,14,22,18,24,16,21,19,17,26,36,34,33,32,32,36,40,28,34,30,30,36,20,22
20,28,11,22,14,32,29,18,22,12,19,16,21,14,22,22,20,30,32,32,32,28,30,34,38,24,32,31,28,32,23,22
21,26,9,24,12,35,30,19,19,14,20,18,19,15,21,23,21,29,31,30,31,25,30,34,39,23,33,31,31,32,24,22
20,24,13,27,13,36,30,20,21,16,20,18,20,18,20,26,22,32,32,30,32,26,28,32,42,22,34,26,32,30,26,22
16,22,16,26,12,34,29,22,21,15,24,20,23,20,22,28,24,35,32,27,34,26,28,27,36,20,32,24,28,26,24,20
12,18,12,24,12,30,22,18,17,14,24,19,23,21,28,32,30,35,31,27,33,25,27,27,35,19,31,23,27,25,22,16
7,13,12,23,11,28,22,14,16,13,23,18,22,22,27,32,35,36,30,28,32,24,25,26,33,24,27,21,25,21,19,14
8,14,17,20,8,29,21,12,14,17,25,20,20,24,28,32,34,36,30,26,34,24,24,26,32,23,24,19,23,18,18,10
8,16,17,20,7,28,18,13,11,16,22,17,17,22,28,32,34,34,28,26,34,22,22,30,30,26,20,22,18,14,18,7
8,16,16,20,8,28,18,12,10,16,22,18,18,22,27,34,38,34,26,24,32,20,20,30,28,24,18,22,20,15,22,4
8,16,16,20,8,28,14,12,13,16,20,19,21,20,27,31,35,35,27,22,31,21,23,27,25,28,16,19,20,14,22,6
8,16,18,18,8,26,14,12,17,16,22,22,23,21,23,27,29,31,29,23,33,24,30,26,26,30,16,17,20,16,21,10
9,17,19,17,10,21,15,10,19,14,23,22,29,19,22,24,26,28,29,24,34,24,32,26,26,28,14,15,16,14,20,12
8,14,13,11,10,18,17,10,20,12,25,21,30,17,23,21,27,27,28,24,32,21,33,25,21,28,14,17,16,15,19,11
8,16,8,8,12,18,16,8,18,14,22,20,28,16,22,20,26,26,26,22,33,17,30,30,23,29,15,21,19,17,23,14
8,16,8,8,12,16,16,8,18,12,20,18,26,14,18,16,22,26,26,22,32,19,30,28,26,25,18,22,18,18,22,17
8,16,8,8,12,13,13,8,18,9,18,18,26,13,16,12,17,26,23,21,31,21,30,30,28,20,18,21,20,20,22,22
6,16,5,10,14,8,10,9,19,5,16,14,26,13,14,10,18,27,25,22,29,21,33,27,29,19,16,23,16,18,22,24
10,18,8,10,18,9,13,10,20,7,19,16,27,15,17,13,21,29,24,22,28,21,32,24,26,16,18,20,16,18,22,27
12,22,10,10,18,13,16,8,18,10,20,18,26,17,18,12,18,26,25,22,28,21,33,24,26,16,20,19,16,18,22,28
12,22,10,10,18,16,18,10,15,12,25,19,26,23,19,15,19,27,24,23,30,21,32,27,26,12,21,22,17,21,22,26
12,22,8,10,18,18,18,10,11,12,26,16,25,21,21,17,19,27,23,21,27,17,28,28,26,12,20,20,18,20,20,27
13,23,9,9,18,21,18,9,9,11,24,13,21,23,22,18,20,28,23,22,27,20,26,28,30,16,22,22,20,22,20,30
15,23,11,9,14,21,18,9,7,9,24,12,20,23,21,22,20,28,25,20,28,23,28,27,31,16,21,23,22,21,18,32
16,19,13,9,9,23,21,10,10,10,24,14,20,24,24,26,22,30,26,22,26,25,28,24,33,14,21,21,21,21,19,34
16,21,17,10,10,25,24,10,12,12,26,18,23,26,26,27,21,31,27,21,25,24,27,25,31,14,20,22,24,22,18,31
20,26,22,12,10,30,24,10,12,12,27,20,22,28,29,28,20,30,27,20,25,25,31,24,31,18,22,21,27,23,19,26
21,27,21,11,8,31,24,10,15,16,28,25,26,33,29,33,21,28,26,20,28,28,29,28,27,19,24,21,28,24,19,26
16,22,20,10,5,27,23,10,16,19,27,23,26,31,27,31,21,27,26,20,30,25,28,30,30,18,22,20,28,25,18,26
16,22,21,14,6,28,23,13,15,17,31,23,29,30,29,35,23,31,26,19,29,26,27,29,35,16,22,20,27,22,14,24
18,24,24,14,8,30,24,12,17,18,27,22,24,26,25,35,27,31,28,19,27,28,29,27,39,18,27,19,27,23,14,24
16,26,28,14,12,32,26,16,18,22,24,24,24,26,24,34,28,30,28,20,28,29,26,28,40,16,26,18,24,22,12,20
14,24,30,12,14,30,26,16,20,22,24,26,24,26,26,34,30,30,28,20,26,28,26,28,36,15,28,18,24,24,14,19
17,27,32,17,19,35,27,15,21,23,23,30,24,25,27,30,28,28,24,19,23,27,23,29,37,16,28,16,24,24,17,18
23,31,33,21,25,36,25,14,20,22,24,32,24,26,26,29,28,24,23,18,23,28,24,30,37,17,33,18,27,27,19,17
24,29,32,21,26,36,27,14,18,20,22,28,23,22,23,29,27,23,23,19,23,29,25,29,37,18,30,16,26,26,20,18
22,29,30,23,28,35,29,14,18,20,24,26,22,22,22,32,30,26,24,22,23,28,23,27,37,17,32,17,25,27,21,20
25,29,37,25,32,39,33,13,17,20,21,21,20,17,22,29,29,25,22,22,18,25,20,26,36,19,32,19,26,30,23,20
29,33,39,25,34,41,35,14,14,17,21,21,18,17,20,30,30,24,23,22,16,25,22,24,36,20,36,24,25,32,28,22
30,30,39,26,36,39,37,13,14,21,21,21,13,19,19,27,32,21,21,25,17,23,20,27,31,20,34,25,28,32,32,24
30,30,40,28,34,36,40,12,13,22,24,21,13,19,20,24,26,18,19,26,20,22,20,28,28,18,29,25,27,29,36,28
33,29,37,29,33,38,36,8,12,18,22,18,14,20,18,24,26,18,21,27,21,23,23,28,26,21,33,29,31,33,39,28
35,31,37,33,31,39,41,8,12,21,23,21,13,21,17,25,23,17,21,25,22,24,23,30,27,20,31,29,33,35,39,26
34,30,37,32,29,40,38,12,12,22,24,21,15,23,19,27,25,19,23,25,23,27,23,31,25,16,28,28,30,36,36,25
32,30,36,30,26,37,40,13,10,23,25,20,14,22,20,27,26,22,27,28,28,30,26,31,25,20,23,27,29,36,33,27
35,34,35,33,28,40,36,14,10,26,28,20,12,22,22,26,28,20,24,28,28,28,26,30,22,18,25,29,29,35,37,30
38,32,34,33,30,39,36,19,13,29,31,21,12,25,24,25,26,18,24,26,28,26,26,32,24,18,25,31,30,36,40,32
39,32,30,34,30,39,35,20,14,28,31,23,13,25,26,27,27,19,26,26,31,29,27,31,23,19,27,29,33,37,41,35
37,31,29,35,32,37,33,19,14,27,31,21,14,25,28,26,24,20,25,26,30,29,26,30,22,18,24,26,37,36,38,32
36,32,28,32,30,38,30,20,16,22,28,20,18,23,26,24,22,18,28,26,32,32,30,28,24,20,25,28,34,36,36,34
37,33,29,31,32,38,29,21,17,23,29,23,20,27,27,27,25,20,28,26,30,32,28,30,24,22,27,29,35,37,35,33
37,33,31,31,31,37,34,23,21,26,32,28,20,28,30,28,26,20,27,27,31,31,27,28,24,21,25,28,33,37,35,33
38,31,30,29,31,37,30,25,22,28,34,26,23,30,30,28,28,22,27,28,30,30,29,28,23,23,27,27,32,33,33,34
36,30,28,28,31,36,31,23,23,28,33,24,23,29,29,27,25,19,25,29,29,27,29,27,26,26,32,30,32,32,34,34
36,29,32,29,34,39,31,25,26,27,33,26,26,30,28,28,26,19,21,29,26,25,28,26,25,26,34,29,30,32,34,30
33,28,31,28,32,35,31,26,28,25,31,29,28,32,29,29,27,23,24,29,26,26,26,26,24,26,33,25,29,31,33,30
30,28,32,26,30,38,33,24,29,25,29,31,31,29,27,30,27,23,26,29,28,27,27,26,26,27,36,26,26,28,30,29
29,27,31,23,29,40,32,23,28,26,30,32,32,30,26,28,28,24,26,30,28,28,28,28,28,27,34,26,24,24,29,27
29,27,31,23,27,43,32,23,30,26,30,34,33,30,26,30,28,25,27,32,29,29,29,29,29,27,35,27,23,25,29,27
30,29,34,24,30,42,34,23,31,29,30,35,31,33,30,34,30,26,24,30,26,27,30,30,30,30,36,26,26,28,29,26
30,29,29,25,30,43,30,24,33,26,26,32,31,28,30,36,31,27,25,31,27,29,31,26,31,30,36,22,24,28,30,26
28,28,28,24,30,44,30,25,28,26,26,31,30,28,30,34,30,26,24,28,24,31,33,26,32,30,36,22,24,28,28,29
24,29,30,25,31,44,32,26,27,24,22,28,29,24,30,34,30,26,25,28,25,31,33,26,35,27,33,21,22,29,27,28
24,28,30,24,30,43,34,26,26,23,23,29,27,25,29,33,31,27,25,27,25,31,33,23,32,26,30,21,22,28,26,28
23,27,27,23,26,42,32,24,25,23,21,25,25,23,30,33,29,27,27,26,27,31,31,25,33,24,28,20,24,26,25,28
23,28,30,25,27,43,33,25,26,28,24,25,24,24,30,35,29,28,25,24,27,31,31,27,34,25,29,24,25,27,23,27
26,30,30,28,28,42,34,27,24,29,22,23,26,27,31,37,32,30,26,24,28,32,32,30,31,25,26,27,26,28,24,27
26,30,32,30,28,39,32,25,20,28,22,22,24,26,30,36,30,28,24,22,26,30,32,28,28,24,26,24,26,30,24,26
27,31,33,31,29,37,32,22,20,30,24,24,25,28,32,37,32,29,25,23,27,29,33,29,29,23,27,25,27,31,25,28
26,30,32,32,26,38,32,23,22,31,26,25,26,28,32,36,33,32,28,24,30,30,32,30,30,20,25,24,24,29,25,26
25,29,35,33,27,38,34,26,22,32,28,28,26,30,30,35,33,33,28,23,30,28,32,31,28,18,23,25,25,27,23,28
27,31,35,35,29,37,31,25,26,31,27,27,28,31,31,37,35,35,31,23,33,27,32,33,29,21,25,27,27,27,25,25
30,34,34,34,32,39,30,24,27,32,32,28,29,33,31,37,35,35,31,25,33,29,31,33,27,21,30,30,30,28,28,25
30,36,34,36,32,38,27,24,25,33,31,29,28,33,30,36,34,34,30,24,35,28,32,32,28,20,30,30,30,30,30,25
30,36,36,36,32,40,29,22,25,34,31,28,26,35,30,33,33,31,27,23,37,25,32,31,28,20,32,32,30,30,28,26
30,37,34,34,32,41,29,21,24,32,31,29,28,36,32,30,32,31,29,25,37,25,33,31,32,20,34,34,30,31,28,28
27,35,33,29,31,40,26,20,28,29,32,29,25,34,30,30,29,29,29,27,37,23,31,29,32,19,31,30,29,29,27,29
26,34,30,30,30,40,28,20,28,30,30,28,26,34,28,30,30,30,30,28,38,23,30,30,36,18,30,34,28,28,26,29
25,31,27,29,29,39,29,23,26,26,27,24,25,33,26,30,30,28,29,25,37,25,29,30,35,19,29,33,27,27,25,27
26,32,26,28,31,38,28,22,26,24,26,24,28,32,26,30,28,26,30,26,37,27,29,31,33,21,30,33,27,27,27,29
29,35,26,29,31,36,29,19,24,24,26,22,28,32,28,30,26,26,30,26,39,26,31,32,38,23,35,34,28,29,29,29
28,36,27,27,30,37,31,20,20,24,26,22,27,30,26,28,24,26,28,28,36,23,30,35,38,20,34,35,30,28,29,29
26,32,26,27,29,34,29,18,17,24,24,24,23,29,25,29,25,27,27,27,35,21,29,35,41,22,31,33,30,28,29,29
26,30,26,28,30,32,30,16,16,26,26,22,24,30,26,32,28,30,30,28,33,20,28,38,40,24,28,32,30,26,26,27
26,30,26,30,32,31,30,18,16,24,26,23,27,29,23,34,30,32,32,31,30,24,30,39,42,25,26,32,28,26,30,27
24,26,27,29,30,30,30,19,15,24,26,23,27,28,25,37,32,33,34,32,29,23,32,39,42,26,28,30,27,26,30,27
26,30,27,32,30,27,31,16,11,28,28,23,25,30,28,36,34,33,35,31,27,25,33,39,45,24,30,29,28,28,30,25
26,32,28,32,30,27,30,18,10,30,34,28,24,28,34,37,34,34,34,32,26,25,32,40,44,22,31,26,26,26,30,23
23,33,29,29,33,27,28,15,10,30,33,28,23,25,32,35,32,34,31,31,23,25,31,38,41,19,27,23,23,23,27,20
22,32,32,31,32,27,30,12,9,30,32,28,23,26,32,34,34,36,30,30,23,25,31,37,41,19,28,23,23,25,26,21
23,28,31,31,30,31,32,13,6,30,32,26,21,27,31,35,35,35,29,33,20,25,30,38,40,20,25,23,23,25,25,21
23,27,34,32,29,32,33,12,8,32,34,28,22,28,32,35,35,35,30,33,22,28,30,38,39,23,27,23,21,27,27,22
24,26,34,33,29,31,32,12,8,29,31,25,24,27,33,35,35,35,32,33,24,30,32,40,37,23,28,26,20,27,27,22
24,24,36,30,28,32,32,12,8,28,30,26,24,26,34,36,36,34,32,34,22,32,30,40,34,20,30,24,20,24,28,22
24,24,36,28,26,34,34,12,9,32,32,28,26,27,37,38,38,36,34,35,24,31,30,41,34,21,32,25,22,24,26,22
27,27,38,31,29,36,35,13,12,33,32,30,25,30,38,36,41,35,33,35,25,31,28,41,32,23,31,24,25,25,27,21
24,22,38,28,28,40,36,14,12,31,33,30,30,32,37,39,43,34,29,33,25,30,30,39,31,26,30,27,22,22,28,20
22,20,34,24,28,41,34,12,12,27,29,25,32,31,31,36,40,30,30,30,24,30,30,38,30,28,30,28,24,24,30,22
24,20,35,26,24,39,34,12,15,26,29,27,35,33,35,37,39,29,33,30,27,29,31,41,31,30,32,30,26,26,32,22
25,19,34,22,23,40,34,16,18,30,31,27,33,33,35,37,39,27,31,30,26,27,28,40,29,26,31,32,27,25,33,19
23,19,33,21,25,38,31,17,19,29,31,29,34,32,36,36,38,28,33,27,26,32,30,39,27,26,30,32,29,26,34,20
21,17,29,19,25,37,29,18,20,28,30,28,34,32,36,37,41,25,32,25,24,32,28,35,25,25,27,29,27,23,31,20
18,16,26,18,22,40,27,18,20,28,30,28,33,32,34,34,38,22,29,22,21,29,27,30,23,22,24,24,24,20,26,18
17,18,24,16,20,43,24,18,20,26,28,26,34,30,35,33,36,20,26,20,22,28,28,26,24,27,27,25,25,21,27,21
16,18,24,14,20,40,22,18,22,24,26,26,33,30,32,30,36,18,26,20,21,30,28,25,24,26,26,23,24,22,28,22
16,18,20,10,19,38,22,17,19,23,25,23,32,26,29,31,33,17,26,22,22,30,30,26,21,25,23,24,21,21,27,23
17,20,22,13,19,35,18,18,20,20,22,24,28,22,26,26,30,16,25,22,23,30,29,28,20,25,23,22,23,23,27,24
18,18,22,16,18,32,20,18,22,22,21,25,24,21,27,27,32,18,24,22,24,30,29,28,22,26,24,22,24,24,24,25
16,18,19,14,16,31,23,18,23,24,21,25,19,19,23,25,31,17,21,22,21,28,29,27,27,26,22,24,22,22,22,26
18,22,20,18,20,32,22,16,20,20,20,24,18,18,22,24,30,18,22,23,23,28,29,32,28,27,22,26,24,24,24,26
21,25,23,19,21,32,22,14,19,20,20,22,17,17,22,22,29,17,20,26,26,24,26,34,31,29,25,27,25,25,25,24
22,24,24,22,24,32,27,12,18,19,23,24,16,18,25,25,28,20,20,29,30,24,26,36,32,28,24,26,24,26,26,20
26,28,26,22,24,30,28,12,18,21,25,23,15,17,27,25,28,20,20,30,30,26,24,37,33,32,28,28,26,28,30,22
26,26,24,22,24,27,30,12,18,20,26,22,14,24,28,26,26,22,24,30,32,29,27,38,32,28,23,27,23,27,27,23
25,25,21,23,26,27,29,15,16,20,26,20,12,24,27,28,24,22,22,26,30,27,25,35,31,25,23,25,22,25,25,21
27,27,26,25,26,27,32,15,18,18,25,21,11,27,28,26,22,24,24,26,32,27,21,34,33,22,24,21,27,29,24,18
29,29,26,27,31,29,34,12,18,20,26,20,10,28,30,26,20,24,24,26,30,26,20,32,35,25,27,21,29,31,27,18
33,31,31,29,33,32,40,14,18,22,32,22,13,34,33,29,23,27,25,28,31,27,20,32,32,27,27,22,31,31,31,16
34,33,34,30,34,36,40,16,16,22,36,24,16,39,39,31,28,29,30,30,34,31,20,28,28,28,30,18,32,34,32,16
31,33,31,27,33,33,37,17,20,23,36,24,16,40,40,32,28,30,30,28,32,32,22,23,26,28,29,15,29,31,29,22
30,32,31,27,32,38,39,21,20,23,35,25,18,41,41,35,31,33,33,27,32,33,20,22,26,27,28,15,27,30,28,22
32,36,32,26,32,38,36,20,20,24,35,23,20,41,40,32,29,31,34,24,27,30,24,22,28,28,32,18,32,32,30,22
30,34,32,26,32,38,38,20,20,24,36,28,22,44,40,32,32,31,35,25,27,29,25,25,28,26,33,18,32,34,28,23
35,39,38,31,35,42,40,20,20,28,36,30,22,38,42,34,34,32,34,28,28,27,23,28,34,28,40,20,36,36,31,21
38,42,40,34,38,43,42,17,21,27,37,31,23,39,43,33,33,33,36,30,29,28,24,32,36,32,40,22,38,38,34,22
39,42,37,37,39,42,39,18,18,31,39,33,28,41,44,36,36,34,38,31,27,26,26,35,37,37,43,27,37,37,37,20
38,42,37,34,36,42,41,20,16,34,42,32,30,42,44,38,38,36,38,32,29,29,26,38,36,34,40,28,34,34,34,18
36,42,36,33,35,45,39,20,14,33,38,29,27,39,43,36,37,35,39,32,33,29,23,37,40,31,40,28,32,34,33,17
40,41,36,34,34,44,41,19,13,32,32,29,27,36,40,38,38,38,37,34,34,24,21,43,41,28,41,33,35,33,34,18
45,41,36,35,33,44,42,17,11,32,33,29,28,37,41,36,40,38,37,35,35,26,22,46,44,32,43,35,37,35,37,16
45,43,34,36,33,39,40,12,11,32,32,29,27,38,40,38,42,40,36,36,35,27,26,47,43,30,43,36,38,35,37,18
43,43,33,37,30,37,38,13,12,32,30,30,26,36,38,40,41,39,34,36,40,30,25,46,41,28,43,35,35,33,35,20
42,42,32,36,30,34,36,16,14,32,28,28,27,38,38,42,42,43,35,35,39,31,24,42,40,28,39,34,34,30,34,21
39,37,26,31,27,29,33,17,15,29,27,27,27,37,33,37,42,42,32,34,36,30,26,41,42,31,37,35,35,31,33,22
38,36,26,29,24,29,36,17,18,34,30,28,28,36,35,37,45,41,30,34,37,30,26,40,40,26,36,37,34,30,32,21
34,32,23,26,22,29,34,14,19,30,28,28,27,33,32,33,43,37,28,30,36,32,28,35,37,22,31,32,30,26,28,25
32,32,25,27,21,27,33,14,20,26,24,28,26,32,30,32,42,36,28,30,35,29,28,34,36,22,32,32,30,26,28,29
33,32,21,26,22,22,31,12,23,26,27,31,26,31,31,36,42,37,29,32,31,28,30,33,33,21,29,29,27,23,27,33
32,32,20,28,24,20,31,14,25,31,28,29,24,31,29,36,38,35,28,28,29,33,31,32,34,26,29,24,26,25,28,32
29,31,21,29,25,22,29,16,25,31,30,28,26,31,29,39,39,36,29,30,27,32,30,31,34,22,29,21,24,23,27,30
30,30,22,30,24,22,26,16,26,30,31,29,24,30,30,37,39,32,28,28,26,30,28,30,32,24,30,16,22,22,28,30
29,29,21,27,24,22,27,17,22,31,31,27,22,27,29,35,40,32,28,29,23,28,25,28,32,22,27,15,21,21,27,28
30,31,25,28,22,26,30,16,24,32,34,28,21,28,32,37,38,30,28,31,23,28,28,34,33,24,28,17,22,22,28,28
31,35,29,30,22,29,30,15,26,34,36,30,20,30,34,40,41,31,29,31,23,29,25,34,30,21,27,18,21,23,28,27
31,36,30,30,22,31,28,16,22,32,34,30,19,27,33,39,41,31,29,29,23,29,25,33,29,23,27,17,21,21,27,31
33,40,31,31,21,31,26,16,23,32,34,32,17,25,33,39,40,30,28,30,22,29,24,40,34,23,32,17,25,26,32,29
30,39,26,30,23,31,24,14,26,32,34,34,18,26,34,40,38,30,30,33,23,28,24,38,32,20,28,14,24,24,30,29
28,36,30,26,22,33,22,17,26,32,35,35,21,29,35,39,37,31,26,33,22,27,27,41,35,23,32,17,28,28,32,28
28,36,32,24,24,37,23,19,28,29,36,37,25,30,36,38,39,32,29,35,25,27,30,42,33,22,30,18,29,29,32,30
31,37,34,25,25,35,22,18,24,29,32,37,24,26,36,35,37,30,28,32,29,26,32,40,32,24,29,18,30,29,31,30
30,36,32,24,26,34,26,18,22,28,32,36,26,28,32,33,33,30,28,32,30,26,32,38,32,22,26,18,30,28,30,28
32,34,34,26,28,36,24,16,24,28,32,38,28,32,32,30,33,31,29,29,31,27,34,40,32,26,28,16,28,32,34,32
32,35,31,26,30,35,21,14,21,25,29,37,29,29,29,28,33,30,28,27,31,29,33,37,31,22,30,14,26,34,36,31
30,32,27,24,31,34,24,15,21,26,30,36,32,28,28,28,28,28,28,26,34,30,34,38,30,22,30,14,26,34,35,32
30,36,26,24,34,28,22,12,21,22,28,33,30,28,26,27,23,26,26,26,32,28,32,37,28,20,28,11,24,36,38,28
28,35,26,26,38,26,24,12,20,20,27,28,28,28,28,26,24,28,26,26,31,27,32,31,24,20,24,10,20,32,33,26
30,34,30,26,36,26,25,15,16,19,27,27,28,27,25,25,23,27,24,22,29,28,32,32,24,22,27,10,20,32,34,24
32,38,29,30,36,23,30,15,13,22,26,29,27,28,26,24,26,28,25,24,28,29,29,33,21,18,26,7,16,30,32,22
32,38,28,32,34,19,31,14,12,25,27,30,24,28,26,26,25,26,22,25,28,26,26,31,22,16,28,7,16,30,30,21
26,34,28,28,30,19,36,14,14,26,28,30,25,30,26,25,22,25,21,25,27,27,23,32,21,13,28,8,16,30,28,20
27,33,26,29,27,20,36,18,16,24,28,30,24,26,27,24,22,24,20,28,24,26,24,32,22,13,29,11,17,31,27,20
26,34,24,28,24,19,38,18,16,20,26,29,20,25,28,26,23,25,19,31,25,25,22,30,22,10,28,14,20,28,24,16
26,32,26,28,24,19,41,21,18,20,26,28,19,24,29,25,27,27,21,31,25,21,21,33,22,10,30,17,24,28,22,14
29,35,30,32,25,21,40,24,17,20,26,28,17,25,31,25,29,29,23,33,25,21,21,33,21,9,31,17,21,27,23,15
29,33,31,33,20,24,42,27,16,25,28,28,17,28,33,27,34,31,25,33,29,23,21,36,21,8,31,20,21,25,19,15
30,31,30,31,17,25,40,31,16,26,28,28,20,28,34,28,38,34,27,35,30,25,21,38,22,10,32,22,22,26,20,16
28,30,27,32,14,26,39,31,18,27,29,29,20,29,35,29,39,33,26,35,30,24,20,37,24,10,31,24,22,26,22,17
26,28,26,30,14,30,35,30,19,24,26,24,19,24,32,28,38,30,27,32,32,25,21,32,24,12,30,26,24,26,22,18
27,29,29,31,15,31,32,28,19,20,24,20,20,23,31,25,39,29,27,30,30,26,21,33,25,14,30,27,25,27,25,19
28,30,24,32,14,34,28,30,18,20,22,20,19,20,27,23,38,31,29,28,29,25,23,32,28,18,32,26,26,28,28,21
25,29,28,31,15,35,28,26,16,22,22,20,18,22,29,25,41,35,30,24,28,27,20,32,24,17,31,23,23,27,27,20
24,30,30,30,16,36,28,30,14,24,22,20,18,20,30,26,42,34,32,24,28,26,20,34,26,18,30,24,24,26,26,21
26,32,28,32,18,34,26,27,11,25,21,19,16,19,28,26,38,32,30,24,28,28,22,30,26,22,28,22,24,26,28,23
26,32,30,32,20,35,28,26,12,24,20,21,16,23,30,24,36,30,28,24,28,26,22,32,28,22,30,22,28,26,30,24
29,31,33,33,22,36,33,24,11,19,23,23,16,19,32,26,34,30,26,26,25,26,23,31,30,25,32,22,30,28,30,24
30,34,36,36,20,35,37,21,12,19,23,24,14,19,31,27,33,29,25,25,28,24,24,34,28,25,30,24,28,26,28,22
32,34,40,36,22,34,38,18,10,18,20,20,12,16,28,24,30,28,24,24,26,24,26,34,24,25,32,24,30,26,28,21
34,36,41,38,24,35,39,22,10,17,21,21,13,18,29,24,30,29,23,26,26,23,27,38,24,27,33,26,31,27,30,22
36,35,38,38,24,36,40,22,11,20,20,20,11,18,30,25,28,30,24,27,27,23,30,39,21,25,30,29,28,26,30,23
39,35,41,41,27,35,41,18,12,20,20,20,8,18,30,26,28,26,20,26,26,22,26,39,19,22,27,33,27,23,29,19
38,38,38,42,26,32,39,16,12,18,18,18,8,16,27,23,26,22,20,28,30,20,28,40,20,22,26,34,30,24,30,18
40,38,38,42,24,32,37,12,12,16,21,16,8,18,27,25,23,19,17,26,27,19,27,41,17,23,27,33,28,26,32,17
36,34,40,38,20,30,36,12,12,16,22,16,8,20,29,27,26,20,18,28,26,18,28,42,16,20,24,37,24,22,28,15
33,31,35,35,17,28,34,15,11,16,24,15,8,16,27,30,28,20,17,26,23,20,26,39,15,23,21,37,22,22,25,14
27,27,29,33,14,24,29,13,14,16,20,14,10,18,24,28,28,20,18,26,23,20,25,37,14,22,18,36,20,18,24,14
24,22,24,28,14,22,27,12,14,15,23,14,10,19,25,27,27,19,17,25,21,21,24,34,16,23,20,36,22,20,24,18
24,22,24,28,14,24,26,12,14,16,24,16,12,20,28,30,30,22,18,26,22,20,22,34,20,23,20,36,20,20,22,17
25,23,25,29,15,25,27,10,16,19,25,15,10,21,26,32,30,19,18,24,24,20,20,32,21,22,22,35,22,22,23,18
24,23,25,28,16,24,29,12,15,18,27,18,11,20,25,32,33,19,17,23,21,18,16,31,22,23,24,32,23,21,23,18
21,26,26,27,17,25,29,16,18,18,33,18,15,23,31,36,36,24,19,26,25,19,19,33,24,26,26,31,24,23,23,20
24,26,28,27,20,30,32,16,18,20,36,18,16,24,32,36,34,24,18,24,22,20,20,32,26,29,28,34,25,25,25,24
22,24,26,30,22,30,31,16,18,22,33,18,16,22,31,33,33,23,18,22,21,20,21,30,29,31,27,35,26,26,26,24
24,24,22,30,24,30,33,16,19,23,33,19,19,21,32,32,32,25,19,21,22,23,22,30,32,33,30,32,26,28,28,25
27,27,24,33,27,30,34,14,19,24,33,21,20,23,33,32,34,26,23,22,27,22,27,32,34,35,33,32,29,31,33,25
30,30,26,37,30,30,31,14,16,26,35,19,19,23,32,30,32,24,22,22,27,22,28,38,40,38,38,32,32,36,38,26
33,33,29,38,30,34,33,14,14,28,34,18,20,24,32,30,34,28,24,26,30,24,28,41,41,39,39,33,36,37,39,24
37,36,29,37,29,35,35,14,14,26,37,18,23,24,30,30,32,26,26,26,30,27,31,44,43,41,39,36,37,39,41,26
37,35,27,37,30,35,33,13,12,23,39,17,24,21,28,25,29,25,24,25,26,26,32,42,43,41,37,33,37,37,41,26
37,37,29,37,27,35,31,13,13,23,39,16,26,20,27,23,25,23,25,23,27,28,34,41,43,43,38,34,36,36,39,24
38,38,32,37,28,35,33,12,13,23,36,21,24,20,28,22,25,19,26,25,26,30,32,39,40,43,40,35,38,38,40,24
39,37,32,35,26,32,33,16,18,25,35,25,24,21,29,25,29,21,28,30,29,32,30,42,38,43,39,33,38,38,39,22
41,39,33,32,24,31,36,16,18,24,35,26,26,26,29,27,32,26,32,34,34,34,31,45,37,43,41,33,39,36,39,24
43,43,37,37,25,33,35,18,19,24,38,26,24,26,26,26,33,22,28,33,35,31,32,45,38,43,39,35,41,36,39,25
42,44,37,37,23,34,35,18,22,21,35,24,23,25,24,26,29,21,25,31,33,29,28,42,36,39,35,32,40,33,35,27
43,44,37,35,22,38,36,20,24,22,34,26,23,26,26,30,32,24,27,33,35,28,28,38,32,38,33,38,39,33,34,24
45,44,39,41,22,39,37,20,26,24,34,30,24,28,28,34,34,22,28,32,32,26,30,39,33,38,34,37,38,36,38,24
43,45,40,44,27,40,38,22,29,29,32,33,26,31,29,33,39,28,28,33,34,24,29,40,29,39,33,39,39,35,39,25
43,45,37,41,27,38,35,23,31,27,27,33,28,31,29,34,42,32,30,35,36,28,26,42,30,40,32,43,38,36,38,24
44,44,35,40,30,36,36,21,30,26,26,32,27,32,32,36,43,33,31,35,39,29,29,43,33,42,34,44,42,40,42,27
44,45,34,41,30,37,33,18,26,25,27,29,29,33,29,35,43,35,31,35,35,29,31,43,37,40,34,43,43,40,42,26
44,44,35,42,32,38,30,15,22,22,29,30,32,34,29,31,42,36,33,34,33,30,32,40,40,40,36,45,41,40,42,28
42,42,34,43,35,38,28,16,22,24,28,31,30,32,28,27,39,33,31,31,28,30,32,38,39,37,35,43,41,40,41,28
41,43,33,43,35,38,30,15,22,24,26,31,29,31,29,29,37,33,32,31,27,29,26,36,36,39,35,41,43,42,39,30
42,43,35,44,37,38,29,14,18,25,27,32,32,31,29,25,38,36,33,34,27,31,27,37,35,41,37,43,44,45,41,29
42,42,36,43,38,36,27,14,16,24,26,34,32,29,28,22,36,34,33,31,26,32,26,36,34,41,39,39,43,43,40,31
39,42,33,40,41,34,26,17,14,23,25,31,29,27,29,18,32,32,30,28,26,32,25,33,32,39,38,37,41,40,39,32
36,38,31,35,36,31,24,17,12,21,26,28,25,24,30,20,28,26,29,29,24,31,24,32,33,36,37,34,39,39,34,31
34,35,36,35,34,32,29,19,14,25,29,35,25,27,33,22,25,23,29,27,26,30,26,32,34,34,38,33,38,38,32,30
31,32,35,35,33,33,28,20,14,26,30,34,28,28,32,23,25,24,30,29,24,30,22,32,33,32,37,31,37,35,31,28
30,31,33,32,30,33,28,22,17,26,28,32,23,26,30,21,24,21,29,26,23,27,21,33,34,32,36,34,36,34,30,27
29,29,31,31,28,30,29,22,18,28,26,29,22,26,30,26,26,24,28,25,24,26,22,34,36,31,35,36,35,35,29,26
27,27,29,29,25,27,29,22,20,28,26,29,23,24,28,29,24,22,26,24,29,25,23,37,35,30,33,35,33,32,27,26
28,24,27,29,26,28,26,23,19,26,24,27,25,23,27,27,27,23,27,28,28,26,24,40,36,31,33,35,31,34,30,24
29,23,27,29,25,31,28,24,20,26,26,28,23,22,26,30,25,21,29,29,27,27,27,41,39,33,33,35,31,33,29,22
29,23,28,29,23,32,30,26,24,26,28,28,20,22,26,30,24,18,29,30,27,24,27,42,41,31,31,32,31,33,27,23
30,23,28,30,24,32,28,26,27,26,29,27,22,22,24,28,22,19,31,31,29,27,29,43,42,33,30,30,30,32,27,22
30,28,27,31,28,31,26,23,27,23,25,25,20,21,21,23,21,18,30,28,28,26,26,38,41,32,29,28,29,31,30,24
32,30,25,32,30,33,24,22,28,22,26,22,22,22,20,22,23,21,31,30,28,27,28,38,38,34,30,28,30,32,32,25
32,31,27,32,28,37,23,23,28,20,24,22,19,20,18,20,23,21,28,28,27,26,28,35,34,31,26,26,28,32,30,25
34,30,29,34,26,38,26,22,27,20,26,24,21,20,18,23,24,21,27,30,27,27,27,35,32,30,26,24,30,34,32,23
36,34,30,32,27,41,27,22,24,19,26,22,19,18,17,20,21,17,27,31,27,27,29,35,31,30,28,23,30,34,34,24
39,37,31,34,30,43,27,22,22,19,27,23,21,19,17,17,23,17,29,31,25,29,27,31,31,32,30,24,30,34,36,26
39,38,33,33,31,43,30,23,22,23,29,23,21,19,17,15,23,21,30,29,26,32,31,31,34,32,32,23,32,33,37,27
37,40,34,32,28,42,31,24,22,26,30,24,20,20,16,12,24,22,28,24,26,29,29,28,33,26,32,26,30,34,36,28
39,42,34,33,31,42,33,21,18,27,29,23,22,18,17,15,22,25,25,22,25,32,29,30,36,26,34,28,30,35,39,27
40,42,36,32,28,40,36,22,15,28,29,26,21,19,17,21,26,25,23,21,23,29,27,31,38,25,34,32,32,38,40,28
42,40,38,33,25,44,40,24,16,30,34,28,26,24,22,26,30,30,26,24,26,32,30,34,40,27,34,34,34,40,40,27
43,39,39,33,23,40,40,22,14,30,32,26,25,26,26,28,28,28,26,25,22,27,28,32,42,25,33,33,33,39,39,26
44,40,42,34,24,37,41,20,13,32,35,29,25,28,28,29,29,30,26,29,22,26,29,34,47,28,36,36,34,40,40,26
40,44,38,33,25,33,42,23,12,35,33,27,24,29,31,31,31,33,27,27,23,25,29,31,44,26,34,35,28,37,38,26
39,43,38,37,25,34,43,24,12,38,36,32,23,34,37,36,37,37,27,28,22,25,26,32,40,25,32,33,30,35,37,22
35,41,39,34,22,35,44,24,12,36,34,30,20,34,38,38,36,38,26,30,20,22,28,34,45,22,28,37,30,34,36,20
32,43,40,31,20,36,43,23,14,34,32,31,21,37,37,41,39,39,25,33,21,19,26,32,42,20,26,39,26,33,34,20
30,41,38,30,24,36,41,22,16,33,31,30,23,38,39,45,39,37,23,33,19,18,26,31,40,21,25,35,24,29,33,20
29,41,39,29,23,38,39,26,18,33,32,29,22,42,39,43,44,38,26,36,20,16,24,29,38,23,25,37,25,29,33,18
26,38,36,28,24,40,36,24,18,30,28,25,20,38,36,37,40,35,24,34,20,14,24,26,32,24,24,36,22,26,30,16
25,37,36,27,27,38,35,24,20,32,26,26,16,36,32,34,38,32,24,37,21,14,23,25,32,22,25,35,21,25,29,18
26,40,36,27,29,41,35,25,21,31,27,25,15,32,28,33,37,33,25,35,25,17,27,25,31,26,27,38,24,27,31,21
26,40,32,28,30,41,36,28,22,32,28,26,18,32,28,32,36,31,27,30,25,17,28,26,30,26,28,38,24,28,32,25
29,37,34,27,33,43,34,25,22,31,28,25,19,33,24,29,33,29,28,32,26,18,30,30,34,32,30,40,28,30,35,28
26,34,33,24,32,40,32,26,22,26,26,20,22,28,23,23,29,25,27,29,25,14,29,27,35,33,30,40,25,28,32,30
29,33,34,26,34,40,35,28,22,30,27,22,24,27,21,22,30,26,28,30,27,16,28,27,37,35,31,36,25,29,33,31
30,30,33,28,35,39,33,27,23,29,30,24,23,28,25,24,28,23,27,27,30,18,28,28,36,34,30,34,26,28,32,31
29,27,34,29,35,40,34,26,22,30,32,24,23,26,25,22,29,25,29,31,31,19,31,31,37,35,27,35,26,30,31,34
28,26,32,28,36,40,36,22,20,30,31,24,25,24,24,22,28,26,29,29,32,23,34,30,35,34,26,34,26,28,30,36
31,29,37,33,39,41,39,23,24,33,35,29,29,25,29,27,33,31,33,31,33,25,33,33,39,35,29,35,31,31,31,34
32,30,37,34,38,43,39,25,24,32,34,30,30,27,31,29,33,30,32,28,32,24,34,34,39,36,30,36,32,32,32,31
28,27,33,32,36,44,41,25,24,33,35,32,31,29,34,31,37,31,31,29,31,25,29,33,42,35,27,32,31,30,31,29
28,28,34,32,36,39,40,22,24,32,34,32,30,28,34,32,38,32,30,31,34,26,28,32,39,34,26,30,26,28,30,25
26,28,33,34,34,40,42,22,22,32,34,36,27,27,36,33,39,31,30,28,33,26,27,31,36,28,22,27,22,26,26,22
25,31,36,33,35,44,44,20,22,34,34,36,24,28,34,34,38,32,30,28,32,26,26,30,38,28,21,26,21,25,25,20
25,33,35,37,38,41,42,20,27,36,36,38,25,30,36,36,36,29,27,25,31,26,28,28,33,30,25,28,23,29,27,21
28,35,35,37,39,41,43,22,24,34,33,32,25,25,34,33,34,26,28,26,29,26,29,27,35,32,28,29,26,31,29,21
30,38,34,38,38,38,44,20,23,33,30,31,22,22,34,35,32,24,26,23,28,24,24,24,36,30,28,26,26,30,30,17
31,40,37,39,35,39,40,24,28,33,34,33,23,25,37,36,31,23,25,24,25,21,20,21,35,27,25,27,25,29,29,17
31,41,36,37,35,35,37,22,28,32,33,32,24,27,35,33,27,21,25,23,21,21,23,17,35,23,25,27,21,27,29,18
30,40,36,36,34,33,38,21,24,30,35,28,23,23,35,33,29,21,27,22,22,21,24,16,34,22,22,26,20,24,26,17
33,43,40,38,35,29,38,20,23,30,35,28,23,21,32,30,26,20,26,22,22,19,26,16,34,22,21,25,17,22,25,17
32,40,40,36,32,32,36,20,20,28,34,27,20,23,32,30,26,20,26,22,20,16,26,16,36,18,20,26,20,22,22,18
32,41,42,36,30,30,35,22,20,29,35,24,22,25,33,31,29,21,23,25,20,14,26,12,36,18,22,26,22,22,22,18
31,35,39,37,27,26,31,22,21,26,34,26,24,24,31,32,30,22,24,26,22,16,28,14,34,16,25,26,23,21,21,20
32,37,39,36,26,28,30,21,20,24,34,25,24,24,36,34,34,24,28,29,27,17,26,19,36,13,25,26,24,20,20,19
31,37,37,37,27,29,31,21,22,28,36,30,24,28,35,35,35,27,29,29,25,16,23,19,33,11,23,25,23,19,19,18
28,37,37,36,28,32,28,22,19,25,34,29,24,28,32,31,32,26,28,28,24,16,25,20,30,12,22,24,22,18,18,21
26,34,32,32,28,30,28,20,14,24,32,27,20,26,30,28,30,24,30,25,26,14,30,22,30,12,24,24,20,18,18,21
25,31,30,30,27,35,30,19,11,27,32,27,15,24,30,26,34,24,28,26,30,14,30,24,30,14,25,23,21,19,19,22
26,32,30,33,28,37,28,18,13,30,33,28,14,23,29,25,32,24,26,27,30,14,28,26,32,17,28,24,22,22,22,24
26,33,31,32,30,40,27,19,13,29,32,28,15,25,31,27,31,25,27,27,31,16,26,30,32,13,32,28,26,26,24,23
26,34,28,32,30,42,30,20,14,32,34,29,15,25,30,29,31,24,31,27,28,20,26,28,31,16,32,28,26,26,26,20
27,33,25,29,35,45,29,16,14,28,33,26,16,20,27,29,27,23,33,22,27,21,25,29,31,21,33,26,25,27,27,21
32,38,26,30,40,46,32,16,13,30,34,24,14,20,29,30,28,24,35,23,28,20,28,31,33,24,32,26,28,32,32,20
32,35,28,30,40,49,36,15,12,32,35,23,13,19,23,29,25,23,31,20,24,19,28,26,32,22,31,27,28,32,32,19
34,36,28,30,40,49,34,13,14,30,37,20,14,16,22,28,24,22,30,20,24,23,30,27,36,25,34,29,30,34,34,20
38,37,28,29,38,45,34,16,16,34,42,20,14,22,26,32,24,22,30,22,26,26,27,26,36,26,36,32,32,36,36,19
36,40,30,30,36,44,34,16,18,37,45,21,18,21,26,32,26,22,29,23,24,28,22,25,36,30,34,30,36,34,34,18
