Fp1,AF3,F7,F3,FC1,FC5,T7,C3,CP1,CP5,P7,P3,Pz,PO3,O1,Oz,O2,PO4,P4,P8,CP6,CP2,C4,T8,FC6,FC2,F4,F8,AF4,Fp2,Fz,Cz
1.467029335098581,1.4709818498228258,1.3438810041184794,1.441534934569548,1.4898299093570513,1.2430718307704511,1.3940530471877182,1.4800093578492743,1.5531176319359994,1.4801181768491423,1.529464687744194,1.5666945184381365,1.5459822433373953,1.609865845177183,1.5680153328585171,1.5906633013881677,1.573958130366604,1.5664024742487284,1.4930489280860189,1.489743345194489,1.3950310779220465,1.4559338258313046,1.424764885493101,1.401358456426319,1.3659613392453012,1.488911164357096,1.4840831175270672,1.405861085084582,1.427282469311817,1.4728921225330645,1.5374352741067776,1.4627043265161863
1.46689674674329,1.5198600710899106,1.4320565977506248,1.4735660852815553,1.4965638425338594,1.3654662552058106,1.4632226870978469,1.4815150167629887,1.611301503072728,1.4832759964179634,1.6133867829008721,1.6282551213583434,1.5750265674987867,1.6643901670994214,1.6607865202809597,1.629958828878127,1.635688638200265,1.61767844541557,1.5283472549264485,1.5944478920435934,1.476959322088051,1.4787636261375263,1.4479100375318814,1.4275131752116552,1.471569953016442,1.4536027532313023,1.496310986222508,1.483623633372887,1.4333654210624447,1.48066228304438,1.5076720322554857,1.4551948081063735
1.4699279800701883,1.4556675127121208,1.4386979003340057,1.4845429080037627,1.5019790316017125,1.4044399295877399,1.4695348517176192,1.507164969597084,1.5465195822251439,1.4910437998931516,1.5608849292644973,1.5968543742920884,1.571957095695701,1.6202754804169952,1.623548756794183,1.6553068076102606,1.6321300150923497,1.6280659563427715,1.556406423249834,1.627961848232474,1.526735343486404,1.520899145321229,1.543158652752022,1.4578511624268657,1.454258857159337,1.4984764577858884,1.4738220250666905,1.4391310232407841,1.4295514125596334,1.4575836018146626,1.4871063157335618,1.466748798182228
1.396096243223681,1.391055142206228,1.3979684044373029,1.386291594994987,1.4558592631871192,1.305300969317723,1.4696320415519486,1.5178539562292916,1.5293892571067214,1.4616364423165902,1.5719944038369238,1.6013823176657505,1.595621704252553,1.6135793277824755,1.6305217713752023,1.612198231249693,1.6187363122172602,1.6166261025711215,1.5844098123839272,1.6345637135306523,1.5313106432755494,1.5343989626901144,1.5237012986036225,1.3848837901606796,1.4227209919791368,1.505033464414412,1.4267483676934256,1.4103547205433966,1.3763242675657528,1.4135041324441857,1.4579048492058588,1.464876193357686
1.4410476386924493,1.458534661327189,1.4304633010792325,1.4353180787031,1.4841369686784434,1.339262117907117,1.4582291215310963,1.5108437094877776,1.5611510585710302,1.4345706919872023,1.5665711942621237,1.597595894843307,1.5783334895500583,1.5793928260731271,1.5987785309327853,1.5747076325647664,1.6077058284240182,1.5369533918619105,1.5242325570779807,1.6009030907889454,1.5050481306350778,1.4823772932094523,1.5290352949111239,1.4348896113826088,1.449135605773508,1.4847876983209427,1.4499103161500195,1.4317714286337786,1.4102781793035952,1.4422360547460122,1.5093901535969136,1.4618828734062543
1.4975107467252327,1.544889275038458,1.5163538535060768,1.505313738294612,1.5009289077127108,1.3278106570923451,1.4965561072162497,1.5137098198757066,1.5575733534696243,1.4362667902588047,1.5157018127331192,1.5947608350679647,1.5454523611781716,1.5858527168366425,1.594786185402957,1.605704476097627,1.6113305508078068,1.5886169805416281,1.5754148775521402,1.6714917003092093,1.5766572867488817,1.5291592332093313,1.582755807796731,1.53301160323943,1.550550079446296,1.5166785514714511,1.5020679857519923,1.5280966723195366,1.4654701269507042,1.4954991385545109,1.5355229654183824,1.451745587575677
1.4663109134534213,1.504961188851956,1.532255615676431,1.4771451791475605,1.448883808194806,1.354645469904241,1.4339157363609436,1.5053596168183714,1.5860610055066735,1.481127224548798,1.5392915425162752,1.619343040786348,1.6071960773564498,1.6042478393941317,1.6148121252099459,1.592768967169026,1.5989318317497132,1.5634799588453003,1.532922243408873,1.6158237285596342,1.5078597047809528,1.4886368393408869,1.530813536541515,1.5066076718023635,1.492220896852498,1.459785025106882,1.4851971669745585,1.478062881529747,1.423051878561308,1.463959070261657,1.4633115666372551,1.4255738016816397
1.436491143337022,1.499329514253792,1.5227591251197445,1.4468145349491648,1.4484080572129419,1.3295152198764673,1.4766568008263168,1.5384560725801313,1.5829223911602177,1.4613955041693043,1.5259224100473796,1.5663404210532972,1.598171170284098,1.5959102540646681,1.5884831806855466,1.5834840925998266,1.6095582618928521,1.6041427578437886,1.593475626124579,1.6461909358460602,1.5656144391911226,1.5493355530474047,1.5416208586057822,1.5235082972210476,1.5071101699372988,1.5297612114798598,1.5032028165034226,1.4876931453882933,1.4790004123845217,1.482129422403564,1.4885932337995664,1.4427929461995044
1.447643557900947,1.463089250132912,1.4965078327898018,1.4770877573835153,1.4715988440834438,1.3128196375112062,1.4445476111842894,1.5426402456835215,1.5402078725631174,1.481332620718039,1.5240254521214434,1.5523706425652228,1.5732364214853962,1.5556258340218094,1.5646980534861152,1.5215221542568678,1.553048405438003,1.5603024340809324,1.581555651796027,1.6153976741745237,1.5552520755141,1.5496215954326558,1.53095558284398,1.4959593343192459,1.5083125082855167,1.4980644977838329,1.462485321158815,1.4561608047338117,1.4476338999001401,1.448845271640382,1.4687544792920908,1.4535824485613515
1.4199570252135354,1.4598502762816292,1.5041469488112489,1.4282909992760202,1.4607259493267042,1.3169613417799337,1.4553537487589938,1.5587661375783608,1.6052368833246926,1.5396002052348499,1.5452431406950724,1.605080893941618,1.6000387495688144,1.583232809381942,1.5856837693175374,1.5856766208190933,1.612424793315118,1.596211601735925,1.5952275442600026,1.654744148543288,1.5763876992635735,1.5450713466872277,1.5555593346254744,1.5434365326067254,1.547949193263478,1.4967259663390178,1.5192639949618914,1.543533980480251,1.467720541837206,1.4690508000219582,1.451432897730781,1.4677382709024578
1.4574673941489662,1.474727292599051,1.5170060201758007,1.471312581329899,1.4668461184250636,1.343096770983289,1.4839353255696976,1.585439043947583,1.6646914243521567,1.5739584063724001,1.5877776180332097,1.6589935613624727,1.6378425580264138,1.611936173507599,1.5779810873541136,1.5410645062727295,1.5565561191902406,1.5966345747188704,1.6341674336947922,1.6419922486926999,1.6378209764444487,1.5823301209155798,1.6016558684125846,1.5695445564382622,1.5647018372737047,1.532835544723668,1.4949194500805978,1.5361008247201644,1.4902341608016436,1.4551915970666482,1.4731465266480497,1.4385803898744418
1.510608380421394,1.5315025215578706,1.5435404092215197,1.5168269599405848,1.4729842106472102,1.4276917476742457,1.4820748895163103,1.562733612906921,1.6606706604371595,1.568154335428325,1.5351866710157758,1.6418664302415447,1.6665835204032402,1.6482046558313472,1.6163865992294337,1.6062703466580874,1.633223958407751,1.6453455770972512,1.6424022099583524,1.6560637758778534,1.6417234565041223,1.6201403339610014,1.6138893779429697,1.585418713447978,1.535505523925197,1.5700238626588812,1.562540904521346,1.5682710030885554,1.5440740165577493,1.5348170776653651,1.5143652173162145,1.4393293192918406
1.487256012410004,1.4796426923545356,1.5268631352456195,1.4892112297004279,1.4694684313498552,1.4236326714588476,1.4686405041496464,1.589904040714116,1.6216639293354764,1.581447623456524,1.5757237861490851,1.6022836479622622,1.6387500165140982,1.6050919425414747,1.5757504933934805,1.5703394442373195,1.629560462468681,1.6451385715271014,1.6512681407990895,1.6407217207033031,1.6344103803831627,1.6079141494872877,1.5740648539365512,1.5728264532963867,1.5719239591257976,1.5751972270991002,1.556136614242718,1.559207444599576,1.5601715077676608,1.523755259077797,1.5137721795665273,1.450901992307503
1.5162530786841433,1.4918520130172688,1.5619705988117123,1.5233260797732362,1.4719210769091249,1.4534382066674092,1.4983898093390784,1.5000113698826423,1.6201410371094398,1.606716747629937,1.5633097958736741,1.6043373677866373,1.6653039087277604,1.6089017595260906,1.5647244754134453,1.5742185571902747,1.6235515261729008,1.6655123800996392,1.6710312292717129,1.6101243549387145,1.6352884431340966,1.6137240117854592,1.5920586156604968,1.5872395426960064,1.5758721613316717,1.4899455680009595,1.546819907724396,1.5807729283997236,1.5086192203711515,1.5031112709256678,1.5042166754552402,1.4641437624774931
1.5486426931943003,1.5290647147316618,1.5619886044344637,1.5477386623588159,1.5026350404555402,1.4404852181184518,1.5217042197148503,1.5227305688713593,1.657687917352331,1.6297576231860786,1.58009413596918,1.6064434199629896,1.6533901647562013,1.5958486861483399,1.5435306620840192,1.4996207945237936,1.5826053591332507,1.6499174065161388,1.6623363551090313,1.6067372017953052,1.634460405277902,1.6151048816381723,1.5643722210435507,1.5685781596541182,1.5892309278960592,1.5418112502549708,1.574990614774596,1.6006702964050052,1.5533574328887731,1.5507787671414748,1.5288296169586757,1.4926140926788762
1.5418954418826532,1.5137643846235116,1.57185625620253,1.526914821732576,1.521870772727445,1.4832352923523615,1.4950757747836527,1.5822429865339298,1.6297130628986685,1.6538375150072442,1.605039740274697,1.63325550074722,1.6199253406092198,1.6124813130300197,1.5933202197405276,1.5568072748918054,1.594066808553489,1.6286306139505586,1.6420115689070878,1.6124868630341578,1.6284106239298706,1.6174258503124581,1.6019035496380407,1.561285730216746,1.5583609013518782,1.554507919280196,1.5377825517790635,1.5670811351503435,1.540872110338811,1.5225732170016562,1.5416967306984788,1.5555620562264303
1.5241072258250836,1.5106606238041964,1.5524908353116023,1.4891925393423053,1.5008780517121314,1.4644455509616048,1.4847963201446057,1.623056707007551,1.648424333141639,1.642035030998934,1.6247596434888414,1.6630090508230813,1.6548589674815186,1.636495267681953,1.5902566081088925,1.5516480084981374,1.5945258461756846,1.6972999219199487,1.6687303072257365,1.6560781476911342,1.6638550524350328,1.6602254570062287,1.6067771356760228,1.572797352661811,1.5635570084820036,1.5994516459028703,1.580598868274081,1.5813051878679447,1.5714720566779457,1.54911903041972,1.5286938075457779,1.5786336422462552
1.5004207820769149,1.4999479882960574,1.5411212988377618,1.5330483420753855,1.4895370729843622,1.4242354421725187,1.4369473169116864,1.6087958605778694,1.6135986255244248,1.6288590791150381,1.6276651922933487,1.6599019064312852,1.655417029147943,1.6533013171023523,1.635515762993455,1.609608425949692,1.6482199484013378,1.7025783106032373,1.6714008736620904,1.6480747044282424,1.642696414544509,1.6559342252090752,1.5945507132489627,1.505010275222652,1.5255628561722265,1.5369331940878732,1.5103289234761346,1.510350412549408,1.5052183935408339,1.4893525986535532,1.4819420969432842,1.569307918182744
1.5334825885809829,1.5592337833591199,1.5146872644112719,1.5654568473959012,1.5585514712304498,1.3885141359333748,1.5208082371132365,1.6251489625295785,1.6760677524206726,1.63956678237277,1.624380940778633,1.6936942968172441,1.6555345525311147,1.651511301814904,1.6084081170922226,1.5976877852836593,1.6247120829960724,1.6867202683909392,1.665685895008672,1.6571175492162653,1.6514584756862913,1.6400418758718718,1.6085536479493237,1.5461067202791405,1.564207058932457,1.5680972684029653,1.545450210079749,1.549193739823904,1.5159849447264995,1.5199440265872797,1.5153531676332759,1.551160932805142
1.5234843138584657,1.5297395210488758,1.5006524636166305,1.5524623781757683,1.5708925497374826,1.4738923264983965,1.5104044705472774,1.5942714850709216,1.68926886688687,1.6525044465252372,1.6112374153613496,1.6946805479177565,1.654139567572119,1.6923842140542302,1.658650448922722,1.6144747444551342,1.5898356542056162,1.677487755284492,1.6744544507433514,1.6434728493860866,1.6671642991937599,1.6530062934886094,1.6578651024694269,1.5265416523872635,1.5915561802384395,1.5869396377981733,1.5778788087884212,1.55101025942172,1.5560601137911587,1.5355034855175183,1.5157382519156422,1.5516994932068944
1.5697352756612428,1.598246183959347,1.5703548735930069,1.5731412246661778,1.566472080531367,1.453667029524427,1.5313042282983922,1.6248660719367385,1.5779953296824893,1.5952085566128675,1.5923341392109354,1.6245075354981418,1.6308644180048741,1.6130222442070836,1.6032811793157917,1.5768827147037399,1.5999344297628217,1.6566768824416405,1.6474381125672974,1.6304340224838285,1.6480570560848353,1.672468453951334,1.6632524489891545,1.511555728159818,1.587637666723868,1.5899139584682382,1.5866023124104531,1.5359806584324098,1.5468538636325715,1.5430053685163476,1.5392587422143353,1.5893380498217669
1.4764028117492367,1.5160810376190628,1.5070183868278488,1.500042912308614,1.5268441167552316,1.3975842246963395,1.508153605405104,1.5926907978951064,1.6083335040464886,1.5674082797724729,1.59873982890151,1.665785922645431,1.6844808687144313,1.6693784465120662,1.6681265085056713,1.6315101070396012,1.6105511142274667,1.6920886517137812,1.6914685649661658,1.6102657124249955,1.6546705947449254,1.7051362222377109,1.656071443282694,1.4795026668173046,1.5541883572480333,1.5858933346736008,1.5726438160181224,1.5521437317634446,1.5154559660731926,1.5077440205342918,1.4807633210709352,1.5719147482535822
1.5280366134479015,1.5683256712302538,1.5463553097968974,1.5503123205730733,1.5206171150558372,1.3954330246495683,1.5545418356432377,1.6290610876042697,1.6578915048682283,1.5860149339766079,1.6565121166315429,1.6791737190821796,1.7189617243370874,1.7007094664990277,1.6525796469514695,1.6586043713151584,1.6665987727735219,1.742703586392869,1.721922354182255,1.672994829088838,1.7035956669212426,1.7074110055462413,1.6550110152394482,1.4915265995829219,1.5381315661359576,1.5703548848868862,1.5396390720503281,1.487339369954208,1.506222525079945,1.5036328354601791,1.5188423808063523,1.5441065184444647
1.5848832049913226,1.5952238904354321,1.5138178006273777,1.5982690330677503,1.6176521951752376,1.4065891563593604,1.5684991641177006,1.613318065974773,1.6923289136102138,1.6397267039383747,1.637795731541291,1.7010203302747136,1.6848016665827177,1.722295368560959,1.6680315450542376,1.6430978828540224,1.5844041252148688,1.6802358361737715,1.671545343147417,1.5983613224327335,1.6658187001295985,1.6741144339174967,1.6229632655054018,1.5001533892802372,1.5126365555610362,1.5822432575598955,1.592562532980511,1.5349377435458451,1.60060178573148,1.5970851557700398,1.5452256909727649,1.5468359214668674
1.4731904375283054,1.5194907056965172,1.5022999380885693,1.4986689474166297,1.567017141126987,1.4005206665722565,1.5736934551767539,1.6620242355127781,1.6844887501070913,1.6398524969282877,1.6334217801005644,1.7074052095795846,1.7123926881665514,1.7438665361648764,1.688750615716592,1.681183474062327,1.6457340158817109,1.7267736242689231,1.7115122656971997,1.6346444003690328,1.7020980688758423,1.700214831227769,1.6866049157484426,1.53080903413245,1.5676882941826005,1.623933658520183,1.6084273036323529,1.5441999849502335,1.5689217092207455,1.5231993427736095,1.5147517606911935,1.5322182174098418
1.4878697263151495,1.5194136911064244,1.4890586998919733,1.5458444832255263,1.5472750512345168,1.3804026229316821,1.5888530713173914,1.6322883657629246,1.6836665259433883,1.647567092288389,1.6277006035296182,1.7015994283060587,1.6950794475204247,1.6932896601675824,1.62387915401369,1.5987849476380964,1.5907925167778776,1.7100485392896607,1.6926507241782642,1.607724578633842,1.6924109006528878,1.6977184569360233,1.6275386601404784,1.4815143233907375,1.5007888422309745,1.5530536754945872,1.529109883506932,1.5134351817382412,1.5268525055406104,1.4952579922436096,1.4861482833741622,1.5591793843108033
1.5401937967109254,1.5852971116483467,1.4559630812251692,1.563867186808886,1.6071478724796937,1.364246350661026,1.560103889625872,1.6285618127307135,1.704100831756061,1.6604516710676176,1.643466193060406,1.6870526811984226,1.696034947564145,1.700341296136773,1.6425512013499288,1.6059635925074747,1.594938494519781,1.6830104239792303,1.7033888128303223,1.6295844784314066,1.6913151287754211,1.703648206603152,1.6598127799596312,1.5066035543908465,1.49787636193313,1.616072047407894,1.5795891026453146,1.4996536108484428,1.541741280437705,1.5384475989483837,1.5664985310625097,1.4891704250784044
1.5575892997422374,1.555656820149997,1.4910044718152855,1.5507263609703157,1.5949592135799429,1.4302908255745976,1.5494419943846562,1.5654837291575618,1.6447546300355191,1.594081637510858,1.5571451003422612,1.6591515602952704,1.651549654718356,1.648718635629633,1.5834281684835922,1.561216334695986,1.5495414726062777,1.6596217124414296,1.6631508697593966,1.6004173406821673,1.6892964731604843,1.650148378928748,1.6190056853529962,1.532865281284651,1.4587101577139505,1.644897434579729,1.6087769615164926,1.545075538829261,1.5795146684346038,1.5738943951440938,1.6153092528899764,1.5021821687244996
1.6121983976994134,1.6263506312560938,1.5643928910898948,1.6198655902205856,1.654129425316419,1.4054767149458414,1.5437788896448201,1.637054988495573,1.6633997581989355,1.607710225148955,1.5617306738250767,1.6472148633598918,1.656065915279297,1.6405784370483663,1.578303281155223,1.5523078757933895,1.5215462219020808,1.654159145716466,1.665827914865799,1.6337262999883326,1.6940451948658346,1.6676458048546852,1.6442145936127681,1.5698332082097268,1.513828955089612,1.7095448848959158,1.631051574860606,1.540885992558858,1.642267865097396,1.610453459008024,1.668413962315071,1.532614649257659
1.529496485663368,1.5446462617909171,1.515858637166843,1.5339385207117293,1.56635150844945,1.4399811732881196,1.4906905914750186,1.5698071391503672,1.6513750783350811,1.5925815741335103,1.5827277749434845,1.6802098491176605,1.6754878265036992,1.6699899101145916,1.5731276876117957,1.5506636506034244,1.5593280349068332,1.680026545959993,1.6908797564555118,1.6448312091894026,1.7077841568215164,1.6614062111981855,1.6119479821381824,1.4954219258099641,1.442025034236588,1.592840008905452,1.5438518839459614,1.5051020787237375,1.5943712983172063,1.5528348230327207,1.594022631561006,1.5142901826038992
1.5617642574623292,1.5763992268634552,1.4643914026961413,1.5712940704827265,1.5940158345144284,1.3749031106409342,1.4859280165936468,1.6406138125896645,1.7051637648492923,1.6792619614436248,1.622739836339115,1.7240484049585485,1.6187511391929286,1.7010378281963334,1.5839813695798883,1.5513418379067085,1.5887627611105797,1.690767102750713,1.670866919366071,1.6489610512588542,1.6827341659722936,1.6369646713829857,1.6027951027683045,1.5540891375759343,1.4853967158984624,1.6749706422467425,1.623100092714083,1.54625609182173,1.6310577797936314,1.5979561024361586,1.600520444647544,1.5219363063329419
1.5726999035642133,1.5816170399551153,1.4517723895960217,1.5640364523872663,1.609826405697494,1.4123618581528128,1.4334193044013972,1.5754389898364352,1.6773373441875572,1.634909542220974,1.614824963178262,1.6824378502484971,1.5881588667187814,1.6705244473658218,1.5796728074890847,1.5169053904471965,1.5446689686462114,1.6469408806083805,1.6561046857736705,1.6611484519051614,1.6788404909318355,1.5980351709200824,1.5944219452010038,1.5014553664725014,1.4543128992790182,1.651789824101459,1.5981355896531164,1.4946705924507253,1.583958461092118,1.5735884654024919,1.6245817142110428,1.4906857524876984
1.594845642049876,1.6020380229557314,1.5059789033048445,1.593557157776883,1.6188930588118076,1.4314919213569832,1.4268058971933018,1.5574208218063281,1.6418744763773336,1.6541233765974248,1.6229755183088643,1.7245987040471562,1.5805726315531043,1.7035641428060324,1.6223193552414796,1.5891810790939322,1.589303957088205,1.662325990846508,1.6098244624421791,1.6525517575114037,1.6572487955519715,1.5252358213484123,1.6030726699872315,1.5478716858372557,1.4941131987942509,1.6495577274873785,1.6419825326047413,1.57493169845197,1.6369867123036468,1.618310830727789,1.6402873659673312,1.4855505774738273
1.5813652150157695,1.592553445967778,1.497746143599594,1.568397556482689,1.6123922795745949,1.389272675421062,1.4319528461747342,1.4718472329207999,1.5963183449025034,1.5422799684723805,1.6290147865725868,1.6706385995457693,1.5990491120436778,1.6816526135110461,1.6208727659621824,1.606413052978073,1.5817571777280548,1.6195475543315265,1.574754914408512,1.6105061464552568,1.6173130255975265,1.5049128653934625,1.6007557101214729,1.4967335841943021,1.5319883500754343,1.6151492339580307,1.580045696216152,1.4904734959992758,1.6158927882112972,1.5857712047889119,1.6419158601722557,1.4780166910113073
1.5782504971971072,1.5892125283960945,1.504956764659422,1.5685873147372371,1.5894351970342115,1.3726338885428275,1.3393145612923743,1.5038815090725366,1.616807168660736,1.6229162101021333,1.6398562306408682,1.6909924923905315,1.54689230821378,1.6769713902850139,1.598888243029744,1.621773768779377,1.6241430691951948,1.643622147090741,1.6060652999611444,1.6468543683144872,1.6342457959189598,1.5712386102039337,1.6095344451936051,1.5475914748089585,1.5742635101627054,1.5867458902261902,1.6067806483061393,1.5671632969179459,1.6285860373923586,1.6043448482151286,1.636992058494524,1.5003504338443685
1.5987667744367344,1.5950652902032774,1.4827664390501072,1.5789873803783654,1.5936949497262756,1.384296040182944,1.3662867550825049,1.4707144765143199,1.6298590800301433,1.5599584451022666,1.6198162837985264,1.601204684636487,1.6034330683798184,1.6343580134519378,1.5867553736204303,1.579754343497573,1.5740191631129303,1.6549912040885342,1.602351771799868,1.6406308765217341,1.6090474233051764,1.5626404733216825,1.5826608831296802,1.5102865856775847,1.529723285081895,1.6348334988083277,1.6434796146410342,1.5336946407999668,1.6632742343266549,1.6335004526423251,1.678889231634381,1.5625169075912413
1.5879805041032389,1.612896218174097,1.4923257179460563,1.582991429418053,1.6048829469029129,1.4196976459158246,1.3895747730574413,1.5167227713111646,1.672992803240205,1.5815947095166887,1.6382167795399831,1.6750512103918547,1.6997937905210072,1.7264527097779663,1.6758473360456472,1.6568782633190584,1.6629586632068665,1.7143710651975785,1.673209571920306,1.6960494919761926,1.6903307677607309,1.5893536613670354,1.608015432296657,1.537902901575694,1.580948316716819,1.6230075061784186,1.6528914169789592,1.5267677679813902,1.6652837125396494,1.6426757726732333,1.6966336155336619,1.5535934280609565
1.5700398748629265,1.6134766635438353,1.458688866061005,1.6005511579171336,1.6129206911116136,1.4451546590112918,1.3481929043218313,1.5466583051471716,1.678002202975539,1.5945557818885547,1.6313762648758878,1.6890167475227098,1.7106532630605193,1.7099168090178407,1.6466442640879844,1.6401090709117874,1.6361813256108932,1.7164787822931822,1.6730852365346567,1.633884992060276,1.633390587240335,1.6140092913215283,1.6109385939842416,1.540396096932213,1.5480148470926667,1.6028053508935767,1.6186319054048477,1.4753947999860912,1.630951451095249,1.594990909701365,1.6594233298875603,1.5071406275673458
1.5574954748321244,1.573272725796477,1.4740619624923834,1.5312338828151781,1.509478393577095,1.3397811622780955,1.367737336951991,1.4961236796908155,1.5558723472267686,1.57961448974234,1.6076910925491323,1.6888200098287052,1.6288118374030298,1.6668126067861655,1.580625655250537,1.601025820759842,1.601956955860152,1.686665480359101,1.6287819963075423,1.6427999743222814,1.6141887633418817,1.5619777862392226,1.5913595314308961,1.4952372887999756,1.5356130182990868,1.5023668261128367,1.6068304083171792,1.494892110012918,1.613787628974419,1.5972229288762263,1.6381674413332963,1.4431737798846576
1.536487451592713,1.5255205963450071,1.416032120163872,1.51586642988897,1.4948305124939192,1.350992798969025,1.3397911673889729,1.4429335793501616,1.518707338729055,1.5352519346861844,1.6226608168354628,1.6498582295193647,1.6709546109802516,1.6862623604479705,1.6305823322106414,1.5891520066024347,1.5857565798455557,1.6880184464203662,1.6489072561832023,1.6249709058671595,1.605658179939538,1.5628115781717686,1.5564623018789754,1.50661311203275,1.46722712171339,1.5005037186948071,1.5831490719762833,1.464848647501764,1.5860121417978605,1.575112413128134,1.6192635189389002,1.3689249928898
1.5246682265801303,1.4772280736428807,1.4124979121995374,1.493070797077523,1.482896030304133,1.3264041584148396,1.380591211190752,1.393889001728604,1.5296734261848413,1.5035021576939471,1.605664028110477,1.6322661403897798,1.6681332525027643,1.6840841444305528,1.648429426972285,1.6237612840742632,1.647966634262172,1.715098890895094,1.6504322843373689,1.6685579424976822,1.6194904459693737,1.562192760411063,1.5350152565963076,1.4833288813585577,1.515330807847716,1.5273201837290467,1.6332149891237626,1.5311915446315947,1.598005372859098,1.569548630522687,1.6304775685561772,1.3958196900075146
1.445565163185405,1.5162797248150361,1.3905957797714452,1.490586433720427,1.4576574216529365,1.345332416384445,1.3279251286194989,1.4399236055491071,1.540752465987987,1.43956773465402,1.6052063842714002,1.6626617913144488,1.6983248426221227,1.6992960318195973,1.6678971548420807,1.6091018742421581,1.6143066248092393,1.700306175911458,1.6675308448950161,1.6344890184562675,1.6143566829633147,1.6056150969936236,1.5512448171193223,1.4939287255412546,1.4920079006886597,1.5024793005006285,1.5258480670768497,1.3965471098257896,1.5104349521740938,1.472960630304218,1.565502412759432,1.385682589753865
1.4692569487027196,1.494037790027265,1.3755313656280719,1.4132436543284161,1.416384501489097,1.296036680593162,1.3526975281060587,1.461336370179519,1.5145470840540152,1.4403329798310862,1.5394926261612851,1.6220863946462796,1.6180726010366784,1.5990445576290615,1.5441639116144175,1.555282712785481,1.5765042408765042,1.668606031029423,1.6263591077401462,1.6630604872654435,1.6101143432359912,1.563909174779993,1.5726061770988504,1.450214051336529,1.5753166325345296,1.525567685114202,1.5701195184671979,1.4113992005532991,1.5357423089912148,1.526894375735472,1.5686259305594004,1.406508002520234
1.4114342995684517,1.468936421966201,1.3671632044733728,1.418707128033297,1.3682454356149352,1.300886305641989,1.3304362582325922,1.4449873990554776,1.4520699613811194,1.4190194638205154,1.5748673423893278,1.6418466720615141,1.6121269850195639,1.615820607468299,1.6091735452941698,1.5426356953260234,1.5347537263604885,1.6234835397113945,1.5840269382128789,1.6164599851693684,1.5751534932081706,1.5443141966180578,1.5362757581862352,1.4647480025513453,1.5080572081401196,1.5061226677389767,1.5059673162084368,1.3840574507251202,1.466040430516363,1.448246612122483,1.511729838665932,1.3016262833763763
1.4619637527171023,1.4621218341005153,1.3401661911225191,1.4315943372325217,1.437482648210062,1.2595706288081434,1.3241192341947805,1.4342902855003623,1.515460810990549,1.4256208770042498,1.5789947717495223,1.6459122487546187,1.6405030266534406,1.6811262953597323,1.6534190239199513,1.562726105747949,1.5486773577747484,1.6356809203036142,1.6025849261116039,1.6313771247136324,1.5750083793390286,1.535422617965498,1.483349367691182,1.3625485964555692,1.4721536826828652,1.540811481905401,1.5105486727730666,1.3766320554724645,1.4964154529724274,1.4874697925721467,1.5543309006227328,1.3732200166511126
1.4034553153246732,1.4251076023948999,1.3341099712017512,1.3944541503817502,1.396852684840346,1.255866032582653,1.325856728318269,1.4679688077988822,1.4814139173157206,1.426137027969338,1.593822426186097,1.6644295868755963,1.6653235746767951,1.6779320018233572,1.6768018996075291,1.5913963025219342,1.5816954766643965,1.6426557361690621,1.60434340200508,1.5903217114111605,1.5501375407047142,1.5726501184294845,1.483608614495289,1.3789317955386484,1.431197508712346,1.4735213852149462,1.53189184317545,1.3792817664934929,1.5169420655281698,1.501873149422189,1.4905153165285538,1.3887656888718842
1.3843038349879355,1.3757838653750676,1.3203916261279223,1.40618384431207,1.3561608402645968,1.2357409863483875,1.3702586505484309,1.5069732182229165,1.4835323629677502,1.4706473182058617,1.5525338353097309,1.628792227417542,1.5413567670358828,1.5714473197535141,1.570803038184496,1.5082439538185868,1.5193374038151446,1.5815458533192106,1.5463909755708487,1.5442829160816873,1.4863340151279243,1.51330110513178,1.5084617191053562,1.369967061434544,1.4195786032934357,1.492340266419961,1.419440981585685,1.3435856736109963,1.453981867700428,1.414336798942482,1.4651146080930266,1.3952672909990615
1.3099836363782087,1.3751179247230978,1.3043327513555547,1.3668691666196744,1.3361230442035854,1.2408173723592621,1.3227897948265965,1.4753160728045545,1.4020190476599454,1.4241927965284669,1.4896870629808279,1.5421324110822334,1.4745487308542753,1.5471805557935794,1.5682527943437259,1.5160731964349832,1.4686027393982652,1.4579053554069201,1.4475957467675225,1.4980993122156718,1.458390558731785,1.4317338514410356,1.4403807405893343,1.3632100820559288,1.4232012885640042,1.5030817032721886,1.421143168974044,1.3504873219892959,1.4370891115953113,1.39767931528006,1.381701057817307,1.375329490134283
1.3116859911090712,1.3795994744246762,1.3004282192956313,1.3848268026778345,1.3522596703611478,1.2429502698325807,1.3282462091051506,1.4833397291474968,1.427487848188595,1.4189072570037655,1.5381956541374295,1.5490102298863608,1.5603833735382335,1.5917391324382284,1.6192683961795937,1.563560336752899,1.559718125128746,1.5588338697117783,1.4925859896643567,1.5562360663745307,1.4558696766894221,1.4530547157735487,1.4540539292398615,1.3830561096969853,1.49351568180973,1.5541379874538566,1.4730059455972673,1.3857263491961163,1.4706426541072801,1.420438173972693,1.4104440319572886,1.3777467374975447
1.4156299474331557,1.4422694423688556,1.4029912279801358,1.415435225852802,1.3889133978780426,1.2575097890246312,1.3241223454687434,1.4671387794418935,1.4909823191964533,1.4085677876484028,1.513458384181412,1.5822837927993223,1.575398390676316,1.6055174803460914,1.6153793904981535,1.5750571794218506,1.5501744457444118,1.5503075429698685,1.5370619636754,1.5115413725977247,1.505126402981888,1.5009099996587634,1.4571799717435965,1.3981009718450719,1.5116281486777912,1.5406864134115579,1.5321494331037213,1.367880609066494,1.533391615819599,1.5080063446385423,1.4633651332739868,1.4454615833912496
1.401960373151185,1.454223495550083,1.453262791361548,1.397550597976447,1.397265480700251,1.2986167250658478,1.3978954885139063,1.6105966969948398,1.45153281912407,1.4665762505944064,1.5710430922442167,1.5813072252496252,1.5348617135952125,1.5999676819377133,1.6093836646905513,1.5922263927117488,1.5744702263384427,1.5646123976297877,1.5466497643543522,1.5767905665349484,1.5263421119678635,1.503575391730596,1.522734625196958,1.4309419184076633,1.5192305847617875,1.5222558562365414,1.5171556044607872,1.376159440232212,1.5405895839917467,1.4998415898762814,1.4510663244828312,1.4690386846648402
1.4393076034610284,1.4496367812153823,1.484763254657647,1.4379220729029303,1.4167589946033228,1.3786338924759867,1.3925816701798561,1.5892885661284724,1.4404188970442773,1.444210855519709,1.5301061548074772,1.5397581578437793,1.513007540412869,1.5485910657850577,1.5820392696050194,1.5701771278768084,1.5379516504364499,1.5651327398547252,1.539389655242317,1.582950469006529,1.5536583664264674,1.5137475630839392,1.5671490803202732,1.4903122437914371,1.5409696943694566,1.5245013343166798,1.5280120488986797,1.4128140771248585,1.5419475310972668,1.5120970512132472,1.4428492290983261,1.4970620099186778
1.4521934483059507,1.4660285173641683,1.4554474126176447,1.4434095583894493,1.4163704120858118,1.2915357533793692,1.3849485849582932,1.5658740221527332,1.4575777000898238,1.4548099711608282,1.4866551610078047,1.5357902654550752,1.537411578990207,1.5728573938530297,1.581388307193666,1.506713000537216,1.4986460313597183,1.5342797991877406,1.512436870977981,1.5345047627858581,1.453480409822853,1.5007825138295123,1.4787245130976976,1.4392849021652667,1.5367532424745862,1.487536185581743,1.5592535960559066,1.4427362079684825,1.5458935467918278,1.5517616927794835,1.4532760606132376,1.4599794642757855
1.4668446613878316,1.4888834950562801,1.4585974720156485,1.479675598061857,1.4374562226360799,1.3193186037617366,1.3133950155860594,1.5459722267622806,1.4735973325118372,1.4256581763237957,1.4961468248482144,1.4992346888581418,1.5743772261124191,1.5441192470171208,1.5317925873173928,1.5136910451417107,1.5286934505166356,1.572161609660894,1.5549315476374657,1.555675251909864,1.5415956068243528,1.502776729135661,1.5174489693332638,1.4837168162560466,1.5541109939421798,1.5192090766969468,1.5899727413035458,1.4551274472046645,1.6044037231782269,1.5864444518919691,1.4932446489201483,1.4791309109974962
1.4522970069906225,1.4620970882312763,1.4707745687213765,1.4471404388023756,1.3976299565987105,1.3241202566506043,1.2968909395994161,1.5089367660121191,1.4170319284480242,1.386872992011097,1.4440024154502722,1.509823149971569,1.4792346936316385,1.4949222797205632,1.465924247219071,1.4934282626503703,1.501856339254016,1.5351712594801157,1.5323608082723612,1.4860620382151803,1.5071255004519264,1.4788471012989948,1.4732564125263896,1.4579741316690997,1.4902831540375872,1.4703632332727627,1.5762968701916513,1.4166756554633044,1.553218715063654,1.5494316366330838,1.512928104409698,1.446908250775789
1.5160857244510564,1.4900931660230154,1.477948699212047,1.4907284918581585,1.4510686532702506,1.367953952956476,1.2854271448620975,1.556572947034758,1.4664780545089307,1.390869240935775,1.4131520138626659,1.4790754625265368,1.5456744846321941,1.4283065928096035,1.4345085261051997,1.5088246646814638,1.510082049408947,1.5652229869645553,1.5254966677922661,1.5514790030160217,1.5413399401338919,1.449041339590705,1.5650304185672368,1.5318538159637176,1.5643904192430151,1.4683983467285449,1.6225933285593688,1.4605509144429132,1.5685107176771875,1.5658105147050096,1.515968329799001,1.4327917449368008
1.4849913317269017,1.4781843463950173,1.4152459849894439,1.5002293234637925,1.4273624474183804,1.312608028975004,1.367281533376344,1.5223303637963324,1.4319070308908715,1.384047272805004,1.4000854443927202,1.4194155081068658,1.5552884526826778,1.4297687576453857,1.436454664334913,1.478748016195806,1.4621342235306134,1.5694074207816116,1.5222157715543483,1.5275657113860297,1.5061190911415065,1.5285233513220693,1.5185157047522728,1.4512358437087876,1.5102348650061042,1.4228940825428547,1.568450924096161,1.3735040603470061,1.4576552146755295,1.4939055821886202,1.4614563643213299,1.4602531871285607
1.5086800126190976,1.486281021691587,1.43851688253153,1.5008369528754217,1.5031977168724184,1.414882608906648,1.3665777257758192,1.5482646890815757,1.4868903872476902,1.422763489058951,1.4829914923027219,1.4924091835503477,1.5992239304102165,1.5072803058820357,1.5005357289519243,1.481734273087899,1.4973442059740116,1.6121182839198964,1.584464138994801,1.5537671125766284,1.559331930270706,1.5566305887712724,1.5640108132203563,1.5544237939663221,1.5991730750890991,1.5035384012378388,1.6484446626083447,1.443796302597919,1.608355595261704,1.5775068329605262,1.5144887474551119,1.4369797312829387
1.438974122349148,1.440032274722673,1.3414449235003945,1.4984380153245258,1.4439797269443881,1.3387547401598638,1.2709828615006202,1.4709898654623828,1.4400867976891876,1.354685740982616,1.3977347177700499,1.389747280788685,1.5077410583480084,1.3825007044339575,1.390096555912838,1.4838921350771241,1.4678884208886995,1.5144929719260396,1.4810146948085559,1.4869456351868524,1.4707432569681678,1.4942655391807584,1.4499431142703054,1.448535943624026,1.4682311537894932,1.432955838248984,1.5358797621108573,1.3602352454562063,1.502394681794577,1.4847802576750657,1.475666970019209,1.3580396426863206
1.4733848520474102,1.4451985499106204,1.3938374825169781,1.5210327490852094,1.4542887242621725,1.3925721205827426,1.3722319766531414,1.4891197285003774,1.4359012578871926,1.4458323353455405,1.3940508716025395,1.4534071830461344,1.491667074348877,1.3988052782854727,1.4036977081918873,1.4582275747800448,1.4463357371254677,1.5302518104929996,1.5240092217952637,1.5209277172143432,1.5026022302184021,1.5095723005074013,1.5128950343774736,1.4732906968866004,1.4912556220538236,1.4142534474112805,1.5441175779694556,1.3703455821160517,1.4909750439601228,1.4994292383525307,1.47585687264749,1.426709209714691
1.4833304078918277,1.4412044799457964,1.3632109142383184,1.5511233628691161,1.4454030132494848,1.3330163408839097,1.345895035963009,1.5268030481018646,1.463405574952847,1.4349956373638018,1.3177230467191094,1.4320485842885586,1.554356605064621,1.36703585405201,1.409165590543191,1.4282253590714231,1.3938789251909844,1.515296577496724,1.5744076831162135,1.4878679798635994,1.4895892435169527,1.5126157544722436,1.4895319573237675,1.4015299274294029,1.4538686035586346,1.418395078709646,1.5177104407988116,1.355284373390073,1.4333174439752376,1.461870848248456,1.4484860923756242,1.4273440052811015
1.4406189206476796,1.4199932991190902,1.3162936944223904,1.4814298137224426,1.4400152468575638,1.322150386009004,1.39945276673749,1.4548433402669647,1.4857144456193185,1.4244761470441711,1.3606519184043147,1.4351622895091665,1.5810770739946232,1.377460859137312,1.3786829504400449,1.4386579788951948,1.479980206063231,1.5459618008079667,1.5659299870652126,1.4955798121126938,1.4875473196312847,1.5275387164144572,1.4992341444367585,1.3993500141590802,1.4184667200189824,1.3909706194214753,1.4719839884431096,1.285493440354607,1.4417979465182442,1.4433098327403613,1.4188118836667873,1.396384621739561
1.4113542947524753,1.3950102191678446,1.306289542796383,1.447180968398657,1.4373065032934595,1.3963997959664263,1.4154709834099377,1.506797721058611,1.3797362013001695,1.4354313661630396,1.4078639643877706,1.4123213020652596,1.499234603171532,1.385250710377998,1.3646850638927817,1.4439929178792217,1.4655504142072617,1.539606973875325,1.5538409279626766,1.4807085065778447,1.5115966607244706,1.53191406560816,1.4989389945107412,1.402153766299362,1.4487312945295343,1.4574595921869866,1.503821187077417,1.3561961266800941,1.4673888356507976,1.4589547262046385,1.4631679112772347,1.4161164061996268
1.4179039304498673,1.423158306635034,1.3189285673696918,1.4803409881287763,1.4909579480285986,1.415457722307708,1.4028180088364819,1.4741731089009729,1.4414353663731438,1.3972919392438394,1.3532851632033327,1.5165787805934545,1.5270620941334603,1.4259202062408032,1.4125666191895188,1.5164304000688296,1.5534284686920914,1.5958838946213239,1.5786370877630325,1.541082442158456,1.4923090095748874,1.5154926849538959,1.5103465968560104,1.4027786575074004,1.5089616920791042,1.4381647870258458,1.4777641339319996,1.3365345332677752,1.4663714447706617,1.4498019600772991,1.4646215772444935,1.3625354416754716
1.4365497373851734,1.4180511915163339,1.3470376614289672,1.468263250046786,1.4546074844840766,1.406649556085167,1.4602566680959173,1.4870336455104474,1.4414689507746936,1.4805593659639593,1.433504458207054,1.5552906589518865,1.4776237886203636,1.5386543374525437,1.5397048866024792,1.5909978562119185,1.5444208351178266,1.6132432240763486,1.592656569455368,1.5628093863879549,1.5323804588528673,1.5307544849645756,1.5333323496827058,1.4637165868660775,1.5623311314625736,1.4803845999548435,1.5119882904344633,1.3895806459327518,1.4731056824968571,1.4700132228968046,1.4739644896734487,1.4374645091042257
1.4372274036755828,1.395018547179881,1.3360383144034367,1.462315615269358,1.4243529207154426,1.4022188837223717,1.443419559052547,1.5877230689172004,1.5429199365923336,1.546957730032077,1.445649119409726,1.5830758590394582,1.6432375193608983,1.5047361927938716,1.5168140192582613,1.5783755718859207,1.5436917884559092,1.6600203275468122,1.6853492172428375,1.6183692228010103,1.6211177362026663,1.6000074670924034,1.5611582357816858,1.5126634460136144,1.5191691800225169,1.4780632700009921,1.5068865276000827,1.3574134144249879,1.4868052645592231,1.4772027889467414,1.441954685284617,1.5154728135838182
1.458978748288472,1.4466317645625932,1.374073597075892,1.4408232986472385,1.4566998216639584,1.4290439679658544,1.4459757603130603,1.6004669589328129,1.5318166186296711,1.5492915761520534,1.4631262204824775,1.5445682919739225,1.6708591801361676,1.5133023759623254,1.5070219613421414,1.5918881069701887,1.5888476580313424,1.6739497222307154,1.7052362168045991,1.6318763350167813,1.6331325693231176,1.6511754729074155,1.5960398102281095,1.5044915529175251,1.5264695849651526,1.5637485259415633,1.561763120523748,1.3913066165248844,1.5641477219873345,1.5480457986664935,1.506600565309848,1.5699991766686754
1.4496755770252239,1.4190077242553765,1.369580271669373,1.4342540658729312,1.4371654571576105,1.384318824181948,1.4522209624872602,1.5197221338551268,1.4753720615252979,1.482244252531428,1.4209825004603718,1.5143791523877024,1.635091279870897,1.4805192800618068,1.5179921955846782,1.5802981651208445,1.5960284150299737,1.6870815978116032,1.7004359064302943,1.6291141238790166,1.6446560063556188,1.6390443256979312,1.6083031133676071,1.5305168892347631,1.509359766092896,1.5354121431293686,1.5245169811096033,1.3750667441987012,1.535720048792703,1.5173800440767076,1.511709348528291,1.5186670846232417
1.4129401046181955,1.4250957971542295,1.3720541117968432,1.4147156060906285,1.4475330196733205,1.3794045461791706,1.4202531690686695,1.6126526922298519,1.5567953399672163,1.5982508607093575,1.486560416489565,1.57968797094819,1.6506724442171605,1.5870294367898399,1.6106208862308429,1.6346193178435129,1.632220354533723,1.7079332971355776,1.6988496289668373,1.6465830116714382,1.620476833461607,1.6521028797131372,1.5930041235952859,1.4601590602140542,1.5377164350862225,1.5951393764835922,1.537565105685461,1.3788991895042304,1.5240959736245798,1.4934978672780908,1.516870793283125,1.5498449302895583
1.4371387319881739,1.4016743034870036,1.3574887659976356,1.4293587899584677,1.424902050912565,1.3594577703719504,1.446826150913026,1.5616030899142839,1.5908595748050232,1.5638771712778956,1.4278822039170305,1.5635379185511518,1.6450447236569175,1.5541669146822632,1.588779916845153,1.6211361493924459,1.6217948648578635,1.700213329678749,1.691267531311976,1.655013588366367,1.630104385217659,1.5945443195071378,1.5377953431388034,1.5069407199847025,1.5447059785174688,1.5664075342361932,1.5400885910933861,1.3807529326412626,1.540198222946301,1.518370087241098,1.5136245523232372,1.5253178612111333
1.416977974151673,1.402477295977557,1.3550730998503628,1.3773229164051775,1.4093694801616756,1.3698683360637445,1.413048893302395,1.6633895366328664,1.5641392396798055,1.5819640109930173,1.455662876059776,1.5770136608797694,1.6178901641355554,1.4984842782449015,1.5312825126311176,1.574465005714478,1.6011390536180987,1.6721033056257604,1.6827195680074474,1.674747538761364,1.6394678761503363,1.6105415779459056,1.571072341717048,1.5026159667419252,1.5275215353187748,1.6306964878759467,1.5969086550536413,1.3490778268124262,1.5506095779527223,1.5414624429069252,1.5204856642271252,1.5430229617653368
1.4802582600476402,1.4643303258798361,1.4470116797450372,1.4430882392234792,1.4618413904833012,1.3588755869613782,1.4159811411201952,1.6031467446736307,1.5118622587139732,1.5442855634663029,1.4982106596398006,1.5634012075669619,1.653609457004773,1.545748402817045,1.5658945168305978,1.611823363420654,1.6080504241475875,1.6793296995693714,1.6778275403506064,1.616311947712731,1.605691588100266,1.5982779153151674,1.5626239815992329,1.4732848400500853,1.487856406262085,1.5962709035225324,1.5796318210537228,1.348945330070558,1.5850125030777074,1.5685580434606983,1.533810297802426,1.5722297438987876
1.4577037619970112,1.4425834085610785,1.4146463211212552,1.4327433003104315,1.4627482460073944,1.3719891727294897,1.3884453097956853,1.6132417680463005,1.5277199381441902,1.5615914135267286,1.4787944081660371,1.5692005618519065,1.5986061361307669,1.5066655503234934,1.5575490749441103,1.594216604325851,1.5884937587777777,1.6591584675320472,1.636547568133225,1.610719455435849,1.5709545907206268,1.5682077201039633,1.5313268278201269,1.47960336443949,1.4949994508418203,1.6416521933829025,1.5799532882272864,1.3273140972450865,1.5620336880760806,1.545122335931946,1.5608372089153388,1.543569981341542
1.4040759412133403,1.3966805277010952,1.401908270225982,1.3696484117190526,1.408897132820399,1.32552788893123,1.455632717761401,1.5623092131955814,1.529488834166038,1.5820702022113575,1.4552639599216772,1.5130446477521164,1.6489089222629596,1.5413504819847732,1.6026917629021433,1.6169268367561265,1.5880467250980548,1.6972616378074283,1.6740903463193757,1.6369840770172914,1.6062813177418618,1.5967585759086398,1.5104745760652836,1.4902766065301782,1.4564980226357005,1.5442580575212996,1.4667284061127104,1.3114931845046376,1.4472511632071539,1.4401688094447007,1.4565588789348052,1.517944590288431
1.42928632188246,1.4751865362054815,1.380797523947599,1.4626518171534515,1.4297975822471465,1.3542382941669757,1.394086430466401,1.6129946991161361,1.4917715373159184,1.5529604965890957,1.435828154222614,1.5226154976810435,1.6050923196064104,1.44583190024257,1.477147598335223,1.4913936191648318,1.4946139720497436,1.6186387337980326,1.6290747311626306,1.5671996253296983,1.5334092311822851,1.5528455555099985,1.4788255630808007,1.459471767929598,1.429470392273968,1.5368725848934135,1.4706456008037332,1.2677289097862972,1.4552032102987889,1.4716121579169748,1.4811524551155788,1.507106379144023
1.389125101350872,1.4152081763072601,1.3798468148719043,1.4032970385531136,1.4254071521216753,1.3200375620258813,1.4284294420245827,1.4967228272807898,1.4800458872015114,1.5279149287125182,1.3990555729415193,1.5012355942230058,1.5733999210363132,1.4456381004111554,1.4380348427993817,1.4617207911214736,1.48027568790423,1.6173351760459307,1.5997406282470754,1.561038771827268,1.546175360710295,1.5351489172404742,1.4867807131184567,1.3964787785902397,1.4292289038362012,1.5511766944477392,1.4365125542451045,1.2698335194495727,1.4254412527559501,1.4149797473420562,1.4363586570695968,1.468311101964684
1.4108908112449123,1.4443639575305285,1.4442653532176901,1.4496403346238491,1.4354099164959055,1.3634607459018728,1.429119506819091,1.5165314501811562,1.4567832813744273,1.5154956652328904,1.4477828343751045,1.5019683000150557,1.566720157343831,1.4691889217937681,1.4494059096572407,1.471344337512383,1.5187871536621678,1.628800666862866,1.617561661818648,1.549241849905422,1.5182335378996725,1.5302841974779133,1.5140323581022217,1.380266592045386,1.3857167384109204,1.5706532799915218,1.4360702692718912,1.2462643419368389,1.4160263646397804,1.403266721867379,1.461157245012921,1.4454618944927224
1.4211298125933594,1.439591646001983,1.4377773916648091,1.4370858162242421,1.4391179682209927,1.364131327575184,1.4474667942892387,1.513616698683105,1.5710080669810018,1.4381933671616318,1.4750648012102923,1.5404361435561869,1.5599004172659392,1.4956191344573952,1.4837691618280204,1.489107932218499,1.4911269447240285,1.54982784197414,1.500979032392734,1.5087338690789558,1.4330103000790186,1.4523671985008422,1.4595401867737419,1.3873790789309328,1.4267539429699367,1.548640433725498,1.4705767406867272,1.289656160067873,1.4490566409648717,1.432734558284578,1.4755786661487191,1.4751967615848427
1.4764223435535688,1.4952641467257775,1.3865358544565785,1.484679020406837,1.5230407124172423,1.3928485848030285,1.4311331196752175,1.623487710004938,1.6167585329653928,1.4959808222320738,1.4284255650836086,1.5739972864417946,1.6153563475569142,1.478197073320192,1.402272403504205,1.4721497092258953,1.4656086794025414,1.6329397016643012,1.6156253739040165,1.5734380076644348,1.5370991595990011,1.5508114953521548,1.516341912000605,1.420320235780185,1.4442254149620548,1.548505080764455,1.4930120348021376,1.3115359918045693,1.4913098004050127,1.4809121852403173,1.5198698921862437,1.5404431310547206
1.5288182741125163,1.5585419457286627,1.4286004892185853,1.4950382222147605,1.585157829617516,1.3863557792185215,1.4537266902604737,1.6036229891346803,1.5990857818978725,1.5481414136528096,1.4805694197944281,1.581429724047486,1.5850516772204697,1.490714800668214,1.3899563506783557,1.4436013719348146,1.4617010098389522,1.5817398359353478,1.5534348459621425,1.4846060704165605,1.5028864127188564,1.5525059231180753,1.5563829586084674,1.4172966854037232,1.4803073567256344,1.5951627271538313,1.5324393297770755,1.3599054307640648,1.5373709128118198,1.524048189123877,1.5845655970078798,1.6106476978748407
1.5161785905455025,1.5343712738135127,1.4104203813150293,1.5124002527692215,1.5527862235495362,1.4567553612887074,1.4649997090189282,1.6898461199313406,1.6261259181604355,1.570077090314258,1.5059145316075275,1.5994247208353969,1.620617108165048,1.512606301643551,1.4287883066370441,1.4862407058968425,1.4905228941685182,1.6146438644360024,1.6147965579788865,1.5199219032738807,1.5660949528646695,1.6029760100702684,1.6051227469393303,1.4829271346983701,1.5049199078578472,1.626637413503336,1.5453745854397694,1.3602583139141502,1.5424500224689675,1.5257526066479798,1.5683563515729377,1.609067090407442
1.5390578107982518,1.548789337274809,1.4636985344727378,1.5329701010456782,1.5705707249093828,1.4941058150634603,1.4898944862653534,1.6786079263356248,1.638899408486002,1.55886274785687,1.5251479610039362,1.6454593730799412,1.6598707280724965,1.640954363372847,1.5590492273001308,1.6183307477543576,1.606322053297865,1.6715317886358823,1.6671745539526184,1.5889603020280063,1.5958993232428347,1.6584423886620059,1.634031562766747,1.4803529985966997,1.484865058812433,1.620643484983781,1.533990780252649,1.3616461340745287,1.5332458566694733,1.51864087911878,1.5858958194087838,1.6463576363803845
1.5683483863681622,1.5826478808807782,1.4578770715062708,1.561113017769091,1.5657940666345955,1.4804154156674134,1.4997545493534357,1.7156551708654557,1.6581367408434238,1.5781798204928725,1.565834677509336,1.651515637991187,1.6472074976578122,1.6717419302962209,1.5923563826669698,1.6438819853910291,1.6200794255360842,1.6588155664012005,1.6330055464126074,1.5769767891957422,1.568970302471867,1.6018649834531793,1.5909097431329795,1.5491161289735462,1.5250494031476556,1.6225555002442995,1.5969812767127296,1.3977596765396156,1.5776862492398793,1.5812194521585174,1.609434007825119,1.6447341760693872
1.562126095448151,1.5890696975391556,1.4678381630197876,1.5807343363215816,1.603613208475284,1.4940979421799825,1.4766387253102375,1.646761920987969,1.650433074933228,1.595390553204763,1.5482861983093472,1.6269020505017622,1.6398185318754117,1.6101653771396058,1.5112738375190196,1.5691197011303746,1.606245441493438,1.6677310531538363,1.6407205348304048,1.6137665351666153,1.591865012247925,1.625572471295724,1.6258407547892024,1.4721067339078275,1.511518582887028,1.6135078227452357,1.562022030288552,1.3613606456277143,1.5544689301312535,1.549721043333082,1.595940271221283,1.6406129693913338
1.5868285017891643,1.582574275045551,1.4803818859955675,1.5842069609349367,1.5957762132166127,1.4601612694138657,1.4612977696750598,1.6505718761088692,1.6284581410727013,1.5551368141547375,1.5229181074821272,1.6103208259313824,1.6608216000111573,1.6098486017849998,1.557092251850437,1.6321795945401114,1.623013035254748,1.6657229848444894,1.6470917394658178,1.5926591700646666,1.6188224958747355,1.6375538777999925,1.6197261486994532,1.5581319485597291,1.5453084455504171,1.6329148677517216,1.594829976754826,1.3915153288515738,1.5980470936376485,1.5956928503004517,1.617562763276337,1.661111650987936
1.5879458359100582,1.5617171084348167,1.460141681787497,1.5777842960373079,1.586885230072297,1.4921321849672498,1.4591270839609565,1.6340230595363503,1.6544777673594175,1.5764625323775956,1.584288499039223,1.6426557669677047,1.6629799389367812,1.6259612791268432,1.542730125641112,1.611801100891349,1.6205429713083603,1.6583067377429566,1.6385045207903464,1.5985160615521263,1.5922810703194739,1.6483820275085872,1.618496435227316,1.5143876362064366,1.5437088574586362,1.6465333353964287,1.6016507886347797,1.38805561331863,1.5884580091743212,1.59223435933669,1.6195893136851502,1.645721427965658
1.598034130396616,1.5804777275171706,1.458087694535581,1.587864012895848,1.6034863190816981,1.4590424348628885,1.416005007502365,1.6353564022604221,1.571536302814928,1.5103246065657396,1.5190524294705994,1.6001515233263814,1.6511796902554674,1.6508502644719043,1.6224389286577807,1.686059561534541,1.6660126258692882,1.6958398566838884,1.6725638034738035,1.6468755132282389,1.6469769639079594,1.6615370213810368,1.6519695206056777,1.5820132015653323,1.5662043580021698,1.6720466054690943,1.63532881925126,1.413769193860506,1.610629902822108,1.6157490686603762,1.639571700817628,1.6847255678607256
1.589977141508384,1.580991612631042,1.4479308907150015,1.5837729878331437,1.594882015330097,1.4459035674671237,1.3961387213857195,1.6419646212085697,1.6062498235660674,1.5855654740529135,1.537161729191463,1.6693267184163498,1.6190658831280422,1.6289529042320563,1.5641494185623133,1.6193237144953005,1.6129898095713278,1.6362589608509555,1.6183471021961122,1.5913491498117074,1.5825510256181776,1.6194905010267895,1.6384537076898733,1.517875591539122,1.505749559489404,1.6518799973620168,1.6125103516253998,1.3980481065273294,1.590390231559523,1.5967465999934298,1.6262220297974863,1.6624718358275832
1.5483194557498483,1.5553990020441522,1.4440133496430527,1.5454290996088267,1.5669594316633293,1.4074261867353497,1.4400018990975316,1.594695941311324,1.5457310465480774,1.5597213116431172,1.5042536409929792,1.5941151361774086,1.6032981974014198,1.5987070365861895,1.5889709309650604,1.6167378844765454,1.6103525203453541,1.6402484144885838,1.6395647487657732,1.606137658890633,1.630197617903861,1.6259248738326373,1.6407216210045725,1.530030545658581,1.5507929551207644,1.612795456941269,1.5977950263439094,1.389217885864125,1.5831157461907521,1.582188192955371,1.6060192949689391,1.659283214861148
1.5854510411890634,1.5570966315678614,1.4703197101172791,1.588838313487082,1.5721796295011758,1.4252175583185964,1.4248483836930899,1.590871469757482,1.5614566381529404,1.5456140643460006,1.5335348884135802,1.6125683879247528,1.604433113098968,1.6260380688903338,1.5765631729296647,1.6381114489445603,1.6263059716819848,1.6305744815932226,1.6285618320350688,1.6136945804143428,1.60209070718928,1.6175123788817787,1.5990899025669365,1.5401798447210244,1.538859212912604,1.6124348212724233,1.586676269045862,1.3770619304946097,1.5912137748044843,1.5853727220765652,1.615678594649172,1.6010482211547077
1.5679874721793852,1.5394623113035146,1.3988668859916098,1.5614702982583621,1.5643478844260046,1.4103430223994318,1.440907727213687,1.5518368935364188,1.5957385585019368,1.5410045405830337,1.552154872189419,1.6340554370282894,1.597876770017751,1.644351296896724,1.583196405337756,1.6440244162555984,1.6337325125684437,1.610038900686763,1.5937159015698719,1.6249410815295986,1.571988777727381,1.603804403497559,1.5761197443169894,1.5147887532266004,1.5554121619175714,1.5703672678878575,1.596656990400723,1.3880199508012554,1.5700672420884976,1.5800439013982965,1.5914997863345188,1.5635670053580297
1.5345595724711132,1.5262372851128183,1.3889424208177508,1.5314453616297223,1.528944014924903,1.4137139236992786,1.4608267526382113,1.5889366110455283,1.5612426566749391,1.5329489769492954,1.5836328218532367,1.6503596894408925,1.568849059713169,1.5666897498108807,1.5561261967578057,1.584024748852272,1.5468039228571278,1.5605059504805112,1.5772794025389594,1.5531403397814718,1.569277914544444,1.5857255116785425,1.574865156823502,1.4974990537216246,1.503131842349376,1.5321119052922985,1.5459178707790933,1.352151216566416,1.5324702839396072,1.5422281176566408,1.545880138462287,1.5694852796023282
1.564755629130509,1.5483543263017292,1.4507388442696036,1.536932200284201,1.5505575446943398,1.3524314160274526,1.504261411317045,1.558050539655862,1.5205427995614729,1.5467002054324674,1.5730454733083592,1.626576321839226,1.5295474631472883,1.5732655516803156,1.5915265907492426,1.5739297638748797,1.5463367073368057,1.5665907847636935,1.5871242902734086,1.5406610995064105,1.5892514063243128,1.560436584472645,1.5780402337287063,1.4627896220677885,1.4741394726277228,1.565666880169613,1.558943516393047,1.3299099982644005,1.554572613088349,1.5744063199076348,1.590744309659064,1.5300074632812228
1.5476039176973901,1.5282282162838192,1.4297908801708636,1.5276737079671456,1.5413488163084188,1.3765180336832297,1.4657350823850728,1.5939300122404716,1.5467036669283543,1.5524425178772863,1.5491502531262742,1.5779519016983046,1.5443233968620835,1.563860808769829,1.5696785866518834,1.573487941068397,1.5307766591099652,1.582848043511369,1.5998019102881276,1.5137549430655695,1.5904359438399214,1.56666954100808,1.5919196239870763,1.4440898057219596,1.4790123944945097,1.5542454785219517,1.5646748389518683,1.349408807599655,1.557336850442502,1.565847935166433,1.580053166464942,1.5245646392251901
1.5253441138518065,1.5148013352689988,1.4093257818234592,1.510358675046207,1.5301983600699582,1.3759408567588554,1.451901701585037,1.5919641772266149,1.4968337399827174,1.4909436357292032,1.5616849480170676,1.5801005663056,1.5479737726672036,1.579914756082781,1.5418693698802521,1.5519062709276679,1.531844255425586,1.583520729756119,1.596586417751636,1.5330453615339426,1.5968874176326733,1.5840193837676069,1.6201891325698423,1.4531472700412777,1.4696488741127065,1.5721967346671062,1.5330257185075122,1.3477363306880177,1.5034283547870702,1.5105119893758825,1.5574719189151613,1.5248828789317843
1.466094976943504,1.4603770018578848,1.3823416466871203,1.453731242370457,1.4676600072714217,1.3682556609386824,1.4420604696358623,1.5939581122613071,1.5390967392876056,1.4904775430220423,1.5201085652392745,1.5886019940821048,1.558398995635108,1.5414893350064396,1.5033866331892953,1.5214427718843488,1.5170642702154689,1.589489577140229,1.6242597641729641,1.5599641624245368,1.6106105354321423,1.6074501226571,1.63699756250682,1.4821045533752402,1.4696170702223414,1.5463271378923336,1.484518921013201,1.39399623848115,1.4745176029367852,1.475712347847887,1.4861857756456436,1.539579330142089
1.5091983914571687,1.501179952856028,1.397506632552861,1.4804191939136173,1.4850454367461372,1.3477301316523715,1.4604477621297722,1.5618033778984048,1.5717318667836542,1.441601682907111,1.5364300070856063,1.6339547855867642,1.5902131855738006,1.5723714286157904,1.57202037721289,1.5972358802945825,1.5829750026858023,1.6431577368458299,1.664787999297448,1.5888885883723274,1.6228509891528637,1.637841206624284,1.6651428862755095,1.488726430191703,1.4901410112914226,1.546105899937605,1.5014084054791241,1.356668212369432,1.5216501211659264,1.5147423887101843,1.5243836951808865,1.5539659191668036
1.4983201351179956,1.486215791023866,1.3650958458754345,1.4773813188693217,1.5109151172967814,1.3425596224105536,1.4230952560415877,1.5560283470931375,1.5584001996905243,1.4976324295531918,1.4956325179909795,1.5649258932529913,1.5549780652638299,1.533474397925949,1.4990698597150067,1.5090498818136457,1.5383600517295897,1.6187384540491452,1.6478198572660343,1.5815461604764904,1.6352135101956469,1.5893672811887212,1.6242521769714777,1.5166339330101235,1.4802247619129683,1.5429417033239468,1.4922371462793105,1.3602362466354523,1.5067169091638464,1.5065045649445479,1.5224905823324022,1.505534171244323
1.490911649917738,1.4806071103179907,1.4045324631530767,1.4734396299664374,1.4854377169952357,1.3270283050328753,1.4171166770815073,1.5873304732099593,1.5614920483067798,1.5050246214242378,1.5234790750012293,1.5541637156663501,1.5790617049478521,1.5348521508363335,1.5221776510700615,1.492788371686242,1.5641858733700233,1.6151724679081838,1.6454562186517396,1.607254218992536,1.6515315290631056,1.6321013541297453,1.6612334534632396,1.4805584024759455,1.4353476444232476,1.5156942257728219,1.4802731426310334,1.3405349927241625,1.4849457137583024,1.4947551444108491,1.500603704699981,1.5661496966843316
1.481778007248148,1.4732018603606276,1.405171283529222,1.4650195378138833,1.4788703662153497,1.3331957967526435,1.4290795650140264,1.5290500061589458,1.5227860811656158,1.5033391574659813,1.531995544123446,1.576381331116509,1.5105507356625196,1.5334016985017787,1.4577049201993983,1.4773126155181213,1.5488258130663255,1.5991255044138097,1.6069404385760524,1.595309715912787,1.6000624586671728,1.5444659330315673,1.5849674610986453,1.4538428474302376,1.391357731891533,1.510441775162483,1.455833082008412,1.323466217577152,1.452593930992191,1.4754381238261198,1.489463604285258,1.4929406466649005
1.4683140400261363,1.4394472091208015,1.384680987808867,1.460407526214035,1.4707688120003226,1.2887329751105556,1.3183016462620656,1.4887839899213917,1.552209728804435,1.437791527404583,1.4364553165734468,1.556405193607367,1.547211055957685,1.508039819305838,1.481023187450018,1.502079482964142,1.5588701664172615,1.6266083927241435,1.6432695125962358,1.5962874764109605,1.6335855964326873,1.5857346415717795,1.6437373736201994,1.4971893168151569,1.4249249776616766,1.5403624378072502,1.4443994401718365,1.3641683107123943,1.4548865672181195,1.465619443336078,1.4700340760471766,1.5230946242574286
1.4632400215731605,1.4441210840888115,1.3435938739516122,1.442196744912836,1.4763889843453457,1.2943517859492064,1.3289618610980092,1.5047093418125244,1.557834037939041,1.443026829288672,1.4359772273996414,1.5787433893731826,1.5469363444916207,1.4763968391887756,1.4851213964548646,1.5382776143427404,1.573482608870574,1.6365171706941,1.627502691453355,1.574093458791926,1.6044656586400028,1.5944239782874083,1.655647685906862,1.473747222553823,1.4603011902532064,1.5477454442212477,1.4866382743144047,1.3914648571773862,1.4866155552790559,1.4795737166077456,1.493375085119584,1.504177033922778
1.4489073957100436,1.4293679504471302,1.3209951059569183,1.4448234022317157,1.486611594415668,1.2973563166673474,1.350228357011824,1.5436884318189648,1.5949979734930613,1.4989073646844244,1.4637401881148508,1.5635011728254968,1.5705151128759278,1.5113341210906504,1.4891257096880588,1.5313692405926957,1.5884357404106193,1.6517931331747207,1.6355722814662184,1.6052937867484331,1.624390503389949,1.5981572529748005,1.6526297520749955,1.48450885458912,1.4206846093816003,1.5352715807609525,1.4638560737994604,1.3589189258400916,1.4718722604782963,1.465412531963822,1.4888388233771512,1.5402720426838856
1.4556950018093502,1.4228627322147749,1.3621380750826295,1.4419559213881503,1.5000353412489058,1.2298109040509044,1.3809431223207147,1.5660712426224872,1.5478046763700946,1.4850156819852567,1.4788149689726402,1.5445378223830535,1.520869060590914,1.534007509384643,1.5001872549467663,1.5192152841970032,1.5769464404877478,1.6110495886410892,1.6237767852022893,1.5926199439975506,1.6082820290156954,1.565629376731849,1.5736121285713012,1.4473111639831193,1.430819662992104,1.5072891258898087,1.4540245843996578,1.3235375472962216,1.4407164191634478,1.4647875562336203,1.4644785405584608,1.5575018954899442
1.4932766929516468,1.477108332858734,1.3376530063893202,1.5050884310444599,1.5060535775476438,1.2456062743486072,1.3559008963992596,1.5183184599159938,1.619058297784772,1.5251697474807238,1.4836576064729778,1.5892199103129558,1.586197807821306,1.5464206414206336,1.4713278986983622,1.5359945984443415,1.612439523252076,1.6647815886076247,1.6696300069236758,1.6294914369851226,1.6420993056491546,1.592031085990721,1.5912153677765928,1.4478044827069985,1.4119730020366266,1.5088538232968236,1.4360750105783953,1.3291977006964488,1.460187527843125,1.4843225402772955,1.4726003000476746,1.4855110266991782
1.4840986254371014,1.4540745616874073,1.3403968040704923,1.4953180911443125,1.5021750028312464,1.2129042451855623,1.3810601194487833,1.5331121934194247,1.5694288972229977,1.495929908762967,1.4982890220856457,1.5800578813476405,1.5648064296805555,1.5504202399588265,1.4991944991753343,1.5123397457531418,1.560155048794928,1.627271248714037,1.6329139168966054,1.5676073672133826,1.6123315760376797,1.5720452721925333,1.5727956200141733,1.430602957241597,1.42584236487151,1.494136187800386,1.4250728133102561,1.3109773554019215,1.4273788711270587,1.4397636449805133,1.4634049235842912,1.4743009114460248
1.4819324697177085,1.4433958518059176,1.3166757372541595,1.4760804396886842,1.5096657008671333,1.2746184150385418,1.3442810219411485,1.5382707723763944,1.5814008808900766,1.4996961979322208,1.5199731085339216,1.576217684762256,1.6019659239131063,1.580593252141932,1.6059876436879366,1.6529824405502962,1.6628134234373206,1.6731527501886831,1.6448823665135093,1.5948971230965208,1.608229143731384,1.6008662924673867,1.6175098278285034,1.487812347703322,1.4201048991256935,1.5194930780012925,1.4572600551948651,1.3360590531549776,1.454429613746465,1.4668202351003088,1.4708458611600335,1.4870439045075232
1.4783689043692105,1.4568932650877242,1.3057314655259398,1.4825161332638808,1.5119600595312512,1.3034524373862506,1.3862241863893277,1.5459023019473452,1.5362054739561144,1.5083761384769379,1.5766181206082186,1.5212413774654063,1.5652771118733855,1.6328164946561856,1.6115861190821938,1.6066007385938479,1.5910308801452768,1.6270571522504595,1.620152823722226,1.5731141911581608,1.5905225960727924,1.5848187549677122,1.5814869772364981,1.4703779402411525,1.44539872289898,1.4841936312067665,1.4746337913242462,1.3171678201554144,1.4441969996441493,1.4657045613204098,1.465962185460406,1.5183511965608418
1.524163223649696,1.494050143627065,1.3512594760787506,1.5066360692665342,1.532726102437242,1.3086840624153018,1.383227870511788,1.5623713420164644,1.5722097870693958,1.50022685825732,1.5521203851870728,1.5568665781389652,1.589873429356386,1.6196556366224821,1.6356497377618686,1.6619149693542385,1.668266112223757,1.6932877799227162,1.6573616921944232,1.6133437646773026,1.6017182412076876,1.6105148768709974,1.5815969306390978,1.4193143654718632,1.4634349022878321,1.4610264826958603,1.4882133130771211,1.3206593227132668,1.4708637238760305,1.49840571043677,1.5094087028128518,1.4972876723397561
1.5179182246892504,1.5205201807706574,1.3370742594160479,1.5196173302445677,1.5374937233449946,1.2945612902863228,1.32626772367331,1.5674049656634639,1.5429022296022912,1.5461268816457443,1.5724219064401357,1.541254405244173,1.578289284534435,1.6108571114855987,1.6008705644059056,1.5935339019787451,1.569624198355928,1.6633459174886076,1.6813014891990359,1.6109647399712208,1.6456983964152285,1.6438693861764186,1.6040291889881104,1.3839073939448356,1.483086043076073,1.5416446531259378,1.4925190635833756,1.251419922074716,1.464341537689226,1.4803806070356695,1.5153610961463744,1.5281173133234012
1.5695984417069286,1.5117529823401348,1.3918601047268135,1.5412994754102363,1.5322149798560998,1.3317503511048159,1.4573853018810494,1.5772497782906794,1.5691777993180465,1.5128621200505605,1.5992645764597502,1.6062620684989781,1.604983337513027,1.6159564597324385,1.6503126446404823,1.6666582911845071,1.6377975566410767,1.6827315941196146,1.6755210690238165,1.6211932073636393,1.653376999696087,1.6672662855134521,1.6627615669201943,1.4595889567503872,1.4712917115785498,1.5496642719271145,1.5158146310142457,1.2950393605327029,1.5050966182483083,1.5380370438205537,1.5433851112141728,1.5690075154586753
1.5717878264870473,1.5195020870627522,1.3680812274079828,1.5206820099661738,1.5531451673646752,1.347872830037623,1.4243270269364128,1.5392896632701556,1.5246815018209359,1.5370655897462,1.61541561563693,1.6217112907813014,1.5680020542688826,1.6734968674210586,1.677528103769783,1.6819534199483124,1.6346215544273088,1.6565967199783214,1.6488601264474854,1.614349602303808,1.6053290003716156,1.6113806804479267,1.608379149051374,1.4364689349606186,1.4334271219210066,1.5464580848884562,1.4946879356144405,1.2427641115879928,1.4741817320048172,1.5275639915457804,1.5573193656723716,1.4973375274939646
1.5633357691393217,1.5460812589433033,1.4503346093647562,1.5201197854384847,1.5250020042271737,1.4003159476369642,1.3942389430866888,1.5593213896059452,1.5050460757598592,1.56202099208825,1.5785556101287885,1.6074198708174172,1.582777339175858,1.643400379859247,1.6606969109964738,1.6978934253457825,1.677707188794145,1.6522726557642209,1.62621481297414,1.6035444721725236,1.609204648431375,1.626014591241969,1.613382644350842,1.440343424118492,1.4715966610916411,1.5109922407549499,1.5084152395088586,1.273421764598045,1.4885351471760735,1.5385128291522479,1.5200023122291721,1.5520634241676423
1.5537546721766569,1.5574578475098801,1.4374305939842218,1.518517060309805,1.5087791786065676,1.392207958292242,1.4162841343064776,1.5695562506936986,1.4928689198587326,1.6030093719652077,1.6476284410686797,1.6329479303574872,1.563017395697541,1.6223429601498187,1.681035026592023,1.6846062063847442,1.6852910101345884,1.7185048781103174,1.6860267792550576,1.631348967204798,1.6130499859275078,1.6686153407597744,1.6190944837653174,1.4312030455064608,1.5224722474899637,1.5544593363277333,1.5226592226111098,1.2883265876702357,1.5222932325704623,1.5341801682561889,1.5410401308056378,1.5539717488564209
1.5498362283886926,1.514010929988078,1.4118907795542257,1.5067313599488916,1.4841542804418268,1.3946959396031327,1.4005463362663173,1.614678384816814,1.4879914900468203,1.6053340466435402,1.6413357677147646,1.6222126836260269,1.5286538086393346,1.595489767686388,1.6392920175877805,1.6527448446554913,1.6291427439538313,1.6174891021912075,1.6319086986821039,1.593699289647283,1.6043724879150318,1.669126920622817,1.6380827824615873,1.3790548920164245,1.4840730714679362,1.563440525108779,1.5048297655897318,1.2560493625137543,1.4982831445118987,1.5165083537003348,1.530112978926181,1.5613357946346726
1.6143081080160433,1.5723605256888133,1.374368043187771,1.5805164375280023,1.5515590565786892,1.4350337286838928,1.406830978668175,1.5979590188445176,1.5911561696765595,1.6114413674082766,1.6480415032372695,1.648571802052062,1.665216187040434,1.684971710944092,1.6873845227798967,1.7490834123323429,1.7686439814201678,1.7707663238675728,1.7575403941413137,1.7134411837861876,1.696236367194239,1.7077037664996058,1.6716801247487514,1.487977222735781,1.4975382086934994,1.5628282416457218,1.5626467147807659,1.3083521236587,1.5608244466374854,1.598734186346697,1.5948110908138173,1.6021244485249826
1.5313719861187716,1.536071177489119,1.4079694805243417,1.5101328076925566,1.5057083833145277,1.398636859856467,1.3759509443645441,1.5647194623891258,1.5026639527896521,1.5398445560041494,1.6588299349119804,1.6603561028660965,1.6627408612164265,1.706714766934392,1.7252340499543062,1.7328078056658747,1.7573748717882627,1.6898367625320403,1.6783029164104795,1.672821928234867,1.6180703545186848,1.6434510713170143,1.604202525660869,1.4343364911407155,1.4389007785774466,1.5057895562908845,1.472082100015405,1.2644161492169614,1.451825807074475,1.5023073129677844,1.5123165445988014,1.6028148858797597
1.5266926192489216,1.5381536368395998,1.3858226717400624,1.5205813803819899,1.458063013124541,1.3908711550568535,1.4085163198552297,1.597341032653923,1.5129221659493701,1.595131137968578,1.6474709296461802,1.6367594460576116,1.67319976460123,1.67938025132355,1.7304084345362378,1.7242183035083316,1.7460138924260467,1.741843296641738,1.7338745822229866,1.6367507578483291,1.621851388620527,1.7123968381989663,1.651744182198161,1.4268888145867535,1.4118249195543784,1.5338544514526034,1.4340130869220142,1.2575476628073528,1.4006559763299946,1.455303709943547,1.483135535932842,1.6285945635887675
1.5394872354085027,1.5739541894154947,1.3800628621551385,1.53566279296594,1.5039093176980205,1.3515818998732114,1.3891684656934042,1.5966456561893623,1.5318599617969915,1.5648390786090371,1.627826427576247,1.6463963230968859,1.7031111987983691,1.6847848771979934,1.7170898042353064,1.7496415501810756,1.767196988172742,1.7724499232555802,1.7608449377358943,1.6955889673957796,1.6535614245380865,1.689368604763826,1.6421509312185403,1.5062945589867685,1.4607707176142628,1.5554973069392,1.5147899467765435,1.3110779186739239,1.5116226226470513,1.5311530068887866,1.5282790453909867,1.623485627685453
1.5497913051877146,1.5322622369745884,1.3974746052810878,1.548419422080386,1.497983872722442,1.3481471943628087,1.4403897967102026,1.592197456544102,1.521714220331822,1.5206251626570388,1.620477243330813,1.6753600742417334,1.6749742939388668,1.7149706926245247,1.7031514124142386,1.7505386063918298,1.7743812260404557,1.7452681971535011,1.720931540289724,1.634879339598407,1.6254221628576373,1.6802731039217789,1.66689751964844,1.4990944809837567,1.4793139694008435,1.5819566202035535,1.5340654090033534,1.3307591795899307,1.54251384381052,1.5418169252633143,1.5499331805334682,1.5698759686286912
1.512081818499677,1.5050946878659182,1.3433798228011422,1.521065859790639,1.5361433831530333,1.3469494313461234,1.3848670425589937,1.5686134033088877,1.5329153574526448,1.52382941870313,1.573265842079962,1.6021174673459138,1.655888250072905,1.6864476357752398,1.6665921902875143,1.704735165725602,1.7384914004035792,1.6973668248167058,1.6921548889536815,1.6253223918729194,1.6122250827881492,1.5865983342273613,1.5771738765104868,1.480926220160453,1.424535671926923,1.540086968035744,1.521007131471229,1.31846116638463,1.519503247230683,1.522537374822123,1.542092972718026,1.5328148801549917
1.486103470689428,1.45568882105098,1.32407396421207,1.4860428172973628,1.4979190009896304,1.2606401816121706,1.443000601139302,1.5107130434824951,1.5207824532441945,1.5603676405043092,1.5983177199693765,1.5503767322618904,1.678620887010162,1.6634215310942664,1.6847379586319737,1.693700796312967,1.7344248430265239,1.6836805470791332,1.7113011907997169,1.5950986504064883,1.6252593077630337,1.6595542908322276,1.6525481124504309,1.4994651201126334,1.4509637942873457,1.5533422853442718,1.5144138071299837,1.382894850765632,1.509675943284461,1.5002117121550318,1.5161672507275028,1.569294170269078
1.511143974818933,1.5521192882284227,1.3781582632721245,1.5153026448088331,1.5460862445941466,1.2977101157855153,1.4532514342161245,1.5511390632337332,1.552460979913001,1.6101191037574376,1.6624145555199652,1.5883095726229575,1.7081101152595661,1.6861896865232264,1.6992372398268074,1.6884303237563631,1.7172838546600075,1.7287798222768067,1.756451158000374,1.6339593180643168,1.6448312232095361,1.688938269835024,1.6498950408400404,1.5506518376448475,1.4369859870325155,1.533002970930583,1.5409197270465311,1.3651577516618698,1.498842303732206,1.5106633776376013,1.5171208247746533,1.596123749157381
1.4974355394736143,1.5327207404071894,1.3707375168208076,1.5248113431156052,1.5466787705999927,1.233324655501648,1.4266105080098668,1.5350154285619813,1.5369252268863518,1.5964205062802115,1.649424039693404,1.6015060027155512,1.6904243120707458,1.689423001589374,1.6658746011808088,1.6897615658441563,1.6969891741032443,1.7096658525321837,1.7460314711494667,1.6257485762384585,1.6452332764301543,1.684610988168107,1.7002793878795197,1.5286144844562415,1.4539132613688406,1.5278210441160402,1.5329723215339732,1.370471287223555,1.5196916487693046,1.5071088780664639,1.5096240936969059,1.5902522456696637
1.4933860222178785,1.5271369613057937,1.417611856696387,1.5160167497532313,1.5321513345004685,1.2743033371334496,1.474351697230394,1.5707297665895368,1.534933070493079,1.6237087149092067,1.599542938169097,1.6203008944896105,1.6936338388008463,1.6625086475075062,1.6263442707865285,1.6515279572814834,1.6777186196416618,1.6989374594233284,1.7400547866518943,1.582323229549736,1.6332439015418312,1.6753670226671646,1.6801866780265233,1.4988483433073887,1.4903234797890923,1.5306101199305446,1.5164619811768179,1.4522789148641286,1.532672019338075,1.525971643804893,1.5146632532671427,1.5585504607006693
1.4968331106660706,1.498553340487593,1.3869232297646445,1.483780021393389,1.5050968489205359,1.2978102818792787,1.4809092498438365,1.5271093220759513,1.4775149993518946,1.5660097934749164,1.5822118857673388,1.5692151667442422,1.6832327581722757,1.6038993313316223,1.6051987954428024,1.6038663580830759,1.6303331974768809,1.6434835321591115,1.6844512509596623,1.5363896591850394,1.597278100975706,1.6295009627853394,1.6355331408666516,1.5235343592595139,1.5049166368097133,1.4786275670577218,1.5354641960478876,1.490295478346353,1.5601706378223088,1.5558257403136824,1.50192964799104,1.5774602698801
1.4941593729212155,1.5154766870603908,1.3533281055692947,1.5134069993881527,1.523841000653563,1.2698451271577376,1.4751458066860943,1.4420628264920226,1.443957494887853,1.5863688299993213,1.5545781572227533,1.5152694326872698,1.6325785219867508,1.5418977021048703,1.5834734899812108,1.605054564433688,1.6417686277746228,1.6200166840806285,1.6874158994041248,1.55970531507309,1.590671496248428,1.6586461017615484,1.6565202756248674,1.4921470992236385,1.4439220669450774,1.5570655495952992,1.4874064177141995,1.4087627052126612,1.5242799731992192,1.5111417243269387,1.5262701326516688,1.5341426576271633
1.5506694538058923,1.5501953019163557,1.4055883933657662,1.5167719314573815,1.5271157480071407,1.3271098166762731,1.4863461555947166,1.4905013534669564,1.5013261345919306,1.5201075064776155,1.5942775766574255,1.5071428570951055,1.6231362487469374,1.560493625246285,1.5456237742665129,1.5704099530115778,1.6030486497802667,1.6143387612245204,1.6747026254958366,1.613914035798686,1.65807627226025,1.6509705123262715,1.6543892281679364,1.5584158944237272,1.4871317376823265,1.543807339620827,1.5559482524193153,1.4575578809096097,1.5628314105908032,1.5691868396636186,1.511326927915668,1.5271675463553716
1.4863717048441254,1.4777923390191878,1.4351618747584147,1.5114064731955816,1.4918976664923136,1.3196057649011004,1.5041662783661989,1.5052038775357879,1.5279138578393623,1.5833983713953057,1.5678741483255012,1.5769177341254927,1.6215507961052509,1.629662885006189,1.6007150138767199,1.616429801383086,1.6449581673610878,1.6309709005990647,1.6860058720961235,1.6426404037004196,1.6872455874931396,1.6531326347415907,1.6873643457231962,1.5050986525027366,1.4815978679949946,1.5055789323994069,1.5089779521092297,1.4246748342393463,1.5081570462005889,1.4946032056482483,1.453878088243746,1.5329991675091281
1.5429296895374973,1.5452286492053877,1.398463450759341,1.5488804660208269,1.5067413188908396,1.3342850432466333,1.495276037025289,1.5221205717946853,1.541968616733543,1.6122055545207068,1.6224640074990098,1.61160924437344,1.6404548616616552,1.6183392120942863,1.6025023498952664,1.6287632829036847,1.6528464487694163,1.6644517857127776,1.6712055840828404,1.6532335363991089,1.6509882037221268,1.6464721980482833,1.6292721522545341,1.5362274852617168,1.5310138857954116,1.5410029282315154,1.5696184568534757,1.5281476156155178,1.5845422100117181,1.5691794897847495,1.5148655149804096,1.5478614739198275
1.5360243002433518,1.5362523822651248,1.4231544832301661,1.5276762515557885,1.5230065784480007,1.3179992740388131,1.4479474593082142,1.5490966408983253,1.5359012933072282,1.597717814478596,1.56628931028089,1.5775048268624126,1.6661252206119355,1.5975689488286147,1.579779640873898,1.623031891600139,1.6621528680195834,1.675923899797476,1.6958014978998,1.6438348838417274,1.6715961330202478,1.6660539042324667,1.6531886721420035,1.5331659352349887,1.532404416998599,1.5260585826705069,1.5529106241205386,1.4866465591072722,1.5608798576157314,1.550369872981984,1.5203462896674953,1.598246342959945
1.5271787798489151,1.5440570110387248,1.4437411730189884,1.5087363493488584,1.5368317424525713,1.3218321232091244,1.441075071773145,1.5615223528670936,1.5359152803229852,1.600923669912393,1.5889134496612125,1.619460882937862,1.645853650979486,1.6112086482475774,1.5747266453915376,1.6116374920728032,1.6417441902622023,1.6692576872792384,1.6698100242829716,1.640393123047295,1.63398255535469,1.6456313106134979,1.6259750014292185,1.521553790252318,1.504553392687925,1.5265468217922236,1.5095912017839177,1.4940201725137532,1.5443761181538516,1.5370579160754672,1.5065298427756724,1.545817994531282
1.5519432399118833,1.6088945143010172,1.4501526659070294,1.5582226640516401,1.569639703385295,1.4134914801286904,1.4611978219343538,1.5863239249686956,1.5647644705665755,1.592234747091098,1.5422106331507068,1.5935337515257662,1.6525101635745305,1.5676003050169691,1.547778308673388,1.62524754365794,1.6587287812397975,1.6711169431144728,1.6924251015813492,1.6422956127641446,1.6688300392502873,1.6722940359026541,1.6525349652302392,1.5028601619660353,1.5074245168151923,1.5724717356254732,1.5350638903989688,1.460452348929685,1.5573566483002244,1.5458945071669477,1.5397427139046655,1.5653583581052266
1.5454712625831941,1.536307159932596,1.42714096329345,1.5392903459319685,1.5478533120487656,1.384930081024402,1.4776395424066764,1.56538457714319,1.5747774332185462,1.5921709455352984,1.5835683574706862,1.6547826582250649,1.7072126426958762,1.6401197846489326,1.6170641326702557,1.6655645565720771,1.6760772368585426,1.712743426628102,1.7140902058317649,1.7263999445393199,1.6899094401580097,1.7006099567641284,1.630505623096437,1.5493336190770477,1.4759298125225102,1.5328245246887628,1.516313269067156,1.4676964782217687,1.5256872749810375,1.5348066265247262,1.5264892870698021,1.5678224682378437
1.5693534648914629,1.5664169345052263,1.470464297187375,1.5825922739377654,1.5613152970924082,1.4057391595542785,1.4670629804089919,1.6054832438380808,1.5797407791786793,1.619311073357162,1.5912024918332357,1.6406576528103045,1.6771953152876007,1.6488472599084378,1.6478703441367353,1.6706461503828864,1.689774002385417,1.70600515409558,1.6930709862904867,1.7363150737908846,1.688440310765678,1.655092296766374,1.6066270014341582,1.6006532347953222,1.5008923584483467,1.5595112599525491,1.5359991125481325,1.476387748553115,1.5233910464605493,1.5320582690208377,1.5390474021392604,1.5756036182821338
1.5730667171966177,1.5586722846400252,1.5029292976796143,1.563461169870544,1.5591552976428007,1.406707889078997,1.43076697143904,1.6174785933911204,1.585748468217264,1.5578712475006826,1.557698968223081,1.6248724394144154,1.6995744204365528,1.6623624620792494,1.632742173928576,1.667945671844226,1.6805141556494196,1.71337125449513,1.7008709527750792,1.7292903778505748,1.675088517798901,1.657695357912564,1.5911404088608856,1.596651178375891,1.5460558165061242,1.5806800016586122,1.5549152866069769,1.487459749544308,1.556019464276799,1.5577457183568815,1.5675162419629987,1.5824199412963453
1.6022518523647167,1.5842958663138207,1.5331263785761262,1.5617803067578877,1.578276696570599,1.4552584386131289,1.4928632953984498,1.6294251827167334,1.5879123478478108,1.631438742145587,1.5984413671648017,1.6131170257534424,1.6673797123778837,1.6288013871048648,1.617223381585695,1.6416733269885782,1.6663192583898658,1.6901853529656141,1.6744502816557427,1.7352170622265595,1.6563593047228595,1.6430205999377852,1.6020359966943893,1.608365784412356,1.5940806582602893,1.5978766661872417,1.609797261454523,1.5564836282839716,1.5911167377094984,1.6028947307463672,1.5874182646909754,1.5890587034155774
1.5272650430638794,1.5517325157827737,1.5001222897387185,1.5011616174019171,1.558274342778707,1.4390976727433236,1.4498619743460965,1.6571764464867693,1.6380549257776043,1.624244358759675,1.613936827927275,1.6720944879410509,1.696045100642118,1.6553958102818054,1.6348656086745204,1.6529479161110932,1.651339786673203,1.6831126345362237,1.6752522670348013,1.7036159083240656,1.658351581072536,1.6534012696713245,1.5795980533727854,1.5825090250057965,1.5474676827799851,1.5709580361619453,1.5726826769011393,1.520789539059437,1.561858088485416,1.5678870455650689,1.5674089636771213,1.624660719272486
1.5628774656550466,1.5654492668278701,1.4802734484799007,1.527511141275291,1.5802062306079774,1.414251899820089,1.5098637067099183,1.6743143377190806,1.6485608661893585,1.6610934936799189,1.6422591524938825,1.6559360136459307,1.657033457527492,1.638854337891639,1.6184109482275064,1.6221054680936973,1.6391091263577309,1.6538435773692903,1.637324744236104,1.7127646542695585,1.6236998902369273,1.626496415964382,1.5452489700461967,1.5987042034239352,1.582453486903903,1.589097585564118,1.612370720124797,1.5762691361429875,1.603130288416785,1.6086382686031555,1.592963559666736,1.6276286079022069
1.5418293621971968,1.5392625542252711,1.5022187221380725,1.5070259769985668,1.5367092033519583,1.422627336444669,1.4640759529587424,1.7142362696473759,1.594442319901448,1.6537688291720942,1.6360200665697773,1.6517314677456303,1.6988960699354367,1.6503955870572269,1.6324519284927992,1.6347742574436361,1.6551478513188225,1.7054340384699895,1.6906724602107683,1.7210367643859474,1.6616998557601124,1.6661317655745833,1.5876452205633587,1.6284313957280425,1.5573296015702407,1.6152152874498766,1.602828911444723,1.5680016937761874,1.5976160341895675,1.6009516518084972,1.5880669461173662,1.6537488150645594
1.5837069647517341,1.560082295002039,1.4929848473445073,1.532253157858193,1.5704380020916198,1.436488283083817,1.496182740976648,1.6675717769135427,1.6497882815543476,1.6639200619579968,1.6373303028905102,1.6544107559449406,1.6866689072393146,1.6462482606688007,1.6077856214700126,1.628549242683239,1.65569863756131,1.7040169690233853,1.700682398020364,1.704790825332551,1.6570354291503415,1.6653887546573396,1.6016898961079622,1.6050308729301528,1.6306501744877384,1.6308674533369396,1.6429275995795676,1.6037713663224094,1.6328406727144278,1.6369181113086817,1.6204161056847632,1.594894126283874
1.5407626136935482,1.5178461532144774,1.4768445695544057,1.5006303701121404,1.560480271116964,1.430901409837404,1.5488854784466701,1.6525009955420784,1.625222108691982,1.6771374478598917,1.644740922714204,1.6590938195538454,1.6183899268078665,1.6436858312206308,1.595325348149798,1.6046359856320398,1.615672382080691,1.6420840582066762,1.640472221757232,1.667652320884687,1.6001024010142102,1.5869501411473081,1.5130873754844951,1.5734557147789923,1.5353801604649193,1.5599141654915445,1.5817902684393208,1.5445395038589342,1.5926737814663567,1.594970921122266,1.557766235622414,1.5740074844417486
1.576216423460636,1.536335384230483,1.4980464554424664,1.5238189184343334,1.5650769762678856,1.3946536051935763,1.5232391553105058,1.6400716763968135,1.6637139799255862,1.6765983215116433,1.6205076948775419,1.6797903481962968,1.5943927623156147,1.617830303368934,1.558853567885876,1.5598457620972785,1.572946382012888,1.597794628787922,1.6044222965038395,1.6395464244945563,1.5970442533829505,1.5730051591847303,1.5607417480999501,1.5697994900029275,1.6243820860595342,1.5867474029452315,1.6514873874754699,1.623270120377156,1.6520727135868303,1.649752217014554,1.6031750271895502,1.5508910487684635
1.5164358491139915,1.4917758121718743,1.457388590329105,1.4891525446292364,1.4953670737566234,1.417569507327919,1.5468072510261115,1.6289679501482646,1.6482846514783223,1.6948190862778914,1.6844352830371285,1.6782923349307304,1.600121328724182,1.6717074157090073,1.5790552990866389,1.5939143641452285,1.610467025241536,1.619057428089117,1.62853675148451,1.6503006628246497,1.6141077732533011,1.5838357529808564,1.5435678275497746,1.5713875285843169,1.5728659574474142,1.5243195841125918,1.5707689856052343,1.591493442268008,1.5816006560902125,1.572548217361221,1.5121971959351594,1.5577259183393
1.4936122468444468,1.4683775004075295,1.433996414995887,1.4639390475916398,1.4631204927777433,1.3850246474014083,1.5267962247281592,1.643031636616257,1.6469972101136667,1.6894218398842096,1.6635625431704602,1.6887607031902179,1.6230815668133105,1.6686819073458876,1.5695295992185245,1.5787944047444995,1.5961743080242403,1.6208027107726004,1.6398243726771324,1.6054652730640981,1.6209612187915932,1.6087849921621078,1.5457305044473726,1.5378006487174851,1.6101076470716176,1.5252341132558354,1.6029137299984415,1.60119282641688,1.6087392469826411,1.5949324350654617,1.5329340587665579,1.5448898183511703
1.5442978404781285,1.542911605171833,1.5423244768491386,1.5390400609743973,1.520409714688399,1.4364089219036065,1.5757116827577908,1.6130116481197385,1.61213607450647,1.6891700083393368,1.657045658775599,1.6874184323544028,1.5879500837807343,1.6253346899345626,1.5591872020822113,1.5713097624568362,1.5837757406044783,1.6023930209296973,1.6205820371575055,1.6110228883831719,1.6116170918912822,1.5823395258292643,1.5594736485409277,1.503351026667276,1.5878668094944164,1.5007774357056252,1.5781350226330875,1.5968960778405803,1.5821962816823079,1.5806356170999998,1.536941116264188,1.5286795199871195
1.5414666563854043,1.5507498077536124,1.5296517444402786,1.5239992743824429,1.5404860299501502,1.3919036755917038,1.5470614180524842,1.6654955615428078,1.649007548101153,1.6788438362902287,1.6546780409924293,1.6784639052685486,1.6685083388555015,1.6424539022401703,1.5655718607321705,1.6188723654408907,1.6386778854100592,1.6378858461457255,1.6466430203395481,1.624273761453955,1.6373461061000558,1.6087678157038623,1.5850555840012919,1.5654205205262934,1.6072330425817143,1.565336791554065,1.5863139946856892,1.6298221721453654,1.604208267530612,1.58259119048388,1.5529346760645197,1.588824174057339
1.5961776964537948,1.5761696431590937,1.5848237979697726,1.5730705633025435,1.555141585830685,1.4159588083745793,1.5794306717561282,1.6638641921183606,1.5935359992376605,1.672388985401552,1.6413991487574364,1.6723207889610765,1.6638807268727873,1.61496334619303,1.5668921176883903,1.6038054955954275,1.6686412658198955,1.6548402900538344,1.6806282039457094,1.6765660439505807,1.6645557822669297,1.6422543827512868,1.6096924667712609,1.642817134218633,1.6550397189839487,1.5919879019952659,1.6251863238748108,1.661843766747823,1.6394135374359375,1.616804013630946,1.5718483505267455,1.5861592151270556
1.542573435430419,1.536662313106781,1.500529710247562,1.530834252713138,1.530585902822086,1.4095711957567585,1.5359282741498947,1.671295859707424,1.5167432871380708,1.6578945687117737,1.6247836044868578,1.6284516338272836,1.6001224857533316,1.6021357104751095,1.5277151585631041,1.5914073962060469,1.6317367564348029,1.622694345337153,1.637789696069595,1.6560037200275475,1.6556419857737787,1.6137769606293157,1.6061505349972651,1.5941706473745938,1.6321231605845397,1.5660416843823712,1.597776111467294,1.6560973558112735,1.6009040560600605,1.5861409980200913,1.5479751514459215,1.6168993717024898
1.5495680367096818,1.545163817579073,1.5691764768200183,1.527889764102663,1.519634616127523,1.3798456581420027,1.5362780041505855,1.6461905524230511,1.595970441004387,1.6579601302846958,1.6100550333298325,1.6360461210250774,1.6232959398111981,1.605186443002114,1.5756775807509313,1.5962518269438104,1.6199414577507278,1.6193608951644405,1.6250611931026542,1.6075368894642326,1.6266573477803439,1.6101963302041464,1.5796294820051717,1.5743689390587408,1.633978491475369,1.5720586961121288,1.6181034370919287,1.6700157546355936,1.6246117373905724,1.6122941568349254,1.5517513606205697,1.6081860146712346
1.579355512551601,1.5921351285731002,1.6468999036663468,1.5808218528193336,1.5551414060198316,1.4315961036064848,1.5751965160569408,1.6309441644798093,1.5415148870997566,1.6646408497137495,1.6234792473968311,1.6310915786845261,1.562657213861017,1.6082623940745022,1.535949361456084,1.547056895880128,1.5386258520113367,1.5512760489952213,1.581899513052903,1.5819674771331513,1.6007945724873829,1.5678369968663497,1.5989660426996524,1.5851098100065364,1.6174067565267047,1.565911631938951,1.575006657696652,1.5778672751853888,1.6059243505416085,1.5818508685344783,1.5545311073848476,1.5985592506973252
1.5724637189862296,1.5700028693847645,1.5896702303008818,1.5664721458879776,1.5411165198163514,1.3824964035003382,1.4647332793761463,1.6427893249601164,1.6195405725007825,1.5764136632969874,1.6040123458444404,1.6212419787610566,1.6988684401652752,1.6181008499707434,1.5887018714307664,1.6653129423665305,1.6772462786493951,1.6659811728386593,1.674227985456401,1.648120536426533,1.6583794368946954,1.66348959974399,1.6408040865314686,1.6111435531235967,1.6710313815874451,1.6100134669205053,1.611253987870342,1.6287475344640379,1.6134657058635913,1.5888402073240953,1.552276588577468,1.6003785521209595
1.6010338273739189,1.591187628693768,1.6136541367779615,1.5794492692535465,1.5754578408149513,1.4511659675591029,1.4709415039294627,1.6417782440680317,1.5178047979203044,1.5694635685752185,1.6033879178218045,1.5678852585527037,1.6010178039115106,1.5621247230144721,1.5509984941556656,1.6222266803477465,1.6351526365703917,1.5872099105785487,1.5862488383587627,1.5759140837380405,1.5955968371515385,1.5798022020387208,1.5910301730551009,1.5854051807278744,1.5964285868726122,1.5679625478892465,1.600281141052208,1.5972231090336968,1.6081564829346167,1.6036919556839648,1.5696566087757833,1.5900994882857495
1.567002727375224,1.5793654339434333,1.5211845984225487,1.575662626084028,1.549271575104635,1.375485062751167,1.3679360094562805,1.644886486772168,1.5347702222325812,1.531758780693516,1.534263702164113,1.5618360235806767,1.6107844118551797,1.5611428704059824,1.5713017723460685,1.6171632883436173,1.605448166940495,1.581842158101019,1.5649725448336127,1.5391276121342012,1.5688269275125668,1.5611921713551835,1.5468528794684564,1.5229450785239622,1.5776287090901802,1.5925268714345615,1.57226446726237,1.5410926444356297,1.5912571717672777,1.5830466032032486,1.57106020763748,1.5979216499824842
1.589461006846601,1.6082387069100146,1.5980386660498405,1.5950018983386363,1.5980838904239338,1.4317691627517135,1.366618416031517,1.661399427403261,1.4918572795897784,1.5305938657178029,1.4934195654531044,1.5215056465103443,1.5236195902131746,1.5083736579905613,1.510222028988812,1.528375065318604,1.4889407211530283,1.4808227362093185,1.5139994204119358,1.4795699473215056,1.5364283653485078,1.543147225987056,1.5271818984523966,1.5226726743502446,1.5478500114862725,1.6020988715054445,1.5628388972171243,1.5290740181785194,1.570935413642936,1.5656094106654037,1.5882670202953528,1.6478849440724805
1.543846645001717,1.521037109167475,1.5275890000487198,1.5610507542884402,1.5199441756110397,1.3697373185806274,1.330194798842256,1.5975082576025337,1.5061381057555012,1.501102995321683,1.5081825637446682,1.525660008793923,1.5541812062194085,1.565931205112511,1.553262593908009,1.5916809069696967,1.5603460987112132,1.5155485480445143,1.517429961717549,1.467360913842259,1.544599081877138,1.551249346645063,1.5777971309768986,1.535055736355273,1.5483818549536612,1.5510688597770195,1.5841563381944408,1.5633521655157596,1.5796840328065032,1.5572934532026597,1.5285897102623909,1.5906764429173095
1.568496702535368,1.5232220332508977,1.5133762421223658,1.5738489278332974,1.5436353690744076,1.3943992388630349,1.341710943209677,1.5670798856180193,1.4925234724686736,1.4625587392589632,1.4744315229856986,1.4998538447819378,1.5203549507694385,1.4911671917598417,1.4880682858722987,1.5452993002489317,1.5181262701983749,1.5047156577135559,1.5198153245431907,1.5008591216587364,1.5330724453440419,1.563892924287291,1.5739248879720222,1.4877490173601333,1.5418773424652594,1.5727903522531586,1.5795433405348756,1.523676121810348,1.5695282401485449,1.5584001362040938,1.5484716308185968,1.5415920469436242
1.485930829061097,1.478414318885342,1.4263224767874298,1.4777651233740814,1.4885293296499094,1.3481071703543503,1.3128670741861528,1.634310397900591,1.48425340277813,1.4856584596047724,1.4411465645798291,1.5165226166845929,1.5505307368543382,1.50385371750641,1.4977194531905846,1.5695741202440139,1.5214682311735253,1.518476846518576,1.5077228759135641,1.4652563928081699,1.5239685555720237,1.5515182432590489,1.5828023500483,1.460570806520122,1.5159992266418811,1.5400545035712445,1.5546230069786706,1.4981692158717037,1.5282432876230756,1.5248710253846962,1.4962258965463378,1.5619051488899158
1.5287827746945484,1.485776882922758,1.4040329768308646,1.5287598570938454,1.494222166840482,1.3648010269417072,1.292282837201283,1.6074399668769617,1.4756267241107297,1.4900356621759079,1.4479006639023297,1.4890353224513924,1.5034355754590836,1.5164044297339565,1.5301295240091248,1.5391529799008834,1.4995115621751316,1.492428206913208,1.5191893216180896,1.4407755956685884,1.522912966837202,1.5362637400381247,1.547761056052851,1.4482025258412528,1.5147366818441086,1.5301069377021728,1.5651782450007699,1.4615083499935473,1.5557991653992418,1.551636515489517,1.5013475662598685,1.5518879260566674
1.5203498879347814,1.4841276621191566,1.4348293248043706,1.5310386196063428,1.5034239748076723,1.3750646696345792,1.280414406121796,1.5865531622210374,1.4761112229938393,1.4975375968762916,1.4843727874096797,1.5238735363595428,1.4768260743824146,1.5590958740037937,1.503792695537675,1.581031754330445,1.5230086911988785,1.4712080547149506,1.4869298867076675,1.428456277940277,1.5121471925677659,1.5066409594126577,1.5405421517838083,1.4438017148239184,1.5238491170196575,1.5344020557892184,1.5220825321049438,1.4560289040266912,1.5217159397094673,1.5053837861284247,1.5139669913698852,1.5603102591682079
1.5142622237711216,1.4635492932004988,1.429190876569916,1.5259188471154437,1.502200213761969,1.321850488038216,1.2800655062469721,1.5562827445305218,1.5056951781701762,1.5279769709532807,1.4778989567870093,1.5533371824865592,1.5308348004807435,1.5203282778631417,1.5221488509574916,1.570708873353715,1.5197559531031206,1.4997590547199708,1.5238662839050034,1.4421312380180353,1.5266107385948555,1.551898120557643,1.583240984592534,1.4190186037157047,1.5233367341670565,1.556563981854893,1.5467556882531255,1.5070110652405504,1.535604498521882,1.5133903731794962,1.5234158275590843,1.557371672995994
1.5235117810655454,1.485647588918328,1.4975363044891485,1.5010404309738037,1.5061732023212466,1.399959755735408,1.3603370113626307,1.5545062993382568,1.512383945931304,1.537015261118226,1.5556527178142978,1.5893891023272169,1.559011345254044,1.576041342215116,1.5087373155352486,1.5274919728633278,1.4650286630640754,1.4835437172981938,1.5138384048616815,1.4251814232471172,1.506089958584006,1.560682315059786,1.582165479915039,1.4012002982318592,1.5248123870814962,1.5360963706292077,1.5651060837471564,1.4992385954948975,1.5413564133518711,1.534427066681909,1.5295921174071963,1.5641986774326229
1.5057952093487357,1.4949375047213804,1.447019050629649,1.486602520947925,1.490477528118866,1.3347341004227045,1.2841586269834133,1.581582363224026,1.506696171367503,1.5307710577125946,1.5030309682626501,1.4939143307227774,1.5385376336390726,1.5261804011092481,1.4967929481361932,1.490813129592203,1.4658691559148032,1.4955173880992532,1.5270974472611873,1.4611302885294843,1.5569357002081279,1.5815087287180958,1.6166955458870331,1.4651929148611849,1.558123592012377,1.524751341120933,1.530001410492339,1.4747206039584604,1.5212384857370576,1.5107727258233166,1.5346674950975796,1.55129683295716
1.4994242391230297,1.463486221072159,1.4199736275599206,1.474578705677937,1.48241244539334,1.3652432569094708,1.3306803618058736,1.5681920922616746,1.5283242367570269,1.5914435167326575,1.5367789395459728,1.5806326985212935,1.6072347272258907,1.582968746418452,1.5804962146005697,1.6054406001070203,1.592713018446593,1.6113432748337322,1.6309170829556199,1.566295514204852,1.6408126317353489,1.646385961298431,1.643538416503769,1.4908569659919222,1.5393413140402046,1.5090155546852606,1.5340883363111102,1.4892514345245491,1.5077841945080466,1.5089187287560515,1.5193552843718625,1.5702655623436328
1.486645742083121,1.5093072617238241,1.4239380093065443,1.4814473309342313,1.4933782890563185,1.3963057230773153,1.3510923685836649,1.6108301108463574,1.533377885683664,1.5873600725228743,1.5502974764654787,1.5117583198194815,1.55938444838846,1.5328358981649548,1.5338843630155437,1.5718665990594844,1.5499726979094735,1.5380167783267693,1.5526132666801127,1.470417997677921,1.553416155566614,1.576359567134349,1.585854223450874,1.4301193472741673,1.4889592270325074,1.505484488720599,1.4830072049557115,1.4159335006507614,1.4515962914219578,1.4669954052741518,1.5273689593115933,1.5926013734265143
1.4734111971096762,1.49027562828937,1.45793036941878,1.4672828657747123,1.5053275282019196,1.405080218235654,1.3768146378474233,1.6625977179885745,1.5288062683696644,1.6640877026593495,1.5814010395839289,1.6140083270967107,1.621842518268052,1.5738876498248162,1.5509049216393502,1.546090339479248,1.5661164256748021,1.5861124782572151,1.5970947814339698,1.5087746867807688,1.5799192742978996,1.6308782059325324,1.5726144743551267,1.4075508020868719,1.4712972502009216,1.532620299137797,1.4950533362435094,1.3883761513816344,1.451198720028566,1.4536385011493254,1.5211924519985187,1.6447478389436425
1.4694523814561335,1.4768392617080524,1.4745682189770468,1.445126743183654,1.466116739410245,1.4172985672452465,1.3599886111383692,1.6175435563009006,1.5148031801565787,1.621712659951785,1.5772289327718625,1.573620114525252,1.5912377992237992,1.5642411430342518,1.535784922530273,1.5104377046873652,1.5355805516261367,1.5659473235324015,1.593211378397687,1.4943902082749083,1.5938327507464358,1.6318711148872693,1.626117113511774,1.4500854151907707,1.525762424536398,1.5219215574213711,1.5142373463180674,1.451856530399453,1.4768079803259948,1.482828834909446,1.5198247388654489,1.659116004535876
1.4678187529296087,1.4652982916938622,1.5102607872068274,1.4442814742882855,1.4816225314051006,1.482562319532534,1.4269941545153926,1.6762399468868256,1.6004793013392713,1.6422429508836225,1.5888040932075949,1.6151476884934857,1.6107259042493065,1.5810414506852333,1.5417683144755396,1.546226351569272,1.5267566900948537,1.555428319329185,1.6104597821719566,1.4804077248351792,1.595286898180405,1.6633073407735275,1.6114528022149204,1.4858379415500076,1.522928598460156,1.5199095710084447,1.5317609400970145,1.4926797433484487,1.5270813551213387,1.5074248973641824,1.5190661589957213,1.6801125891948896
1.4535248785611443,1.4566908095284454,1.5111282465364924,1.443583201133228,1.4857843454486905,1.4780809537042723,1.4228298745855246,1.6673716690485667,1.6268794286316592,1.6440652843545545,1.5374110383129722,1.5790754217051843,1.6281926932755988,1.5037347474215057,1.52322620791654,1.5387107359896373,1.5623336535029952,1.6154821047976566,1.6201966454364958,1.5461803691604403,1.6116789012891062,1.6549737250874992,1.6213608436039553,1.4925958663246732,1.5017039796278309,1.5409779880702312,1.5349753308507423,1.5025539613139496,1.51433504448354,1.5034841990924004,1.5321077088708732,1.6838953171039686
1.4628395896706023,1.4755354380256809,1.4868567663741503,1.4649041073059592,1.5030697781425506,1.4599366903989701,1.462809202942027,1.683571645463809,1.5906438493248487,1.5989261709617093,1.484668252311522,1.5190666942155475,1.5864150704274134,1.4799976070882372,1.5408232194894054,1.6041934297626401,1.5961873707442054,1.6070320926389408,1.55294260417466,1.5342572023911791,1.560039108402258,1.6245364572599952,1.5551766036212746,1.442924778369351,1.442465634327497,1.522171445408144,1.4730415310320224,1.4494571513123071,1.468018603209212,1.4654694933511998,1.5208158190085246,1.7017742330824208
1.4585645663647897,1.4900779450104762,1.5675340924891603,1.4611505083549154,1.4820811525459954,1.459551600530103,1.484753736590079,1.6026438432763201,1.5130582233915446,1.5757921938583606,1.5169494453589938,1.517957621960461,1.5731638262234686,1.55729867443088,1.6672364601085163,1.6542097288542439,1.66679003326123,1.6372591591365038,1.5844312230437476,1.547351645007414,1.5633230063391985,1.6000145494661202,1.5864972565031887,1.4612270171670836,1.4797612095842416,1.5190982039096057,1.493867259581285,1.4283101064664354,1.4799404238456206,1.4776020728073145,1.5066624835887314,1.619711327115425
1.4713807634044525,1.5031390230986692,1.5317293237413914,1.4592896223038383,1.5059643273214403,1.4488115648381743,1.4733430351482844,1.623979639871087,1.607490885573383,1.5526113538032138,1.505074494405011,1.5366499425612057,1.6429463012302963,1.5358145622552277,1.6217093358972614,1.6366179045394273,1.6708373623095898,1.6662936286312666,1.6137597035623328,1.5766854164985702,1.5832467507514336,1.6167050544423882,1.5951574101254524,1.456665874853438,1.4665354915247697,1.5483260626109292,1.5224365032485319,1.4528566226202555,1.5096769393193588,1.4916904195822391,1.5376465871711908,1.6594979585570973
1.487919575673254,1.48101396269537,1.5550638970379556,1.4747797135373526,1.5179994420121805,1.507542047873802,1.5294218212033035,1.619690100709034,1.5399957893152447,1.5434816268317801,1.5126599841405552,1.5223280690081045,1.5979436559452505,1.5506133776858448,1.566026598810347,1.5793136346381962,1.5708323893377585,1.6090321632295377,1.578743472835761,1.5324680911183373,1.5334660371329936,1.5704082800447985,1.5887514079973877,1.4888066299473375,1.5415853225134561,1.5537668952457093,1.5768916896149898,1.5144386224177107,1.5821664200452576,1.539176359584734,1.5253341123138,1.6021533933319345
1.4143259851762975,1.4270170547815986,1.484759873686107,1.4340296737076976,1.4488386002066609,1.4828610086852363,1.49960600110383,1.6495905147636878,1.5900892627394152,1.5858494907569494,1.5207738134813746,1.5227683111130068,1.5890808181006648,1.5174416478827164,1.5406445337424446,1.5454189193863308,1.5619840695556508,1.5877572741313781,1.5445762418545073,1.5361281562616866,1.5154327936801197,1.529213444047688,1.4841544713650263,1.434507254673935,1.4379835967995789,1.5036401729649107,1.4432318131413817,1.4404686141837153,1.4605807692530517,1.4205574767718876,1.4385795906343972,1.662943788714672
1.4856550731207452,1.4496804379853772,1.5066704640843236,1.495575122133674,1.5300030960901871,1.4340830773151263,1.4511716889868709,1.5383264677914825,1.594028403067491,1.5742781740540934,1.526224379463525,1.5864195559298166,1.5476047339044594,1.55568972401634,1.5931070003196948,1.6280388570234516,1.6225917736689315,1.6294078014859779,1.5700326912727565,1.5620469681553173,1.549888793422971,1.5332104461903269,1.5346387690483916,1.5044680001587034,1.511939540544284,1.4978609035001134,1.5185696030201572,1.5433216743271136,1.5396520021676339,1.504038018652101,1.4772120848833858,1.5440636532830803
1.4946736563366279,1.5072039597619504,1.472064932648954,1.5462104242352597,1.5417128269698233,1.4747997397545451,1.3961781770471693,1.5221964843503373,1.5942157734663431,1.5536313214128055,1.5304720000911365,1.5562813865563911,1.5515418459341617,1.5088370962384685,1.5718244464913662,1.5541113980691068,1.5745106991208824,1.5893963768546822,1.5855050841100842,1.554581272341372,1.541388655815125,1.5520446268361368,1.5511900156319671,1.4588709588602813,1.4868473926322392,1.5573201983807696,1.5175398893025793,1.4744732436526276,1.5345184833229362,1.4987151485700694,1.4796499696522794,1.5623992423917181
1.5136577884458542,1.5156384475581068,1.4768179256090168,1.548042413793239,1.5462346742771713,1.418382500724699,1.4548658811394264,1.5451821709146552,1.5737406084277714,1.4959164489487196,1.5147888535679526,1.5444152129875386,1.565785352064457,1.4967822029082625,1.510153767109326,1.5225332719446427,1.534942459465646,1.5833914647316634,1.5631808171126302,1.5185985754493623,1.5213621564368507,1.5525121959676893,1.5741728837913314,1.4783440207371508,1.495064015517829,1.5525075157057466,1.5445499266445784,1.519720171721736,1.5597822914354746,1.5227504592953978,1.5021119830179117,1.5873903356093304
1.5012549376019553,1.5188579199653363,1.443081114249561,1.5434888634095563,1.5528132460679336,1.4460065593387064,1.4370054788439026,1.58113724221363,1.5385128118055955,1.5321185994012105,1.4919685696402385,1.5227925323690672,1.5437412739989627,1.4918758254267164,1.5061899968169141,1.4927729693529879,1.5034479313807951,1.5451151904517795,1.5515409663499697,1.5292695213726906,1.5309014447228226,1.5528669685856495,1.6009620918709628,1.438463425632771,1.4810772466303195,1.5768395159051005,1.5509624306186707,1.4615203331792261,1.528097767535139,1.5077989109276397,1.4991065465448346,1.5985793781278084
1.487846608924212,1.5393729609207458,1.4355326437010199,1.5526988607882475,1.5105665770640753,1.4674960871395568,1.4352463386595564,1.5635376685993045,1.5646301343409936,1.5506878835145517,1.488996504380059,1.5528416359605883,1.5528795345039927,1.5025966800383181,1.4640357895146505,1.4949606436755438,1.5166170993397348,1.5690802853150245,1.5770107992816353,1.559801067057222,1.5646986651742207,1.5565310810107482,1.5966182435599878,1.4574936040157254,1.491059640799709,1.5219373629269715,1.5036747618757413,1.475366255237096,1.4829944681572877,1.4564905374384773,1.4699409345748946,1.5698810298737742
1.4978362499432196,1.503033038319539,1.4114968946892685,1.5116167386148247,1.5119371937480592,1.4214981695934195,1.4023819267393773,1.5728998405234946,1.5764752159798205,1.5781217332082773,1.5374489183808546,1.602107521856997,1.5940687186121345,1.5491464603990406,1.4932336005229427,1.5241993638596225,1.5725025635640215,1.621136593713969,1.634743631854391,1.6081858385162284,1.6117466408252679,1.618008410163532,1.6711807920740147,1.4912807626828035,1.5185030826988326,1.605081995682166,1.5448095906589487,1.4933647793204452,1.5121965818102063,1.496847743101836,1.495904683918226,1.5788493366737757
1.5382735562420329,1.5482978476637488,1.4279031724199256,1.5513960162722558,1.541919196270748,1.42931701481816,1.3736186520864442,1.5226990243494885,1.591284101399498,1.54823209520763,1.5649032376819954,1.6169050306878205,1.5917927099162386,1.6009563078937739,1.5335885814952452,1.535895223286699,1.5307113811981394,1.5776255018326257,1.6034405741871618,1.5522050257428974,1.5680626303878331,1.5832195777617177,1.6267857583865524,1.4683996789173792,1.5368198127667043,1.5574226717875832,1.5771692830604367,1.5295785771686343,1.5694528559181593,1.5588929889027947,1.5299915521895464,1.5663047260683776
1.4767950968775878,1.498286327766591,1.4074186903176646,1.4791228261539953,1.5336282940234216,1.3886812400299289,1.390026111091363,1.5695526365340884,1.581732936649401,1.5971217355146914,1.568729292163945,1.595496286427942,1.61593287664068,1.5643255240332385,1.481436522234602,1.4988684589030805,1.5262842491737418,1.5870579648330363,1.64190145588951,1.601555302989999,1.608323052417217,1.6316421879131546,1.6902185113650312,1.4773865536966608,1.5399864266720085,1.614839124739647,1.5673754601984713,1.4692377543808746,1.5306065722061961,1.512490265318619,1.5174609426027303,1.6092197187140982
1.4924755064666624,1.5357316357501165,1.4399104777508236,1.508329818262525,1.5524226123067202,1.3967602637236651,1.4171431459051733,1.602479895972408,1.589745329586211,1.5904191059626287,1.551732850868426,1.5866753624345786,1.6138628700008837,1.5589616596146771,1.5014510869905768,1.4747761493619644,1.5047371234088254,1.5765291563189272,1.6057388166654936,1.5540763246510083,1.590222138017189,1.6126995006053386,1.6473628785587053,1.4134295546444395,1.467713056006859,1.577308695256786,1.5332384733213822,1.4301735218595242,1.504436465449365,1.5048180214553903,1.523725342555245,1.6168398417598513
1.4784644257989308,1.5369328641242992,1.4744979355772245,1.5098668048755977,1.5344132339443968,1.426310850999871,1.4437784807986096,1.6016834710065155,1.5633335115874314,1.6165078897837177,1.5433683517886787,1.6303047724927426,1.594989046505004,1.5634704567992899,1.5123148893577159,1.5534770774031954,1.5667754993420844,1.5852791202860186,1.5942111833781463,1.5517038157470466,1.5552491791320564,1.6273596648864286,1.6447702562152409,1.4277284563286163,1.4991302773715836,1.6119470301232977,1.5145159977355445,1.4382041568545174,1.5201998809786268,1.5100026387942675,1.5192767468100032,1.6091208965462018
1.510346092606943,1.5388182996983313,1.4595783794177148,1.5037657153547772,1.5432725414945656,1.424029161498881,1.4527124381109247,1.6203562748892042,1.5303702391383522,1.5930351561361076,1.516336782454779,1.594125427186337,1.5635311021361076,1.5338548153922096,1.526407570249784,1.5352021251522128,1.6135299788614499,1.5943727678045798,1.6166620520978958,1.6231894186817253,1.600555010343959,1.6259919966067216,1.6570531831541417,1.5187985205045813,1.5378725893719625,1.6339128232093667,1.5508927050833,1.470363015721712,1.513292137589142,1.5158053693478295,1.5398798550013357,1.6640234092738062
1.5015006063758822,1.5454394440117853,1.4558701942907406,1.4861976655105504,1.5133414733414403,1.416399693723333,1.4698397326987718,1.584203107998664,1.4933219352675742,1.5973440161984975,1.5923236004831536,1.6457583555573858,1.5748803378851906,1.6042965725394895,1.5507299943838102,1.5992135678029853,1.6423780303136688,1.6281476649732562,1.6306010694110018,1.6115434720351534,1.6216741098313132,1.63690970839275,1.6568501833995626,1.5261600764821557,1.524137490436143,1.6128682448027558,1.5330753352169126,1.4772705577299232,1.527644011085269,1.5199337460711337,1.519690792193563,1.5964556760800706
1.516981056497013,1.5474899270568705,1.431115697796841,1.4960026364020769,1.563245138889675,1.3978726799783325,1.4517362809585128,1.5407254851837067,1.5357691751080154,1.5773022120117957,1.5780121909698368,1.6231953915617037,1.6309486556750914,1.590613429330359,1.5481716202161444,1.5673238162201308,1.5890590113049825,1.6198484253613383,1.650135291538008,1.6472377385016512,1.6511656697208963,1.649064931111704,1.6888821331085564,1.5871303417876892,1.531875476984002,1.6029672169188751,1.5494776995986366,1.456559053838013,1.5315869637688666,1.5375240034867865,1.5593590096806975,1.596714169758287
1.5093229874355862,1.5093508054958644,1.3981190670695256,1.473260883721031,1.5262696392011594,1.3750764315655566,1.4104050088034763,1.5522487745027396,1.4930896020729882,1.5251686956287305,1.5835439687136366,1.5906051718883845,1.5733354557188246,1.5766957708581075,1.54822683395696,1.5701394603072238,1.5643600747023765,1.5821634848962003,1.576134892434585,1.5426581559767714,1.5713621968803209,1.5896448742278648,1.623395170048972,1.4742396211939373,1.504507471315561,1.5687192268936812,1.5302609151839264,1.4478381084163725,1.5346350538548013,1.545365460751213,1.5429760650172617,1.5935979113532408
1.5235529617659032,1.5530991430820384,1.492985478215272,1.517096049587401,1.5627132396032613,1.399331055264614,1.4294919371832118,1.5475776546022604,1.4887691696855363,1.5546362032119323,1.5414120329761611,1.6111555965404531,1.5717097217680147,1.5267680505053316,1.498009371264365,1.4948266889101351,1.518674945304496,1.5533849018522585,1.5826436686466,1.5549486925365803,1.5641372449661157,1.5994364424349259,1.6045286489578428,1.5112278900279386,1.5077390387069356,1.5895616187064452,1.5309131137691487,1.450398232957956,1.5378068661843154,1.543021687241033,1.5544990229861013,1.579124812851967
1.477675843296612,1.492011884776598,1.4213642258030197,1.4642939849980166,1.4733761485120167,1.4067184645094695,1.4106328958213787,1.527056831674592,1.4652940900544185,1.531200616339244,1.4991932674561665,1.6077667914911058,1.5660501191057967,1.5400976261680845,1.5442859365986152,1.5321542538410573,1.5687181540750992,1.5972527770829192,1.619603705778303,1.6091972608609202,1.6032638386202978,1.621183384437867,1.6215139260496585,1.5648087693637762,1.5172044748995512,1.5186449239823239,1.4981404525720319,1.4537075127564028,1.4952878732931911,1.4910453715695853,1.4738391518943734,1.5455339166052944
1.511446929399304,1.5495671968493077,1.4947059901654365,1.4867551120183646,1.5130584604132062,1.3762175220796777,1.4442005466769612,1.528008316970645,1.4408769384637228,1.5267839902727933,1.5113765689153165,1.594459369074731,1.567068178485869,1.5134019833532553,1.4820478130082861,1.5322164133810119,1.5735821752859485,1.5909976977818079,1.6100028528957617,1.6126401435079711,1.597721062401919,1.6158849016480787,1.6237839652062003,1.5733966375100792,1.538438319555789,1.5594315265479761,1.5279409764042,1.490838743524358,1.5163189322678885,1.5264690634056266,1.541413228333597,1.6007626830079649
1.528803023164391,1.495195061772449,1.4893366075046301,1.4942994657245423,1.5084032815908748,1.3935019288930022,1.4428093258152066,1.5656875512082673,1.4732304097698652,1.534443417302905,1.56566345581377,1.6122551143323194,1.5805872510390113,1.573047901624141,1.5670654353806963,1.560938549928211,1.578989083520465,1.615011333386056,1.6241907665790887,1.609462896736546,1.617821137360772,1.6151740916522195,1.6087100720647138,1.548122216357489,1.5076731686729188,1.506090325756727,1.5242056080166981,1.4640744509982562,1.5121922389097218,1.5289406900039582,1.5197222621220323,1.5811827469294144
1.5359070660589134,1.5236943212696032,1.4604484437231895,1.500147309419136,1.5142509159191617,1.366484156323574,1.4032819926195463,1.54873883135916,1.4590371265806674,1.4979021770108765,1.489779443330435,1.51806149811061,1.5745586415014878,1.51233236734603,1.4927201908399639,1.5237075128944475,1.5115571769262377,1.57129528728628,1.582200204685318,1.562022961730783,1.572147345466851,1.5927269434872457,1.5883049434093581,1.5381997524790005,1.529058206739124,1.535475861816721,1.5530158203782267,1.4796444805914275,1.5350575762303453,1.5598673806808894,1.5370760392245042,1.6000776721232013
1.5204391711144245,1.5239767785877905,1.4529643072993674,1.5024769475742827,1.5113184569791849,1.3397690133721134,1.388817365587342,1.5368109278765345,1.5055425763086456,1.5187463733971713,1.4943569038430102,1.4990405625339005,1.6005525483157452,1.512882817764981,1.495530948980643,1.489902433016018,1.5212881611383302,1.5938973274240067,1.6228805584631607,1.6168413920619988,1.630793241072315,1.6011427209305904,1.5904925406149202,1.5743287558936743,1.500909474241911,1.5364642931079093,1.5145316988910533,1.4474458549465783,1.5200708440827895,1.5227697709830827,1.5424385346287535,1.5639935634119293
1.4759901270198652,1.4713211438309306,1.4712467086144605,1.4575272645171224,1.4490283843131126,1.4003132297625958,1.396830489829784,1.5012875155833747,1.5199073935547032,1.5215938280008903,1.4734892383069131,1.5064766308516786,1.6154037139179729,1.5413163395801812,1.486662754060251,1.4916734055027532,1.534122453531327,1.620303999101341,1.607605522908545,1.6251406312374326,1.5832986294483486,1.5898609628531264,1.5718041536432332,1.5580124245055502,1.4590524594543295,1.4990093577035026,1.5161922222637674,1.499391663470433,1.518390365455263,1.5167636352386626,1.509655873887082,1.5792429778286083
1.4975225539965589,1.473471258155882,1.491427748402596,1.4559764326137568,1.4730320449215923,1.3135997038213267,1.3991809110248947,1.5201988599685023,1.5311889250825437,1.5274861807955262,1.5225999861368054,1.5390208931686906,1.6123499068445324,1.5544038708212928,1.5555326005504853,1.5611152387329137,1.6289915743356373,1.6719556162875595,1.6222806575743711,1.652395877418935,1.632085891100396,1.601248454757429,1.5999827933213253,1.5757571334057112,1.5613156012206393,1.5293739027815159,1.554630925056268,1.5110525779139157,1.5535884661824768,1.5494784808287139,1.5461356917973748,1.6025833436531631
1.4853522327708277,1.4804436712381064,1.4318092120518746,1.4749654579842741,1.5157047704229403,1.3799311477929916,1.362966668697687,1.5639743537736026,1.5377452956118063,1.535832170521976,1.537385096042586,1.5204370538029528,1.6181572376176334,1.576015224834627,1.5279584817675966,1.5385456103564548,1.6209351107994894,1.6624380693858034,1.6150990415797015,1.6436544608349226,1.644947861769046,1.5640276483735875,1.575163030621855,1.5521263965127896,1.5009055808789773,1.5290396965390076,1.5363882043764667,1.478833122106077,1.5334292803793734,1.5339921662618834,1.5462840791546102,1.5674754303141705
1.4574214070284108,1.4654559153634474,1.474882539761868,1.4606793246327954,1.4604597707868077,1.3565288571168652,1.3925461943911046,1.5537916962920495,1.5691531292680285,1.574905013118266,1.5940072534312042,1.5857387798111233,1.6444976165127578,1.6373986038984198,1.616715341795742,1.6015058875365489,1.674138600731148,1.6886659340332035,1.6127436599518912,1.660327415968329,1.6605732153565964,1.5827822853011295,1.5983553495740044,1.5685206188311813,1.5229508987528173,1.5226805929676828,1.506868921976663,1.4908278483636062,1.512588318227324,1.4942992058088513,1.5111562535872853,1.6074119813405507
1.4899061594656169,1.4667501187321523,1.485593500255455,1.480900118973385,1.4736608673145863,1.3726674048514187,1.427735979774969,1.4855575350857606,1.591595160521913,1.5364721608128764,1.554230018025501,1.5357393128648906,1.614082656615907,1.610713354560376,1.5969027636738704,1.5563632339011553,1.59479977938447,1.6324360511952478,1.5984159133402385,1.662356911783209,1.6512959652287982,1.5510240552043797,1.5797016846879215,1.5391735610461756,1.4701362228498345,1.4799867916723584,1.5275291068272843,1.4655026786929333,1.5167111582479573,1.5232200437297332,1.5336102512292626,1.5995406880188192
