Fp1,AF3,F7,F3,FC1,FC5,T7,C3,CP1,CP5,P7,P3,Pz,PO3,O1,Oz,O2,PO4,P4,P8,CP6,CP2,C4,T8,FC6,FC2,F4,F8,AF4,Fp2,Fz,Cz
"(0.20303063172133526, 1.715381887931208)","(0.1658726141138656, 2.049893205082575)","(0.1578861849848485, 2.4646559003414454)","(0.19059911292146384, 1.8004930199336726)","(0.20114541202746947, 1.6645380896614588)","(0.1364135934216567, 2.7633769127672645)","(0.22523847742071698, 1.7557398565803166)","(0.22120649191105696, 1.6400901450646292)","(0.16934348362387322, 1.8705504580679706)","(0.1897071001651219, 1.9894502016133944)","(0.2017213771753337, 1.7123750762800292)","(0.17883805793807617, 1.865056898938141)","(0.15792390414879695, 1.9917529830782268)","(0.16060941566877537, 1.9437676284360217)","(0.1559905113665472, 2.0732937037358115)","(0.1648497506411164, 1.8742709613819324)","(0.1581534438257885, 1.9863482938529038)","(0.13175835551599957, 2.313752405055114)","(0.15922910476156205, 1.9600274451646165)","(0.12070142026675336, 2.573525828088544)","(0.12822090763918526, 2.556080781249338)","(0.19167260463042474, 1.64632298089391)","(0.18066473085293092, 1.75190420759185)","(0.17937810651739122, 2.0633769217494287)","(0.19735180086827914, 1.8609300000863598)","(0.16592965457864145, 1.9575457009403083)","(0.20783342384897469, 1.6117101906273124)","(0.19680993798790417, 1.8803762795855286)","(0.17838925355732402, 1.9609481182464181)","(0.1603780632175167, 2.1527516504838426)","(0.18658130796445713, 1.726596839635744)","(0.24022573748451395, 1.3471411639330233)"
"(0.186269544180877, 1.8609145077480154)","(0.17312147324484398, 2.015744876607032)","(0.1863277462975082, 1.9977506402570495)","(0.19217567209161984, 1.8426991391071605)","(0.17212039520081968, 1.9816589040544417)","(0.2692148776081992, 1.549818659424055)","(0.22515485868786364, 1.6700647190556523)","(0.22083726286527078, 1.5687601732174343)","(0.18049371007777434, 1.775851067048941)","(0.2145143238712238, 1.8097171491579516)","(0.20181890183542464, 1.8035798179506728)","(0.15132096325859568, 2.138868938958127)","(0.18263688737217051, 1.7312127087134288)","(0.17417766568717058, 1.908604093063181)","(0.17940733620359672, 1.9036815594828462)","(0.1813837219345376, 1.8071322794852733)","(0.16887917111548, 1.9794983446271837)","(0.18543083206592406, 1.741360337558508)","(0.21438974414005554, 1.4990800021548503)","(0.18412665833225372, 1.7556148106717115)","(0.20601116039491452, 1.618649439846641)","(0.23174257395891731, 1.4188702387439431)","(0.22690564153946427, 1.4179324824254687)","(0.22504868033234882, 1.6340163172658337)","(0.16928267200172067, 2.117941532110005)","(0.14861913954545838, 2.3453983675602665)","(0.1844372074305789, 1.8594225547605718)","(0.19329127144872654, 1.8929206342704845)","(0.18701990340712651, 1.9056645949410547)","(0.18315311985206129, 1.910830114198947)","(0.1601805286502583, 2.1257970767027157)","(0.25452006655676607, 1.3202119400550225)"
"(0.2102254895841577, 1.5675201720747107)","(0.21415076308747172, 1.605570588005293)","(0.2054731542066067, 1.7245162126926084)","(0.20244772971252825, 1.645720257008659)","(0.20268211717208187, 1.6133753124317163)","(0.2669830732614578, 1.5245921347901945)","(0.22143553060858898, 1.701125411595693)","(0.1914148905978628, 1.7799372386239998)","(0.14774214529961982, 2.225006018839083)","(0.1802154245729976, 2.0250556368164476)","(0.18869959584029253, 1.924285370709404)","(0.1404618126636764, 2.2510904039702133)","(0.16858973804066824, 1.8499399201933566)","(0.16398857409900622, 2.010770842434014)","(0.19084154782838145, 1.8347588406972826)","(0.19827890860089262, 1.7209893178777422)","(0.1871105698704011, 1.8175798915123171)","(0.18217300777553197, 1.7252465424433534)","(0.18194195203637434, 1.6631304960195832)","(0.19146143577516625, 1.6594668972329372)","(0.18943164011798636, 1.6657489634806488)","(0.2054411756873238, 1.5748753160226858)","(0.20850703564602693, 1.5415812303752074)","(0.2312529052587316, 1.5239991201415806)","(0.2068277899329282, 1.7288267081545488)","(0.170641207717035, 2.02668572690831)","(0.21156606720394233, 1.5471720990605007)","(0.22521729198568388, 1.59600764502322)","(0.2219689812924822, 1.4863577852619463)","(0.2376005631799802, 1.4083912016278823)","(0.20733863096373714, 1.5898032373982172)","(0.2307814984906922, 1.5180686638373446)"
"(0.21841832199947822, 1.4526338567246666)","(0.22779639913683314, 1.4516621731631039)","(0.1728568795357491, 1.9276386076466263)","(0.21796731859913282, 1.4564355629327421)","(0.22492067053231066, 1.4279094588494607)","(0.21510418455421465, 1.7038798797732921)","(0.2229700971322286, 1.677818552836001)","(0.18547927661655805, 1.7631560901680303)","(0.14012275265081958, 2.32442120511566)","(0.16491619509230795, 2.0401095411608026)","(0.18574085488240685, 1.7666753903780275)","(0.1635475328710233, 1.9081396220813507)","(0.18951677652580504, 1.5573982516230862)","(0.17338188686179531, 1.7948713147762392)","(0.15769989412711974, 2.078799972358706)","(0.18385327833899975, 1.8781608791609532)","(0.18940709978855938, 1.7503243930252985)","(0.18009808906797659, 1.6608136105824562)","(0.18961231313879717, 1.5131673191607544)","(0.20240027473856725, 1.5833864313100123)","(0.2026619383860579, 1.460527041823223)","(0.21159967689411627, 1.3647042266378897)","(0.20113119047345382, 1.5480879140658128)","(0.2251874209198427, 1.4742482822935485)","(0.24151286344721312, 1.4302829145497982)","(0.18551319915208184, 1.7609548029803566)","(0.2126602073054234, 1.482235931749165)","(0.22712836449963641, 1.4858639745733955)","(0.2375795946378236, 1.3139997229638796)","(0.23454574199526554, 1.3587225071389624)","(0.22857047942818254, 1.3781948636744215)","(0.21020353088463417, 1.4739012728594247)"
"(0.19885721723364747, 1.68849555121523)","(0.19533255295909746, 1.6715688955152597)","(0.19760178688123983, 1.7858653569161083)","(0.20819467083138368, 1.5411281292002346)","(0.19676536260123398, 1.6289688379484581)","(0.21946309474807343, 1.7473582981069693)","(0.21514934120374102, 1.745210341605132)","(0.20119499790796774, 1.5496112672938165)","(0.139068550051475, 2.3053620503400456)","(0.19862997033027832, 1.714329848145137)","(0.19073492459446775, 1.7112416595662607)","(0.17274351899835574, 1.7794104402450943)","(0.16809207630636375, 1.7701554552362448)","(0.15650186078955458, 1.9633257666665507)","(0.1271147734713938, 2.420033428796439)","(0.15134337412182558, 2.1926403819919793)","(0.1768558588310428, 1.9200335251470575)","(0.1674913123413345, 1.8016999891642778)","(0.20318440596285442, 1.4061142253420458)","(0.20602193702287228, 1.5955001795630424)","(0.20593100978846798, 1.4423871764791694)","(0.18723086857218418, 1.459118008576196)","(0.19306894294962892, 1.5183252076395846)","(0.24028918643446479, 1.4819400003308392)","(0.22579931700094066, 1.4777673221214747)","(0.18105720466293912, 1.6698088738616)","(0.1764528465668288, 1.8260556794458136)","(0.20326858225070502, 1.6674770727076547)","(0.20746087645204758, 1.6157458631970827)","(0.18543019040438768, 1.8503746980424782)","(0.21443485519656746, 1.5307824669249914)","(0.20153237455414139, 1.514065319511017)"
"(0.19949179168183961, 1.7075958193369831)","(0.1971638226716571, 1.687994397812048)","(0.22005332417773898, 1.7263641986268623)","(0.21960598445869167, 1.4861827466218938)","(0.19004475852488398, 1.6259824754982342)","(0.24302265083887345, 1.6141790869042918)","(0.19393975805156582, 1.8870785958055236)","(0.14899389392189968, 1.9950779511681125)","(0.1417414387564836, 2.1538730194440916)","(0.1745444702942053, 1.8922794851022584)","(0.18813476293019074, 1.7493037453627194)","(0.16165007557761565, 1.8245931789012064)","(0.1602279786902218, 1.812553261710785)","(0.1590988987145116, 1.832856809250477)","(0.13198942441829856, 2.478003912475643)","(0.15633100814921755, 2.1855245352840007)","(0.1845524956231427, 1.8832264397638854)","(0.16396457533998052, 1.7645584001232772)","(0.1862214614887004, 1.4680348233413367)","(0.20053881031202947, 1.6620887310213737)","(0.16626521551398346, 1.7385040346121816)","(0.1732711776487463, 1.5877995207628226)","(0.17821353840735016, 1.671886869587321)","(0.220622350839047, 1.694227520609513)","(0.21504565402251655, 1.7226258590391272)","(0.18564184858399072, 1.6676968641866106)","(0.18496600524054677, 1.7700627618038196)","(0.17808282595481179, 2.1024229710617885)","(0.18996632826650198, 1.754951577346266)","(0.18282299511761224, 1.8813863248906708)","(0.174130938898065, 1.8560498758161361)","(0.20943623292206187, 1.6331493922761786)"
"(0.1930344475928358, 1.6075035315518071)","(0.19197733350565951, 1.6572911566618382)","(0.18964760892130886, 1.919345255120839)","(0.19746352469250428, 1.610909435813264)","(0.17587160071365904, 1.706875560217973)","(0.2378861379182986, 1.6156151915173407)","(0.20345996894473947, 1.9251058158011625)","(0.13887266138460358, 2.1888960681625247)","(0.13444991865046857, 2.2160254938095987)","(0.16750476126468053, 1.9118577617254517)","(0.19454304515572005, 1.642412851414768)","(0.12241685178209827, 2.3608922896287745)","(0.1754813977408706, 1.7209286903588255)","(0.1606898499594159, 1.8495008499302308)","(0.1713008961573155, 1.9532460264488967)","(0.17517435796101644, 1.9364208956689704)","(0.18689203991177658, 1.8465946061205496)","(0.1766721217503422, 1.6832239117393464)","(0.1841922947661684, 1.5882021668352104)","(0.17334677779562013, 1.9411708098506235)","(0.15188829512969415, 2.011156014688452)","(0.19356711920243413, 1.5870580884805212)","(0.19421382288233727, 1.6468201930661046)","(0.18393106006610305, 2.0357874393385265)","(0.21800877672600572, 1.7001823600136166)","(0.14641444409306084, 2.1038756972189505)","(0.13701261364878195, 2.2707402138104764)","(0.1609868701247538, 2.260056777312902)","(0.12664198384391484, 2.3927826629879743)","(0.14607151516902864, 2.129151969917791)","(0.14254923208337789, 2.0721769296907357)","(0.20250164941548185, 1.6682873169684875)"
"(0.16191841389328443, 1.9491559806893173)","(0.17666747052136883, 1.86095341648739)","(0.18005373254676038, 2.099597197614268)","(0.18026611297308265, 1.8777681973030353)","(0.14705956840420578, 2.1831234303453493)","(0.2503195199422712, 1.5556565332421641)","(0.19990497036678703, 2.074895681959439)","(0.1856762137230007, 1.9221272469972372)","(0.13207030398839756, 2.4141861766152286)","(0.1916032234601665, 1.7727767409142252)","(0.1949234040186141, 1.659295469781238)","(0.11901103293792611, 2.6398946383698956)","(0.16220994832270624, 1.921679834975901)","(0.16009998852378032, 1.9941308630447958)","(0.18163399100144725, 1.9010512262127583)","(0.16633753339225338, 1.9955445006330206)","(0.17445766347735198, 1.938182672096536)","(0.17266301777875334, 1.8021353547796277)","(0.1813131752922146, 1.8058628423550693)","(0.17389031907108235, 1.9591212627340835)","(0.15888363519337767, 2.113129730615541)","(0.19933569004560459, 1.6827665395536304)","(0.20186825998990626, 1.590080634177353)","(0.2073209018476523, 1.8442989270040115)","(0.16549023914863922, 2.1297917283110994)","(0.1226899372203692, 2.5614942960762304)","(0.12339418056877764, 2.5421032195451656)","(0.179081686969576, 1.9773821845150301)","(0.10769205084700775, 3.019033789450704)","(0.12637145811172537, 2.5619321391485492)","(0.12784367648373576, 2.306319042776308)","(0.17539288195861114, 1.9043511955435408)"
"(0.17325854272213986, 2.1545285141930246)","(0.19120605236958366, 1.9407066357782172)","(0.22678401468685475, 1.8055146351176463)","(0.19310531074503287, 1.9712310798751935)","(0.1670936709671768, 2.4478608463844016)","(0.2562561614756, 1.6407146454654498)","(0.2182415062821243, 1.8515534513050138)","(0.23107659619421544, 1.71600401921383)","(0.1945874056997666, 2.087255694183547)","(0.20746947521544273, 1.9124026570866266)","(0.18606118797263183, 1.886822796186631)","(0.14968476324907667, 2.2042993017994537)","(0.16978974461597168, 2.074975680115306)","(0.15725737365825576, 2.121525317757003)","(0.17019834416389082, 2.072372754152034)","(0.1740721696812506, 2.1414153397127405)","(0.1849027983739894, 2.0490343809162215)","(0.1662106741515327, 2.1045381473410965)","(0.17391316597317305, 2.070248998127371)","(0.18950824606189, 1.9624656523111899)","(0.1938768702875874, 1.9583810276237614)","(0.18723472327222912, 2.046226510928943)","(0.2105166424898504, 1.7082735031606495)","(0.21937798212827758, 1.8151472192723033)","(0.17163179316943056, 2.3350512897195057)","(0.1523047276918313, 2.550793207586158)","(0.16700704038290437, 2.1450864294660046)","(0.21953992411648252, 1.729891117037618)","(0.15023550507140773, 2.5143450431692727)","(0.16896156187968803, 2.208699047466946)","(0.11452826970015259, 3.19388951836067)","(0.2502965941543414, 1.7191868600127809)"
"(0.23801228074592842, 1.6358640013039305)","(0.24253620952204225, 1.6100735690275232)","(0.28467440873218935, 1.4585444713886995)","(0.2195209432928032, 1.7586678009138839)","(0.22431540982616427, 1.7895593062259403)","(0.27101333456466653, 1.5444253851298662)","(0.2600483330936168, 1.5293558346628702)","(0.15868395034237415, 2.5000665551999166)","(0.18751708505764858, 2.138760205348111)","(0.16671706534353717, 2.462763074316288)","(0.16524136913426193, 2.1699587621068215)","(0.13451491009521677, 2.4463577350330503)","(0.18423870496553066, 1.995434983191869)","(0.14626709233424856, 2.307213083060006)","(0.15506234705498861, 2.1997145887306826)","(0.17940281318366222, 2.1011319255466634)","(0.1805715485360177, 2.1798848175383188)","(0.1744875670162002, 2.116208794191184)","(0.19515941100607015, 1.923334265586823)","(0.19474278929894734, 1.9410467527571122)","(0.20306254339541369, 1.9223612671823045)","(0.19897867635906488, 1.9827872201760868)","(0.22123243224713296, 1.731738886498785)","(0.26527537244597277, 1.5250491983334746)","(0.22493888783590324, 1.8051137342478107)","(0.17587107518610395, 2.2251851356455403)","(0.2142237079783142, 1.698043424291856)","(0.24558676061887794, 1.6217381012333842)","(0.20670048076175554, 1.7977191298520656)","(0.21393880958671835, 1.7461268160327421)","(0.1632819588971083, 2.3609573809555817)","(0.2275006987445949, 1.9013460911357913)"
"(0.2269865780828587, 1.6358812177816673)","(0.24559768163709153, 1.50357154430703)","(0.25010342463397606, 1.5694194534770538)","(0.22757025796648325, 1.6216315560603196)","(0.22188341739295625, 1.6885120829419948)","(0.25736859397171313, 1.6130938180773653)","(0.25355819249847605, 1.5162158096724159)","(0.14202914810043815, 2.5902742285862175)","(0.2130385105197841, 1.7178174743880812)","(0.19826375163377294, 1.9533291922829386)","(0.17434185246183598, 1.985651809880709)","(0.14800569075091016, 2.3473673128862798)","(0.16149140359161865, 2.1050684384413407)","(0.15711341618473867, 2.13686890252225)","(0.16618781223847887, 2.006361128482231)","(0.1754477702383143, 1.9624290817804997)","(0.17336574133815214, 2.0920226291738078)","(0.1691357104641139, 2.0192190411319384)","(0.1694876029343368, 2.0308947090343987)","(0.19151599975120218, 1.784670463676531)","(0.18482942521360207, 1.866127149393377)","(0.2049696149541459, 1.7084268579015505)","(0.1987893165976472, 1.7246828571719202)","(0.2330597110438539, 1.6640587912847256)","(0.17631629162058446, 1.9900425045448646)","(0.17728384925788848, 2.016016774660616)","(0.1858101921272049, 1.8184195125694065)","(0.20383715583455073, 1.957751192521697)","(0.18466677454936234, 1.90193745266648)","(0.1997227455887092, 1.7817865206979748)","(0.20053903012483645, 1.8487719833540812)","(0.2285543690913894, 1.6689210190446628)"
"(0.17252308257206092, 2.060848030752298)","(0.19358623281707207, 1.8633659174149977)","(0.22021296132157583, 1.7715268873508765)","(0.18157450067502143, 1.9509009610203665)","(0.17950538441114916, 2.0440440741894563)","(0.22180095808241632, 1.8611712481584872)","(0.2867821768763228, 1.4257322133042878)","(0.1695852020746067, 2.1352265957357575)","(0.22052829935840698, 1.6901256958338053)","(0.22676604517973875, 1.6973208035570053)","(0.22703004709517466, 1.6361811220084872)","(0.16545619630581096, 2.1980045631320677)","(0.14978893682449984, 2.3232380715583845)","(0.19380890117969118, 1.8941145258411638)","(0.20387711188248617, 1.7923108073062048)","(0.18102267311306025, 2.02377571221673)","(0.1909565891525798, 2.008072890865644)","(0.15459190696998898, 2.241018281125106)","(0.15663196057607787, 2.223019689632882)","(0.19583527546853763, 1.7719620080220637)","(0.17354688244529148, 2.0016805071204393)","(0.19700389385032507, 1.7982658223502102)","(0.19677841521709297, 1.715293802188957)","(0.20598852946656265, 1.8245811636804763)","(0.19069615699977333, 1.900688011653518)","(0.17466929352569774, 2.1082387673968515)","(0.1653222230157073, 1.9126130222996136)","(0.19887386904571472, 2.0103177741399425)","(0.14795900511886065, 2.3376575873596286)","(0.16088681311149328, 2.1399720535085933)","(0.14579595570396822, 2.475268368008674)","(0.26334169198997137, 1.4077911880785712)"
"(0.189107088067281, 1.9710595181820716)","(0.19827232233251127, 1.9291820872732246)","(0.25559028975139453, 1.6329959543369328)","(0.17001598246918623, 2.2439627429602735)","(0.17766627497012977, 1.9593973872749288)","(0.2350678562425421, 1.7765922604408497)","(0.24459769344727755, 1.6856135673966255)","(0.21380622022816026, 1.4860246710589506)","(0.2091914892835472, 1.664941585861255)","(0.20324006472406517, 1.7570651858636335)","(0.24202732976554078, 1.607012310725827)","(0.18205059018933367, 1.9937259843820463)","(0.1626946301085217, 2.131835387968474)","(0.20101729512175714, 1.8832729265089294)","(0.22768365562719864, 1.6879207209183047)","(0.18753255542409739, 2.069827851257224)","(0.23444593644162603, 1.7024366962844304)","(0.18268478851916142, 1.9897971575461193)","(0.19437440237832523, 1.7394001618410537)","(0.2158164200895432, 1.694973392791385)","(0.17980146706498357, 2.0148584312912607)","(0.21010007898308422, 1.5497593489257002)","(0.22343928339528873, 1.5035385952980314)","(0.24867220703603596, 1.5080797090340388)","(0.19355269012926368, 1.9133288761297058)","(0.21895667375513275, 1.6169625909331788)","(0.17913743787187983, 1.9320725237121839)","(0.27351823412747145, 1.5086656919182106)","(0.14994484130131103, 2.3772343778652667)","(0.16897117323817087, 2.137582377418054)","(0.1734793426989195, 2.018030984155981)","(0.2685310355348716, 1.2629372199536855)"
"(0.2472154811915872, 1.4685694230982573)","(0.23290316803066224, 1.6179744945811896)","(0.2767301498007193, 1.4972054702849287)","(0.23564274655912157, 1.5602004971863745)","(0.21553370868880095, 1.6085224782311307)","(0.23576770531640737, 1.738875323770355)","(0.21530199901534125, 1.747699695919411)","(0.2155503635432224, 1.4347614182949109)","(0.2094612452054481, 1.485091910866842)","(0.1926654425201597, 1.7705968670970877)","(0.183488765475484, 2.0410150732758283)","(0.19406696860809527, 1.7295034466139965)","(0.1909869025302946, 1.4455483593688485)","(0.1611432377312783, 2.1864055130847833)","(0.18230899184814095, 1.9862523527677831)","(0.15543740712999274, 2.181785725398096)","(0.1721473451638877, 2.015775470827124)","(0.15418444254099997, 1.9015363952517002)","(0.16439076448244144, 1.651505418264006)","(0.15638180771345328, 2.1388940260665)","(0.13527512856784427, 2.4180542813874757)","(0.19654836466008668, 1.4493643573519324)","(0.18348416461802552, 1.747916339479496)","(0.18723133635140363, 1.875992401206834)","(0.21702897946375418, 1.5774043540268154)","(0.21403425995127726, 1.5635248684284455)","(0.2172044589442847, 1.548412648159014)","(0.27992908063611327, 1.4779187446556998)","(0.18420054003889913, 1.8159822266565269)","(0.19768512443583558, 1.7234079915229399)","(0.21732616905137767, 1.5799193673810819)","(0.2442014836463447, 1.3357961019331166)"
"(0.24625485825070323, 1.449638422661221)","(0.24320554960543925, 1.4964367564645737)","(0.267915153161485, 1.5218045240165021)","(0.26036408471564293, 1.383183200487828)","(0.22637258194345347, 1.5174185723068248)","(0.2742761814122658, 1.4962291632825218)","(0.23486659487739922, 1.6861042700680942)","(0.18817612593601765, 1.7503051555718463)","(0.19426326384852827, 1.5907385790641981)","(0.16484971853625266, 2.0615007674426544)","(0.19192664452946667, 1.8198401613763648)","(0.1939317640010911, 1.5990880406273829)","(0.1900325646607575, 1.4838485913545658)","(0.17904887135700562, 1.9099285872883394)","(0.1881024707689185, 1.783859310349292)","(0.17672881559865242, 1.8193377174780978)","(0.17118978870005425, 1.8417983014336659)","(0.1597817710433582, 1.7810200922236155)","(0.16272482455351583, 1.7487273180743192)","(0.15599750165936788, 2.0980953650367677)","(0.15270716926748726, 2.1697664753582324)","(0.2040296071422669, 1.5234439847366608)","(0.1796824112843234, 1.8822982479126502)","(0.18805632148095963, 2.039191814787465)","(0.2519175797998565, 1.4301027740016468)","(0.16823841171459136, 1.983696995680786)","(0.2275989738374243, 1.4498788308293298)","(0.2898987206976656, 1.4206138993949822)","(0.2230977738974057, 1.4899280172971956)","(0.22196140854011995, 1.488145132868414)","(0.18620059668489938, 1.7882516917289593)","(0.2149797415704771, 1.5645299458188264)"
"(0.250592841099559, 1.4397874251139684)","(0.2514339132586489, 1.4069384379954912)","(0.2621521116077013, 1.5193663335963334)","(0.23839101624713713, 1.49451541735135)","(0.24827227830571966, 1.3597899103806717)","(0.28434269166442216, 1.4884516828077452)","(0.2602754364751146, 1.4883379976873379)","(0.1999367072996559, 1.6972889984984352)","(0.2419157453347682, 1.380340523648525)","(0.1971726725446809, 1.7142054978049863)","(0.2596019977131006, 1.3105513865018101)","(0.23689082470170456, 1.344261880802068)","(0.22302140995168196, 1.4081972991511091)","(0.2482458926668245, 1.3535277727291528)","(0.25838699900979223, 1.3007701302455241)","(0.23834810822936145, 1.4387589879412896)","(0.23792558635151587, 1.4712841168521456)","(0.20713415114697256, 1.5326314931444498)","(0.20758599998950408, 1.522636844902982)","(0.21105804387554433, 1.6579132446188256)","(0.22713100570118702, 1.5222917876347621)","(0.24548752873854807, 1.3360229222998228)","(0.22332818427600096, 1.4902095424041588)","(0.24436313264996612, 1.6071325365816205)","(0.25751882898458667, 1.4673278753571473)","(0.18233121939944574, 1.838082007533968)","(0.2465319253068307, 1.4309276073963189)","(0.33278030074616255, 1.2498591241236974)","(0.2599829161048752, 1.3678218966480975)","(0.25476242607760136, 1.4104001321942814)","(0.22664584693154763, 1.4996162547243705)","(0.24634712980820322, 1.4065493056792937)"
"(0.23151789160262917, 1.4069455697169282)","(0.2074798964388922, 1.5521407515327073)","(0.24779291174378024, 1.545595154320175)","(0.22271393640732529, 1.4718055113737118)","(0.2187526148963673, 1.4054217811711534)","(0.24795470725512597, 1.6249725575894647)","(0.22820099189950682, 1.5497262101053784)","(0.18142070157205742, 1.580589601882127)","(0.2126848338167227, 1.3746259486538615)","(0.2232384041954349, 1.445473254803363)","(0.2144234450524263, 1.553300080450492)","(0.1940341672074176, 1.5314256040826197)","(0.1966333297735807, 1.535873231429761)","(0.18140281522967236, 1.7259670381357177)","(0.17929973772419477, 1.9264777579834176)","(0.1418115110605719, 2.383684022505585)","(0.1730689887956405, 2.0180063719968118)","(0.1676746736854428, 1.8814445988982005)","(0.20645679245611878, 1.5238371264206347)","(0.22212572067935585, 1.5692105637977307)","(0.23149911846243432, 1.4618451648224033)","(0.22154501229308116, 1.4035372330054527)","(0.22103656471307756, 1.403440853631837)","(0.23588360662221872, 1.5695437119705837)","(0.2341535057512194, 1.5656355845242576)","(0.19401225911692987, 1.4682795676427796)","(0.23147484865926332, 1.3723762979583896)","(0.29509829870119075, 1.360956277561311)","(0.22584737939538124, 1.40322682264102)","(0.22598225278862272, 1.4395446508446497)","(0.22319153642228698, 1.3175875078032744)","(0.20371569565841488, 1.4828751103223599)"
"(0.22992556037658243, 1.319257378799727)","(0.22127669609556785, 1.4370447126075359)","(0.2619907642840592, 1.5138788360256235)","(0.23178909422233043, 1.313325570133208)","(0.21238051940394273, 1.3682951705333666)","(0.25697890909411264, 1.5713070599725834)","(0.23966244737630993, 1.6245175702188022)","(0.1867757722300077, 1.5969059423847343)","(0.19555675599481692, 1.4714040257657792)","(0.2304500789554136, 1.5187772842273202)","(0.21069715397338726, 1.7404705349510694)","(0.17335311222160799, 1.779905846872088)","(0.1888527505797218, 1.5777651270302153)","(0.16964355276061086, 1.9211718255132588)","(0.17248387197964166, 2.0655117101907217)","(0.12694037293240745, 2.670189794322054)","(0.1488505057710842, 2.2628761026254263)","(0.15845957239914088, 1.9352697492963526)","(0.2021557146514748, 1.487864525384852)","(0.18682970110347916, 1.8136315886800944)","(0.2179897834108793, 1.4685622285788804)","(0.20585232754524804, 1.4169495339985045)","(0.20513541881567288, 1.4496589631659926)","(0.22646206045220565, 1.5787426723809568)","(0.22510556844431426, 1.5849588721079118)","(0.19691447314028337, 1.3643881222425993)","(0.22069042818652732, 1.3447791962274303)","(0.29148679555745594, 1.3686537009458355)","(0.2181932836450018, 1.3725988477324014)","(0.22023239480751644, 1.3528939753473859)","(0.2172934516717499, 1.2414734665451053)","(0.19782480022334792, 1.4143116577037527)"
"(0.24072750595023187, 1.2623518941872944)","(0.23892634581975916, 1.3306707705263339)","(0.28696176906258614, 1.3894148442367098)","(0.24073844989758073, 1.2506854636899227)","(0.23418167803691786, 1.26188814966484)","(0.2594524230374446, 1.5661455051248878)","(0.22955973363383358, 1.650134154015161)","(0.22249580792380383, 1.4016625100919564)","(0.20389084573106872, 1.6210755524248108)","(0.2368984050593199, 1.4676653633128502)","(0.2136324973756818, 1.640673050541677)","(0.1146111336132515, 2.8459804824574357)","(0.2234446766195426, 1.3721201448603597)","(0.18993088254359008, 1.7490177668425249)","(0.20853769611785541, 1.6376921671935645)","(0.16488865934987834, 2.0148749857654695)","(0.18187299356779943, 1.8646432991910635)","(0.17815833001442458, 1.7603931231858556)","(0.20588202713394269, 1.4424004205624097)","(0.17445108178808874, 1.9547269809043006)","(0.2131569228209827, 1.4629278549857632)","(0.21754360084828814, 1.307601400112276)","(0.20583834586074137, 1.4093358279639359)","(0.20226626901081027, 1.816226107589154)","(0.21371601199663182, 1.5666385851911901)","(0.21368012859608357, 1.4366743849651802)","(0.23443809193417706, 1.307563953952292)","(0.3031318305455802, 1.320883612610929)","(0.2368314419891856, 1.3145244017222866)","(0.2391572955763452, 1.268584673931786)","(0.22759343969177567, 1.2476879669926184)","(0.2240519535656795, 1.3201203539801905)"
"(0.2560076209953925, 1.2028860165172344)","(0.22825633727737057, 1.371185155700281)","(0.2711591444053386, 1.377695138988799)","(0.2589205828840673, 1.2106212002653345)","(0.24908281297002471, 1.2240391119315779)","(0.26279592873564417, 1.511583839834038)","(0.21234774241407314, 1.6868441364074056)","(0.1954235752643882, 1.5937517436821522)","(0.19646747461251576, 1.5638441031631376)","(0.2314000913611384, 1.440214649287152)","(0.21520915532225013, 1.5342942461726212)","(0.14264608760618344, 2.1277295853335696)","(0.21462284989301442, 1.4670877620342981)","(0.18803404476915261, 1.6867311134232061)","(0.2195000572081015, 1.5451774087820738)","(0.1796223082541663, 1.8994941469529425)","(0.20489122410225002, 1.7070131288655952)","(0.17255760618495308, 1.8616127621248306)","(0.18676932933577178, 1.6292810369892545)","(0.19066871806668423, 1.8070035386630954)","(0.19412124872834693, 1.6202215382897924)","(0.21216907645216226, 1.4166213205287217)","(0.18380750747037478, 1.5868381713149649)","(0.19721412776521108, 1.9323490167147788)","(0.2294995072684125, 1.5087189365615497)","(0.18131224867687099, 1.7135351448503247)","(0.2458052723273788, 1.267130468734318)","(0.28725022274668893, 1.385329737971374)","(0.2369168493844282, 1.321682737496614)","(0.24983233480103353, 1.236868555279897)","(0.24386015401621294, 1.2189547668910097)","(0.22469877918029613, 1.408141057800957)"
"(0.2597071317568098, 1.2225785577303665)","(0.264628155529579, 1.2506188074663573)","(0.2926809195028803, 1.30873256778821)","(0.25200665325269833, 1.2914468040943647)","(0.254926562308863, 1.2042480033066947)","(0.27410994792073085, 1.5111389788467586)","(0.2984365067179188, 1.3021494398841744)","(0.18297102340815466, 1.8409990271355474)","(0.19483067019463432, 1.6216088113822764)","(0.22710164008110312, 1.5611820196030477)","(0.23557735734328714, 1.4902966901543313)","(0.16784057585813203, 1.9109574674626433)","(0.19005838530385805, 1.7647666522423555)","(0.2068646563477964, 1.6365047016224796)","(0.21978310809054488, 1.6043654579799118)","(0.18597605709783976, 1.891960606879318)","(0.1945908406331132, 1.7822419653653674)","(0.1666529423497077, 1.9328134029673016)","(0.1843991768587833, 1.716351083405791)","(0.1839403056930058, 1.8236867553923106)","(0.19158005359283042, 1.6379557720933993)","(0.18250033166132945, 1.7566236750543318)","(0.16508252867709863, 1.809330859447496)","(0.24010611287737646, 1.4644047028647547)","(0.2617956360644555, 1.328653261186403)","(0.19495581244507623, 1.5892357069184888)","(0.2570927304036414, 1.2513596916384038)","(0.3038963643393371, 1.298693176655464)","(0.2482142598424697, 1.2850689998758167)","(0.2533804476188203, 1.2526656971237946)","(0.2550745360799955, 1.2033596167206895)","(0.22288180757864276, 1.4543368425001282)"
"(0.20623311047229553, 1.5677087434433394)","(0.24694309616581953, 1.3711072955358976)","(0.2790123522495744, 1.4225302965249587)","(0.22684344763825717, 1.5026634908238345)","(0.21720731557488895, 1.399547872349894)","(0.27270026499911215, 1.6004429437973509)","(0.24777108430992154, 1.56462600259144)","(0.17773530535826051, 1.8312564488952283)","(0.15807950442514068, 2.0146109259092686)","(0.1879947473514954, 1.854357124475578)","(0.194127404734704, 1.8218848856678342)","(0.11588786066186828, 2.8976374744741196)","(0.19118770675201957, 1.6854343405870955)","(0.17521493915436362, 1.8744810340776155)","(0.18207528206305484, 1.856167932824824)","(0.15706071863788473, 2.072557233734358)","(0.16639323869974815, 1.9003853317184547)","(0.17589149835842624, 1.6583020331563345)","(0.19187301727045578, 1.4752184506751325)","(0.18417775067543563, 1.7004289410059514)","(0.19069783634229745, 1.5227582831177042)","(0.19177213490980105, 1.5397081891949198)","(0.17375430712943074, 1.6503532939372807)","(0.21913590076162967, 1.5926688825836115)","(0.24778108373714286, 1.3958191879033)","(0.19507537196518307, 1.6235661333137281)","(0.2125763388930049, 1.563345940105679)","(0.2985631517778377, 1.3317829307151523)","(0.20763737510466482, 1.6197770395107867)","(0.1927972416905355, 1.734123867001242)","(0.23002591954081625, 1.366855968709349)","(0.2212318173176509, 1.435106102279931)"
"(0.17445004056042449, 1.8091469389429424)","(0.20686794252756766, 1.5659569701714264)","(0.2133085561495805, 1.878403052413621)","(0.22993361007778948, 1.435890267919882)","(0.19157892034377952, 1.5897062081074171)","(0.26920124603557866, 1.556559146195564)","(0.2395102750108328, 1.630267082861664)","(0.16818687791711284, 1.9877277529532624)","(0.19317903103916456, 1.6687249848407733)","(0.19730141788883582, 1.6970987045084842)","(0.1798175356066068, 1.9078952810181282)","(0.1719516178555757, 1.8089386032854187)","(0.19294869595281688, 1.621336420789901)","(0.17963288540174985, 1.7292507992015531)","(0.16976483419050092, 1.870450888369249)","(0.15692798833238206, 1.9498237854476919)","(0.18881703733858424, 1.6563083537087078)","(0.1787993192934977, 1.5565506545525276)","(0.1891234060146812, 1.4046599147397931)","(0.19190680752295114, 1.629058492948033)","(0.18876183309874606, 1.5487012110437657)","(0.1925076365061231, 1.4347397188113016)","(0.18047779011232967, 1.5663842183752033)","(0.23935717612578852, 1.6114028221091523)","(0.21177876425627232, 1.7234335668098746)","(0.16486326442889807, 1.9581023034897882)","(0.1633340816207976, 2.1497384217577236)","(0.2969974769729851, 1.4222612897130809)","(0.17573490084237323, 2.0842580067738505)","(0.15680254818709694, 2.26801867827327)","(0.18930871204447988, 1.6576069806423253)","(0.2189982526127019, 1.4793869490051057)"
"(0.1920895677709273, 1.6813094203440837)","(0.19727377085324854, 1.7194229429867907)","(0.22300788991787157, 1.8105860079877634)","(0.22853424143910206, 1.4494990523893216)","(0.18978274825834424, 1.7147512754310963)","(0.2653887446062903, 1.503325140016194)","(0.26797221589889547, 1.5093947878441325)","(0.15209972311458572, 2.1984155769674594)","(0.20530004222957132, 1.652843927400042)","(0.1908081076498633, 1.7900759945306441)","(0.17180000309619467, 1.961747655671358)","(0.17287243564722143, 1.7706734970170002)","(0.1489001733982641, 2.1748573470884653)","(0.13812672341656765, 2.3050208515425354)","(0.15209941073305266, 2.066826863526039)","(0.13736031723588682, 2.139797537131821)","(0.13971084330537475, 2.0321396808962673)","(0.14375969363007338, 1.9306705984207158)","(0.1576304525530798, 1.7473254460832903)","(0.15841344236859156, 2.030955541617984)","(0.17477656537154382, 1.8764256316768362)","(0.16143366060117192, 1.8180416189897501)","(0.1786816884777656, 1.7348515812890322)","(0.22721217557657267, 1.7155808535364088)","(0.1912816910305731, 1.9855323453515952)","(0.1602434389778721, 2.0426645489093445)","(0.17216140450754552, 2.0624039761882917)","(0.29032242417998655, 1.4457194696585265)","(0.20637572959142647, 1.7679966179985287)","(0.18999957434033365, 1.8814799596207092)","(0.19206103746667633, 1.6312951136722393)","(0.18006968192044728, 1.8171614370220974)"
"(0.2426158380644021, 1.3733565480890948)","(0.23408791270708063, 1.4943522330552494)","(0.24567856526045234, 1.6675859870298553)","(0.22152090057883445, 1.5210008312216599)","(0.2333486655372867, 1.3760156918546487)","(0.29149382052184625, 1.4371365775196188)","(0.25688698787270475, 1.4803765671055564)","(0.15529437606461108, 2.0906854861806696)","(0.226060675955597, 1.404959629417436)","(0.1959519838557171, 1.7777553191196993)","(0.1939380055241873, 1.7395744754773697)","(0.184291929632689, 1.8297129630305486)","(0.15476956139656656, 1.877656209761502)","(0.1649279860477978, 1.8085398264941137)","(0.1730752533775216, 1.7502368590462236)","(0.15513011243997726, 1.9263220956559068)","(0.1485011641181738, 1.9279417825397707)","(0.15184363398060086, 1.9099217123336878)","(0.15295532746884458, 1.8529608578536478)","(0.17519257436690644, 1.976100614548364)","(0.17467236573531608, 1.8947200560189292)","(0.1727851470501845, 1.6878774753585657)","(0.1731239185063326, 1.7494488580267173)","(0.20462409751045013, 1.7999621060373734)","(0.20878293508797555, 1.7689700970348166)","(0.18145804917621655, 1.746360437091184)","(0.2297140425895299, 1.4601314841379303)","(0.26888450362887784, 1.4797214523094255)","(0.23706063162077487, 1.4399150426319136)","(0.24592880600285713, 1.4070115323522956)","(0.22726587372303764, 1.3946770416750696)","(0.18993783443408302, 1.6520640463518583)"
"(0.23883755320099298, 1.3808968359849105)","(0.23292519802084988, 1.4473543036415408)","(0.22419356974803106, 1.766073922550919)","(0.2071056251560212, 1.6309900710769294)","(0.244098360373301, 1.270132077863845)","(0.2985864562879387, 1.428863011420063)","(0.21166226003069114, 1.6693326850717536)","(0.1901697395791589, 1.8619590119899583)","(0.18197067440007372, 1.7889502498210141)","(0.1919172859973596, 1.8776072716196621)","(0.15872120631962566, 2.2433009372891624)","(0.13620577668664643, 2.4956501938634585)","(0.1614102170104311, 1.9192404566527108)","(0.12966517753739795, 2.508795667018541)","(0.15827334530172574, 2.1255168790037606)","(0.14761053348169234, 2.2701815847804747)","(0.14877834168628376, 2.2254408188327703)","(0.14127749728176675, 2.2955266511181196)","(0.1623413031539128, 1.916889453355952)","(0.1930879046647346, 1.8849312513134908)","(0.1694596836914405, 1.9587847746712088)","(0.1896312033124694, 1.6585525555714846)","(0.15195838706305523, 2.038656187440724)","(0.18542300078448304, 2.008688356304437)","(0.15855785647628123, 2.2408341652683634)","(0.1927181487298313, 1.7206810565762698)","(0.19504528050843242, 1.6608698048639994)","(0.1591197832378747, 2.379819129932198)","(0.183178922457257, 1.7909955771225)","(0.196690292811499, 1.6851745838720145)","(0.24043471965841898, 1.309332771176285)","(0.22797863919789385, 1.4010934414107232)"
"(0.219838289244657, 1.4702580054342376)","(0.17247858202338562, 1.9348345686265678)","(0.23080506896542363, 1.668510203129501)","(0.17987547583149588, 1.8763131281843028)","(0.23175206192117057, 1.3090197371385002)","(0.26906770740866154, 1.529692447472778)","(0.23278199438315683, 1.5304636782045191)","(0.20318152459109456, 1.5640856858274852)","(0.18595494770087648, 1.6569416321843966)","(0.17223914846402047, 1.9348309565117003)","(0.16099342839875558, 2.220007431036259)","(0.14620131136957634, 2.133314358864872)","(0.17606012345225097, 1.6149893635137242)","(0.13889683723368895, 2.310744017683273)","(0.16530383740876106, 2.060772153376083)","(0.1400629481095914, 2.352205388072002)","(0.15674185347146757, 2.0113502479612215)","(0.16618508933289597, 1.8098445405206485)","(0.179091535163346, 1.58999755807973)","(0.17324940915619338, 1.8183142658654616)","(0.16696950888455037, 1.7062324169532048)","(0.19963435213025624, 1.379503269050175)","(0.16502363424962524, 1.6998969521093266)","(0.18249893603085865, 1.9589643028562027)","(0.15582832563026164, 2.2474124409180956)","(0.17650262253589336, 1.8564092961393928)","(0.18270094671039072, 1.7958788033459925)","(0.13675750739405773, 2.778207110228002)","(0.17650042711759834, 1.889097410093545)","(0.19148895780541247, 1.744434882665231)","(0.23996740444238937, 1.3252781501531643)","(0.23074862478824779, 1.2352846657338081)"
"(0.22796860318935624, 1.2436044568361604)","(0.19430969889662905, 1.5670922895675077)","(0.24027553806726734, 1.5071638218578318)","(0.2200668654821188, 1.3646276784188043)","(0.2270041787805729, 1.2923183656217305)","(0.2678198617623011, 1.430023693948263)","(0.2517359807808472, 1.4353274857864462)","(0.1844136405398179, 1.5273533256395544)","(0.1821631303677587, 1.688876187514103)","(0.1870340476800967, 1.6400294102666195)","(0.18126303001965952, 1.8617873156160498)","(0.18061506076039027, 1.6669212614937154)","(0.17902275212505292, 1.51844260831882)","(0.17354207597282348, 1.7691588841705228)","(0.18299953809230657, 1.7224580555432427)","(0.16898610552502114, 1.7640988725915416)","(0.17171956539879774, 1.6771249734123288)","(0.1797256727282293, 1.4897567767121802)","(0.18401451998070126, 1.4014814959783959)","(0.16177561607894037, 1.584386196462464)","(0.17920282373588842, 1.4629506296532484)","(0.19495075144305998, 1.314517988438236)","(0.19688624123676896, 1.4133151082854865)","(0.1999071365350412, 1.5660712644998875)","(0.2004822689930871, 1.5381163091556875)","(0.17337124892914027, 1.686398597969757)","(0.19498042945407942, 1.4690901327558825)","(0.21400570316306838, 1.5952355161398888)","(0.20202901925343314, 1.470658339687171)","(0.21666263319219295, 1.3533846781696441)","(0.22383098154558276, 1.299856151000227)","(0.21562837214461, 1.304710312317128)"
"(0.2268994937242525, 1.3006534493977238)","(0.22755671692610963, 1.3615653175338303)","(0.23839549306700708, 1.4790481978831844)","(0.23291327146520915, 1.318320969448829)","(0.22902722467192618, 1.2903614769752656)","(0.26677100721811664, 1.416466228117731)","(0.2357140811756285, 1.5132985963205088)","(0.16043410967015895, 1.7861549274594952)","(0.13772221376914134, 2.1796290251052164)","(0.18466003236413778, 1.5475952343394346)","(0.18374937474718597, 1.6451727105580278)","(0.17763736004346156, 1.5932497492379893)","(0.18369738593736215, 1.5859936074980456)","(0.18176799731966461, 1.6393427763485302)","(0.1918524194887914, 1.6471686279838895)","(0.1996453165872412, 1.5538471581205446)","(0.1859514120369891, 1.6271575620931467)","(0.18777526506887407, 1.4958871174678114)","(0.20084431109804016, 1.3627241126954155)","(0.18112197736178556, 1.5080068898105055)","(0.2030297407955091, 1.4101864837405196)","(0.20671737145371355, 1.3733175151768207)","(0.22556834291124175, 1.3257767252240589)","(0.2094558421666255, 1.4594096222224193)","(0.22220812120467226, 1.3250364505225825)","(0.21360709135204337, 1.3826121439566585)","(0.18953691187561605, 1.4680740303186306)","(0.21495185972662767, 1.4024614922465497)","(0.189543877491392, 1.492939087104638)","(0.19621335473636842, 1.4447645306937245)","(0.21875203113195957, 1.3336101946255317)","(0.2144892772227165, 1.3981191304518934)"
"(0.2114505806192002, 1.4309880072699726)","(0.21434465143471282, 1.4404700384705857)","(0.19996504250887603, 1.7030345311229598)","(0.22325071095123014, 1.3677737503669936)","(0.21069995519470858, 1.4008806055366527)","(0.2597702104657555, 1.4719480326739791)","(0.20018013415236383, 1.7493862354149528)","(0.17947703146807642, 1.6401284190813736)","(0.15834303952688855, 1.7989058818591293)","(0.1714551377814126, 1.6947959574512343)","(0.19205899884929611, 1.5547107017268795)","(0.18055228826372313, 1.4917274400138298)","(0.17419577522606294, 1.638299584261445)","(0.19080613742953992, 1.536330316772373)","(0.2221293793364795, 1.4571555487529717)","(0.19764415866511043, 1.5471692351834447)","(0.172851341076493, 1.7608313529078707)","(0.17895889431893253, 1.6093986747543036)","(0.1802755962401759, 1.573097626044657)","(0.1959277965937737, 1.5294150370499238)","(0.17895305511675677, 1.6648534972971258)","(0.19371349705039315, 1.5327928401434148)","(0.18803638682105372, 1.5883757983672446)","(0.1913450626557841, 1.7432451843275114)","(0.17185336955651995, 1.782479475370773)","(0.22308284611454918, 1.3844817354472894)","(0.15504734971234702, 1.935355876788246)","(0.14203397482041905, 2.101035234836409)","(0.18190919141198647, 1.6293563785001794)","(0.17593216264430708, 1.7074169159844426)","(0.2121562395249435, 1.4098105323090648)","(0.22219740190355924, 1.3305095411904313)"
"(0.2027348818633651, 1.469682606537691)","(0.20587767801357096, 1.453318400024424)","(0.17971393924507165, 1.8972654199156724)","(0.21060165799925434, 1.426278015790462)","(0.20701285512487214, 1.4117243234000225)","(0.2501725080337702, 1.5711822279436425)","(0.20892135147589155, 1.8365750938205423)","(0.18293409874064695, 1.636714042179238)","(0.18062854491533392, 1.7253652488825129)","(0.1661650292228936, 1.9480007053048762)","(0.16870850880726682, 1.9678293934384898)","(0.16837192154046696, 1.7831190008155773)","(0.16041530001903667, 1.8724563201293989)","(0.16844226205509652, 1.8915622995301706)","(0.17413438253646302, 1.958516830075106)","(0.13648228015996464, 2.3316503997364566)","(0.13549210065775702, 2.405865297520402)","(0.14762672817526498, 2.0940071676630736)","(0.1757341639357729, 1.717233387579625)","(0.17849495454624997, 1.843162552475802)","(0.15855552987853383, 1.948826612849754)","(0.1752473295129495, 1.7130599011745191)","(0.17082626646108973, 1.7407772739108958)","(0.17731981033591374, 1.8723253053987041)","(0.15457413634835027, 1.8516390722658287)","(0.20889846396356845, 1.4004503816294913)","(0.15312166553933818, 1.9012394691804586)","(0.14818257885087308, 2.1735317939089898)","(0.1898472653177494, 1.5488108629818447)","(0.18182206706738, 1.6367343108798726)","(0.21841624619827057, 1.3382390902560652)","(0.21529660229293834, 1.307425224431075)"
"(0.20961004906391328, 1.5486440856189712)","(0.2189072817611827, 1.5615305488259337)","(0.21550655198347707, 1.7486513262387786)","(0.201975849456894, 1.617330000944312)","(0.22164675890153393, 1.413190576247786)","(0.2560818753302278, 1.580715450786717)","(0.2760924850779759, 1.510141702547285)","(0.17523305728087607, 1.8680439795137267)","(0.21517904545892713, 1.5107092706457614)","(0.1828485753062745, 1.848720429686249)","(0.16857852539726795, 2.1103554850603228)","(0.1757915253149591, 1.844661018604864)","(0.1812939838997829, 1.7440648288924534)","(0.1494389583003915, 2.336060839441574)","(0.1613186563266876, 2.276327228762637)","(0.13639719292401922, 2.574105350868192)","(0.15842402370005623, 2.319767915090232)","(0.168765394538149, 2.037972034723347)","(0.22145356953567694, 1.4516743316373948)","(0.214903849378729, 1.7015855536218876)","(0.19801851335087903, 1.6286368011333892)","(0.1909052122625275, 1.599107310429749)","(0.18310323648062216, 1.646432286574838)","(0.2270958673929843, 1.5136762567836721)","(0.22899588237178617, 1.4094136053033341)","(0.20309049938922935, 1.4944806707207716)","(0.19641066084238964, 1.6116075994935624)","(0.24634850939580472, 1.5169711638012746)","(0.20603492875422008, 1.5987121582379913)","(0.20896624579655818, 1.5805361746547322)","(0.21739339846741165, 1.4235488856847258)","(0.22767820958444077, 1.2753987889421379)"
"(0.2419255630387319, 1.3121039499146476)","(0.24466448722392783, 1.3865785338801153)","(0.2219521002757736, 1.670224982048702)","(0.23869342645566874, 1.315871651515933)","(0.2390636655440504, 1.2892868223570089)","(0.26867903471142646, 1.4595284561453183)","(0.27963564484830633, 1.529273583076018)","(0.200717070209714, 1.6539742733853298)","(0.22082879939353844, 1.4247462847430614)","(0.20779491066061745, 1.5671907623018713)","(0.23492686280193378, 1.5181908946201461)","(0.1890941733626388, 1.7293893676852596)","(0.20133031643488675, 1.5659203639644923)","(0.17072453117622, 2.097377003450195)","(0.1891393778144157, 2.0399252358986146)","(0.1700986541137047, 2.181722396195044)","(0.1918402021562005, 1.9819703220237945)","(0.17421226067104667, 2.0434878578935294)","(0.21834526394768378, 1.4941932837951462)","(0.2175145767643549, 1.7019023074206894)","(0.18732420617662246, 1.7426832091876128)","(0.19792920997266214, 1.5352703105616967)","(0.1898664977268463, 1.6216957610562508)","(0.2368417691327622, 1.555120389601898)","(0.2308898254388994, 1.4767938383815036)","(0.19513884051520292, 1.567111553637407)","(0.21564803580812378, 1.4839487936780333)","(0.23667715060970596, 1.5073026488308376)","(0.21977103500028827, 1.47499120380712)","(0.23097057058665785, 1.4041674493512162)","(0.23751079489305435, 1.2854714499141167)","(0.2148851916128747, 1.359985038059993)"
"(0.2530195009410444, 1.295738549275052)","(0.21310131088547213, 1.48932485872581)","(0.161349997650396, 2.2179153364662647)","(0.22162821579866782, 1.4130755984890768)","(0.235532811353219, 1.3214722649776105)","(0.1732682397634294, 2.1945104172782686)","(0.2457988822468506, 1.676057881001704)","(0.1587208272392352, 1.8937224339617345)","(0.20480980848178473, 1.5781084979277682)","(0.17857114034923607, 1.7666903770992655)","(0.1946422413662258, 1.8672166872266613)","(0.1544587002440812, 2.1973384470367163)","(0.19442997691346392, 1.6938136024071915)","(0.1830095687278607, 1.987599622765903)","(0.17311192228610656, 2.2131187863720565)","(0.17451342605224868, 2.1851678652868323)","(0.17040344998653642, 2.203160594162394)","(0.17034205467683822, 2.0188452087895135)","(0.18919189815009554, 1.7684228796637969)","(0.1839151213352706, 2.0377413395799793)","(0.17570835683257283, 1.9531739550688734)","(0.20175501515219352, 1.4750074376347642)","(0.19696969958191382, 1.6657322302421442)","(0.21148755385798504, 1.9236196115718958)","(0.22373891066521015, 1.683606090100983)","(0.2197885569644726, 1.4807938989775624)","(0.2388711771352317, 1.4236489006972113)","(0.1990118043123945, 1.8795623566957003)","(0.23920983905154156, 1.4454273175145897)","(0.2463765569048085, 1.3827207838825728)","(0.24422749463871496, 1.2833499199021567)","(0.20042363337029395, 1.4014825827418378)"
"(0.21352656247082705, 1.585933237720552)","(0.17130887802189781, 1.9412454799378787)","(0.1298672518016384, 2.716525330640238)","(0.16900209847523995, 1.9902871884549744)","(0.2040336846861271, 1.6190173782070434)","(0.16452688368032334, 2.2968959908493956)","(0.1957449092852394, 1.9958181101552965)","(0.1536003212096536, 2.0562763439279186)","(0.1593972093428923, 2.1688125813427597)","(0.18728767505552313, 1.862788529014252)","(0.18327357664889216, 2.0220265924129186)","(0.1688213588996626, 2.128214632616417)","(0.18023034663630838, 1.8643067756068774)","(0.16107376509343668, 2.2452712210580104)","(0.15111308118078182, 2.3590436781306026)","(0.1724927886219791, 1.9727728859243043)","(0.15919802100647032, 2.128544754381896)","(0.18362862353910925, 1.7552371179889301)","(0.19462581834194415, 1.7173551762037593)","(0.1930082550752165, 1.8425717274473044)","(0.19824295274898568, 1.7398210360191808)","(0.20714571911934845, 1.5352116724203022)","(0.20486661655399876, 1.6213945859913637)","(0.2310484755976265, 1.650759036429356)","(0.2367260930679788, 1.5662479454712745)","(0.23577035109810818, 1.4413657008566338)","(0.23869456302112999, 1.4265444389635635)","(0.18328735350365705, 2.007497997237584)","(0.2256621319613642, 1.5242411892022714)","(0.24397648557983753, 1.4095914827514657)","(0.2294564654453159, 1.4220329269799654)","(0.20652478138431177, 1.45243547353306)"
"(0.21525454296646646, 1.5364684445937993)","(0.2065575755163946, 1.6582048953282549)","(0.18798799735563082, 1.8930590131158165)","(0.203493482710362, 1.6233749842089167)","(0.21923274226630984, 1.4438806838080964)","(0.22542381424763008, 1.7113129743262216)","(0.22224590998722493, 1.8723479448615132)","(0.1806252836077288, 1.774301252211568)","(0.17565722960629546, 1.8605842409238738)","(0.22614781396744135, 1.5841241778376505)","(0.20099426172062299, 1.715329595444235)","(0.2177702512850569, 1.5788071261447494)","(0.19521421410723544, 1.6885812111905079)","(0.1797638350424871, 1.9321520764989704)","(0.17025253475974672, 2.034838848683325)","(0.18985646862381195, 1.8187906849521183)","(0.1910760621675477, 1.7636862119555117)","(0.19891887869054004, 1.6178084122439458)","(0.2128442355584699, 1.4714687608172663)","(0.20348242290065055, 1.6565418698915808)","(0.23255419989110274, 1.4041053636118819)","(0.236756419164659, 1.3291699531035455)","(0.19899644185894316, 1.5544618949646747)","(0.25658107086813886, 1.4149361644032532)","(0.26497267909758543, 1.3257706736007002)","(0.21074443170468915, 1.5485960901841633)","(0.21492859903949899, 1.4877368750254487)","(0.24854015116356665, 1.4148410304854544)","(0.234825803815568, 1.3769429939959705)","(0.23694157927761555, 1.402242383066247)","(0.22800959590739284, 1.4581589397117225)","(0.2189651749182686, 1.3625137845334927)"
"(0.2515200168902855, 1.3113811935909019)","(0.23073933653005438, 1.4172501187185076)","(0.2503910719166595, 1.519364605073429)","(0.2476879065304838, 1.321765389259231)","(0.2244996907401792, 1.3655715582976053)","(0.2690080521892115, 1.4596705357261566)","(0.23382154638481703, 1.78729846582433)","(0.19295373784961617, 1.6845662738923932)","(0.18546285894986064, 1.7285118659038288)","(0.20744900954825538, 1.6272001018416489)","(0.20187622253656623, 1.6643466523249233)","(0.19380877638556532, 1.6658450062937662)","(0.17607611839389598, 1.7957532970001273)","(0.18565681535670917, 1.8307202328784347)","(0.18767607284837526, 1.8860062741131838)","(0.1768043811850622, 2.0283005149376874)","(0.2031287186765895, 1.7468673678225541)","(0.18284843867428877, 1.7954350274120805)","(0.18963394932565955, 1.5858707161391332)","(0.19473658938769012, 1.6480337440222823)","(0.2155843437164506, 1.4069801157803323)","(0.207673945899846, 1.4436771825286234)","(0.1676493656881131, 1.6537991850398552)","(0.24964443182285645, 1.476571625469754)","(0.2268921835117806, 1.523014514167219)","(0.19187236549888986, 1.6368322198093477)","(0.21273399458332273, 1.4794211629558403)","(0.250247740464436, 1.4367210969377653)","(0.2387528741685666, 1.3404329080410793)","(0.23263890513766314, 1.3922339816486218)","(0.23622109363106927, 1.3771898568635188)","(0.21895799779851305, 1.332721949307912)"
"(0.2434520255409589, 1.318694742420954)","(0.23065955315461434, 1.3663751989021578)","(0.24375901848117268, 1.5381503226849331)","(0.25464633657818236, 1.2767883150097694)","(0.20922356030757255, 1.468575772816545)","(0.28300707393098, 1.35018345511934)","(0.23305063376517846, 1.6730075249941005)","(0.22802699572777158, 1.3849329558129646)","(0.19332424278132176, 1.6535480619978316)","(0.20437941890976177, 1.5773439532804738)","(0.19266659070468498, 1.7896251600842823)","(0.1835545714005282, 1.689210800414071)","(0.17796781268684608, 1.714240983150071)","(0.17825220947892953, 1.8752237591270597)","(0.20625342000572677, 1.6844336966838205)","(0.15608982716289158, 2.1834222488986055)","(0.1713947379705536, 1.9903530052461313)","(0.1672684386843933, 1.9098619732834756)","(0.18498195912335286, 1.5888975546874984)","(0.17208671838299747, 1.8079775217137943)","(0.19598755341405397, 1.4980049889564604)","(0.179109373983755, 1.6081593245321693)","(0.17291711927204823, 1.5584243189742417)","(0.22055724619969613, 1.5674452073023408)","(0.21093496975337955, 1.5547744586903751)","(0.201305528027372, 1.5465488349062622)","(0.23677713458151292, 1.3109134443978299)","(0.23795154261739027, 1.4996607422835924)","(0.22257256361820396, 1.41420509206647)","(0.22232792670027235, 1.4164056143635189)","(0.2349830804839352, 1.3517364674036692)","(0.20621347601205953, 1.407758847334537)"
"(0.23935920927747828, 1.2888357280457454)","(0.23767893406692447, 1.3358947924438644)","(0.24316985641581992, 1.4102157162687419)","(0.25054470523037203, 1.277563513663903)","(0.23503490404743818, 1.3084325271813886)","(0.2779171100459453, 1.3908884448819931)","(0.20643774303865473, 1.8124497810984106)","(0.23010285298184047, 1.2868943023964219)","(0.21383215802620606, 1.5250397846020545)","(0.19318457066500036, 1.6616082331602338)","(0.20634440617989436, 1.6480646355159048)","(0.1912176375785633, 1.6316404370701965)","(0.19697186004157946, 1.5568614600160768)","(0.19367340197705304, 1.7137688917997056)","(0.2229655345132375, 1.5802980060814493)","(0.17418299876368173, 1.9534569134753628)","(0.1914246020983792, 1.7438708105309029)","(0.17847147169686253, 1.7177199848069942)","(0.17652619456067065, 1.6217339907109174)","(0.1633831699198796, 1.886674355969501)","(0.18200611964843158, 1.614177756397684)","(0.17804759089343047, 1.6038367178870174)","(0.19932388542742677, 1.4432333375715598)","(0.2017656355998491, 1.6806616044022527)","(0.2084770049408455, 1.5749488113977872)","(0.22917619796501612, 1.4039477928742272)","(0.24432214533114305, 1.2677647571273558)","(0.22670813630783712, 1.564207867995122)","(0.22322861611070002, 1.412400401356703)","(0.2216622282461276, 1.4069062036420892)","(0.2333259270777981, 1.3353524998876585)","(0.21227598383062612, 1.3464573789634575)"
"(0.25186756431885354, 1.29384499171196)","(0.2576682752339995, 1.2889976625489277)","(0.24610922293679965, 1.4175258972764084)","(0.22773426066090818, 1.481103462510358)","(0.24664852967190046, 1.300662341005824)","(0.25855137260508365, 1.5778046033471138)","(0.2377465425041877, 1.6469142755329969)","(0.21923447906307034, 1.4023302017133785)","(0.18274370121556793, 1.7961779319639537)","(0.1821749140032485, 1.8054019009433784)","(0.209157181961114, 1.6108736390694494)","(0.18804625094458055, 1.7355038174035213)","(0.1770778403026358, 1.6625312186887158)","(0.18809820591199333, 1.7410941707424556)","(0.2018420494269728, 1.7422330138228046)","(0.18809452432798524, 1.865760061336286)","(0.18014664497283736, 1.8725987752596034)","(0.17738062880332042, 1.696843295422707)","(0.1856073988468754, 1.568455318856693)","(0.16590066553620172, 1.9158030313397554)","(0.1767631700130798, 1.6470665851971078)","(0.20326572808134455, 1.4276915244941364)","(0.17881530030805898, 1.6525028383594567)","(0.2090275975586816, 1.7371734569105517)","(0.21793730644934214, 1.5926559291098215)","(0.22837911351913695, 1.421385057511899)","(0.2279089112646554, 1.3551307643200325)","(0.21329863819014955, 1.6597983275868557)","(0.22370990173880667, 1.3990256988693532)","(0.2379257382229552, 1.307100652165306)","(0.2421107455427399, 1.281639277947522)","(0.20823262968436268, 1.3998794060474604)"
"(0.23092014106471462, 1.4291368028618048)","(0.22847283955085926, 1.454173281342318)","(0.23018670450445256, 1.5588255220890446)","(0.20995112196146168, 1.5642519792895035)","(0.23616320084271195, 1.3719483645638135)","(0.27063781255459585, 1.4243097878696631)","(0.184430050431535, 2.1286391164975877)","(0.20182726180168153, 1.5404025298559014)","(0.18040458967754666, 1.7415637172336242)","(0.20138251420717, 1.6321283206284154)","(0.20594718275896673, 1.6193528073955161)","(0.19979024218423183, 1.6383260578135923)","(0.19791813120688412, 1.5597326843972614)","(0.1927377572605242, 1.7100396549725434)","(0.19154666587689523, 1.7095573573512912)","(0.17865272985226235, 1.905770329333692)","(0.1896366272461808, 1.794427619588479)","(0.20442347471669212, 1.5795817950462765)","(0.21865498538469025, 1.4044322595208967)","(0.19263980666093677, 1.6754826659596012)","(0.20001292727920952, 1.497897170297432)","(0.2210630688085589, 1.3800330183392937)","(0.1860610790897378, 1.597576505117557)","(0.22169006368151414, 1.6206895437800308)","(0.23762220893073221, 1.4212112501658212)","(0.22079064840487228, 1.4826911861239704)","(0.20415966810618608, 1.564480580353372)","(0.20631768869576764, 1.6897051328311108)","(0.22212774087782677, 1.4625769646314166)","(0.22481318462996508, 1.4516365850753012)","(0.2211453549331061, 1.4173389337072655)","(0.209704633438797, 1.4863403055011408)"
"(0.236577602605533, 1.2750370674113687)","(0.22872299069141083, 1.340513248907942)","(0.21654454673186055, 1.6039444234434246)","(0.23449623466314784, 1.2814516197277166)","(0.2597051414969837, 1.1437653741568794)","(0.2560560929494468, 1.412606468284168)","(0.2189416541316808, 1.6983276956017528)","(0.19803389705221167, 1.3555626645512981)","(0.2136205024839659, 1.4782451938132442)","(0.23223968506375356, 1.4233351483245196)","(0.20966083949965242, 1.6814296480038116)","(0.23967405744729967, 1.3818505639282486)","(0.22153223603897737, 1.461512985836922)","(0.23435160937317376, 1.4520110803815938)","(0.20279219105243615, 1.6921055952270916)","(0.17733619141309553, 1.979804002988315)","(0.22590899804548414, 1.563833543360602)","(0.2311505991387906, 1.441102916926531)","(0.20413846815926265, 1.4970651226374687)","(0.2069208037853777, 1.5803947240247904)","(0.20041800189966216, 1.5000085826931584)","(0.1974654061330476, 1.5257683253915009)","(0.19709766504967172, 1.5143080801607647)","(0.23965497166525712, 1.4814785607638818)","(0.24777831178974702, 1.375599836864461)","(0.24816706681025907, 1.2145566190711476)","(0.22163522411525538, 1.3910581556805686)","(0.2390291217016161, 1.4317227325515849)","(0.2502506027344832, 1.245926041103488)","(0.2378818206567855, 1.3091296007250943)","(0.24497240918993202, 1.208952473154388)","(0.22227573571153364, 1.2891727911723299)"
"(0.2358228400657683, 1.241468690207737)","(0.231423209885489, 1.2748773298460359)","(0.211213763064977, 1.6348153943917956)","(0.2287865103735879, 1.288007461042344)","(0.25542022136022846, 1.1380258131450702)","(0.20434548891078333, 1.7912549740552717)","(0.27558462105393533, 1.3756710705759327)","(0.20528624903058693, 1.3656993533041686)","(0.20225521319840564, 1.5663417288151122)","(0.24176486858300797, 1.4214039710456539)","(0.20696742669997573, 1.785620932745559)","(0.21107468581972616, 1.5597649061811254)","(0.18157049835764752, 1.7408764927221643)","(0.23746144130437413, 1.4603567410183909)","(0.21784374970406195, 1.6998196513834494)","(0.1752636946149138, 2.0522880239081824)","(0.2166118125438063, 1.587461639481201)","(0.2035029922386051, 1.5201255694581997)","(0.17631156211804816, 1.5969605193881167)","(0.17898936827455525, 1.7507850492149353)","(0.176155713518766, 1.6291977474778438)","(0.18428045180560437, 1.4694516790904697)","(0.18771604391696786, 1.577762101317537)","(0.2248675986308246, 1.5199027257869346)","(0.21996229239230283, 1.576072453498705)","(0.22167555474085707, 1.3183070797326988)","(0.22826630486506533, 1.3188794422809496)","(0.22785192958214912, 1.4887263207608468)","(0.23987162342887658, 1.2591873983190358)","(0.23860115545605404, 1.2558552355849433)","(0.249660683448056, 1.1643637379755725)","(0.20896394287401113, 1.2985497652749278)"
"(0.21158758086344515, 1.4256457003847904)","(0.20484719049596012, 1.470423630667148)","(0.19597129876582162, 1.8684862229771366)","(0.200634666029129, 1.5099395680388124)","(0.19743996010713433, 1.454145810473436)","(0.18837852618596823, 1.9234003890914253)","(0.20476423997814014, 1.8457308217411035)","(0.1886194812592924, 1.6635001667283043)","(0.1642590289032902, 1.7776243027947802)","(0.19137739092453734, 1.7783097215515227)","(0.16862161743568563, 2.021240321587518)","(0.15166520495242433, 1.968444020484767)","(0.15768441578786535, 1.8275109297705845)","(0.15769255853380337, 1.9295534954018123)","(0.16391697169066072, 2.0516919249895063)","(0.14390643597827288, 2.1722724171590526)","(0.13311562782210867, 2.284884201150677)","(0.16085216318295456, 1.7976004472700424)","(0.17812475088375856, 1.6300901187350183)","(0.15690094955656445, 1.9936013096646916)","(0.18301762089912127, 1.6626594368698908)","(0.20263173291202338, 1.3862845424686618)","(0.19617125289199228, 1.5518744740469663)","(0.22884602396562953, 1.5356298877559285)","(0.19305193537536194, 1.700561278217454)","(0.17933720649856197, 1.7031344176936025)","(0.19340542536878644, 1.5993225964296542)","(0.1867725231578918, 1.785169228734159)","(0.20296895420523253, 1.4690137941332835)","(0.2031084525199164, 1.5022672171368476)","(0.2020663639325117, 1.4294163887463254)","(0.22288160510772112, 1.3279137126678977)"
"(0.2043912180140795, 1.5188594473217891)","(0.212594111476805, 1.4615297487054022)","(0.19301546116971224, 1.910608400341134)","(0.20740485817653287, 1.528790070796654)","(0.20051550721701072, 1.4807492066673889)","(0.20303699513938248, 1.840072517270652)","(0.20805137580922853, 1.8914040853723961)","(0.18989532434511755, 1.5784878714418342)","(0.16282718930001866, 1.7276561424019992)","(0.181340646649903, 1.6841274354959763)","(0.15245231247836008, 1.9234916165698326)","(0.1547437510757587, 1.7663675286064138)","(0.16561031827720923, 1.7002887731507679)","(0.14668689265839358, 1.8596998370764768)","(0.1492523772369667, 2.0388735711487396)","(0.14235928046585575, 2.12819652061908)","(0.147493509030826, 2.11386140428472)","(0.1622045570564367, 1.846323375755514)","(0.19567776868640896, 1.5513179915200714)","(0.17993476801117675, 1.815212565516808)","(0.21584576374184078, 1.502126301938754)","(0.22201677801410524, 1.3472607170262936)","(0.22507673308616474, 1.375825168019133)","(0.26152674633769435, 1.4327996745615301)","(0.20891126976999483, 1.4637542813049338)","(0.2056551863318685, 1.4738377272564331)","(0.21115828735904257, 1.4766557012326007)","(0.2100868849341932, 1.5719280784983727)","(0.21755028589163228, 1.3749398578520675)","(0.21871056284699877, 1.4263721643190233)","(0.2090897961224577, 1.411126910359093)","(0.22318774845975592, 1.3471356898804496)"
"(0.18864293599591953, 1.708240142706544)","(0.16690016999609536, 2.0212198595036392)","(0.15624675876195954, 2.291906952188737)","(0.16268347893157853, 2.033165904516204)","(0.22018152425016838, 1.4838497690095427)","(0.14921327557908115, 2.627512180324412)","(0.2562015126792572, 1.591111780948902)","(0.19835918105816713, 1.593233428381342)","(0.166404757590157, 1.7655196896791374)","(0.16822638969915754, 1.8736813845029257)","(0.1600644503409588, 1.7816280896227688)","(0.17447106158115827, 1.635429475859717)","(0.18737031453068445, 1.6159205822479603)","(0.16323369388434303, 1.7011438746470964)","(0.16493160820472008, 1.8159385400851629)","(0.1691173944944682, 1.8948086716536452)","(0.18553105075955437, 1.7693760011222586)","(0.19322839678395387, 1.6540644932802988)","(0.21039344810361624, 1.4891576833055282)","(0.19594818797566427, 1.717520554532948)","(0.20517434536188872, 1.5636801195612322)","(0.22392532325150002, 1.3655465351345852)","(0.20406551363470654, 1.49509754925913)","(0.18277734746626623, 1.975161355066997)","(0.18060749284086858, 1.7742476424196616)","(0.2329506493590572, 1.3558718970214096)","(0.2140813353139977, 1.5016335269258585)","(0.14350215064527866, 2.3982126172981477)","(0.18120073393451325, 1.7653833111859516)","(0.20623810386540511, 1.591858188560328)","(0.20491393618324344, 1.5551085430344733)","(0.20790471577964006, 1.5266350399704878)"
"(0.18526963979688843, 1.729031602912954)","(0.15296218192260738, 2.2645733488353645)","(0.14252499126778206, 2.52594570945044)","(0.1581601777404043, 2.1262892547649903)","(0.2072940298709792, 1.6023447822628507)","(0.14567825874260593, 2.5701961603595334)","(0.23662110056666155, 1.6457225231099923)","(0.16526493242056117, 2.0172940756346014)","(0.1669807050276772, 1.801508058410399)","(0.1795071317595933, 1.985527669718346)","(0.17807057817060656, 1.7195151018477501)","(0.180647508021888, 1.6934696345788556)","(0.17772846852523858, 1.641791448087223)","(0.1634917502243165, 1.7629704317141353)","(0.17634136700551903, 1.6998622046302807)","(0.16788459256012872, 1.8754265260498058)","(0.18305944952003983, 1.8048416819148205)","(0.18442290026741112, 1.6231376848641104)","(0.1992651285061554, 1.4428289128852623)","(0.18368286654020985, 1.7694391733890322)","(0.1898584057180317, 1.547525646544488)","(0.20194549492728905, 1.371515735604639)","(0.16155829816100664, 1.7000507528503124)","(0.1486564979088951, 2.3633047496196244)","(0.14287100531495717, 2.294507104016965)","(0.22503577846075742, 1.4126003058489895)","(0.17137428550358855, 1.8040404964803847)","(0.1087688432854967, 2.9895442050854877)","(0.14164741350963608, 2.2640134454030716)","(0.16475982898012623, 1.9587885730348022)","(0.18488048653919367, 1.7396664990785244)","(0.22171146559586719, 1.4877919608761403)"
"(0.2059637035897227, 1.5293454796806951)","(0.17382190398044908, 1.9441189594165347)","(0.18089878807314985, 1.994391699554375)","(0.20516136641106614, 1.588858222996455)","(0.1920475568007225, 1.5753551751253503)","(0.17768585315156427, 2.0695724216102476)","(0.22117555136661116, 1.8005249144539712)","(0.15555763156061822, 1.869817902057714)","(0.1817616462404631, 1.510340043601046)","(0.20503002708564375, 1.6335824369127243)","(0.1803382414870556, 1.777551147756439)","(0.14307234591889081, 1.9619326985443384)","(0.16687717028156498, 1.5864300935542763)","(0.17384408642452126, 1.7326951083416096)","(0.20794373555672, 1.5685589714397037)","(0.18449690050895698, 1.7004879496195995)","(0.19778492911415232, 1.6398350528836245)","(0.1805672335727119, 1.5410196619286427)","(0.18452782190165634, 1.4392415365309403)","(0.18225713243072938, 1.7176841680327533)","(0.18830304797161304, 1.5308950453817316)","(0.19547921785945804, 1.2959847268740394)","(0.16306716652176872, 1.6137412985427648)","(0.17142031385386125, 2.1141557855952313)","(0.14764172801647657, 2.2228000235360885)","(0.17468384763190622, 1.6944282723303612)","(0.16715079633970206, 1.7540668067924379)","(0.11180993740043577, 3.057399370958733)","(0.14074987044623682, 2.19227335767938)","(0.16334944948277266, 1.8866925239559778)","(0.18400451223422326, 1.612622631483662)","(0.1887543487670515, 1.5676387903114974)"
"(0.2030108948280509, 1.5035694360696517)","(0.19474002970840879, 1.6097056956229314)","(0.16612410341319356, 2.073797041728639)","(0.21199391974059495, 1.4382655594900036)","(0.20917958652189833, 1.4402637389421922)","(0.19818658476308587, 1.817580661144643)","(0.23341389689858066, 1.647054794000671)","(0.17004654997081597, 1.67244448443945)","(0.185761517150968, 1.573677236066584)","(0.19923459430213694, 1.7021925303215717)","(0.19428334104280628, 1.758292266310551)","(0.1588933306063837, 1.895524730876801)","(0.18323367958023337, 1.6347166734306844)","(0.20150519944669507, 1.588568312052211)","(0.2005376098868608, 1.7025146609519366)","(0.18581172817709551, 1.7590596913255279)","(0.18083281945731802, 1.7676108642642365)","(0.19246650070344243, 1.576965086830725)","(0.1927494839443089, 1.4877244680189892)","(0.16852726507482346, 1.8777503833188307)","(0.19816878288398043, 1.5485949578383063)","(0.19000722945355564, 1.4880670153629785)","(0.16004505641071043, 1.7403929736616852)","(0.18275878920753777, 1.9873420904882035)","(0.1567418952262482, 2.0418201491369916)","(0.16772292756494667, 1.7816606780328572)","(0.16793988013812333, 1.697501871174103)","(0.1174988123216597, 2.866704059800578)","(0.14096980097458592, 2.0880807654962896)","(0.16620760882096441, 1.7678331539334782)","(0.1878807387155823, 1.5494823189587177)","(0.17502114122685775, 1.7145847055509889)"
"(0.21423406371146275, 1.353789689175907)","(0.20871143690659935, 1.3577340265955813)","(0.20457788850416092, 1.6481847844420876)","(0.21805771580566957, 1.3329871008686578)","(0.23918925492127643, 1.242794969910095)","(0.20955071035664652, 1.700056373055045)","(0.236050624196212, 1.5515424014865702)","(0.17327877830616006, 1.7606438697496423)","(0.20705426473136174, 1.4918544446575135)","(0.2250794239188818, 1.5183775081960298)","(0.20581038179752809, 1.6776853554030462)","(0.1977451275165089, 1.6481692676809143)","(0.18668503290340394, 1.6263424984048118)","(0.2152616106677643, 1.5069668674180476)","(0.18736055309683045, 1.7805716097415047)","(0.18941140350492344, 1.6489295680920901)","(0.18782580673169713, 1.6229348906094094)","(0.19180303569248494, 1.5561339180417144)","(0.2025552956188089, 1.43594784413827)","(0.17681776619002146, 1.710209978355832)","(0.2041047421961957, 1.4891417490398726)","(0.1897350516989198, 1.529424709167941)","(0.19081448796840694, 1.5068531513931676)","(0.21817743796705216, 1.6428576030848296)","(0.1962445095307527, 1.6200214027689817)","(0.21671001576269108, 1.3694530244506902)","(0.20419799829510177, 1.3927940737643971)","(0.17953644364639598, 1.7904392856250417)","(0.19552415613038837, 1.4676320204514894)","(0.20397282485051435, 1.4054768354556009)","(0.21844322091149984, 1.3067658606600572)","(0.197648441695458, 1.5609584656016429)"
"(0.24842527068889347, 1.2023654533257746)","(0.23635245448325815, 1.264732835976949)","(0.22373345597927663, 1.4975620868824087)","(0.24977361572934606, 1.2181005377313734)","(0.25909141251969403, 1.149879856615486)","(0.20613944421170413, 1.714414078091965)","(0.2115105133852523, 1.716871710952709)","(0.16491542419663463, 2.002667087090664)","(0.19719765385234214, 1.5079441913938636)","(0.19989907591525521, 1.5408123535018174)","(0.17300845996365982, 1.7877457825219292)","(0.19576524896684586, 1.5384471678637344)","(0.18132407216818977, 1.582694900265527)","(0.19934970190078222, 1.5467261350349688)","(0.19130416645266182, 1.708882742494625)","(0.1885955425275991, 1.6453231114327171)","(0.193854604907372, 1.5612920722312824)","(0.19710820839287102, 1.4955349140747058)","(0.1981529070911698, 1.4479398955976637)","(0.19848992190489081, 1.536827534922782)","(0.2149289994158326, 1.4184197689885343)","(0.19292459699630352, 1.4487809657596034)","(0.21166393721618998, 1.3727035227713815)","(0.2122999734089451, 1.6458320545351215)","(0.21068812588041697, 1.5167360492988675)","(0.2402509124906912, 1.2390220100798737)","(0.23287453506325967, 1.2892140554333866)","(0.21391126363639246, 1.5220503385963786)","(0.22419597223979185, 1.3464773000122487)","(0.23152276270438155, 1.3048682978597335)","(0.25019842298229844, 1.1795981457171214)","(0.2120155404042379, 1.4285101988821185)"
"(0.24102856837600534, 1.2432200850850985)","(0.23430319532762334, 1.2958847480310427)","(0.2232948010241297, 1.4633673777295848)","(0.2411717063475755, 1.2698041338146173)","(0.26030675488203614, 1.1581474077475378)","(0.20392985854007428, 1.7268068787431712)","(0.2039496674210235, 1.6722791337490845)","(0.1986490003982015, 1.6421641214141216)","(0.18008235140437603, 1.6402523456783538)","(0.1938388262043988, 1.5785789988550838)","(0.1629407839106271, 1.7275851628511136)","(0.16136873341825908, 1.6591793647031094)","(0.16999949500623412, 1.5836081138534523)","(0.17545975416227785, 1.5648202789395373)","(0.17372403960166805, 1.6547071137731426)","(0.18361021200148758, 1.5928690518736197)","(0.17342694624313898, 1.630226111134338)","(0.1785199951165205, 1.4553203706870195)","(0.18240444212179063, 1.4138861140777088)","(0.18674748172023745, 1.4940753977358585)","(0.20140036723055252, 1.402105843290093)","(0.19126431989962928, 1.35613685150986)","(0.2085103855535167, 1.376361056827431)","(0.20915190771618203, 1.5958765701778501)","(0.21965307799265596, 1.4572871036590358)","(0.2299944158458897, 1.3007992523374403)","(0.22588710696871733, 1.3307888577435096)","(0.2126814063210364, 1.4382018146936553)","(0.2257600133680626, 1.3341485182391961)","(0.22848360512675558, 1.3182431091946987)","(0.2492944705768298, 1.1919459958983063)","(0.21560348143932656, 1.3929340949642328)"
"(0.22148058422633932, 1.4113933760269217)","(0.19602298237766363, 1.6151791121205772)","(0.18452091998791997, 1.9009157707828443)","(0.21620658011417648, 1.4489331828885614)","(0.24284354242753667, 1.2789406660239395)","(0.21856250384567402, 1.6555050116466872)","(0.18318134897276375, 1.875757577383147)","(0.2098363281219613, 1.4310315846073662)","(0.14802071211043133, 2.067136756833779)","(0.18900941014928133, 1.649881318764677)","(0.15932441216108278, 1.7337100273308446)","(0.1414182655236967, 1.792022384428915)","(0.17633045671304526, 1.5358381748456416)","(0.14858107357170347, 1.7307595616519373)","(0.1505326076591438, 1.7448086247150507)","(0.16537651617302407, 1.6723188888848117)","(0.1587158718034976, 1.7084674382196374)","(0.16177630908076962, 1.508338754405499)","(0.1771764211926871, 1.4250917091955813)","(0.16481439727975838, 1.5926001599780484)","(0.17986781034433283, 1.4845596232505434)","(0.18987856816386983, 1.3857172257774446)","(0.18247745642749408, 1.504398955343975)","(0.21472763744300502, 1.6825534692735948)","(0.21098006644912934, 1.5258222652862994)","(0.1678376448909417, 1.7100355517205126)","(0.20526756061364135, 1.4675809572661673)","(0.20038652320216857, 1.6053513741016145)","(0.21555726386598134, 1.4025449918720476)","(0.21448315479634106, 1.4527817133356566)","(0.2266707344813663, 1.3091817923348366)","(0.2297576710234531, 1.2796820301384968)"
"(0.2244490243951403, 1.560410329896363)","(0.21008116235950955, 1.6025078411146825)","(0.19716640472022182, 1.8754461690673987)","(0.22889212569247955, 1.5403809477810457)","(0.23140595664683816, 1.4526543467819863)","(0.22350264471441805, 1.7374781911696529)","(0.18557128008522594, 1.9378071464139583)","(0.19122256266958731, 1.6348008090848543)","(0.1587720290108121, 2.04774458884613)","(0.19665749284711154, 1.7522159154395798)","(0.16717733933980147, 1.929622341111224)","(0.1580629122564109, 1.8628256524219928)","(0.18893771976673973, 1.6546354099100877)","(0.14144077014914236, 2.099832651951618)","(0.1493838413487132, 2.187552607225523)","(0.1549542511639014, 2.036803221272912)","(0.1561606534984522, 2.0022705408298425)","(0.1630923554239147, 1.8419517232887912)","(0.20095368974385067, 1.6092236415095287)","(0.16637342071832176, 1.9011772036757943)","(0.19668496027932986, 1.6925768642960932)","(0.2211008113184152, 1.441294656931566)","(0.1911044120358619, 1.5988989763172976)","(0.24591066308656692, 1.6624196776150648)","(0.2036002465704713, 1.6820491754630047)","(0.17273779304695716, 1.74520803436928)","(0.21154221526335673, 1.5251647335669734)","(0.2187273852999246, 1.6499617885397733)","(0.24585650378750498, 1.3487459504056984)","(0.23143051237358125, 1.46342035326574)","(0.24288495222758436, 1.3192483120318699)","(0.24310850962377142, 1.2969460449784955)"
"(0.20798655161789872, 1.6132052836830266)","(0.21265181004659756, 1.4969043537531268)","(0.2178606754818034, 1.7032344616248403)","(0.21142626481829216, 1.6139017098213755)","(0.2178414133096911, 1.5134621267941297)","(0.22034871679538687, 1.7761255953695225)","(0.24762907974561107, 1.5225392871247725)","(0.18680780687321372, 1.7464724513342191)","(0.17457281882893025, 1.8728586891374563)","(0.20885350501781183, 1.7740315211779651)","(0.18037288067883583, 1.976477115145124)","(0.19019342144413645, 1.60477380283682)","(0.20242903250724345, 1.6823466890292704)","(0.17895099595313868, 1.8455248359005685)","(0.17186059541231674, 2.128990701469087)","(0.17824821043303182, 1.9243158092791413)","(0.17252210748259375, 2.025095894369761)","(0.18062242597457698, 1.8193815016748964)","(0.22003216966351624, 1.5162681805020122)","(0.18524633922360909, 1.7973546818962962)","(0.19829404574508913, 1.722662774756018)","(0.23614134862566, 1.418370007231912)","(0.2102873731725836, 1.5639058507074988)","(0.21993685655807632, 1.7795319619451118)","(0.2137556282596233, 1.703671492206798)","(0.19164548379283977, 1.6422574660702773)","(0.19918868601308587, 1.620810605040534)","(0.20412508128891257, 1.7000514934595083)","(0.2151852446264614, 1.5469914068328616)","(0.20289339862317596, 1.6213452175117977)","(0.22546397505576804, 1.400006405901683)","(0.22555438975007017, 1.4277773703705614)"
"(0.22453828453537045, 1.4568618414420282)","(0.2146228573555284, 1.4889741514986221)","(0.24715630417178439, 1.5382393741299571)","(0.2190178815548827, 1.483220338641599)","(0.22741508889027856, 1.3869532291866773)","(0.22990286467107002, 1.6848116115783203)","(0.26142475549867833, 1.554136664094214)","(0.21469822007415698, 1.4228389931405838)","(0.18817705719061653, 1.7463406806591153)","(0.21606739568259764, 1.7154933765453384)","(0.17431138862255696, 2.0509022678175786)","(0.1971150169653501, 1.510365688553853)","(0.19919548117503846, 1.6582072712173057)","(0.20593072091944842, 1.598674632224119)","(0.17770650394276816, 1.950547732291509)","(0.17816252514174127, 1.8956045094830927)","(0.16857529553601455, 1.9968054420257788)","(0.1722594534968935, 1.7828719994085187)","(0.19417211758770775, 1.5870886306334488)","(0.17018886925105717, 1.9669533006913287)","(0.17149481639125624, 1.9004541751557014)","(0.22802710203270465, 1.3998154547649784)","(0.2139423020413201, 1.5461337575553187)","(0.22779695586819088, 1.7435182374473173)","(0.22471634920199274, 1.6164663073150138)","(0.18422511952381473, 1.7820137231501458)","(0.2057231001363796, 1.6332083115647236)","(0.20493003863604145, 1.7794178239713423)","(0.20599268940308976, 1.6218540298735344)","(0.20949380063796547, 1.6033998791412518)","(0.2241501127430754, 1.4088481230053145)","(0.20850602984132086, 1.5448142597960914)"
"(0.21223600720286775, 1.4460288880244994)","(0.19372900376358324, 1.6592600208512331)","(0.19956065733619177, 1.883658587016016)","(0.1948608033888554, 1.6141800659608632)","(0.20747127803623217, 1.422779403994004)","(0.21214464529359983, 1.6806839983674058)","(0.2622398638485245, 1.525326780870121)","(0.1866868506557759, 1.6259671365133181)","(0.18022783985296387, 1.7501709276299302)","(0.24219193655375176, 1.4439359520429365)","(0.21207107174839346, 1.6086981024082754)","(0.17436411010681996, 1.7935375058797454)","(0.20700660645435054, 1.5182605389366113)","(0.21376314490257378, 1.5299773631112386)","(0.2334983747800501, 1.4637417990077723)","(0.20446937873796536, 1.696065928706618)","(0.1966070542355528, 1.717747646214367)","(0.20562861835737667, 1.480087811510395)","(0.20469672799228614, 1.459107168348746)","(0.18411812811631162, 1.8283057835953687)","(0.17893541157273227, 1.7165555205903822)","(0.21330762574618256, 1.3853681677913232)","(0.19492374412980268, 1.5947850524167146)","(0.23894929458137798, 1.6318967910065403)","(0.18503455227678758, 1.8572482449356507)","(0.1832894192136146, 1.7555285299501342)","(0.21546624609979473, 1.5133408743459853)","(0.16809851268402337, 2.153525544929929)","(0.21905539634402754, 1.4759871505274866)","(0.22493848815122133, 1.4481304553448224)","(0.20839391071191735, 1.4475284457515458)","(0.22228681485676097, 1.427881351686617)"
"(0.18460695495389523, 1.6412255779509317)","(0.18386471756798203, 1.7702243199029708)","(0.18243583945453512, 2.1513173671100025)","(0.16993992134114308, 1.8469988665298689)","(0.18496870535769963, 1.6544864061230853)","(0.19041988866135015, 1.877226259905467)","(0.24354644351051394, 1.6281764315707001)","(0.19477339031596916, 1.595481756320875)","(0.1843778155222576, 1.715691680179883)","(0.21749877891218738, 1.518848729369413)","(0.19109391330845257, 1.709674896142002)","(0.1740428553787154, 1.8059994116425264)","(0.17358520743062775, 1.8873789602717392)","(0.1796095184967109, 1.8303860380352277)","(0.19582133433778462, 1.7684399692934003)","(0.19030531698342543, 1.8450322340934013)","(0.16408702105185993, 2.0469361937627606)","(0.18462751572783098, 1.7547890343062682)","(0.17324170032031025, 1.8163421122078545)","(0.16396810607074236, 2.0663060287628445)","(0.14855012733685397, 2.111267823661349)","(0.1787889302164562, 1.6957124485346435)","(0.1501675307640247, 1.981774046602537)","(0.16323439419710944, 2.269682578371181)","(0.1450549550421818, 2.338974245764077)","(0.1629723419586572, 1.853931711763226)","(0.18418499940611088, 1.6494234565199644)","(0.12185753689218506, 2.8031962126070016)","(0.15388680241411243, 2.011073342279702)","(0.18069241579230727, 1.7264429883272607)","(0.16710173398279485, 1.7020639511335944)","(0.21265205665215442, 1.493160428155131)"
"(0.19397749627838443, 1.7317700352779055)","(0.19187704990272497, 1.8074111656059093)","(0.19322490118990993, 2.055383439747191)","(0.16812392281386898, 2.0758867939521477)","(0.20602649261782158, 1.6197682463740255)","(0.1884141686072811, 2.139073088908646)","(0.2516598737756154, 1.5808996052599755)","(0.20562584839430065, 1.6319239495117457)","(0.19758216652532937, 1.7511327316252812)","(0.21027845326955602, 1.624710198696725)","(0.1799973078192013, 1.9180358450712103)","(0.1873185600439009, 1.7333734107625656)","(0.14675683707311857, 2.3661182518469217)","(0.158845646233405, 2.1353631132691193)","(0.18202301948946012, 1.9148335490756196)","(0.15883523849563733, 2.1892069716628924)","(0.14013761826963453, 2.363227728453689)","(0.15852056150598778, 2.1980725782204344)","(0.15137917645408894, 2.1884730756994664)","(0.15336563350505128, 2.500506340360834)","(0.15138409705139383, 2.3226113339204386)","(0.17278095720058645, 1.9742576652996262)","(0.13127582295062823, 2.561854611731306)","(0.15805687049661202, 2.4648385329293907)","(0.1552799263215579, 2.312857538894514)","(0.1576685459151889, 2.070208489208967)","(0.1694988324785438, 1.9234089326184094)","(0.11725602094461113, 3.1675564145325112)","(0.14427923264880999, 2.2573391623536816)","(0.17366047799378956, 1.9096716163607659)","(0.16614651593692342, 1.9526729559485907)","(0.21578516316237392, 1.5287395174042602)"
"(0.24128736090887593, 1.2973374306612195)","(0.20587063043569634, 1.6569833156344789)","(0.15825062138805107, 2.2392940437342173)","(0.21227134388144947, 1.5950482404658066)","(0.2267712382231071, 1.4068235386798114)","(0.19916662439535418, 1.9323096572306886)","(0.24881550937023275, 1.5059086580340997)","(0.19379510857531643, 1.7798896347713378)","(0.2093303707772759, 1.607144382676423)","(0.22143781804522972, 1.3832244023856979)","(0.19775696306924273, 1.586206234400109)","(0.1784755941004797, 1.7289105234909303)","(0.1543408502599668, 2.066389773276101)","(0.19032112972363635, 1.656585456782874)","(0.20627963273127342, 1.6344378070269237)","(0.1741441708118086, 1.9665849231004042)","(0.18699415157830693, 1.7856600068827986)","(0.17700422860743992, 1.778590402545737)","(0.1775880469372391, 1.7024736107046972)","(0.1736256457634368, 2.1179543302738417)","(0.2025430882517877, 1.678030575989265)","(0.18845678232940646, 1.6531711068155917)","(0.17351091203860625, 1.8702650986192855)","(0.17940354214909882, 2.1200509701876324)","(0.17291330657310344, 1.8902934441308983)","(0.1994481143628406, 1.5874693079265474)","(0.18246143317422994, 1.6401336740197998)","(0.10904003031253195, 3.1037327568490256)","(0.19640732889677515, 1.5940145135560497)","(0.21743187598158828, 1.4333081928357874)","(0.2263542689369209, 1.35765354364701)","(0.23328996004371966, 1.4113241138823753)"
"(0.24416008229479894, 1.275217735517515)","(0.21321639102177467, 1.5391791895787341)","(0.16614805639125083, 2.147825723475628)","(0.2548851457717997, 1.3033066356813816)","(0.2182671568008762, 1.4066448429719163)","(0.21790860949401442, 1.738493731206893)","(0.25652247345576906, 1.477371034147643)","(0.23823708182261663, 1.4857401466119418)","(0.18510383315434928, 1.7314891047505696)","(0.2230852158879602, 1.4013590983210258)","(0.19500332887697708, 1.543541797625112)","(0.17270862804024226, 1.6894904228293375)","(0.17604796219728747, 1.7031139210060557)","(0.19614413708751588, 1.5575923824004398)","(0.19873012388360756, 1.719195019834305)","(0.18007386309689266, 1.9227370364775087)","(0.19604719146747543, 1.7845575564292975)","(0.1903716827320651, 1.6181650393151081)","(0.1953542207024837, 1.5405488499100173)","(0.18989961935929564, 1.8019375099505563)","(0.2091791135882389, 1.5277243666405287)","(0.20655931729458632, 1.4705136951603046)","(0.2087872137599593, 1.4453384645575904)","(0.1971484880758521, 1.887726234686378)","(0.16625287103233372, 1.968254341252562)","(0.2044044115975227, 1.475658837987835)","(0.1900969545390821, 1.5581620817826531)","(0.12483098508735647, 2.7605697424521947)","(0.20543588613257052, 1.5453268625005638)","(0.2217914178380389, 1.413899024767737)","(0.23246078187600128, 1.258948692981112)","(0.22100717743647258, 1.4993650731520356)"
"(0.22228897746260198, 1.4331286652267965)","(0.22917754745474203, 1.3259960677106297)","(0.22566138706830444, 1.6276026507721806)","(0.22966359213105486, 1.3811496396949818)","(0.22850026463762546, 1.2929316678972775)","(0.2556536411720993, 1.4911665690192926)","(0.2410647471069559, 1.546975923439917)","(0.2125579220726528, 1.5554992174024884)","(0.14683414180904836, 2.1268991524031033)","(0.20380739992504235, 1.5699322554360666)","(0.2124739633959923, 1.4486813931913223)","(0.19644477629053675, 1.4105190698957233)","(0.18262607780328324, 1.6368521562309248)","(0.18345596452964114, 1.5477479491632886)","(0.17367334911431256, 1.8156229693299994)","(0.1604157923388261, 1.9994730833744145)","(0.1743911317349868, 1.82038754439657)","(0.18564924068641928, 1.5748102718755301)","(0.1949215395645312, 1.4825956758872245)","(0.21021576158926888, 1.5064313149563358)","(0.21420298233853322, 1.41304021095719)","(0.20618108322438222, 1.4811298449773997)","(0.21548058476725013, 1.4654333376058426)","(0.2510285686015313, 1.516099427298382)","(0.23015475446031983, 1.5628520869355358)","(0.21704977517365398, 1.4930244105232433)","(0.19986496909867082, 1.5891929156084847)","(0.20846830638378408, 1.7686675771186557)","(0.19949210570494688, 1.6552617543464847)","(0.19803415216621986, 1.6418097835962304)","(0.22945578691287244, 1.3252439587692708)","(0.20595136198635733, 1.5775540524774798)"
"(0.20393458241848111, 1.5462583008145603)","(0.20465960199949726, 1.4748024350776756)","(0.1958745142553876, 1.8068259476312227)","(0.20608461294125732, 1.4965263657029246)","(0.2165921561750841, 1.3977126161583149)","(0.24429727163334514, 1.5645995913126367)","(0.23067246241865533, 1.6706041157807556)","(0.18934320173023628, 1.5935854408075099)","(0.14453728087898238, 2.1237483370893986)","(0.17776687582797046, 1.7527188972459136)","(0.19885014491002267, 1.59260368319251)","(0.18162573886162023, 1.5167151162543067)","(0.1592567798676941, 1.7771703921109043)","(0.16171459406703909, 1.7692755732056733)","(0.16340194224306426, 1.894039044534348)","(0.14976992338000747, 2.0377366897025033)","(0.17296629738195068, 1.7165271355979819)","(0.16447959997890885, 1.6289776780922973)","(0.18709053156467179, 1.473666562036208)","(0.17598864191398833, 1.5057305702167612)","(0.2007096769106738, 1.4379153581245292)","(0.19864333101912046, 1.425483107626003)","(0.2131013394218094, 1.3743091934886018)","(0.24853870695360275, 1.4923718313532304)","(0.23842310041416076, 1.4856007845062844)","(0.23078925476596707, 1.3690068219737201)","(0.2060640274486303, 1.51094774296437)","(0.2481349357223194, 1.4226424160745985)","(0.21544898689082978, 1.4648246346669913)","(0.20306176762468336, 1.5731978295035733)","(0.22492761259178748, 1.3628972785322981)","(0.2277735793546394, 1.4116421071927774)"
"(0.20969583572922648, 1.5337440491236451)","(0.21757859480768785, 1.4978957654287919)","(0.18478097537702903, 1.8934766078350829)","(0.20567788491765468, 1.5793959625661984)","(0.21500019230075582, 1.5256614949937237)","(0.2287742730236468, 1.7243401394385487)","(0.2502907120681066, 1.5959136948158599)","(0.1540413375596854, 2.00364255249755)","(0.18789648430135503, 1.615035330467177)","(0.19907892936890398, 1.7132737033910583)","(0.19943880299330122, 1.7355299877383645)","(0.1778497259100377, 1.7512901755595396)","(0.1741945943761973, 1.6711345403726192)","(0.1822583839041724, 1.7953722533191039)","(0.1806542305230379, 1.87451927852267)","(0.1766388459239815, 1.8876415738646477)","(0.18546005306762908, 1.8184939255753887)","(0.1672619252861456, 1.7986217590056648)","(0.17858056681268075, 1.7353460030670234)","(0.17374204533830265, 1.8200413467185241)","(0.19615067953665954, 1.6084485702499753)","(0.18635398525092903, 1.5398799859998828)","(0.20492874825083107, 1.3964009549107042)","(0.2405949235134812, 1.5433074929981399)","(0.23754711127678893, 1.4771057204236777)","(0.21883893726004075, 1.416601120360168)","(0.21685259047085903, 1.462394044969092)","(0.2491739525143221, 1.380407098322423)","(0.24477658295253923, 1.2970326323384012)","(0.2285289161268916, 1.4077985131376165)","(0.23504251693804132, 1.3404528498000985)","(0.24838469373125546, 1.2971781822661255)"
"(0.24043379800825468, 1.3934511014802087)","(0.21636476193377072, 1.5838586391202112)","(0.21253296343388073, 1.777855853523727)","(0.2202534260491776, 1.5621083551138089)","(0.23195535704658457, 1.4571814506203988)","(0.23365304818069374, 1.6665809334458033)","(0.23832182714045486, 1.6252506502650998)","(0.13399531132526452, 2.3535685075259947)","(0.1974003064948999, 1.6031414899203604)","(0.22401199367641975, 1.5309180769804207)","(0.2213959152720897, 1.5786153854961635)","(0.15562776406468867, 2.0827070185276426)","(0.19042165265282587, 1.592580879337041)","(0.1955056667114571, 1.680514922415377)","(0.21501673037621682, 1.6017022637311427)","(0.154877426896427, 2.1209210794635664)","(0.18609452248646494, 1.8604795301373258)","(0.17024845606055003, 1.8637214779987339)","(0.16570257103649572, 1.7755597443111475)","(0.17184602749136163, 2.042945579118703)","(0.1816635079026449, 1.774657150032441)","(0.16187287198798053, 1.7008993723286712)","(0.20161725147992746, 1.478203968526996)","(0.23166514300192545, 1.64406253965047)","(0.22341939305661376, 1.5325885878478889)","(0.20481892566125462, 1.4852289646435288)","(0.21420234361724558, 1.4491908062760364)","(0.22504022116663558, 1.4996422193265184)","(0.2306481685921424, 1.393278813747822)","(0.23089503902269054, 1.38939654371716)","(0.24064145468472167, 1.2948555816353755)","(0.2076204149533994, 1.4899524604638088)"
"(0.2149798426165668, 1.5681464985580105)","(0.22646996561254848, 1.508046852572211)","(0.25832016725674206, 1.5270113638171288)","(0.2138674264952007, 1.5432342747578975)","(0.21203874817420906, 1.5355227855660363)","(0.24726747470217195, 1.521296557137529)","(0.23878850435811674, 1.7105896705445196)","(0.16559380669280158, 1.8826820976872711)","(0.178970621798325, 1.843343140843636)","(0.175893384482954, 1.7963950838293647)","(0.19822283098940427, 1.6994322364826164)","(0.1314406843556982, 2.3593925144633925)","(0.18951690717245803, 1.7280713501351082)","(0.17875901190939308, 1.8497391527733509)","(0.14085750560447688, 2.4914596666951647)","(0.14280642192624024, 2.348751064083591)","(0.17060663605219178, 2.107159517852876)","(0.1518833904618712, 2.1081134871752254)","(0.16723064683874958, 1.7351045292486433)","(0.1693322479588261, 2.0575411684453155)","(0.18035310299429166, 1.7574239250289876)","(0.15918839223651252, 1.8377861727101563)","(0.19838912409783563, 1.5616405730854213)","(0.16751101105459604, 2.3411008326502163)","(0.19357498111114918, 1.7462138842423247)","(0.21558088992874927, 1.4266506283547775)","(0.1725006495462535, 1.7655175949694124)","(0.19952626851157554, 1.7978203137263644)","(0.17294660392205338, 1.829922714956372)","(0.17498940376617217, 1.8309602440582742)","(0.21400906207641535, 1.4266793786726453)","(0.2006468505706713, 1.5888248871002686)"
"(0.217340454038472, 1.4441279672441596)","(0.246791300462312, 1.3214742901873995)","(0.2373500658796423, 1.596498052304399)","(0.23139845426486264, 1.3731514774573783)","(0.22263682395341033, 1.384483472325894)","(0.26191430752925615, 1.4952225604187084)","(0.2076904443361779, 1.9954969604086497)","(0.1823163500730929, 1.695945837667319)","(0.18143067582765648, 1.7862891997668302)","(0.1723690617421193, 1.9813590040913054)","(0.1842470484473596, 1.8604900375580644)","(0.17087396258105744, 1.9218111146378676)","(0.21329813667746564, 1.5808699574166054)","(0.19492412595234745, 1.7382707504711614)","(0.16607904630590475, 2.1664315996789365)","(0.17391592043295886, 1.964246418152973)","(0.1830021976265353, 1.9160695751407049)","(0.16747845035026096, 1.9555346298261855)","(0.19286883454048614, 1.6936218022071048)","(0.17171409764725937, 1.975322926168479)","(0.19929797596487972, 1.6894091016880355)","(0.2075136833587506, 1.6414551973338407)","(0.19832343385348944, 1.6010522718537692)","(0.1932332032400842, 1.9997555273795602)","(0.20995379981366666, 1.6276977474102416)","(0.24356908682441522, 1.3079102724288245)","(0.19589883668977315, 1.6297041787136615)","(0.22881085540196464, 1.567746579898841)","(0.1951700776598065, 1.6214134897057986)","(0.1933392619517822, 1.6347687225258694)","(0.22689621859545206, 1.33258213647048)","(0.2270086792596087, 1.4588094139247947)"
"(0.24564319154614006, 1.2952919652357961)","(0.23384687177450955, 1.373416293289913)","(0.22767413354393592, 1.5923846331518892)","(0.2544643687873876, 1.2810057373997137)","(0.24462731094330403, 1.2595201458535137)","(0.25944821497708404, 1.5123891360962058)","(0.24585418464550737, 1.5443370906601328)","(0.18860120492925495, 1.6474573533098376)","(0.19941802734222586, 1.5875440205793785)","(0.2059281717983691, 1.6397995055247259)","(0.1918663433623523, 1.7366028034652718)","(0.17973761143414682, 1.7599088981859883)","(0.2203334271638522, 1.3759860829061634)","(0.1884179294281991, 1.7048279945798728)","(0.21746635212604587, 1.5535007888047336)","(0.18887628100040824, 1.711877832763485)","(0.22034635229743463, 1.5181416631139628)","(0.2128212741140231, 1.4727887411268517)","(0.21924765448694483, 1.3922569985880333)","(0.20740560683920828, 1.5466529462631669)","(0.22768716476829057, 1.385021259658686)","(0.2289600054175226, 1.310724695325523)","(0.22621851821165626, 1.3044219315276284)","(0.2627196440263008, 1.3415169109228298)","(0.22960291539566252, 1.4800600484069737)","(0.1983455489900269, 1.533872991888336)","(0.2410152920481651, 1.2830808129755278)","(0.24061979953299564, 1.3983585471399502)","(0.2644393644195791, 1.1915248862596015)","(0.24373399774865365, 1.2891109794255928)","(0.2498210016635678, 1.2050171278887603)","(0.23312158948717557, 1.3363086297148676)"
"(0.24292117038819902, 1.3780189393113178)","(0.22840200383061607, 1.4508117887325682)","(0.24453949637085326, 1.5491582274737317)","(0.24006188907890524, 1.4070061028871663)","(0.23169784385172218, 1.3878372571963324)","(0.24640021818110885, 1.5749348494860833)","(0.23800219741933304, 1.532917322686474)","(0.21333751442767193, 1.623201003898843)","(0.2172564511467776, 1.537159072858644)","(0.22473654685168198, 1.6079112801668016)","(0.20077146095528037, 1.7310169171424814)","(0.18435224728443841, 1.8024073146456796)","(0.24204980470830054, 1.3077259352462498)","(0.2041408904638667, 1.635082076391626)","(0.22633423543136783, 1.4935364634976018)","(0.2181162833013455, 1.605579071921778)","(0.2272174961594124, 1.5578227857069888)","(0.22690634242864105, 1.4474297840124675)","(0.22480361095765047, 1.430054101982062)","(0.2323000101135604, 1.4589894753419324)","(0.23067216544941616, 1.4183420874036803)","(0.2237623809997921, 1.3673130299560012)","(0.2137260661598456, 1.456642752232961)","(0.26656534619343625, 1.4454427799452414)","(0.2153798007176609, 1.6534584815958435)","(0.18329842818519407, 1.70628655618531)","(0.21004848798789277, 1.4610808250378247)","(0.21902051288392232, 1.6196266878018024)","(0.21775123471940133, 1.5072065670755912)","(0.2174375846817074, 1.4860290293104828)","(0.2466959389751543, 1.2859002177007617)","(0.22490034365989028, 1.3280265721113955)"
"(0.22322472886227027, 1.4779161284376523)","(0.22410739324200193, 1.4926112711746842)","(0.2461601658540322, 1.5528067428693082)","(0.22325466263162713, 1.531405723246849)","(0.2112773752588918, 1.5699378605404586)","(0.20859277465097384, 1.9185000769460718)","(0.2344971155650476, 1.5873359207010775)","(0.21565705970301455, 1.6253773673769945)","(0.23230780857678082, 1.4571762257025602)","(0.20947786077154082, 1.6929442721501307)","(0.20176302642976476, 1.6700930239051324)","(0.19747855168384848, 1.6797281774309394)","(0.19548264330516976, 1.6315136830819885)","(0.18638496509325914, 1.7186426317297543)","(0.16610538384752865, 1.9779107083514897)","(0.20022042093505932, 1.7037794468425547)","(0.17091761184323004, 2.026110608047177)","(0.17914516812275233, 1.8149673079441795)","(0.18699822396517884, 1.7249187777014687)","(0.18703425194996887, 1.8078745995648962)","(0.17534060971916735, 1.8827210910617085)","(0.1941146830659009, 1.6743365448835597)","(0.1766459601319229, 1.847083430472055)","(0.21678003837385776, 1.8567224958039743)","(0.19936308039777487, 1.7107896522697614)","(0.19308756023660628, 1.7508205648929696)","(0.18947426182833085, 1.658662195336042)","(0.20498231504257958, 1.7347068254062379)","(0.18918804400103964, 1.7253901373114884)","(0.20497016435228202, 1.5625327946882086)","(0.22716748273434434, 1.4493109473049692)","(0.20851786023678937, 1.3964503957643586)"
"(0.2174383302793965, 1.4500560730581493)","(0.23500567197379443, 1.3720213412495212)","(0.2348107076081408, 1.5437664242522986)","(0.22891518385291296, 1.4141322278710822)","(0.22906341001100042, 1.406563516276699)","(0.24074341727063578, 1.547956964843178)","(0.22188655686558786, 1.6138160886035933)","(0.20413083303290985, 1.496235809115999)","(0.24686800897467287, 1.2986159767557095)","(0.20013253576179033, 1.5767869499448603)","(0.19212259606353746, 1.6195611813403061)","(0.2070826821208183, 1.505454138555256)","(0.1902011256301109, 1.5879931786524075)","(0.19739725130338642, 1.6285166202726615)","(0.17537371328899173, 1.9126593610008207)","(0.1993576883808383, 1.5605530919324573)","(0.17564440748203214, 1.8093371379658172)","(0.18008520014785934, 1.6625176115825357)","(0.1780730127081084, 1.6352287260010105)","(0.17430529243966328, 1.7717659072678928)","(0.1707110422901712, 1.800033922453053)","(0.18849459831327361, 1.6098938967333254)","(0.1850247838448205, 1.5767511001222523)","(0.2106922316123814, 1.7985636596666683)","(0.20071154422501983, 1.6362947859971548)","(0.18657688205006584, 1.7651333904754256)","(0.2069543101507188, 1.5028524814929518)","(0.19257256553295996, 1.735873018092981)","(0.21104306711731335, 1.486026754902761)","(0.21867567812815294, 1.4344530182611812)","(0.23637551587230646, 1.3629766397219074)","(0.20573954420389648, 1.3827529042273758)"
"(0.2249916817415718, 1.3794082199982947)","(0.24811352800800004, 1.2898934453028712)","(0.23221668462358694, 1.542634543161184)","(0.22525616842002802, 1.3899518091980498)","(0.2366466340458067, 1.3378887496222633)","(0.20653882414230382, 1.755344833537096)","(0.25121660517279604, 1.4811598352217992)","(0.19574702998800733, 1.6469649202707488)","(0.23066299117751893, 1.3834953694649141)","(0.2038983291279568, 1.603622965957222)","(0.1884283911514573, 1.6695991955539067)","(0.21509585911699391, 1.508999443359374)","(0.21548809224771667, 1.4275289924595014)","(0.2161925260119579, 1.55858157526561)","(0.22664266731456933, 1.5454087440688546)","(0.19564021816672375, 1.6599280472786324)","(0.21386906626605964, 1.5293444715680495)","(0.19586671370333883, 1.5602723831040197)","(0.2012397373893997, 1.4639822160796154)","(0.18651591442929225, 1.689001836827272)","(0.19628758332004975, 1.5673315472208977)","(0.20918981174230308, 1.4217471527605716)","(0.2071063732866565, 1.383174647778769)","(0.23242937891579168, 1.5839396613240304)","(0.21142821099384557, 1.5203197234719843)","(0.2094426708269778, 1.5292182341318588)","(0.2348904640851526, 1.300200482273316)","(0.20002362915127117, 1.6347317612823282)","(0.2367310962177657, 1.3172341610843012)","(0.24511007567145343, 1.273840403145109)","(0.2464230506713599, 1.2635178356892023)","(0.23070576855849445, 1.378621773493262)"
"(0.21993612998189035, 1.4823072213076816)","(0.23607489051204392, 1.3938212750534287)","(0.19520985458228968, 1.8279695139512173)","(0.22905263217045022, 1.467467714946279)","(0.22047638924593685, 1.4798120060296958)","(0.19668954065177616, 1.9834946321906457)","(0.2552320175623035, 1.490293456415875)","(0.186187920706574, 1.746694314612005)","(0.24729368508893773, 1.347607430370907)","(0.21360017360866257, 1.525679318220123)","(0.19218184706390964, 1.6504111308269165)","(0.19191612014270804, 1.6731358935796747)","(0.17452082928218676, 1.810876510306071)","(0.17730281252500665, 1.8404066993039723)","(0.18962318505911757, 1.8120984324490026)","(0.16497592266176117, 2.0534068950993882)","(0.16939656410012424, 2.0394401873727026)","(0.17289211321131906, 1.9363026023311483)","(0.20920281261144671, 1.5623993926746336)","(0.20489557377679748, 1.786476382448981)","(0.19877758166899362, 1.6614863026680482)","(0.20799430896380872, 1.463851337374883)","(0.19905101009852277, 1.5385164914543528)","(0.230056949637367, 1.5757480788497555)","(0.22201830479695597, 1.5379379008222258)","(0.2187948432955617, 1.4963444721782186)","(0.2362820239709495, 1.331702939199021)","(0.21296011457184164, 1.6400865783614522)","(0.22136209768391035, 1.4472227789624081)","(0.2406192526246929, 1.3431730615696265)","(0.23000582167237935, 1.3807889909199913)","(0.20575212600346984, 1.536293778847655)"
"(0.2175182308551627, 1.5199307195044582)","(0.2275680033801767, 1.4617832718322956)","(0.24486407972599122, 1.4512530867825888)","(0.24894495077780374, 1.3807332125599292)","(0.2210955067772538, 1.4286159238377485)","(0.2558877639606034, 1.5564134133036884)","(0.27425402165501656, 1.4104591730921643)","(0.181345676217232, 1.7908249078991156)","(0.21047335313841625, 1.544845485858068)","(0.21478484292791405, 1.4714268830927266)","(0.20450281235588255, 1.564652412522537)","(0.18810651755774843, 1.6635002845273124)","(0.1597313070679102, 1.9427756447312816)","(0.17334047351192058, 1.8719420270393539)","(0.16269223674904673, 2.160532352921135)","(0.13886939882618288, 2.545876625773365)","(0.16432816562741007, 2.235689824665615)","(0.17148614996846495, 2.0038124358932228)","(0.19987723889272374, 1.6659877405580306)","(0.20178208346184853, 1.7895091977194906)","(0.21761860374891803, 1.5269974475112904)","(0.20535953802775386, 1.5157341761827405)","(0.18775416077562126, 1.7066984728397918)","(0.2402728338883563, 1.5686815281793942)","(0.2110491458426405, 1.8280697593277253)","(0.17236055698025834, 1.9770688821492)","(0.19032828954937084, 1.8247563563016065)","(0.2443829618136854, 1.555635003826822)","(0.21366667449641288, 1.6100964512679545)","(0.20226878874470955, 1.691265162443314)","(0.20280773240583172, 1.5992956228781463)","(0.17972856808436896, 1.6658300086392173)"
"(0.22404361408972553, 1.4969164326424547)","(0.2068779391971131, 1.6109798040819194)","(0.24830554865473758, 1.4598075795849144)","(0.23766085684973218, 1.4615393712235352)","(0.2139640047465287, 1.5491285323338269)","(0.2267134242915495, 1.6749329050059627)","(0.27566121107774094, 1.437472827929153)","(0.20800553696160223, 1.5806927359647667)","(0.16619419687733764, 1.8783986721405832)","(0.22711393372822433, 1.4340867837123175)","(0.20657198730976845, 1.5497100859592823)","(0.0875341062797995, 3.57762567567537)","(0.1790918588230901, 1.689368251884163)","(0.18394384641326667, 1.7559246124150238)","(0.18019966542205965, 1.9434366657918851)","(0.15668071565353556, 2.256637188153452)","(0.18233265431800483, 1.9574446272218193)","(0.17784060261230367, 1.8150875967172542)","(0.18960198749416207, 1.6265298479648826)","(0.17362945105281546, 1.9181921299252898)","(0.17077987363601738, 1.8710849157449756)","(0.19614151574394365, 1.570834733428444)","(0.18501047412738816, 1.7722444098249661)","(0.16121157422495033, 2.285225311961406)","(0.19126413908422696, 1.958976113050661)","(0.17595941276768337, 1.9808569310143)","(0.1969788541895564, 1.6878565598087947)","(0.14041902334848724, 2.508278029301385)","(0.20110981668872469, 1.6535314695184824)","(0.19214515365477183, 1.7150540586268155)","(0.1991113099152217, 1.6272603914051305)","(0.20011612700728032, 1.5422802926389825)"
"(0.21886974788461663, 1.5403910117992705)","(0.19780744255596977, 1.646568136433569)","(0.2476835647912495, 1.443480430580592)","(0.22427153555540308, 1.4872238865377605)","(0.22033035553482982, 1.5242699146060303)","(0.2185105876355486, 1.6653611072181473)","(0.26182844976846903, 1.5224619473778251)","(0.1920761607392513, 1.5832001879434383)","(0.18150710928590805, 1.7548369637893966)","(0.23542290047395364, 1.4367271218241957)","(0.20727085230243555, 1.6560357413550142)","(0.0833739495469384, 3.9326441257725726)","(0.18383424078006172, 1.759017514262002)","(0.19347196723852403, 1.7612446907974797)","(0.1814994398846237, 1.9996327613497629)","(0.1773779745794146, 1.9556733231476542)","(0.16727606780569862, 2.013108168247883)","(0.20630867650456777, 1.5782356042326322)","(0.1897193406515399, 1.6137180373425002)","(0.16076279515154762, 2.0047954249718716)","(0.14461748988780934, 2.1869754477483854)","(0.20285540338365965, 1.5256888869511327)","(0.18063844563840792, 1.7987366130431062)","(0.13459665884658062, 2.7903992774069377)","(0.17152038723380633, 1.9941459293359105)","(0.1827951968836858, 1.8036972923525902)","(0.19060044501020992, 1.6538804515006487)","(0.11931957056512621, 2.8187245814990933)","(0.1915059585415227, 1.6746064672788532)","(0.1898518555347447, 1.7288711178750875)","(0.20365844590603235, 1.6035593417605811)","(0.22304934604945167, 1.4300498753665905)"
"(0.1814347950937427, 1.7336590475377849)","(0.18023271462521054, 1.6707410205377562)","(0.16618354011432188, 2.0169717413695154)","(0.1892397934153412, 1.5053771636055564)","(0.18266828060780035, 1.68889150715486)","(0.19045414513083123, 1.8726033360347987)","(0.20125181375538406, 1.891123810347085)","(0.18192170285890025, 1.7005810322920465)","(0.1590411137948571, 1.9155698981309484)","(0.21783430478499968, 1.488602984902284)","(0.18482392191043628, 1.8480957587156897)","(0.16792374417811287, 1.8607357415508947)","(0.1452972026487215, 2.2988962419609416)","(0.1586372407122276, 2.072266025180997)","(0.15874159569913202, 2.229639231978806)","(0.15885005806540706, 2.1557737231388656)","(0.17589456428335015, 2.0895100905333197)","(0.1819757427929638, 2.023303014263839)","(0.18179413383381013, 1.9109557357081017)","(0.17547365038307536, 2.040640507082061)","(0.18896283612980475, 1.7833698387305124)","(0.16477742931314482, 1.9821824663221614)","(0.19549813452951717, 1.5911484153608098)","(0.19217152829097114, 1.9585881073362152)","(0.14938828043341845, 2.1322161222443836)","(0.16059062741855523, 1.8499226409291554)","(0.15310813978060878, 2.012189285265857)","(0.13921518506363173, 2.3982278022154997)","(0.16091180105092942, 1.9343136769879736)","(0.15691542391827046, 2.094191524704762)","(0.18219176972653464, 1.6939051429126684)","(0.20248575642848596, 1.6378410917764514)"
"(0.15830243071541603, 2.017682403565531)","(0.17275291403764503, 1.8989122113194519)","(0.1406553907982743, 2.434714840863851)","(0.17846904877820643, 1.6247801635029502)","(0.18128451886600855, 1.687202875240998)","(0.1449739209089345, 2.3472978561377755)","(0.15981535616987477, 2.1635861446914664)","(0.1921155126458988, 1.7891804619223173)","(0.17870327210927744, 1.6224951959453555)","(0.1871744788089498, 1.5374232354750423)","(0.18077395405065677, 1.665144422596366)","(0.11848916285024788, 2.534249411033333)","(0.1796305786565121, 1.580302837118977)","(0.19735818341473446, 1.4639501636283823)","(0.18491994616213292, 1.6969370810790536)","(0.18278074731461508, 1.8105329203585252)","(0.19249441625495659, 1.8345989172562278)","(0.17933691717626699, 1.753551348457092)","(0.16244460700734414, 1.8176799491400446)","(0.18017212105142263, 1.8996450598302745)","(0.14619774211799746, 2.1368999819820242)","(0.16619157797182607, 1.7936779863283934)","(0.18343899560406415, 1.6685649308283055)","(0.18595499891534908, 1.8569847196279388)","(0.15868523033845977, 1.9670568327502522)","(0.15272699286943972, 2.0492307629461886)","(0.11838287508039423, 2.585024130863553)","(0.14342292843274038, 2.146433885847698)","(0.12444454565664434, 2.5605547631102596)","(0.11831238169531023, 2.772958239951293)","(0.164787168930467, 1.91507668723172)","(0.21120408788112013, 1.6072712482081484)"
"(0.18144469015181672, 1.8746044983382595)","(0.17486098064975256, 1.9964206975614638)","(0.18001156088792383, 2.0407467290445194)","(0.2017355160175392, 1.6650884312273024)","(0.1732976191958724, 1.8886889528928468)","(0.1295583779870663, 2.451288935170209)","(0.16505494934020257, 2.0562518486069963)","(0.16866629194205743, 1.9752133566687038)","(0.18035188149306067, 1.6413674293759994)","(0.14285710659239162, 2.0217582747214915)","(0.15656129157338197, 1.9771959913664707)","(0.08658679233793197, 3.5190271995784745)","(0.19212533567013468, 1.3806718958321333)","(0.16140772564707825, 1.7433328361229012)","(0.17814747707179476, 1.7319875675542178)","(0.19650403261939703, 1.666887544529209)","(0.21034818510900613, 1.5852998492054993)","(0.1855325878146, 1.5185179035537155)","(0.16716348142932363, 1.5557239660728674)","(0.17430275328943723, 1.7307561869228325)","(0.16025668959799494, 1.7070759434017166)","(0.1795380712375198, 1.5029480421899277)","(0.18380809731412576, 1.5069181740883657)","(0.1816781220121101, 1.672943626492577)","(0.17917497579838207, 1.666091855559039)","(0.13131977496282293, 2.3782240325307202)","(0.13083024292866569, 2.353938210648708)","(0.16779612926801335, 1.8247772030221017)","(0.13732360202678984, 2.3631899618152885)","(0.13438606068943504, 2.4793162432814646)","(0.15895236642301705, 1.9768355051714432)","(0.1838665280268479, 1.8318964056414275)"
"(0.18111657044308047, 1.7684720314994675)","(0.1769153510493061, 1.9987593941004291)","(0.15034787037634412, 2.3579976552857422)","(0.19571672389247596, 1.723823936073888)","(0.1580608100136383, 2.0604030272241918)","(0.15378457091217385, 2.18697762832853)","(0.15750655092437774, 1.8618664465186636)","(0.16602876834468028, 1.743317516655673)","(0.1885628656875624, 1.6845399661038525)","(0.13573488897342573, 2.1170029264391306)","(0.15228931165999834, 1.9362671727850225)","(0.11980292959328483, 2.5708076024948165)","(0.1661327718844523, 1.703634517693504)","(0.1569936142076013, 1.943680780506022)","(0.16761442862773457, 1.9961693807276883)","(0.1740827753863576, 1.988113816960199)","(0.18849009662353888, 1.8740328369850334)","(0.17603099402960576, 1.6702481925586818)","(0.16517204804397434, 1.5583180529905916)","(0.15312390686934418, 1.724123207980047)","(0.1654147548899409, 1.4883478656717277)","(0.17899649983816848, 1.3832560665335145)","(0.18334384799534, 1.3669985025467506)","(0.1579480693003686, 1.618340121795045)","(0.15105836681311754, 1.6891134259017775)","(0.14979829753341148, 1.8937534788797497)","(0.15199067654066215, 1.8365720931602552)","(0.15349406787752792, 1.7775150763401397)","(0.16191338965071922, 1.9418184684234874)","(0.15718781692017594, 2.0113847565665526)","(0.1620300110187547, 1.8157950137056313)","(0.18005958287744303, 1.6241049762040565)"
"(0.18442672155531561, 1.6614485490449162)","(0.18822512331001948, 1.8728923920875227)","(0.16175823053978686, 2.0632284448954703)","(0.1982150519513811, 1.704914809738773)","(0.1918575707652917, 1.6579240903960761)","(0.20018654113505321, 1.715580115572846)","(0.16458861368700867, 1.7532546788453356)","(0.1754161807276139, 1.634215045794828)","(0.1982632504537729, 1.7083055907948559)","(0.1567670440024055, 1.806764793011007)","(0.17509775286464208, 1.709192375715513)","(0.16027927380921614, 1.9477060644740927)","(0.18489351341268548, 1.5140881043494316)","(0.18652361017456326, 1.7046464451602101)","(0.18961872361437468, 1.7287328187072297)","(0.16639519951012077, 1.9238417976900397)","(0.17496651358775317, 1.8163575468507538)","(0.16881971318053768, 1.612855583322472)","(0.1750498061069428, 1.4299564607298083)","(0.16654717390717122, 1.5672170021219214)","(0.17309032523294568, 1.4274731041786815)","(0.1842399358412084, 1.334651829721171)","(0.18501210177271915, 1.3406481087640378)","(0.17164690852274772, 1.5924438983101443)","(0.16180339802084434, 1.5695330327689778)","(0.16014439610434664, 1.713879243229189)","(0.1713552832515607, 1.505974829938513)","(0.16878730641302797, 1.622903216257839)","(0.18523749697520092, 1.7264616504192034)","(0.18279109302031324, 1.6935445198582224)","(0.18898299277077021, 1.5430815557219961)","(0.1857105357048242, 1.430335724057747)"
"(0.1753962075949733, 1.7777716717155734)","(0.18627023673966847, 1.894273707392534)","(0.17840075918249212, 1.7683890466693035)","(0.17674393419529766, 1.845788152738142)","(0.1948199084711478, 1.6480865830086393)","(0.15147945456538683, 2.1833646856967537)","(0.1512918302989411, 2.009600986358994)","(0.166329068401165, 1.7441413791630263)","(0.12757194298480656, 2.52343419999485)","(0.15637326779126395, 1.7764935051715824)","(0.1701468795597238, 1.7972670626496035)","(0.1382071471778943, 2.2036958989281668)","(0.1562900873538229, 1.841354994149492)","(0.14367592115338795, 2.233070425961389)","(0.16574323419336362, 1.9848437735047435)","(0.16737717492703189, 1.9350817981728845)","(0.15373897649953713, 2.066104623816597)","(0.13461049341022477, 2.0335703483732197)","(0.15890608595784483, 1.6129837161912697)","(0.1581403040093548, 1.7537239786239707)","(0.1757873461874569, 1.6099942007631458)","(0.1701218076564593, 1.4854692030432046)","(0.18626244931652555, 1.4327333843616576)","(0.23001195029096427, 1.5324227952892973)","(0.23736783205332895, 1.4128731144579867)","(0.17256701241918668, 1.7689554154901292)","(0.19363002684332228, 1.620356365474763)","(0.2534925877926069, 1.5191219653651284)","(0.20382560638680128, 1.7006363966848277)","(0.19509912003013025, 1.7438623733438046)","(0.1903096402855233, 1.680704430476138)","(0.17531585382285694, 1.6386594044769103)"
"(0.18787012294332292, 1.8100465278367386)","(0.1957681446881993, 1.8188422448276749)","(0.16385347762354335, 2.1867809037401256)","(0.18804374067419313, 1.7725969543633837)","(0.19250855760509117, 1.7398077938977046)","(0.17952891911769328, 2.0730601842622938)","(0.1751393835038042, 1.9854006089353848)","(0.1630255359897211, 2.0662978896106234)","(0.1244713424213198, 2.5539870406212004)","(0.16987685151970475, 1.995222867166631)","(0.16931998936515058, 1.9719842048901957)","(0.14775784837310904, 2.141590585283333)","(0.15002638154227474, 2.0413356458626093)","(0.13471808918863476, 2.285917838468037)","(0.16123270309280252, 2.100997113989025)","(0.17693066232319749, 1.9285521880305385)","(0.1627913075467468, 2.0527241877804383)","(0.135479704857642, 2.191325436304845)","(0.1592465172565739, 1.8047031609176074)","(0.16833411224456146, 1.9274622804169075)","(0.19379763387450813, 1.807066779203118)","(0.17057796166659786, 1.6137453200495913)","(0.2044805430956455, 1.6532355146411981)","(0.24194832992759416, 1.5538045511609386)","(0.3106320946838872, 1.2991343902645676)","(0.18654706027446702, 1.759676340350139)","(0.2086454211385901, 1.6903185084111267)","(0.2972585071985639, 1.3854402163078274)","(0.21679693532014443, 1.6423227408616499)","(0.20082026149426477, 1.7528929043227006)","(0.1865649108879782, 1.7779139828136787)","(0.1967806574366342, 1.7009779594951269)"
"(0.1943464355993892, 1.8979934772610938)","(0.2140141010738084, 1.667313919558707)","(0.20425462580510778, 1.9114417642581498)","(0.21602193437477785, 1.6624033729464318)","(0.21334045732868706, 1.603091936291394)","(0.2224776071729401, 1.7334252074283587)","(0.21175115311093196, 1.986087023220922)","(0.20288243544547505, 1.8709143554667271)","(0.1598408222698806, 2.0793320962004826)","(0.209505076333716, 1.759561161797661)","(0.1718230125619015, 1.9761178638707604)","(0.17348986381807618, 1.8294744916932348)","(0.18560641617160606, 1.7062368564029888)","(0.15881938685248853, 1.7803002959386212)","(0.16683381854363788, 1.936635336850568)","(0.1757540435730591, 1.8726581977971704)","(0.17143570733545543, 1.8412747557164213)","(0.1727190830115404, 1.7439939907490052)","(0.18811792128478552, 1.665261202214387)","(0.1903907899244752, 1.740629157222295)","(0.23073693394971537, 1.6425011299026735)","(0.19841190701869774, 1.5813023779584496)","(0.2399263940758463, 1.5499216400115576)","(0.24408710026307165, 1.6536454131223277)","(0.3076526043101501, 1.4210701364085416)","(0.15523270686158763, 2.204005184380784)","(0.21055957618972204, 1.7931899111208223)","(0.2782059840313859, 1.4963479365388448)","(0.21236533752466155, 1.767958999781941)","(0.20218183170165818, 1.8439767881230769)","(0.19188031058396213, 1.768321012892017)","(0.22840814730647271, 1.6069100800468403)"
"(0.24191157518982728, 1.69760694188259)","(0.3412413744655658, 1.3053592288308047)","(0.28136518385278575, 1.590108439159103)","(0.3446752653400752, 1.3009998803581375)","(0.2751824937551821, 1.477270422339915)","(0.3724396851470745, 1.2013356569810032)","(0.2801104836062478, 1.5313968032434115)","(0.24468049163594494, 1.6222277619886583)","(0.25463784502601533, 1.592361556644562)","(0.23247700571344349, 1.6816415791258215)","(0.1806099996011592, 1.9412381844983695)","(0.21227852563048683, 1.7552139801308524)","(0.22260721244468332, 1.656865599670216)","(0.18662438388219352, 1.8310902565387075)","(0.1898736300001426, 1.7868147201873803)","(0.2067966945390225, 1.7227115594155409)","(0.16844454272041384, 1.9742974533974942)","(0.1902286815413332, 1.6841007179390808)","(0.20897196174031807, 1.5991572137220045)","(0.18591333012004693, 1.7502331590539266)","(0.2752810405802738, 1.4432401116885047)","(0.23337024434437922, 1.523289361493516)","(0.3043057649960521, 1.379144880183766)","(0.2843863590275012, 1.545649465382077)","(0.34395816466074214, 1.2832522884430126)","(0.2622522998959904, 1.6255624568580491)","(0.36364597946198896, 1.2571368801808802)","(0.30594893827387926, 1.4536083964611946)","(0.36011539391515424, 1.2647406356793451)","(0.325875183360179, 1.3588139161768664)","(0.26129833061976376, 1.5599277067394035)","(0.21034106320587873, 1.804825023797623)"
"(0.2951887485049115, 1.465428862466986)","(0.37394732716736834, 1.1863873089050612)","(0.3752989005946821, 1.2488860381414735)","(0.3530753955363899, 1.2328066820996195)","(0.2772151577144322, 1.437115057691977)","(0.39256130061038924, 1.127017044394329)","(0.3066835149555487, 1.3310973993810427)","(0.2827645687118198, 1.4475705091929332)","(0.27707237199363705, 1.4496371784359023)","(0.23626396222743942, 1.7077467608873258)","(0.21376718321935967, 1.8267031645686227)","(0.2437762400555768, 1.6150790122307486)","(0.2765529388129335, 1.432408560275705)","(0.22667403032431424, 1.6951790767651083)","(0.24503173483319365, 1.5774431942021137)","(0.24426814807729433, 1.597616612762203)","(0.19682367936555425, 1.9026071868288303)","(0.20965491131935135, 1.7309964273297913)","(0.2437655768145571, 1.4676929401802197)","(0.2244192311138436, 1.5789345890859174)","(0.32393905344517243, 1.2329511090752177)","(0.25290903099496226, 1.4463067068291648)","(0.3440514335260799, 1.218462359251522)","(0.3051092378369515, 1.3915447286294436)","(0.39008240934800087, 1.1357306124414905)","(0.3268244285348945, 1.2798770428732187)","(0.37827048238595934, 1.1337960054795226)","(0.3585802299530379, 1.198874584594126)","(0.36307481172038814, 1.1800120742405225)","(0.3501126907572204, 1.2187822121640217)","(0.29307064472938715, 1.3960154926159136)","(0.26040144667324894, 1.444087773467034)"
