Fp1,AF3,F7,F3,FC1,FC5,T7,C3,CP1,CP5,P7,P3,Pz,PO3,O1,Oz,O2,PO4,P4,P8,CP6,CP2,C4,T8,FC6,FC2,F4,F8,AF4,Fp2,Fz,Cz
2.2886935860736832,2.2613433149850537,1.9571508945784408,2.1142550383295386,1.9012265786555294,2.0426492226847044,1.8721060088465382,1.760948838685614,1.966784917211749,2.1530759528140693,2.0896330801832637,1.9886911498765987,1.9231046608484768,2.0126650196243987,2.2681984922641094,2.241583621214566,1.9967647259764794,1.9531100797935819,2.0263278499343436,2.278688470535035,2.0468325516192634,2.2222194501117962,2.265941446333619,2.2735331647580597,2.0653368339734315,1.79832819390127,1.956942478904658,2.221767947524573,2.1339669570153887,1.9642633259690283,2.01389961039578,1.824710569040138
2.2712396438133746,1.9424152014957303,2.0279744279113303,1.8434727343123594,1.9081578585204426,1.7861092587646545,1.800701673027088,1.913688376963307,1.7850700341432884,2.1195113940369765,1.821740310472085,2.0404378422713636,1.7357396850190365,1.9655088870272452,1.949589681138308,1.9874022277274543,1.8877382076975597,1.8163306385607525,1.9257083295548134,1.9666751889258625,1.6417513401689319,2.062094516274825,2.2313067657301393,2.2874711414798394,2.135287958106618,1.8265973180821893,1.83194400627683,2.061051067879793,2.015383695463214,2.022400499486985,1.8044990210911793,1.8678818937507666
1.9406284156263385,2.0678348316568265,1.8662084073104694,2.17884084438755,1.9245128475505957,2.0139982583040896,1.7309768726047825,1.6355223114019168,1.859219994859664,2.051847773116285,1.7229693892379132,2.0336615979510637,1.7505428840823563,1.921879985463379,2.0284674322960248,1.9688508627991717,1.8583741637499818,1.8208706757574218,1.8387725070056804,2.06447192020903,1.8858231054384678,2.1953834363415696,2.0350507218836724,2.288024558647089,2.0706676053294353,1.7603926978471782,1.7978313179385117,2.1277282042719934,2.215672416070062,2.149642952772414,1.986196932415382,1.7888113095008618
2.0166700408179516,2.138955569483347,1.8821967371821915,2.160560832842048,1.7541060375753357,1.8739182198515512,1.7432110002674166,1.568060893025289,1.7289791293893049,1.8943560894545246,1.716270098191722,2.048452133383417,1.8161327670894094,1.8952262464924852,2.1440512768003357,2.097458022812518,1.9630992447361122,2.0074435582158556,2.125204022375731,2.1721333944233066,1.648763893590035,2.2268119616637576,2.1301667860239024,2.0848437418968024,1.9608262811193784,1.5922984719998943,1.7273011651194987,1.9728723698087431,2.1148639198486165,1.9376588324252186,1.9409412075250074,1.9847252803921738
1.9419263149393393,1.8549439077958392,1.7743454863914585,1.9094348447608471,2.0895501622381834,1.8002758232715934,1.7310691115710062,1.6725659125031818,1.7633776304311206,2.0243819745478913,1.7661273718060184,1.9171281219711076,1.6448293559126117,1.962525029194413,2.050865541886686,2.1256714794476474,2.1297189541391366,2.0185728420351983,1.9141387181585756,2.163767084069765,1.733677103679805,1.8072993178882093,2.1006555921224113,2.109948608498834,1.8315845380799236,1.6169567998214134,1.7272733420610087,2.070162970741896,1.9974545759162272,1.8027719111475196,1.836917751060144,2.0585114422650395
1.8676714483856023,2.177095801820094,1.816163790827653,2.135529827006866,2.1014272764820747,1.9161257178401192,1.8144662817048904,1.7767218216894602,1.7579986451211453,2.1730433357898526,1.8983218799652974,1.9000993748982071,1.9830976687157176,1.9142808428260667,1.991268470348628,1.9808936538443174,2.0491571459109137,1.868549806518321,1.8931291762110758,2.067291137850557,1.8292485428833114,1.8233056068935884,2.010241887549677,2.2706558136441184,2.032334307996959,1.7604658000450757,1.6886246212796117,2.131518534277253,2.0729638121793554,2.0858373715376763,1.8537408625637624,1.68043901103079
2.0495720674068227,2.2462702095647114,1.9000850841458288,2.1846483644603247,2.1627424079437256,2.0477754217611244,1.8989368050392557,2.013529396225912,2.091273596329914,2.2187798948646154,2.0043398916572217,1.9414947492711523,1.928034165421569,2.1706813096700643,2.0327440710555544,2.0948562515200484,2.118503019431681,1.9602849726776368,2.1796121269981894,2.4556904167823834,1.9371253844360787,2.0440583859859016,2.144269639221868,2.2288596204511326,2.0068434696499065,1.9268062201440892,1.7607284267680237,1.849772094787849,2.0355277329478283,2.0728611831589916,1.925066949536503,2.3011076665061525
2.1365755138316262,2.0810218270536156,1.7669321491386718,2.1254412761049624,2.0831958025031603,1.9901990666505271,1.919505691964073,2.0808326598246003,2.032997266380345,2.193836996175719,2.1342990540813647,1.7699220163755844,2.115465415164332,2.0843091006521766,2.3093409284979867,2.2868291521688673,2.045804749086933,2.1234728393090423,2.0831410363309795,1.9907141171241791,1.9833512185422788,1.9701824918848998,1.9101172290255317,2.003289632382514,2.048697605074208,1.8964827678974583,1.9191853733757265,1.8364904597396663,1.9488428413980923,2.025317086778078,1.8987762756165416,1.8845219594411637
2.1246094678168386,1.8943785589784872,1.634668092237735,2.0463678659536564,2.1572066992334,2.000120315134097,1.8179677636678861,2.051734220386441,1.9240264528930422,2.2238111976599937,2.177923426554891,1.8493365919926432,1.8823188692580146,2.074201579414421,2.1926223042730024,2.094963931989557,1.8332049070755905,1.8148025491992077,1.793967449363781,1.9391015656866724,1.9436007937056916,2.0818355004520477,1.8591207378541412,2.021705812649485,1.9593634906049822,1.902913754180295,1.9570292548897426,2.007344792316422,2.023468952977219,2.1412840569205724,1.8110470128644167,1.9679672234521908
2.023696288773239,2.159922923465418,1.9493038621953755,1.8970801499226129,1.823420781820659,1.7858400661288998,1.837157007122165,2.116344734892115,1.8877356977042588,2.0361038724643175,2.0822845694634227,1.798272351153576,1.92795357802589,2.0013006327725558,1.9620288160854555,1.998063121020255,1.8419921669284494,1.9357519140365032,1.9851410633743574,2.1764885980310544,1.6790514258256943,2.174405544628014,2.013011144735043,2.009862871750348,2.1142198767833986,2.02894924905871,1.9989156127430572,2.1284152806664243,1.991226860084029,2.139679030475183,1.880807193257854,2.0098327620518917
2.06647174724902,1.9554042085393104,1.7044423458475089,2.113695943451097,2.1939377414039654,1.9768429646526355,1.9967870534799468,1.735329982178866,1.8595322821711622,2.2533373542433304,1.9662902346500815,1.8211418074226162,2.044912817796104,2.1997049062313394,2.1089374314081133,2.0499897135972267,1.9367306088213143,2.042317824300022,1.998413042101313,2.093837286083836,1.7241014025318375,1.9985766458127139,2.0737168747722405,2.165386340310848,2.131110808113731,2.0702216737113743,1.892309279648557,1.9481023666349901,1.9010193363598074,2.1658094495952755,1.9378720501866011,2.1178350043788883
2.0862417074037367,1.8502575323835837,1.8769261893547164,2.014833184782723,2.117948174159551,1.9964434168289542,2.132251430466218,1.832384069714545,2.1328166304395846,2.116236300016165,1.9694696216020238,1.7749166317997043,1.7553270757802906,1.8559875245351947,1.8157977361400164,1.7663521091892367,1.7798811688911278,1.854150358134589,1.8633749307994327,1.9548912846356945,1.5539430968827037,2.1363395846299107,1.9370463386827124,1.9840387407989724,2.0042999912552397,2.0877905245532093,1.8777839929578182,2.004412578577587,1.9436010083536432,2.108558594648455,2.045178021311764,1.9320474452230463
2.002119550665795,1.8643114149530469,1.9207495243001986,1.9558054201603514,2.2716412546472196,2.1477363286115034,2.1088421317773065,1.9836313327245259,1.7886739673198235,2.0341146565582284,2.031494570009414,1.571562720069911,1.6975334774511133,1.872772630846829,2.0524425336572105,1.971411641777101,1.774185884487858,1.7204548635387522,1.7099835303813937,1.881810198306264,1.9907829166480404,1.7991500328490317,2.106851918345522,2.074594858040808,2.158692188931851,2.095348829049361,1.7911559289008456,1.9125276602061745,1.9329194352453423,2.1383154686622627,1.8395431172472045,1.8217412770367953
2.0038889149651475,1.965764796261445,1.600808105785592,1.5788799441084413,1.8639102956446036,1.8839092349751587,2.031189204520737,1.8572227013180145,2.0295878662113385,2.0051695086972834,2.0793892798811946,1.5778877664203512,2.0198339561207383,2.043603212679695,2.1537125023695878,2.059413488226593,1.8782481133708442,1.769858339460046,1.8068610609201583,1.9861515470602327,1.9601222595883827,1.9762051828407066,2.1671082786210367,2.26728848435227,2.14420982051124,1.879335017422134,1.744670143854411,2.0011758988384347,1.7632689789267275,1.9471507895991529,1.717870020445243,1.9362041840093946
1.9783500279932744,2.101572533515744,1.4658137452404452,1.601403151923476,2.227913381374212,1.9560735580150603,1.9641628775599493,1.9072104867327992,2.001690702478679,1.94117413776823,2.002105117480782,1.5974757362795167,2.0753610369918984,2.0910592232222154,2.213445080773195,2.213375943018099,1.920856308776172,1.9388768488365076,1.8585451888268754,2.044808166355656,1.92813015488947,2.219580859060431,1.9996438841717763,2.2351192802616198,2.0613635904493792,2.069136574436774,1.7470648969201803,1.8609753701813194,1.7165152745722343,2.1724624562565085,1.7369301368316614,2.092031344566011
2.243123402623625,1.919615659296418,1.4711510308448712,1.5325998279035518,1.92264277782113,2.155216529612637,1.9954807322264085,1.6735690317872507,1.9389042917702883,2.1623093575905727,2.1898194268983207,1.7066331187917771,2.0868585861614846,1.987977306523885,2.028239019965789,2.075970297650911,2.0883721323392566,1.925761376505706,1.939467156513044,1.977853631885555,1.84990934609187,2.0581882574617842,2.0830236451987063,2.0654645654086807,1.7662379466361786,1.8105027614595883,1.991196940997719,2.080167256476978,2.090739825292386,2.388352496900418,2.0021148222340694,1.9440009558876274
2.1026797585514885,2.075702500461451,1.6460082409074803,1.4144061523933391,2.0758798882288763,1.8934384240520095,1.9448151340438038,1.7387140163373696,1.9962659250383594,1.9740788939820044,2.120343906463985,1.6899101585975878,1.8765751845111578,1.9242396172664924,1.9586242706371975,1.8685559800754674,1.9169103918886867,1.9265533155615182,1.9733754675310982,2.251844297435743,2.0360787322651253,2.1713423594186625,2.219738620240325,2.3051307512669403,1.8598669008839497,1.7970468857164899,1.8874374143504884,1.9590981208563494,2.119133156624897,2.039457006382084,1.9112968287461933,1.7569691992503504
1.8975192029289576,2.13978085730041,1.6176724211205944,1.5348201782435984,1.9835171333707367,1.6758007036030247,2.125816500462938,1.6689182136665022,1.8134735138751938,1.9095127856427072,1.8759692121566804,1.5729929759176033,2.014005089518734,1.7337851731167326,1.805971725559526,1.795501332884008,1.8436822051038004,1.8025183826338511,1.726575118994672,2.168687305597168,2.0296255892165562,2.275745646559648,2.2073365607825814,2.3050100160847458,1.7456585472465083,1.799960127248414,1.6705226812294154,1.7466999006881503,1.679625501672415,1.81847466735298,1.6850716455382,2.1145656045929417
1.8506918102781775,2.158991556479345,1.584352007907875,1.5700573305368468,2.1246889233623616,1.6764686294991658,1.9962737064360863,1.641475086061513,1.6853241146848523,2.154438860336971,1.9890821254895918,1.6606839829351803,1.950180034683675,2.04304917066348,1.9096842206384894,2.006519679977005,1.8792645071135614,1.9917813697428541,2.077458555553544,2.092500296399368,1.8084121379705627,1.965180734848561,2.277273132126164,2.382137273314846,1.9829944893459683,1.4967976683156778,1.9285547740004618,2.139122085193806,1.9632892040361647,2.1982132396212086,1.9634967277038726,1.879201306549613
1.9538812301057369,2.088631013493522,1.7429717747157425,1.5741860442731155,2.2855972687070936,1.7785993994261304,2.156675612571081,1.6161226572042304,1.855763026501048,2.0471306443987953,2.0542317326497423,1.5559894673591048,2.00864895348391,2.0909981283426182,2.1322260516772196,2.281832438746776,2.0807904911207653,2.11007201932241,2.193936889002735,2.29714112921481,1.7219524875172225,1.8397592811247,2.1730211327893314,2.18804117265338,1.6973021035665876,1.4783240475580224,1.8677140638072482,2.029160221159356,1.8834761778967148,2.2050334936206513,1.975278540210917,2.207627957780424
1.8149355052134428,2.0724085172947113,1.7775265945562806,1.6413685459048093,2.3795435296307135,1.7483340619075962,1.982988566367579,1.6925809806462142,1.8897128367495604,2.1211229390253554,2.2368410128274205,1.564941368277272,1.960179779730509,2.1140402958819067,2.1344694890669254,2.1267154571966866,1.9394411576388628,1.9059779923221853,2.0624304242461653,2.4242479375737225,1.953870902154848,1.7805936546966779,2.180572619624818,2.2038411998945153,1.6687196852436268,1.529082280075499,1.8594922581226887,2.083258941671742,1.9992002807797402,2.203527563434703,2.0497742133407617,2.1458707488257045
1.7857478595495357,2.0234985587396723,1.6891039067774791,1.5911555904164882,2.1209693108882957,1.7913318515827528,1.7630915241695515,1.8325489336131804,1.8783792302986626,2.1923218147140506,2.299980109437188,1.526210992532619,1.80134535915668,1.9856240242506342,2.109807621163749,2.1412542584487646,1.7540309209756357,1.9750321443574406,2.0414990390343313,2.236458066093056,1.9818007230411159,2.0669742989378586,2.1771825825254068,2.3869034536162204,1.816828059252659,1.6297128233055276,1.8801849151031742,2.1301622626783674,1.9622448564388428,2.054171988425226,2.023289438622099,2.195997934319015
1.7952558866217372,2.1310420097948652,1.6551837538732732,1.5919173838127267,2.39161497893495,1.7804216599969245,1.823238363386255,1.7477434692909646,1.9375898493100767,2.162741873084009,2.289460346057507,1.525708737447574,1.8676405987056377,2.023943331237354,1.9833459771949884,2.1352134806056084,1.8104836049465258,2.1989806422800973,2.2343295808460737,2.0873161461244276,1.9066222845101402,2.0100415679608044,2.183129422730167,2.472465433885938,1.7666134594304483,1.608244709937074,1.7576290962776395,2.3954227224191422,2.0432959464132825,2.0602193278092784,1.8779515025082496,2.050566880536289
2.0146288763886187,2.326037918610527,1.5813800918883447,1.5863450959093837,2.3470578617890228,1.9866798520127442,1.965959871637501,1.8894030805144735,1.8260526677223887,2.0871728090493975,2.0954716625567555,1.6995259475250344,2.1323284706284804,2.030178055182952,2.1333414600919616,2.152384479649538,1.7959139973913545,2.2534184939508966,1.9244226300579268,2.311657953369484,1.9088702522168453,1.7874081004878972,2.180602704136951,2.22251323256303,1.616135195461215,1.599005146592353,1.6923114090282625,2.2998996874344466,2.0853167990474417,1.916012078747242,1.7897979131129869,2.21197000335769
1.8994420133039278,2.1427613071357965,1.5430758958013377,1.5396900398855373,2.2195654427015286,1.898502066451168,2.104845695512438,1.7240070371141993,2.0087308371033394,2.0566916748056068,2.1710671995239257,1.7457944079088163,2.0798768305418305,2.034609913520761,1.9963892472869775,1.9719764115601273,2.0914044947652246,1.792567711279989,1.7198487553403319,1.945138791993906,1.7613861370869437,1.8079396839183535,2.0365398882343153,2.1818523950530633,1.5793827014887714,1.4968855102956158,1.6245937609268315,2.303471928994763,1.871552402615988,1.926864565046004,1.7172194702670895,2.0963656864524833
2.2169201459952426,2.2317661915666656,1.623703754666917,1.4294296268017204,1.9569390204860393,1.8166445045632151,1.8825371049809314,1.6434197498507348,1.790644447536589,2.2054424067201888,2.3142021357544125,1.7800076639049356,1.8894329452563565,2.0923740334736913,1.8819697998981746,1.8022972281322631,1.848786786292958,1.837975527965188,1.750319457392955,2.219918266904567,1.7225267068502321,1.750654853260599,2.1695591490828154,2.434611319413243,1.8036351685457197,1.526402630310273,1.7383869758441806,2.3247949838781348,1.9632850265058261,1.9537235307587284,1.8174524429306176,1.7950016334721517
1.899718391093619,2.336146924474387,1.9801600804239325,1.4141668491486872,2.257805656746272,1.8055858303841044,1.8950741882608304,1.7296517823754258,1.892333218408325,2.1004685323913668,2.270202063888959,1.7078614318370193,1.884136194793617,2.233348663814827,2.091312758720722,2.1240835327463663,1.982787982579557,1.962706926382708,1.8227992282739074,2.119250343412019,1.724787754608726,1.8721832821956323,2.1842342096066445,2.1955480705641044,1.764431181574879,1.5700904200095995,1.8102935621913494,2.3897546516345467,1.9010018329461211,1.913670380764582,1.8820827325667717,2.1376175190320397
1.6959478970237036,2.0793335004419333,1.6905755831680565,1.5978085836924267,1.988339842708638,1.6538009839555203,1.89396929515064,1.6663439405423937,1.5690239205325678,2.0882594749665793,2.0795835144621573,1.6558735670929539,1.6879814229123364,1.8555637959154028,2.036297738342893,1.7432243225139366,1.9098609793835526,1.829944878123006,1.8753779407997937,2.0383997059426857,1.7856439640958446,2.0300317112926196,1.988822343700515,2.18819525495607,1.8352694748095055,1.6002645308959986,1.658120480861679,1.9965730984894938,1.6800952311999622,1.7650502179382987,1.7596521270811634,2.003802622869509
2.1209382977755515,2.4711194386136754,1.7218107939249938,1.7278941098548792,2.0815285261988157,2.0246711865729554,2.0327250016424676,1.8960649083484395,1.6265624423310439,2.155634600027879,2.054019356967479,1.9034240687721533,1.6611345355761102,1.8629069120886659,2.0879253755149008,1.787301620605387,1.832197830332373,1.8455413017957376,1.7785708541824785,1.8796561275398012,1.798256137409341,1.930333228698855,2.070184614135657,2.3375229564076156,1.6188991917378013,1.4413770318865184,1.9319610082454506,2.28389372641614,2.010669846000032,2.124167515252484,1.800927088428421,2.4110512954939374
2.211646889061044,2.2332624445940854,1.612732817069841,1.8700002277114802,1.8803927169712216,1.8531959417608743,2.343523067417613,2.04014960468471,1.8586271343829803,1.977103376567909,2.198561480381646,1.7226457133662878,1.843408176536696,1.9726052797899931,1.9231678345603498,1.9158340833766436,1.7227949006289736,1.8025367194117279,1.5874441508258081,1.896377918250384,1.6123600110995946,1.7758732143520293,2.0965126205615525,2.1760872459824196,1.5717346377993031,1.455154692505586,1.6051656000086927,2.370453704132432,1.928383508230041,1.7788792099003132,1.6820389527132473,2.243363568552486
2.0502195156997427,2.518545245627486,1.7689962694106593,1.6526954280998634,2.056515248096006,2.0326200608971763,2.3879467839176085,2.025869583643209,1.7111102282410529,2.102885874948764,1.8488640319703915,1.7951064262785077,1.7683212241282946,1.923058290120223,1.9242193451862548,1.8647542524024234,1.8359644685705943,1.7913640374293058,1.6584584572742107,1.9512994583290224,1.6863191928495225,2.0154093468581773,1.8867079069378105,1.972586271176234,1.881931348954565,1.709730409725698,1.8966036379314486,2.3146057621246214,2.0620757823385967,1.9493139313174543,2.089745727041455,2.0979049345020298
2.133204294050997,2.5185241284098647,1.8989721381940972,1.8627396543735344,2.0141642535130972,2.0930840085219606,2.32051848784602,1.9660658173406889,1.7579600447685066,1.9922937777690843,1.923116897758227,1.8270199121746267,1.7567625598540062,1.814089596810241,1.7139265283517293,1.6943253611212756,1.6034077148307224,1.7779415184768907,1.9255599639872336,1.743962879136246,1.9195659593571062,2.133642965678215,2.021827093745088,2.094723322350549,1.753577574220254,1.8153702068959048,1.8368621955259894,2.127642661593993,2.048830997615632,2.056957592277444,2.1011011686361587,2.119592801230052
1.8968778758103362,2.052090556211861,1.7359939824084436,2.5101677080792992,1.9500197407099586,2.102351960670942,2.294944772426637,1.9510684971819785,1.7854542692388746,1.9470295552937116,1.9910636644624702,1.7445319624195323,1.749048985390648,1.8104387006888407,1.764552111703763,1.768102468611643,1.6880741950310107,1.6865209419119613,1.6792398731674754,1.5485926844574711,1.8651445571891632,1.9088715941625911,2.0665358943548755,1.955565239114544,1.7587773551254802,1.8167141468138417,2.125494660712702,2.2568114607851126,2.0592513048047256,2.053532914267443,2.0047058057443206,2.199197134477769
2.2176110412691856,2.30124640268231,1.711996540725045,2.225372518698446,2.0135645525422783,2.072671207321503,2.168715069798355,1.8067310838789858,1.758414026547832,2.1924349764425415,1.894887095142849,1.8028861003384464,1.844970102083651,1.9142434601445466,1.873835180891797,1.8115104722509239,1.760831105078325,1.7505512963766385,1.8118428966977722,2.012521333270377,2.041315580874093,1.9965035090470282,2.0980154357048306,2.22671250061842,1.7369232684750642,1.7110541785122952,1.7471910449467085,2.2566536172622875,1.7983717419982312,1.851367617491467,1.804861389608385,2.4600061547591467
2.287215188755991,2.5302559273378056,1.8660903706410887,2.529591438071952,1.942108960731069,2.2042347300564074,1.9353274609620454,1.9972996228380888,1.6817603580911424,2.0192897788456943,2.069488395251607,1.6087609229025064,1.8802584508138818,1.6162708560083763,1.7055472167838142,1.6199185722464253,1.6391807528353421,1.6376288567876456,1.7204517878313192,1.9552114861093088,1.6767777827394705,1.9465658770054275,1.7972484584346082,2.1762875153593226,1.7912861704509389,1.7481639720421447,2.052225980109928,2.213777082711004,1.9893748743326005,2.0121387868473155,2.0208527363119178,2.07420242897
2.134022204207317,2.341645967745715,2.286677251967438,2.4082582175445415,1.7960776486048908,1.9322570429482788,2.224961310534164,2.025503512242739,1.749207388218497,2.235240788485461,2.1605732412289513,1.9863339893762122,1.880343590410357,1.9434084544640922,2.037297815137293,1.8570737876611367,1.964877810529899,1.9551091116424786,1.9842592323184913,1.8294849356152278,2.0300022545794745,1.9674123435519264,1.9717918280343927,2.03252701570344,1.7269402488856174,1.6159699257617721,1.9696527248424198,2.341879502610544,1.9189250782263225,1.900051084752307,2.13774624820965,2.275675720675455
2.322355978927717,2.145988540600127,1.8806452713383048,2.4152450638107714,2.0812545644270823,1.8869521097164261,1.9937017764990417,1.7676600471383455,1.6540622567501784,2.017520480654803,1.960060215754827,2.0333207922733805,1.7463441056218534,1.8848918382274833,1.8735965345431191,1.851073375928455,1.856276892005102,1.8045414287592065,1.9975711506582616,1.8764713844360963,2.082793013462874,2.0410800424047726,2.0138178682801553,1.9232614808612412,1.923483677989639,1.8567226063374174,1.9824369673696833,1.850993030877099,1.889319150320252,1.9421956073946443,2.1318768514768087,2.1901343134307325
2.069661979495878,1.9977431567788766,1.9181603025913563,2.057371124739414,1.8711382039688909,1.9211551614572788,2.1374583533590843,2.0760232780800787,1.6158108109957534,2.205104138415903,1.84372775796526,1.9403729795842375,1.9569000363839568,1.7268631187748091,1.7831909803732164,1.724268041550056,1.8453239119256462,1.8067539413436025,1.9024795660837321,1.8911307993239637,2.0736447925706605,2.014228300246833,1.9783011242898239,1.9807809725870609,1.7290211150839236,2.105604425782982,2.3918817131984396,2.1783740223239616,2.089293027352639,1.9925281566505382,2.169104388157653,2.1364012727531283
2.186352160218402,2.2117425889915108,2.0886240407443992,2.382875888215857,2.01371975963382,2.134861633417368,2.2599588532002106,1.9798850365928518,1.6631913900112605,2.035969190313159,2.216934121899668,2.021377640035131,1.9015970805654494,1.6846151770162765,1.8242185257352033,1.7217876835412749,1.7460587118002069,1.7876800340049408,1.7799235165812202,1.9443543020706215,1.8983960388406536,1.893861539110277,1.9445499511162352,2.1562181767379567,1.9799307517623421,2.0357228971010652,2.0970132542175506,2.137131172365829,1.998169218678674,2.1038065831925183,2.1349491660621367,1.9498796793148885
2.0396315029684127,2.242635697529655,1.842470426221431,2.2973966750423096,2.005785044070117,1.8883081913653863,1.9451851779299978,1.9322583737604555,1.669436496887962,2.031448247182719,1.9347331684714308,1.8736590062562857,1.8004449749298144,1.8104458770041092,1.898485889370659,1.9608894492224729,1.8811304180086332,2.0596344185439768,1.8926115033772046,2.1783690197537635,2.094494968959805,1.9494619844526706,1.948160275789378,2.2878925085567126,1.9147295514915024,1.8471925819533879,2.373096807514473,2.1296572805480447,2.082338788891133,2.004244174237414,2.237181218281483,1.8853995488113415
2.2624328849062656,2.0796253032702516,1.858294855214647,2.228888354013721,2.0130963811684603,2.049222345265975,1.960377769215047,1.9665911610534408,1.6766349190509666,1.924768777844963,2.1449923980951864,1.7886244303387915,1.707546662817514,1.6300826450188015,2.065254937222011,1.9250009109568373,2.0768919548431852,1.907244122870739,2.0498470903060344,2.077530542196999,1.8890810259236617,1.9009884243384836,2.137544986356339,1.9907176455462767,1.8690942911148702,1.9360669731719264,2.161892900686552,2.1413046567256893,2.1155613259798725,2.0472640046509363,2.216547178060142,2.1537486067765172
2.0590949121062407,2.117147598101926,1.7677856060873374,2.012481977571325,1.935112366387623,1.9502916789575846,1.9889385754491973,2.00681571872742,1.5036161492633418,1.948380807664225,1.975287754114945,1.67766201685286,1.6902674684007093,1.6803174308560067,1.893269576259131,1.8935224048989503,2.062109735027738,1.9688505156448521,2.1203997823229406,2.1662174616143157,1.7439125385748773,1.8359975812440583,2.1731810329341417,2.2623880653395805,1.9254370708167587,2.057428247511738,2.0621415147915867,2.24721972898411,1.9369906036908278,2.3388840393689865,2.3484577413591805,1.9924008565578175
2.2092466861730427,2.2016299003681916,1.8267074582928704,2.0726155806546025,1.998645916335643,1.9633437481499785,1.894231376071913,1.9234357522461705,1.6127457042867834,1.9369299952740566,2.023851012345226,1.8180393777592159,1.7764643122360684,1.6723009457228593,2.043243845662243,1.970445123347421,2.0668584599203763,2.1651337297811244,2.0528684967750093,2.075061348136588,2.022590700708478,1.7798571379216555,2.2011798578255,2.1885200925844206,1.9887512483291077,1.8809229914568346,2.0670708405184786,2.1198524267380345,2.1496861275512145,2.0520588419870203,2.0695854447583244,2.1356417184826983
2.0446002254452256,2.0977335566831323,1.9604048894969301,1.7930933714829955,1.8703047609803714,1.979046526821481,1.963694832728609,1.9174823595776016,1.7900771699695828,2.066709488947535,2.220364678918606,1.833588270708043,1.6751168368195914,1.5299947208958473,1.7489602502062236,1.789597484496022,1.9648619195043668,1.9523433637566328,2.0506811619220553,2.267113503245062,1.9789126116040916,1.9126976937201194,2.2209536203587255,2.357101892397317,1.7104658133982522,2.2586219364604583,2.044233361898203,2.032089398502973,2.191203525708949,2.1013580427377048,1.8783451629073067,2.0494101929188893
2.0447088189843012,2.0577007004191787,1.8124143939815855,1.9198799086265745,1.8642995026328213,1.9661150796821305,1.9517078282140425,1.774807763247274,1.7974080856553547,1.9192380877730015,2.0784609948103463,1.8884280200547807,1.7798560365696594,1.8051498957665233,1.9833878793491313,1.9743173898466604,1.9929313634748975,2.1633017617061894,2.1319398492551644,2.186588453167291,1.9410875362772493,1.974651508726496,2.2402852922502765,2.172481430437972,2.0067949147764526,2.055206943212708,2.2285804391893955,2.0614972980359645,2.260049835609729,2.1433116998697335,2.027888451961326,1.9779995620921182
2.252211473186601,2.034585417393577,1.809473326207702,1.9389891179142873,1.8718265832909513,1.7890717967014795,2.0833672261432468,1.848002973152278,1.7823868954917579,2.0183644585357223,2.1247641107323276,1.8481180313649375,1.8283301116194284,1.7126767627262929,1.9665608782248438,1.837692944966761,1.9266729204888928,1.8176242480776887,1.7358780808404384,1.7618940345673542,1.74048468482852,1.8224654627480277,1.9026060449663367,2.0985280005087357,1.9055503421485238,2.089328391666995,2.274029729517108,1.9414678566779886,2.0996620315685237,2.0864705549802594,2.29825908281131,2.1477077472769084
2.097317648977735,2.1593015546535046,1.8049450209730422,1.8716258224648692,1.871305067137475,1.9790900500924036,1.9933684401871767,1.8807953925672367,1.704425047459797,1.996768999920253,2.1504204852493265,1.7266083595803783,1.7457047103280878,1.8574859279654556,1.8795892380441004,1.7826495207833146,1.7895973305471216,1.8286546408098128,1.8495100848989188,2.036051422454698,1.991559778780713,1.8955531954507616,2.263593929757638,2.0903759322384032,1.97671418622471,1.7893161205806738,2.140685270218217,2.0520005971922797,2.070705921517399,2.0683595791283844,2.2428274968338706,2.1106071415244148
2.175124270849078,1.8006926985538223,1.8546298419153806,1.7665830943977097,1.769625343833323,1.7880083102574589,2.332225254845245,1.8689715283013784,1.7493461455878827,1.9464785474127293,2.079169135195495,1.9422157620314844,1.9957091144149512,1.923629304516944,1.9738459543361042,2.134925881344671,2.080289503782441,2.1054260087497516,2.1543788946742404,2.2156868165129118,1.8025976001222923,1.717145559882868,1.9710205732066295,2.0515500619661005,1.7211659301265145,1.810668586797234,2.279664993980158,1.8022753044519304,2.0378351158689703,2.003188298251191,2.0305006215751047,1.8550471701778526
2.346006407474881,1.9910681813216782,1.7530658088957598,1.8488112476566017,1.7791851348452434,1.8801755902169939,2.137514234195485,1.7263069185594746,1.8397313758281864,1.9265938715757376,2.083139731558657,2.0740522701069914,2.0021803532063673,2.020895054362904,2.0365768989138173,2.025562205936252,2.241119599204786,1.9591035056712847,2.2005744261999745,2.289296134894582,1.9480580163713257,1.8042078396842425,2.009950089392243,2.1849890758716666,1.7741847561022868,1.9788575393553447,2.0936582039735563,1.9440293309224184,2.0826571264497917,1.8892572762360897,2.088725395580574,1.706618462985394
2.416539638723466,2.0957971463131004,1.7427321805439042,2.0527018909869716,1.7863735128569982,1.9780095359955878,1.9238316453595001,1.7448207340369468,1.742823490580929,2.051807299164524,2.0269834709792542,2.0131498560144085,1.8604232178219444,1.98790227986822,1.9985733288163516,2.082699263093001,1.9694810002038592,2.0743482478968946,1.9862579576591501,1.921895644469406,1.8366875062914878,1.8067673573187712,2.0701755901162295,2.0964247356948387,1.8012626693600189,1.7610770906756401,2.0826008099850606,1.9826292886048411,2.0576485343865873,1.9477339709871913,2.05488197310425,1.6854173209814474
2.13040977353996,2.162907495566381,1.6730087749456404,1.9783340515421541,1.8488856638998616,1.7674341862900182,2.127897397529932,1.6770309354326047,1.8220633466846103,1.9353544679779369,1.9291782179223327,1.9005365053273913,1.8244869502087204,1.7869289827954915,1.983350990489383,2.055128733667202,1.8191419677903549,1.775633316397326,1.8490183200628005,1.7796808704567697,1.773889493313989,1.8023523601284215,1.8804251962820147,2.265755466343781,1.731055247262399,1.9033520363860124,1.9785402527857858,1.8611655137112884,1.8947179282470756,1.950180483372571,1.998815521754329,1.8203834252896254
2.203406681213015,2.0021321328088555,2.007924769515428,1.923352245253517,1.7325675572046884,1.854806224150449,2.136200554884891,1.8720596887262648,1.7643726133817226,2.004321273291733,1.8617126817395582,1.8039975018358079,1.9614394718803532,1.7824165536475238,1.830845509173067,1.7991119944757386,1.7280236627167989,1.7007904508245977,1.8730378913897523,1.8356609638240635,1.8266342000041589,1.814298519872851,1.927012895739984,2.170842988980997,1.7865291648499189,1.7248300208365637,1.9436118730831693,1.9233348227184945,1.7848025598337274,1.985457418578044,1.9009295972052598,1.8903739392385137
2.300211324315795,2.078259719045808,1.9063719341633014,1.7324174415072182,1.986385980766882,1.8896689730605245,2.2281881075448364,1.8641662102888634,1.994352373579621,2.037648612948761,2.1359810349063335,1.932879019921265,2.0390660066020647,1.8219248822387542,2.0242139067039866,1.8878635301690339,1.7956245222625618,1.7444300988748462,1.9284412199979428,1.8214628215334623,1.725472715999251,1.7946497729322677,2.0245311450264474,2.177515968651407,2.0167774966138587,1.7185172869804572,1.9648140124412388,1.9041889370507745,1.9601361015356058,2.173187014714609,2.0303984189437756,1.958273899390421
2.322773772795831,1.9401605194648233,1.8174071579046667,1.7619522454370742,1.9408482430704683,1.8198038221879265,2.214183016625413,1.7283684708969869,1.9646414586548442,1.9531387761914765,1.97420557385294,1.8641113191503709,2.068742126452512,1.8499824646274783,1.9488511277337928,1.8164624796816033,1.7189644671444593,1.791359245431882,1.8590202122640103,1.8382403809367354,1.8154879121989527,1.8664383315988406,2.0020368087647396,2.112309454083958,1.9039043543847978,1.917307273256763,1.9960315361234826,1.9836001197532271,2.0817625251661385,2.0635796150875314,1.9187886357792239,1.8611970954262433
2.352947294361441,1.9019053027680217,1.8878600144378954,1.8599734441949174,1.9455530782005819,1.789508147905007,1.9534412708335198,1.8256996475483012,1.8893812500137945,1.9157082663928482,1.8675219511280898,1.7688975502806017,1.8835596115145872,1.8301306121518164,1.749653672649681,1.7260951406788696,1.6456046597717418,1.670162013067259,1.751797495688143,1.729742521612421,1.7377998704800672,1.8240171545459862,1.8990750617029626,2.271495104538962,1.8808639630478359,1.7320424697606847,2.165113168595421,2.1054829911555486,2.0256748926374577,2.046116368130792,1.985917414829223,1.7236244476896638
2.3146663334706683,2.159192090264314,2.3020718435878784,1.7993952436287348,1.9246044183429585,2.0801204917158875,1.9300604375311148,1.8437341346836138,1.9425151345562381,1.9772082209203525,1.86006961868979,1.9666703521362914,1.7723104592465506,1.8246290707100035,1.9368002018029762,1.808790085558388,1.716972666610412,1.716326605266406,1.8949119737219475,1.9405070392564019,1.9141672770734808,1.9040994748762112,1.9185098489420562,2.2733029768264954,1.8754428925520443,1.9255280686275054,1.9488625641445434,2.058233491796087,1.8962516243133567,2.1688603115073084,2.048503332155281,1.7807460872630638
2.4081346489320237,1.9978762931460996,2.24330751253797,1.8630429768148173,1.8864814513687649,1.9161130604152974,2.0611042305995366,1.6905892450615598,1.8163668389414311,1.9565083765859672,1.961942160310205,1.7307683882473361,1.830130687309915,1.7784405995050958,1.9911862707310577,1.788917801131638,1.7009424838207294,1.7145168349684765,1.7712212319781306,1.7769989925504421,1.8821753344866559,1.6142523071068464,1.8695152297139483,2.134322361531207,1.976965275209093,1.6334882146324072,2.037257373753621,2.1741879558176964,2.126441579130067,2.189561566884667,1.9205301887637316,1.8106098039371077
2.026013625388763,2.094986441748453,2.260845845906478,1.921039032023535,2.1819509140517064,2.0309260578715516,2.138119856608031,1.9744195161507496,1.7373224851117524,1.915317557821632,1.8408914873755124,1.8195498078245216,1.9308383345061557,2.0166000211254627,1.8185139161007216,1.8305727613845353,1.8801871154027487,1.9649574984634979,1.923019997767973,2.0689599468646764,1.6613984225346488,1.698125427426641,1.9680173626949093,2.0067771610899077,1.8269448977301765,1.8213792676061025,2.131388671396595,2.2813882462687896,2.160808232199341,2.0393480005236304,2.145063141795275,1.823329442579699
2.4201235290233862,2.090777914595144,2.055132358082639,1.97810367484519,1.9856690045050884,2.1353118709523127,1.9330795805839278,2.05673454199174,1.9582047408233296,2.0791837992002327,2.1214727779208578,1.975509287698683,1.8376201747367544,2.015592276312789,1.9423483077762815,1.976988753207756,1.8456942745672393,1.870569318801951,2.0848144821192953,1.946268206394632,1.710885815497271,2.0311613923448193,2.067824487863556,2.156613365457692,2.0642797322061073,2.0460399207399678,2.046027008230224,2.025925310805836,2.104502815960646,2.275122654497482,2.2722564607364952,1.7985810965373663
2.478413248640273,2.1064338559095983,2.2396191732498782,1.946413357753593,2.125104421504705,2.019029123932873,1.7814712030857556,2.075670075368775,1.8933531375091726,1.8861322307980621,1.9136394304532616,1.841485388092266,1.8977778800703782,1.9995631563941103,1.8644015208693117,1.8265401353514192,1.903573143739644,1.9804112375910117,1.8731385721226093,2.0150519021816664,1.7057907022727692,1.903997113476816,2.0317036917607556,1.9494647875386875,1.8869547103244213,2.101218354532686,2.151916357343362,1.9857628731588004,2.104316807880741,1.9911196025579287,2.1174378701582133,2.006220550981914
2.563775262973883,2.2410426761741085,2.435045166057507,1.9490806229305775,2.1303079701776495,2.261730688156508,1.8631472982075423,1.925232997427189,2.054720360339179,1.9293542528507135,1.8372025068990976,1.7418298859746877,1.9029747087039037,1.6865475907721426,1.7220170918106152,1.693225955828709,1.6849328119565892,1.8454800398040856,1.870646051493342,1.89745673057415,1.7134231797910988,1.8459612697124141,2.057819922407898,1.9280960082036915,1.7964150592113974,1.9898372654634213,2.0209030390364737,2.1193836798536005,1.9076492503101106,1.9779968411134807,2.1648625571141342,2.092175483479676
2.1229095458090335,2.083673768397288,1.9364526692659267,1.7104341295249208,2.1119917643523265,1.8011089811834393,1.8089094064522224,1.9521730124441807,2.100204258038987,2.0254140858211573,2.2444006894239137,2.1071643539274687,1.900354915414171,2.2474385604890683,2.0542601199857713,2.0092248097273795,1.8721476014328586,1.9738844646467284,1.9428899002176572,2.01058788324501,1.840046075734782,2.0520112341972263,2.0162715852657254,2.121116926518088,1.8676584748006277,2.116251513514572,1.9879440448172039,1.9403020904744757,1.9156722638486838,1.8036341945324141,1.9133579841900645,1.8837222344102882
2.2586133417300323,2.0357223466209446,2.2104306789305532,1.7474421863607412,2.115395214165028,2.0842816080931352,2.003653087214185,1.965502967543871,1.882657962397276,2.0020233754972994,2.2311823638524566,1.9289504583394854,1.874640496854409,1.9495148515360963,2.1331106214226434,1.8879168666332091,1.7306963314608619,1.7140047180929745,1.985813976945999,1.9892463258834894,1.7824061395128905,2.17099341493086,2.1771565004591413,2.1363100331902154,1.8424586998511472,1.8414267032276341,1.9380800179836302,2.1533001170582176,1.815465517215014,1.9644215162728846,1.9898523084152917,2.0682754333982807
2.4240773489259184,1.9126364542146361,2.050647218158033,1.9167468244835906,2.0117857474693532,1.9854358429738497,2.019206668270506,1.8966330516555854,2.035464812278685,2.1906990127467836,2.182293090986666,2.0291275805486744,1.9891527498665627,2.1281667190218214,2.0464862231094445,1.8585249764418343,1.7699929151420368,1.792918593686543,1.8901158994875322,1.8829582460653127,1.833674844659619,2.007521133470422,1.9806888429881842,2.1459606507843034,1.8476281544555246,1.9441131246657066,1.9881989929916428,2.077675969857516,2.012749538421183,1.9761661024540682,2.1146721421644736,1.8889215960591226
2.134731432553859,1.9514739533348837,1.9267557655648055,2.0445980614248764,1.8831879826850577,2.2774584489576557,1.990165847576523,2.1010967774069775,2.1150904742083556,2.1258160518814426,2.1679886874562,1.8984849739863827,1.7832316900386123,1.880018009000351,1.9102683549478268,1.753785362864859,1.7048841048627164,1.7668451966311434,1.777738267333859,1.7995478316474656,1.6978066877653064,1.7616671764491634,1.9045563701695722,2.070009708384756,1.9966282564669033,1.8719124315871254,2.2449681659067715,2.1717672051176025,2.2101132708154387,1.9973605280550593,2.1725239338159827,2.2109335029819133
2.3937638541580344,1.9717809937537718,2.2726486805165287,2.1266645771287256,2.1715972501651994,2.3141334755545624,1.7798226105606305,1.9690142026897224,1.8378467422092921,1.8835107544727818,2.0784539835189833,1.959570071350899,2.2323766802061225,2.038996073880256,1.9763376949513787,2.0016763085288827,2.005841545855975,2.018356745325569,2.0058270274084493,1.9490355780819604,1.7874634976500978,1.9141588230138908,2.229811611001435,2.1424011687956015,1.9927902161771993,1.9554281058753769,2.205318222546397,2.2189785770489974,2.234465026955339,2.047530164520144,2.1375468127000197,2.091356856805859
2.2007033113444017,2.0532714024611383,2.270999212712449,2.1508736841701954,1.9434771898638814,2.1971523183444086,1.822864650457823,1.806384777066586,1.8088684593289093,2.008234569320162,2.0932879711558576,2.107367759862572,2.1055431369418227,2.102648777265735,2.0134050033257265,2.068103975783606,1.9437388434573362,1.9252630953205647,2.170231758681096,2.044256182987573,1.8911396612909908,2.062490484890477,2.1634838184825465,2.321492249762503,2.0645183160138845,2.078933443307399,2.200011218372604,2.3166823363916467,2.2144476005419977,2.17845048387975,2.1125828181233626,1.9065463544205952
2.31678725892474,2.213140859608121,2.166219172926734,2.377367322408172,2.0319577859515556,1.9957377480417249,1.9503457548710033,1.9164442928008252,2.0671871663564185,2.2161421854745083,2.2200578997710005,2.0037607049621773,2.1559814884658337,2.0736016895810154,2.117901433192225,2.061658218795647,2.0320436797894192,2.1570417822986094,2.243676267647501,1.9492079004329832,1.8742909135190597,2.070482032924616,2.1992329312381997,2.307666447099205,2.0781164445841482,2.0608619296417263,1.8867961132171862,2.044007861032301,2.1133901866806157,2.1665337732825254,2.054430068422744,1.7788035409207117
2.1958351175441173,2.1909280347520173,2.2573374011972005,2.3287950764896816,2.070686065480325,1.9795870879875832,1.9140160097881962,1.9575259321521878,2.3246687979141814,2.2810707724608945,2.1866893244253394,2.1052575197657712,2.1024910693200574,2.237119566256352,2.170596782971768,2.0522102535867783,2.0697929868454352,2.0891405933667078,2.103740643019348,2.004994779270451,1.7914107412767502,1.9676215524140155,2.31545609845821,2.2158547555082726,1.9378334373275072,2.008056396429232,2.143697495187222,2.1087936257879853,2.431578578418728,2.1564521217234227,2.2867032696493568,2.0069969021731606
1.9424751646761425,2.2365833302473046,2.465765210804581,2.1522131982321056,1.979084892694168,2.0525596417218264,1.8955313375508382,1.7449266185172028,2.175150917213865,2.179268168111071,2.042147905962097,1.9132401717898835,1.981618185736904,1.9494658563206022,1.9646980887167613,1.931168307502358,1.7798218972802442,1.9009860921564816,2.041779562061553,1.9405236802171004,1.769003696979697,2.087963050438987,2.3611553719157152,2.3260971348261217,2.2231443392521717,1.9913944084657786,1.9809047582811665,2.0196393443302654,2.0552703130024077,2.1601604738640745,1.8746555040253539,1.8943371237441669
2.140145714431423,2.1858498371796355,2.286762727912512,2.2004660467218606,2.1163142109831226,2.0345768739790766,2.001811191976121,2.038429093730825,2.212841169682221,2.330158557915559,1.9766743903501587,2.1625201233396503,2.2812136051044436,2.305127956587246,2.224358016294682,2.0799096272283686,2.067892054412847,1.8760005277963114,2.0302764133758657,1.9678459467765588,1.877534144523284,1.9835083206293964,2.122582475961769,2.224609716642151,2.2676164877531684,2.0392211937097016,2.110477264092476,1.8862565353823775,2.3502825907776534,2.202063127010277,2.341658501484359,2.0249458655841845
2.000831131023707,2.0342661337925922,2.1862826297491478,2.1018964779705094,2.1823642057577253,2.1398738546949088,1.863299958079508,1.860730455884393,1.9664790520119366,1.9566768666132501,2.0318214044074976,2.095104188611327,2.186116130434382,2.0589958065827547,2.3316983069468424,2.1443394970912664,2.1188253560582715,2.035669371257067,1.9797068054565623,2.0377926798489145,1.7711811950890575,2.0699222904049845,2.1296728924864907,2.3130720228133654,2.162232481430302,1.9321765607878763,2.080563064733964,1.9492759176199774,2.1544696851045138,2.286908462238294,2.159344618363311,1.9764553652519459
2.088491004221152,2.0285864087352494,2.0188956828176816,1.9944849142602736,1.8470391354103872,2.024822270114933,1.9349988222833334,2.111429516097773,1.9711854546262984,2.312574510910726,2.23290495202992,1.9067393530169903,2.1131253480615264,2.0279955430249617,2.1771957972214966,1.9148621698219268,1.996547322486012,2.2282349523274245,2.209885413667735,2.301838972510517,1.7667938867988904,1.9820685188548397,2.2093312936258522,2.1498429442895586,2.0608938088057234,1.7287324282684002,1.9377020870082837,2.044198357007544,2.0209579260754245,1.8401392359709245,1.8402768638664613,2.07277977226936
1.902775588791973,2.096430079057832,2.104774708010553,2.140580303813374,2.0928937368908853,1.9788277784603268,1.7549125614589978,2.000804526548815,2.270706513785055,2.311791913647494,2.0876516018719715,2.1108807599491337,1.9705192840533696,2.225250800752315,2.0307531965896635,2.0593016352799505,2.1467688442609965,2.090100222942889,2.1456172126841335,2.167765544820614,1.927804007189242,1.9246463994442466,2.2988606987079643,2.191115136536953,2.2889750917690566,2.0391824510429872,2.3720506610157046,1.864473563769946,2.2804610128840355,1.9862096248681052,2.1179105241975122,2.20638979335649
2.0070516897557873,2.371480087750268,2.5157023201846904,2.3132501494961315,2.226328517010983,2.068139312624695,1.8145390340212637,1.8626654732711536,2.1205209175792277,2.2705758051645297,2.212272484300663,1.915390676685042,2.0006530318350833,2.0047957858096166,2.1159439608832478,1.9707412666696698,2.036567539798274,2.0085313483977814,2.1824546793599198,2.22603148509979,1.8608891196493347,1.820038662799011,2.318763309885085,2.2508395452749945,2.1810747162337067,1.979001887906664,1.9143137061140278,2.0788032857400647,2.117161562399804,2.22056262070512,1.9816937916037525,2.154652276963969
2.0241944518151276,2.212014993292511,1.989267685023647,2.0317129178280102,2.2299655219787247,1.9067608936939946,1.820390658193023,1.860840940946912,2.03246438745513,2.2398960720479577,2.356388251426883,2.206881673563187,1.8620624977377835,2.1624078076424786,1.9925569669415426,1.9652944834767023,1.8867217461110428,2.0400472885932115,2.1693942231078913,2.109767956531245,1.924690500440778,1.9015135726687957,2.109469145417064,2.2117337207663548,1.9575167821910626,1.9410146636189318,1.8982291075989517,2.121400039336134,1.969871776709728,2.271460634013426,1.846031497614999,2.068200057755247
1.9036587359530877,2.259992848469327,2.5044214448686613,2.4171680409547402,2.004186089930048,2.0643079071851855,2.0920474840205525,2.0768800409712824,2.0439025693335626,1.9547354196077051,2.043340169670733,2.0096467014480095,2.0915557041338406,2.136925807742422,2.1837668783210398,2.12090719606801,1.9592619873751036,2.0895324671490627,2.1252188106328993,1.971435989414595,1.8728667454908836,2.025824576504631,1.9166209621684716,1.9269345340563984,1.9890060232415623,1.8973747549564561,2.2269107903476644,2.228934637444283,2.2464925906424025,2.070224825720066,2.1118634249375656,2.237454432040852
2.0006812854279143,2.1914359080205195,2.5142204398196504,2.2568662197191167,2.1380797255142334,2.3367889970420337,1.9353777433291246,1.9695240832068748,2.035113996584066,2.01043781483792,1.8893419099417708,2.1561098911359022,2.051879285480861,2.2366458387836134,2.1322453656667126,2.052312708250707,1.9397315263304589,2.010983515668983,2.0605293240056213,2.050982969690363,1.6441151564263066,2.04995615006881,2.1125377812192543,2.105594300953195,2.019622924808249,1.9572045808104188,1.978041717034998,2.3001474104490027,2.100211949141568,2.290134552492012,2.098943998161068,1.9246853315340757
1.9040480775983721,2.2633290667381663,2.221834247694228,2.1762524585950573,2.0039198214024365,1.9179694465702641,1.7931014084218622,1.8755446369644744,2.0383340293829213,1.9856623394981474,2.1212382076977536,2.2073911717808614,1.9907092245898301,2.1397674519053895,2.1190334771496215,2.0378347606827263,1.9997653716184345,1.9356344595752255,1.8811507035288633,2.2045031602870604,1.8029713885781273,1.879619183581274,1.9584827976402885,2.1244455471251587,1.9282439642997262,1.8325251975400147,2.14098164102343,2.052722850127112,2.2272548904263605,1.9803420428251728,2.1048464043791526,2.0179514731634125
2.0901105078980127,2.0404852240132514,2.103241811039907,2.1394457956323576,2.075684180553996,2.1286888046616683,1.9293616984083481,1.8534864032164073,1.9636942650347515,1.9090902485252956,1.8663758665167727,1.933711449000877,2.0265308328807157,1.9748786562905853,2.091532367249295,2.0163219099021132,1.9505405844917023,2.0647778814920947,1.975011876293546,2.0156970909060568,1.9502241791165562,2.0433143633374877,1.942533929660135,2.227209020540194,2.0113439607651364,1.8400732779503923,2.1991774602406258,2.064453781845845,2.286555789527835,2.3154137863227264,2.1171474475655314,2.17303551163522
2.04738096345838,2.2098679443049756,2.3450605187123115,2.159908743875619,1.9410183491146606,2.0879487450241903,2.4108111860231203,2.1570231043485175,1.8659287142193872,2.2845796093082047,2.178648997596922,2.187945235380291,2.0280703129279183,2.105964138983379,1.986919878002848,1.8508364231705396,1.8471251983594061,2.0415845662643846,1.9656304033117848,2.0547876643985314,2.0023928902285086,1.8233410555480858,1.859727734771886,2.1732118807740806,1.8479245860527673,1.825701599244211,2.1125971194427327,2.383023010262622,2.290397510693559,2.2456471702187994,1.930374766816731,2.257491611652026
2.141999372900643,2.315230941987555,2.200713880685989,1.953547422293417,1.8817048681056658,2.03062888498826,2.085414364344351,1.9519235310197443,2.016817590981548,2.2667281754372888,2.240427597524146,2.044851459001941,1.9985951629042011,2.0601953209742905,1.9416317534817156,1.7951669764736713,1.794184700628604,1.9533875664044817,1.9522345859619767,1.9394573963035955,1.8046446302776507,1.9058719150175258,1.9482088221169458,1.90985492497016,1.888237193719296,1.8543982301927169,1.968830163843843,2.2778391504553808,2.3849374988561887,2.1899229746734923,2.0187884957375712,2.1051068829800377
1.9857367725748465,2.2956988972073797,2.416855465631474,2.1561570483844057,2.028113479801432,2.128159860345132,2.0776792932969324,2.211940626569319,1.8199073213304438,2.2292019831424716,2.288301425805054,1.9491053615795348,1.740175403075138,2.096612098831854,2.130650776896184,1.9693839403431748,1.9534535979931915,2.039925777585206,1.8382879987147835,2.010084007340121,1.8098826675548187,1.9189067424284472,1.9558518518683743,2.016328859522794,2.0273730795858036,1.8355586100251757,2.075473791346468,2.2061370477878244,2.2008520778373106,1.9670907445449555,2.0668744711198284,2.1030397659126567
2.2158503108949006,2.132711412516496,2.2447048933212708,2.055962509881021,2.038166904306699,2.165963889951308,2.0585152470685095,1.929724309218705,1.9489340932493848,2.269123010986235,2.1247795911570284,2.091733887354607,1.8000612329805048,2.2057017606039526,1.987114146685226,1.875824656606863,1.9264837475565255,1.995867106381952,2.0443700168815977,2.0468213583572346,1.8841801213436102,1.898966785170346,1.9698684678263958,2.103211506832166,2.092673515603518,1.893925640650108,1.8683214259361351,2.3102144311424064,2.308474094471021,2.0600232505623928,1.8542732325464026,2.050409770543065
2.1831602147185754,2.1974089762800415,2.4078712090001875,2.10440404308259,1.9345125946699389,2.024233389221744,2.109438265454881,2.106009196025205,1.922597385418045,2.2914873051068123,2.3572375591441896,1.8126849014083075,1.776058605614359,1.8820151436322046,1.737205469915818,1.725428543829574,1.6570767028490059,1.6980801479659096,1.8127025335255815,1.7656257311411763,1.978889609030967,1.6392421393329457,1.8626011497149721,1.9292417628731446,2.0577108192812728,1.7929566464805902,2.026361252819611,2.4584581737856164,2.226083870811763,2.1097977904705956,2.0474339504252588,2.0618582442069546
2.3068756551372336,2.269860521103401,2.385564359085205,1.942227762963843,1.9151305633481237,2.167105329922203,2.0979841227315785,1.792287165469555,1.7579694987184074,2.05930336809514,1.981032861042211,1.8730985283671666,1.9392672207092745,2.088113246125454,1.894171435761626,2.004103780326899,1.9092560699905856,1.8276719974122728,2.1346692845034143,2.113833179620871,1.722787332918917,1.7846537222549361,2.0223379409732436,2.0315638976697477,2.0659922556096255,1.7762945415575204,1.9458847835767916,2.159723683168302,2.334855985744095,2.0327859030374795,1.976757987224772,1.9318315802907062
2.2734271169315834,2.1813203859627315,2.0253760155990905,1.9326509938497696,2.0785727735592388,1.9955990688155236,1.956760607384728,1.9838359740235474,2.016260311117081,2.0322319720264628,2.0758795950256292,2.110479431987993,2.0640054176730422,1.885538916377776,1.913030884208583,1.8451603376894499,1.8233059480748444,1.8195162222296597,1.8196725284755688,1.777553356887041,1.8497372036962718,1.8629419395057698,1.898149018058124,1.8772902531209912,1.8205347751883205,1.6185151227400867,1.906381799566241,2.1846721262898368,2.1599675892590695,2.1197731783294307,1.9706556696241957,1.8849493045328345
1.9738879385594021,2.1743365807105275,1.9163443358337602,1.9162490736678832,1.8358894281516396,1.7021653535828054,2.0835246916441297,1.964628265533733,1.757759777709503,1.9537186838526637,2.3084120051104926,2.118444802385068,1.8317349871669646,1.9535005979265343,2.140786437423165,2.1360681830439825,2.1957374396141276,2.0192684344569503,1.9000760532652519,2.175672069383266,1.9181952143467982,2.1712517471969055,2.0017136167750422,2.1957751331114315,1.9711682257935248,1.6142760745709628,1.7971041060407311,2.350451643344816,1.896443822080328,1.8894013094927626,1.7095572648090447,2.01337369297907
2.3570367410209236,2.269303645476742,1.9797855178389807,2.0119179715723585,2.1300085139807017,1.7497132377120697,2.2124361669952344,1.9229817903709436,2.0758574252460904,2.2054380047127506,2.2224419674903597,1.93599375947091,1.84321606089636,2.2014375142833136,2.143153559128976,2.148431437611741,2.143171643861656,2.064404203512892,2.1445868765218044,2.2715035570925233,1.6774405533748358,2.1286867896089086,1.7741075883945263,1.980462889353217,2.02772295204001,1.5165018226475877,1.9773002264423454,2.0596035959708896,2.029511141821024,2.0833117696376604,2.198046454441449,2.119220447653867
2.4274961854729753,1.9939280866039906,1.9864520277014934,1.9722168357607013,1.942675125286304,1.6830014295478226,1.8467093369176317,1.802744642365827,1.7884906663432734,2.186838280593648,1.984484754576198,1.816772169670525,1.6932055784839444,2.1592691400819555,2.2037657368586006,2.060373182883359,2.14762849643438,2.030919661256479,1.9107932843805575,2.2644857379595686,1.737083429751116,1.8376841597619566,1.976070189897595,1.9612463359293075,1.9543200437473573,1.4768036023297144,1.978852304281706,2.405993156952526,1.868660645206316,1.8490286009100712,2.195388765709848,1.9772718298123493
2.122034619623632,2.3417162298679908,1.9440103144881657,2.4193832846571475,1.9804387653446653,1.7440309139612244,2.009360511013307,1.7990981403593809,1.7659393666216052,1.9747155910933774,1.9284415052486594,1.8522709238973865,1.8178573298594707,1.9165474041145512,1.9820443246960409,1.814916326002126,1.8347154883745742,1.7163443809557966,1.7066927064954478,1.7412308276268773,1.8152309355821765,1.9258415673641973,1.766622008923089,1.814074206551069,1.8454012658342787,1.3146841192589496,1.7436839071854568,2.0492481329187813,1.8132551762551237,1.891637328454132,1.9863294827005324,1.897851948938033
1.9399718985190602,2.1102094376418803,1.8763990169127387,2.0745890874668413,1.8677012661374064,1.7465527736252187,1.6923291116133148,1.8328947214169464,2.060794973392302,2.0322002310222254,1.8979501850352996,1.8640897238861065,1.9426899752269289,2.2282243463121776,2.1429199052169636,2.1970937522128993,2.2175548104378002,1.9053985123503092,2.1402760535054703,2.1239730845462175,1.7129068871807072,2.187873628167704,1.7400865463875876,2.0326962350726783,1.7724932288453674,1.2497529945895898,1.637070523178497,1.9724884227417634,1.8006195900277662,1.811982078401719,1.8660891940123943,2.1315665900083935
2.1046762960585346,2.459636728936705,2.056035418111262,2.2094638058815104,1.754252689554808,1.9522909838128382,1.9146948675030935,1.7064291386534876,1.9228196610105956,2.0300118617386227,2.1139827787069607,2.046756176446237,1.9112529698251715,2.3459493635085757,2.151032482460255,1.982376244241496,2.0613150864345973,2.2414190684176396,2.221952893075503,2.027441683451175,1.941884654205701,2.2634587956598766,1.8089718694711534,2.2823462028371537,1.8117049338795927,1.2031785225566098,2.0055554474052597,2.0403121545152474,1.9178119912167007,2.0331411675939575,2.0870439547316537,2.1581913552388015
2.1975126898251465,2.4266502133662198,1.7674273555336757,2.240494075315766,2.077540412644469,1.957800819668399,2.1134078027506247,1.8647124228676986,2.03504757600491,1.960458195844348,2.253926889776922,1.8517546121965596,1.821298646697223,2.2681956770667786,2.057159410134217,2.332163212985926,2.2284866519900977,2.2521966996788056,2.13599495175353,2.190922676816298,1.7931724746323443,2.2793287921541485,1.9876617026453427,2.180561203613873,1.8262074793210874,1.1843902198526362,1.9718169614064676,1.9173289661820938,1.7835976354552985,1.9458523466126192,2.075851753554576,2.030201796164031
2.014533097295144,2.3361245154859382,1.9372930193694549,2.1592214450710667,2.011597130191092,1.8689344191577917,1.9021341408701098,1.7825703128577843,2.083589757095548,2.068470403971235,2.3255578797424032,1.982010304414226,2.0022313110231442,2.2388987708290062,2.2314881661638397,2.0586825189981877,1.9347040881052024,2.1637100680225347,1.9542382386008774,2.029665668356813,1.7348035058772318,2.2887576553363043,1.6888178655009567,2.0748242225447395,1.6932558690552646,1.1779443688695135,1.7932384915334543,1.7482695805819886,1.8904058579263925,1.8427352840826527,2.2702556635001607,1.7492507494647251
2.1152935385041784,2.382997166483252,1.7891777722170323,2.003108369009247,1.793437300360479,1.914933714607605,1.8206934135002566,1.6285368866019,2.0073753439563222,2.036276636486703,2.3553369387050425,1.8653075553120786,1.7102844175881753,2.1008572742099476,2.200921786725763,2.1565926268016704,1.928850999155847,1.9518607606556302,2.071653569829939,2.0722855812805077,1.5767981779645401,2.034203727015208,2.0411707732992332,2.103335196465682,1.8783894822831548,1.1682463447627953,2.201226766849728,2.086921356628444,1.8485849047630072,1.8322030868170651,2.010904861473891,1.979773846154814
2.1243789377490176,2.2647497601778905,1.7096455840787639,1.8726113887143938,1.9463414699643515,1.7205966326152728,1.8847002013818848,1.7295110649584031,2.1388730121169575,1.8648392409179502,2.0926922179154164,1.9910885003055034,1.7746731968965228,2.1242275319838666,1.8869697149422333,2.2095135069405494,1.8985354984550236,2.1124688619393175,1.9977941035851041,2.021602380592411,1.6182320912525294,1.8435604259253242,2.04584634448639,2.175724061234108,1.6956599672077497,1.1891806729855185,1.9526961096396063,1.8109444726741528,2.002162258255292,1.867135745006348,2.279334979887131,1.9194252328443329
2.36634373813769,2.34267418638706,1.776019571793792,1.9617122627604877,1.989528663925862,1.7215497707523295,1.871004502068509,1.8313673431375435,1.8800123023109296,1.989936787471859,2.0535423662818375,1.9408974836626747,1.9174138431086896,2.136517173513773,2.0212918076180957,2.2649994698872002,1.8671352512964234,1.806581299861171,1.9084176219431437,2.0133081034469593,1.745234534389327,1.8523461179552567,2.091520119107061,2.335799933988717,1.7661340537263381,1.1981109203114138,1.9351156562754976,1.832565136321312,1.7694818618153239,1.8243153345942507,2.2836040582745185,1.7583939965891933
2.211613933687747,2.545493916091541,1.7464667291256601,1.9224972114175356,1.9863384682596001,1.699288947247406,1.8280660231896873,1.8395304241582224,2.204504844090696,1.9972125863301278,2.312144897545749,2.162120627379821,1.7189109994167346,1.8931154561705918,1.8510834703602534,1.911841485745407,1.9478520916911284,2.161367391215595,2.0444920507813507,2.118267479752082,1.7273625619636017,2.2637599807481457,2.094008309392446,2.409260407490631,1.729293801540867,1.1941449357311649,2.1230876692273974,1.9232257682313076,1.8695536772745875,1.789084249482024,2.2467269355964,1.8726602675103285
2.194728384691962,2.3769213396258126,1.8126787700156874,2.075346867554037,1.9958596801674064,1.9733551874295139,1.9201900445462576,1.6348439029370148,2.1117156863275857,2.0932467679537576,2.115400272553245,2.202931807628645,1.7078754205124183,2.142073621130819,2.0533140966631227,2.198496717628694,1.9090242915152373,2.050781522429305,2.0595015495143048,2.166668269025338,1.6726409164363718,2.232343109645111,1.977187106194652,2.350988679176176,1.8295811014515573,1.1888593051317236,2.1147095046775473,1.8762785678832907,1.9031657500285153,2.0568818071152024,2.281273828905341,1.8887944924488076
2.159174808814988,2.4851962503643428,1.8218132262110336,2.201161646509141,1.9245187010214948,1.9647281859645669,1.9954041964188844,1.5977585437374948,1.8235176248636842,1.865152025968319,2.13788942055188,1.8410470983454854,1.6408371017074677,1.929638765064107,2.020335779487152,2.061777652036381,1.7977708029833523,1.8448487025352363,1.8782381090609022,1.8537646405176749,1.6679474776632477,1.8291179251245742,2.11100970890919,2.0528656285187985,1.7079253822575808,1.165261581276407,2.2433759940448934,1.9775050153989417,1.9303120960426798,2.0015482802858755,2.2851038625322966,1.7582537885321734
2.0316570800418514,2.3252927953737914,1.8124900274398217,1.9984263006484044,1.7101533067516956,1.9448671548070748,2.0808479641441333,1.6718192207554048,2.1177702220218744,2.042975301418916,2.1722322395272697,2.16486837553402,1.7945088949036296,2.016780048279285,1.9212728191920982,2.2245414340721834,1.989333314753837,1.8222607703460547,1.71055407676855,1.8857938667448515,1.56021146123807,1.8873369311087258,1.8460896007616623,2.0389710226182345,1.764987814385519,1.1574504563760457,1.8550683959837504,1.8045389783486079,1.910396292711337,2.0014923930047126,2.0140207779442245,1.657197794703558
2.4282314607064963,2.1847521556437792,2.034713488762278,2.142702288072629,2.112971544882758,1.9046732373758126,2.113389334719544,1.647468874916023,2.078626726640217,2.11752427418198,2.317043941492661,1.994507439555359,2.0656110343540988,2.088083802587109,1.8819402277731392,1.9653116249561193,1.702366376847128,1.7319254296633548,1.8117471544799693,1.8453146006103298,1.7548491490424605,2.157026210435106,2.00181785831156,2.346969448722638,1.5890481791960844,1.1421739365624317,1.978576098625425,1.9124190208538838,1.8106720184650082,2.347698853913606,2.0353694981533916,1.7779185689000903
2.2147988597084414,2.134345218962431,1.7664902108678764,1.9779154595555029,1.8970570685841723,1.8990826567901575,2.1235326197904336,1.690067124872319,2.0077584840325295,1.9966366751917137,2.322189158528811,2.2119291866364392,1.790350627078956,2.1903510674550897,2.1831500735327745,2.191780092016107,2.0512507990965267,1.9538316061823882,2.060856677559638,1.979835602459841,1.6064132961101936,2.176855465484116,1.9307819340903563,2.3004041038044782,1.7927755776162466,1.138329703845326,1.918995899284997,2.046389406185577,1.9282739154768935,2.331861334080214,2.0573140944974884,1.8606057231354929
2.60745496697491,2.114175333446789,1.8059522880220507,2.153664788222974,2.0109295322710854,2.0499154644396453,1.9934963448785783,1.6207574212498013,1.8663859365130606,1.9274024912057344,2.180879710368663,1.9422392834156819,1.730586127924223,2.1521461975399943,2.1759057690702024,2.198560461396643,2.1214136147038047,2.028264058939336,2.2228430581176575,2.0715646569076793,1.5549444505066556,2.0378661433463487,2.016498749155981,2.231720547212705,1.719517848158277,1.096904133789586,2.2459300235428645,2.1245694587428265,1.998671027293085,1.9703752710164752,1.9985062329570216,1.8443661694757267
2.3252796296577003,2.419860616810002,1.935688289642594,2.1215729475387137,1.7927409534772691,2.0653578124780885,1.9094229055325853,1.8159855996238747,2.050555603034299,1.965013031626629,2.1002781568206506,1.9808131522815033,1.8309268065696618,2.0810973773875467,2.2440608939874624,2.039564473818613,1.8737118662976733,1.9560631847968408,2.1505010244118212,1.969964402332389,1.4964763231602742,1.9402753781037232,2.043553468308827,2.128729265499987,1.733069127263321,1.1271179581578654,2.2201400702457414,1.9577605943138197,2.1400516536922956,1.9979230840375504,1.9037251279253418,2.009586805600935
2.2924236014888257,2.350541984954159,2.03382613665973,2.171595421753663,1.9483497173639366,2.2978134918358464,1.8969684962187103,2.134310112852132,2.242413286389484,1.9782902633846016,2.43131785008073,2.197990801311851,1.625295125259665,2.1984670409705953,2.216857362715158,2.108979838268814,2.0175951808791712,2.104790138005247,2.0341107256830324,2.0552036740363273,1.9500778763939137,1.9373046644025869,2.291046729545314,2.082477070986252,1.6684706655323347,1.2681981714983082,2.2525102756324875,1.9280190160482482,2.337887681608994,2.285559757451076,2.0858607869602346,1.8095076291714305
2.6018428986579294,2.4365203179295434,2.4286503016655114,2.002218857785929,2.2628923322036787,2.265203957694071,2.054674849696775,1.9963381621319272,2.0310943011927303,1.860936621953626,2.267290336146532,2.1761076125588388,1.9078693510173719,2.181095331691155,2.0684112698414823,2.182045516111767,1.9389082215874633,2.104146276780432,2.2820367465362974,2.1370314821042156,1.8821853837094396,2.065193553206148,2.1180780374756742,2.029864686994018,2.0614400461380837,1.4753622287759363,2.046825938367873,2.1054431308997175,2.4018345269956933,2.241928194771445,1.9095298658627893,1.9527743835357338
2.3222977229691137,2.36180163022511,2.4544186320544092,2.0055966310922497,2.225765055577134,2.3339472513291457,1.88956275048279,1.7632641611600086,2.0882197779562484,2.1213338181617925,1.9027756143012207,1.9818099128654982,1.8626036630275025,1.9583232794183347,1.8194506507945774,1.8175851714490678,1.824716795330532,1.8749507656045863,2.0227839323667243,1.9362168470984014,1.9165660158102242,2.1020228604566173,2.175764728091582,2.014364912722377,1.8575850169313566,1.8076905449098652,2.1371830151574978,2.1412631446590624,2.3249891857818534,2.174201642910839,2.045268218967305,1.9623780861913926
2.3647053747145215,2.1484498256224187,2.0143306083369534,1.8641445872208842,2.0139570981484556,1.9364314861504939,2.155011716935484,1.9879601787267305,1.9875893398047049,2.1445261953803247,2.0866398184780164,2.158835273069765,1.9060072285634029,1.9891691833524445,2.069126471655616,2.1072097538039207,2.0636885147086366,2.091589165942251,2.05528008651837,2.0773110966113464,1.9666136043320868,2.198571300027269,2.072131637055916,2.0418069987771403,2.1374520981954674,1.6388524983429484,1.8786286391484301,2.1484191544721836,2.3797500132832043,2.1807074996438955,1.909918262764531,2.0057916351678946
2.4382525251783154,2.5033363661428227,2.4796601811418637,2.1924043585289494,1.9083434326907767,2.0890237270178034,1.965778301125563,1.995187106050214,2.2298368035771703,1.9659139739391702,2.1163714156683513,1.9920237836734984,1.8685929079679695,1.9367728901218488,1.9179996373749522,2.0754364677292303,1.9475521134162426,1.9170443983629004,2.421722453731594,2.3628175147531274,1.8414196038501043,1.9685815531599866,2.1466811563589436,2.389961699791959,2.06634947426854,1.5888524471339711,1.9370935011615833,2.165358371125657,2.3898404866816705,2.0766123028208066,2.022656030446972,1.8846076067969033
2.3998846094329465,2.614078098156481,2.447186161942444,2.2692867033011943,2.1618725356846986,2.2318622708164595,2.124424449472116,1.8052248739968677,2.348230259751176,2.3115177964067417,1.9623782688428322,2.2997962960705967,1.7748426657030747,2.157138992164195,2.2114401198563374,2.2013734482118745,2.0088466700803878,2.1443477892713223,2.3089560107545624,2.305751712025564,1.8328322448084944,2.1043146517976345,1.8879870844262034,2.0746632945242647,1.8518686093138739,1.5828212593910576,1.8430016143720442,2.2833978742347214,2.338434374358067,2.047826133340966,2.015755947643794,1.817475053708315
2.25410290959372,2.4115839586419465,2.258772656726421,1.9972170396031148,2.383013679136241,2.336423554004971,2.1699770491736765,2.0304767329064046,2.040246602967244,2.4182163402723518,1.971234963968677,2.290566620702925,2.026888771109734,2.126898113876942,1.986206377410254,2.229876489302374,2.091199964803872,2.133422221628687,2.3957673084504134,2.4255175332286583,1.8462521494582225,2.169095895030008,2.0565132079359127,2.21157219714698,1.873242156361165,1.5736093622645098,2.0481310845028524,2.382305963166572,2.304456430251898,2.0637305915232838,2.062469867141853,1.7050229572962825
1.9484451567544254,2.3718821707917144,2.7750094095007447,2.1730203559013592,2.197656722897978,2.2228826974855798,2.048784504132857,1.8275948955877372,1.9540159238674557,2.303747187404276,2.114472261540405,2.2290169052171454,2.094631184785484,1.9663757845287266,2.297840174569005,2.2097283750381282,2.1198094900626967,1.987170819150502,2.230907620692492,2.042371175978774,1.8162008351302201,2.1044009803525703,2.2609998219178373,2.328524105218499,1.853848414864491,1.680601746636045,1.9980390274976767,2.1664647250690194,2.331284788065797,2.1338267013513605,1.9645520589631345,2.1291834828464915
2.0976803267632436,2.210952193140131,2.2658661246959673,1.9688436607151127,2.1776258562044837,1.977316429559985,2.053370173467261,2.0052976902346535,2.081004986774954,2.0567272226871722,1.9724551812232558,1.9223985632105014,1.8932120707670517,1.8992507437481883,1.8545998802126311,1.8679357138348562,1.8905942342973068,1.9262598062242673,2.175698488287108,2.4034137407803744,1.9094809642922006,2.3151690043100537,2.1059960284703534,2.1920971952601658,2.0130287372021702,1.6849660764757375,2.149886558474214,2.539963054142093,2.378491248713519,1.9445730553356013,2.1136433319807613,1.9943713418989244
2.124097790345969,2.3173374444068946,2.4388123639852894,2.3207415203799178,2.063718552841031,2.2000759273300647,1.8458471029538435,1.8670479493699927,2.280875959441147,2.0300981589142184,2.0038067619177244,2.1951221507463177,1.8511109742905079,2.1569420288738206,2.174990025433993,2.28034453403209,2.1345695875955406,2.091283241472683,2.1620401909953415,2.154843003288846,1.6970932804925403,1.8439620017768927,2.264779581702687,2.363780993691868,1.9921522017300877,1.6972598780930008,2.0411486296903374,2.582433253249617,2.2560033443855083,2.1037425246270853,1.9937698148251788,2.0577303858986697
2.2013850582523506,2.0504685170938135,2.4536566621559732,2.150083547527046,2.0714936958528396,2.083929188610834,2.0117222608139955,2.0901274520880273,1.9806448237326268,2.29844142377512,2.041990815879464,2.3257776455081043,1.9882540833041773,2.221590695499907,2.0762943919465155,2.2240211007714543,2.086932677774711,2.00047222199243,1.9808986744667119,2.1944559557506076,1.7957959212894943,1.9942417948394309,2.2272254720472224,2.1225008839318873,1.9482434304900116,1.7026153484034445,1.8895346534637827,2.1507671456053274,2.436134025517917,1.996632075721477,1.820311580899013,2.182216813248303
2.2793526225655745,2.4830877191208587,2.613442757075154,2.15543814769337,2.1245855294359925,2.083372658185747,1.9672912355089398,1.9118043310744386,2.144693735561646,2.2817613367383527,1.9587090562563292,2.3085278118529073,1.9176660975652289,2.3724863877460005,1.9526462088077676,2.252655504466047,2.10540223008436,2.162992043431772,1.925477420984774,1.9309053056458496,1.8469007502378987,1.7828603127977234,1.8280972449401884,1.9584249462911836,1.8442833316511082,1.8106408941614272,2.0500666386855095,2.263811365803731,2.3752771019160117,2.1138857010527117,2.0997065448438823,2.230040009847457
2.031235752700504,2.1715539513547357,2.6756316362222945,2.1724841504041117,2.0551478771341665,2.1416652768403677,1.7429651040766836,2.0017420826488728,1.9177319761123106,1.9109961206777846,1.7202697254011203,1.8732121813412328,2.151650401077491,1.8672648161390561,1.9506674530132844,1.9979925342518152,2.139272684349295,2.3139018100214814,2.0074219403943703,2.061665151788363,1.6540400672570383,2.0747930729257806,2.2818406077596913,2.3226848315699717,2.061419645459663,1.7754922355808063,1.8780402772108948,2.268493353792861,2.256365766847431,2.079411579486573,1.9205190345297978,1.9252230905578724
2.141111486312368,2.4890543333432085,2.5975102857693892,2.3262513568976653,2.027384276122614,2.2110263060489457,1.7086546228814263,2.048741028935549,1.8393264392426463,2.0141706103741073,1.9360199818797266,1.9202772044261818,2.2038411422124264,2.082106929945721,2.0721270537308865,1.9563871033592828,1.8960829066153297,1.934513115120207,1.799820705992386,1.88143709093202,1.7987424554964624,2.0570078615447915,2.2292317268967654,1.923339183054855,1.808652863972414,1.8093848945520676,2.08832216779688,2.2170662893777076,2.3749892987028334,1.9424546778661722,2.129546084253749,1.9144180002180762
2.192755191528364,2.097525700866306,2.153122463273295,2.0215027536142953,1.9842568889738281,2.165115579029555,1.8809507114429573,1.7456198844344843,2.103144329988625,1.990952269734506,2.019563445484072,2.1691982034064248,2.023302406826465,2.126347489509988,1.9944636181581694,2.2339031382395955,2.007833747469789,2.070968357300867,1.9121218127031074,2.130556034370112,1.8333733334317506,2.011263156944612,2.0322051261974314,2.102564336180272,1.9662896244211798,1.7666428933544283,2.1464572642048223,2.1624334906948626,2.426909929347328,2.076147588758119,2.210138969257105,2.060700115253442
2.006538783216036,2.251577622173249,2.4458007475983594,2.1593376539872002,1.9716847590805446,2.2296364560602178,2.0447872881492084,1.7235528796410051,1.9388922529835706,2.0264147150402354,2.0934027025083735,2.135393900853253,1.8939263538202151,2.1233881543324715,1.9429335172075377,2.1775238455138823,1.842101096404072,1.7894589583476461,1.8412401449416211,2.162809328282035,1.7806896651906057,2.0712245837755927,2.148990760291637,2.1321673732798665,1.779739886062047,1.8404913013554203,1.9109711150145117,1.9335326088795577,1.992014429928212,1.9039358848933587,1.8016808534007327,1.9445007953701725
1.9400229916490292,2.2246264387023045,2.0543799202320994,1.8773986185451603,2.025055553875013,2.279403684262962,1.8805194034053252,1.9754653620217384,1.8141330615289808,1.9306056562175489,2.047001610329154,1.9988215566730851,2.088253979031069,1.9696311530135966,1.9749937860049553,2.191685194184881,1.955209712859796,1.9027158527783636,1.8290516998287694,2.04278809890226,1.870250021180731,1.7779214629359024,2.061871377707391,1.8948723412128505,1.7997125941400247,1.6141987950996775,2.118571890762701,1.967889481215346,2.2155597510160105,1.8536674836787759,1.9311547444785737,1.984989305951744
2.2130044143014347,2.3211048085849106,2.2385735252318795,2.2169507881117134,2.20232117376627,2.0217844456165928,1.852585353961756,1.7337683533134873,2.015333950718998,1.849471643650884,1.8986816126535953,1.9746603976390107,2.039671450935883,1.9114073845592747,2.092232714513624,2.105575434087755,1.9380655232367174,2.0685664347671313,1.9473628008546757,2.0241989886202156,1.8367640107948302,1.9492597482300267,2.2002389518760954,2.073219542437467,1.9172860133701977,1.903405347992309,2.3273231239444283,2.2201424846443847,2.1330749706577956,2.138062040849075,2.1522098999374544,1.8908293816315347
2.198472339810688,2.3435991070516056,2.329888814355771,2.2315277957944546,2.2240841071721205,2.1980039080942255,1.9058496615118814,1.8283499978965865,1.8657229390236596,2.083414004477309,2.0338369432008134,2.054383381931979,1.8625553977574116,2.090776490331302,1.9560938524159894,1.9619816007122277,1.833853558147214,1.869140388201569,1.8860138448808594,1.939074395128355,1.8079157153069425,2.0407001260179283,2.0556725188402165,2.213359882016614,2.070653717946624,2.0513240555572927,2.267286185813607,2.0637626756805956,2.364010375188379,2.208789542862011,2.1400429041777564,1.878008527502915
2.143013470971278,2.2353141174504105,2.289642917703834,2.034498230485448,2.3487736996905677,2.25914969262746,1.9068464770735467,1.8622166602537804,1.9714369934884224,2.113837130688516,1.9820173865993451,2.049947107487168,1.8106613439972896,2.2070933808107385,2.153541991660189,2.042239441339255,1.8091794984545204,1.8941854089289611,1.8612858982314726,1.8845239942324064,1.6658943564254183,1.763805023895874,2.0091452712680655,1.904408689026861,1.9664484119327414,1.9679426941573341,2.078994712168373,2.1230570658304355,2.119200977011636,2.156598250828481,2.1464594294180106,1.8069426599738865
2.298109544353809,2.3359212966045773,2.2519650431873814,2.0527900786511815,2.305636890584999,2.0569604395453944,1.9375334068332979,1.8102525397136078,2.09610417310547,2.1023046835748067,1.9656156511615517,2.1720448495640117,2.165636795269538,2.1634352061602953,2.2165094674684602,2.1789877397692314,2.015613825363312,2.1819582720042456,2.1828269094880546,2.075538299721935,1.7530414313835587,2.0496730044455242,2.1970057130676364,2.0404770251443414,1.9334386016061167,1.8856487753491427,2.119517594416894,2.168402840089053,2.269122276631123,2.0921981729708383,1.9851776298532697,1.8082507152449503
2.2861908906741664,2.2656987248045337,2.3887225358743724,2.0343683376428463,2.3287099501397153,2.069398511820519,2.1137467038987383,1.883250852388532,2.061828247428216,2.143679574000106,1.9335209773497195,2.039021165177968,1.9160730646183064,2.0343116561376307,1.9164741298937347,1.956771058608194,2.1055712593121547,2.0448847210647365,1.9311310372932442,2.097969602934663,1.795537045434059,1.9191383530111723,2.094320645739026,2.109945419603818,2.043043078464994,1.6686899001454816,2.278118921908119,2.2125418679992226,2.1603904360397133,2.078021435699185,2.0079959570400883,1.6933227981475247
2.4541120540022296,2.355065649235448,2.4061379757501724,2.01313386246921,2.136498833187377,2.0795659149462122,2.0153130064313163,1.9705682174255983,1.9099747899002104,1.8243669388932064,2.0536516336429327,2.099443056395155,2.1787698605187154,1.9546881789872248,2.2558971979358886,1.9766683603294042,1.8272883269073124,1.9419407755018987,1.8631807466210097,1.9182093468152865,1.9168509359857926,2.114421620825663,2.1384393654564726,2.118079531365221,1.9453086653868437,1.7311370420615102,2.288751819854723,2.2894185114881966,2.034073126034404,2.0989214263674336,2.179970706799982,1.9291844495328168
2.28197304836327,2.384754172306805,2.485875097145333,2.2573791667975445,2.315888370536105,2.221824880573876,1.9457538814709983,1.9088352296567057,1.9805380850478023,1.9658809887629791,1.9358270503349386,1.9029643180577769,2.010065350702412,1.8437041987852867,1.840455091436606,1.893437812576372,2.0020908541302465,1.9575729841064848,1.9643405536891476,1.9908877838084271,1.6982611630482278,1.859598154722504,2.0305001489347885,2.1994552374330643,1.985716710764724,1.8508010877551033,1.9403602146507903,1.9733068081477696,2.2538263455298657,2.0316027833801846,2.162937376547841,1.989002948204969
2.2559869166382596,2.2729215246959455,2.477642250598671,2.2844848424785655,2.2380924112659772,2.121711495642039,2.158979242954594,1.8600993065629479,2.084349856478274,2.0127531005833434,2.0790483134060254,2.042876524620934,2.0046325988065488,1.761956492786046,1.899679538413568,1.940011439503967,1.9208209012959059,2.067313980061929,2.1392554032248974,2.025445140456323,1.7302021350408925,1.9503620920306628,2.245379001529555,1.9899904089566238,1.8138449669632437,2.0149900322495196,1.984418971355452,2.122506976617745,2.0955922104056492,1.8845108215332926,2.2186565841982206,2.056147456427697
2.0391914891259963,1.8983028591342452,2.0745222830962606,2.017789808070523,1.9297297968572265,1.8091936150183734,1.8317787643154786,1.953167202047657,2.0234545075286263,2.187228552325209,1.806041638921881,2.0702611180988453,1.941525179146671,2.0630978454554434,1.9706990628382457,1.8595673454646653,1.922186532133591,1.9768624497857126,2.0378907321893136,1.8008299312540692,1.7995377670941368,1.8647440473815304,2.0785143077265293,1.9823283472598447,1.7879353956249318,1.9161686598842789,1.8672789535955379,2.0036472518931316,1.8461193113265928,1.8590687742255079,1.8018248616148624,2.046095540337636
2.4030582999545276,2.3026186280397685,2.458414332143804,2.208537524268474,2.357651383695443,1.984450389788497,2.155332910716689,1.7047868438654936,1.7742103981912376,1.933711230095094,1.8891584533142856,1.9441135650123587,1.9602285089428653,1.941032686517552,2.0848626069753973,2.1633805550463663,2.141463722060391,2.1683084163212305,2.113189544136552,2.1379397247415155,2.0086354434084583,1.8388437883050435,2.1757998864804566,2.015752248998183,2.2504148779338093,2.039900067533867,2.096071001255698,2.4278321863149315,2.118595086061087,2.1170286456878658,2.085299576106564,1.822809716424754
2.211042612332394,2.324802245918956,2.2801542129876573,2.233643593260568,2.2071617625659807,2.136776647007271,2.0878660648271246,1.955065728867922,1.8566485262525356,2.2944517740432784,2.0804152740398427,2.0996802902873326,2.0489677264288733,1.969989216986795,2.105930923331205,2.0976615968502212,2.106881582418004,2.1783220068260154,2.111536195558171,2.2079327626070713,1.991647695692885,1.9139826981066912,2.112468007963203,2.270924331318039,2.3560376569230783,1.9129647829763594,2.1562863359320024,2.207209585630577,2.0966981199133534,2.1735571863323035,2.217831170254105,1.8689283075694396
2.005484954593173,1.8493945561162253,2.0136569686093635,1.91642380464315,2.3056002698757374,1.8631319699483557,2.127679216642217,1.9373855496176737,1.9570880992754838,2.2106101092103807,1.9781043552453783,2.031841182905826,2.1113327106537154,2.135457205127554,2.239613794103263,2.149179919461067,1.9267188717624872,2.083168655094442,2.1740775438675457,1.9424063248432493,1.8973055440739417,1.8908934860202313,1.9098842868539891,2.1831829954482953,2.2712593050773306,1.7403868031337686,2.096754503424725,2.1809050733580206,2.009148740075276,2.180335368541908,2.0257956380573363,2.2376295796166983
1.9944208795168221,2.036383017293606,2.05674558121089,2.1710516399286526,2.112381586816263,2.2146319907448273,2.0372952017176393,2.0238453889878416,2.059823561468458,2.1927655265148296,2.0916295864997156,2.23673166269453,1.8955790009507805,2.0448566077365156,2.3382256755177884,2.3253552274733624,2.2858025001225455,2.2024481364841377,2.1240502787439364,2.0720270734349517,2.1773896158268156,2.190582056903068,1.9847864005189213,2.097754632696857,1.871864614059713,1.7816512523400265,2.1031210703067584,2.1499763708542723,2.020086542701601,2.282721353760735,2.3040327438614456,2.227293286319378
2.202240772736632,2.42693519001812,2.330512826203093,2.0279182663614193,2.1584355448742953,2.1202364557389566,2.059262653093166,1.9527659442955696,1.837955807707443,2.0519676760343226,1.860192715707756,2.3375121563290886,1.9808141273480813,1.9980211542765947,2.2395236447245557,2.2617385253958533,2.341965380923917,2.1331930911083243,1.996854310026759,2.1753921322107477,1.8257008076085375,1.9911745277801742,2.116064502823094,2.2567175290821933,2.1653780436785968,1.9836123654980071,2.355188759652476,2.0588418878660995,2.2382563150577943,2.2654244147806812,2.1893466964001624,2.289108594457838
2.2595650039486843,2.503885715099976,2.5970089827905163,2.3422438141782247,2.1267717095263405,2.1281730300351334,2.0141936789106043,2.1432791232505815,2.0994142982714146,1.9666785014476513,1.8311320348622102,2.298651470565787,2.0542390895298324,2.097824982831258,2.1328302559775674,2.081500298585298,2.173940812401673,2.1891072423090274,2.2373946946471617,2.1829157122131004,2.0151697145517646,2.068284973161907,2.1893625617123864,2.1743335345815202,2.269041412025486,2.0353281495284503,2.2142281618927395,2.1737977872663814,2.290532560086899,2.364552222632014,2.286234744976257,2.3055530984053343
2.450705421594244,2.1704348333900234,2.4457302636701184,2.159553072498278,2.1898066604035935,2.1438378181615603,2.0711169664511915,2.181286472612467,2.153555211366872,2.1946615397797546,2.117715864367545,2.0350608039989946,2.0491178959702663,2.067763066792072,2.2944240467931727,2.2474493623435468,2.066465851175496,2.0466111053862255,2.083146793324714,2.0898318355168586,1.8226038111641814,2.0492128668851937,2.2622747079063004,2.3316412501520722,2.1812101889741227,1.9571020714494485,2.158498572392731,2.0800991544683693,2.277975136464719,2.0563035715696527,2.1817712625267744,2.142002391214069
2.023544359461924,1.9001650032307351,2.268739035578903,2.099376204247095,2.2297818408464964,2.1718028895801997,2.126602633044708,1.8643581968770384,2.1338540827767054,1.9530322218419143,1.9325104526689338,2.150538422533774,1.9102891480534028,1.9578900211249337,2.2882050044514077,2.32139802176325,2.1834840550419576,2.0341374790632476,2.0535934476864908,2.241424779618573,2.132940543236904,1.7586408231020796,2.171912710835944,2.303756939002155,2.246025796857663,2.1213283152784097,2.3624910280518656,1.992320792314161,2.1842685432327484,2.222391698644041,2.291198445685451,1.8002109412563476
2.5439508477189308,2.134193835821956,2.3175949637305773,2.0389579598780454,2.2358058169516517,1.9917378681518139,2.0371398895010926,1.9271551309349688,2.067758272425336,2.2751704554804504,2.1419768737704055,2.0453528089124204,2.02941730609827,2.2452157499861385,2.3257683606095707,2.2914554441200723,2.338921070379747,2.3240956444615777,2.010625309848107,2.300471997110784,2.0566238340057774,1.8719347295380588,2.0844648384936706,2.2220339608478707,2.2741067821283516,2.107536107961603,2.2753140191537833,2.117673920044461,2.1514610819462052,2.170555915304737,2.23685535647385,1.8759241667356448
2.5100496790795557,2.0890233362164032,2.4656481809192408,2.0745101468591933,2.3808190030008998,2.354703973592311,2.148507161894475,2.0420490389370074,2.0329452059145843,2.1171929213007616,2.177442296177255,1.9955278978015152,2.006482404144505,2.181029695052601,2.2296199263033003,2.2235332872777893,2.060794200286389,2.07963551891395,2.1650384562453118,2.1584913564937094,1.9646293728830633,1.947704205516649,2.1352253833244137,2.195676269026663,2.1985353852112275,1.9879825568290304,2.1770241734547704,2.2228912744677833,2.0962277342621474,2.237238115644703,2.2659583927544213,1.8932918247769455
2.5731211618023524,2.1818029965279133,2.4579420743651137,2.2757192836078683,2.2385607483036645,2.2624574897078045,2.02792661685759,2.0153509559093843,1.9709466030265876,2.288872806279269,2.1277640373996665,2.0354847960069486,1.9708979508725355,2.1277848674430033,2.250847703493133,2.3621220692443208,2.162211027700324,2.268515646742411,2.1597296409751188,2.2324784718663553,1.9237953971832118,2.0592123546402394,2.29030807380191,2.286206333676155,2.1006264533742454,2.0347111968461635,2.0939684387339783,2.2918014934592166,2.070831423643719,2.371230903849285,2.0535328976836444,2.272366725046917
2.1285613795940566,2.290740300123719,2.348856188831118,2.3527783826616853,2.155349218782892,2.173266280412561,1.7841462795462768,2.049879015379927,2.0693335012102803,1.8300482835387801,1.790535914922208,1.8042200703236038,2.1372516284044996,1.8073252944223466,1.8719847007980723,1.937878703680095,1.9857533230321762,1.9573681302709398,1.9517969285509043,2.0476360713191526,1.992777177172053,1.874435144372244,2.2336722248324445,1.97337559789633,1.9859100943775259,1.8942796433225393,2.069547316283936,2.0097052806505604,2.02143446134795,2.1346428891567597,2.167746197043343,2.186134232511467
2.181571260127954,2.2663003738290044,2.307736210608856,2.319652417960776,2.1190715944283576,1.999802915904406,2.042819183135074,2.0483837859756884,1.9245422496408073,1.919972088567125,1.9953937993014477,1.8738682700506835,1.816696012930013,1.8408094952996092,2.1045817365388957,2.068584921577306,2.051129334078473,2.0067658681260867,2.0779433863515355,2.1033957585786847,1.804657189848762,2.0649857709439634,2.3059472958680636,2.1044336190126103,2.062066825051426,2.143644965199627,2.2687311040446483,2.2978233838876654,2.202689448912281,2.1905731965911963,2.1218725570749353,2.2209977195706245
2.536340755526541,2.3542662905302674,2.3274682378666243,2.4525109442069466,2.2942430762982,2.2593748641964457,2.0128918319667726,2.1888327947650277,2.068489214835158,2.147512607021781,1.9361460104239525,1.8660334687905595,1.99060069730908,1.9136853980520345,1.9207567629523927,2.003779246345619,1.971736474620517,1.8669495536890766,2.0385223457937856,2.2541011412245164,1.86244170939421,2.057945880260762,2.3397636741876267,2.1883127849395563,2.1228440147926477,2.0427235999513806,2.285864782263049,2.1769032217422737,2.166650448574737,2.2827467336932337,2.312713386480656,2.06998610951712
2.453106409616292,2.22457600399887,2.4657173974015905,2.414108321863325,2.065482177466875,2.131544169774986,1.9282543469279756,2.1158136442096076,1.9962144487626776,1.8492591359662776,2.2555690454158723,2.0129258922045365,1.9540517508873212,2.0405966718353548,2.0822401025612662,2.0115699077527927,2.0163227045994936,1.8864033574112655,1.97599219615658,2.1399538443386397,1.6991368753255873,1.8425434189236203,2.0319738958937745,2.2738404142940216,1.919337285442317,1.7317299383968285,2.422326892672528,2.2103461706847622,2.236379001848099,2.1814508878599788,2.2531670147223695,1.8700241829748818
2.2925155091022833,2.257616347500511,2.418217456724942,2.2984570558846067,1.9923295798227043,2.104025305002696,2.2890833852493015,2.093134338042385,1.6944700729907687,1.8251235770651477,2.1848437243387107,1.7941528064459067,1.8209660359152364,1.890330294541334,2.025408244792137,2.2056732379931407,2.111113968871339,2.052602229329115,2.220806987004627,2.183607094896733,1.8606943627533081,1.7846434865981122,2.1636965418891143,2.0992915361545577,2.209819868487692,1.98394324877618,2.3805772123226276,2.270512251955356,2.152033958508153,2.0978761087098228,2.0605651244231824,2.0836036321598517
2.141906490960364,2.071274003657095,2.1484969003572605,2.180695820944155,2.106752357341171,2.135543093065992,2.2212013008795872,2.0964637858587087,1.89122097216194,1.9554781679502866,2.030877393279743,1.97325085694415,1.8359965938140947,1.90397382638682,2.017665402101466,2.0263456869152736,1.882880609520343,1.8169886728912379,1.925650361293724,2.0494484028056,1.8851110368038277,2.1603481013081636,2.3696085719504545,2.198837149286001,2.0673526376425397,1.8454927778837944,2.1961747090292953,2.163459013398226,2.099033158433828,2.019754932116858,2.208782475831413,2.0290812855614297
2.3092175904903542,2.2039728471598288,2.4556763177178778,2.28407989732163,2.0549336052471885,2.18632443434917,2.1199532391648437,1.8670207440717412,1.704694355871086,2.2471463510138157,1.987286682993669,1.8822693384423417,1.815747355275165,1.8181955053687573,1.8324179387575552,1.8913740632934661,1.830321347459275,1.8603783001391745,1.982030751844369,1.8759309756606621,1.8472717376606869,2.1442526146727445,2.122066345405086,2.022589572335618,2.0617819014919885,1.8170433274263889,2.158601424435873,1.9954253183832786,2.201263427453723,2.1085607943145486,1.9935019912713834,1.814841922822623
2.308746278235292,2.176003496316162,2.226166047777908,2.016792959414977,1.8709051601489775,2.3125979488878348,2.1804221354279276,2.0021615608651815,1.7415262684602593,1.8076870384583683,1.9171651739597986,1.6080419264402612,1.6817158377047337,1.6494594913417289,1.6548483992913898,1.7700340866172999,1.7770081318712936,1.816127316889543,2.0223411390096486,1.8846983308064178,1.9637710724441049,2.088317066460771,2.1924446721321025,2.4110122098644005,2.0493764154971252,1.8361896343894062,2.1707282564332107,2.236813749938863,2.341519345617095,2.1323232755143526,1.9868481170119396,2.1359752050502663
2.2124066180561037,2.3075014734715937,2.328380404010536,2.262253358213609,2.0082144631126426,2.357435204685929,2.168719106752198,1.8260825987928,1.6605975659525962,2.197581434823691,2.1152946637780987,1.8404488845083278,1.9745802277781872,1.8827857663216465,1.9667045682516768,2.0062756960601034,1.9727290693005834,1.880515483356153,2.133658267214163,2.0300926868257805,1.7603833048241984,2.14876865575982,2.0705785205432456,1.9915897587502425,2.042305838649803,2.0295221903578184,2.016988002476465,2.328575318911883,2.3104573046167243,1.9656295816149703,1.8853110760577128,2.0780485267253357
2.3671200625165563,2.356778528678811,2.1951639358865274,2.261584999715084,2.0572340906446316,2.1009973637310306,1.8105400100524796,1.99389552173443,1.6200890594825936,1.8643223599540542,1.7578638442180095,1.6866287190638698,1.8847200169103075,1.6746025341516217,1.6975149129945888,1.8223324009901702,1.808477136985492,1.7699017846011882,1.8389684697224342,1.8755289288086892,1.760492655810885,1.9977847166056653,2.0070646816884783,2.355323465527476,1.8014501490622084,1.9429724295087039,1.8985592844520736,2.075527939432971,2.2460744802091317,2.031020878622391,1.88743809438569,2.10543271267944
2.5785894993733045,2.341437377394932,2.2321900431085266,2.2522208693997885,1.9922070809050554,2.294049524970263,1.9133392640730251,2.040464441329991,1.6977241898030122,1.8489495154085174,1.8220219042290686,1.8902020302886093,1.9233760703615495,1.798440691680637,1.8716624337100074,1.8143176338229892,1.784984199918977,1.8108019287323065,1.801493989415466,1.8850294583162475,1.9571385291622219,1.8446549818131768,2.12316336570359,2.06899337851019,1.924522668637944,1.9069133732200338,2.1128859105271305,1.9509627129537672,2.2654800500793777,2.023977437554366,2.128368464919924,2.100427339657019
2.1542906095800256,2.2295064778040503,2.2752153891651052,1.8549254886415205,1.8731157383215493,2.3799982804334903,2.00359620001116,1.776407001928222,1.7232176249463838,2.2572245455274174,1.9959695554551509,1.9715734781121068,1.86077333199359,1.8162090987744688,1.8237291392745456,1.7573085619845235,1.700881620419477,1.7868049248260194,1.815556197143181,1.7713658480162617,1.9963001919865293,1.9370175513420063,1.9769785667490536,1.9487753253876348,1.776142588282633,1.7032903054407513,1.7516008552630755,1.9468396237209176,1.8720354172301394,1.8050274975892766,1.7593569452402313,1.899065599827852
2.2764155959068955,2.0288444671558676,2.205960148788252,2.046874553707062,1.706397507736533,2.047428004721952,2.0028528805785712,1.794620100174028,1.6671479461850405,1.947458141360964,1.866185391969831,1.728672324951978,1.9612143255035246,1.7554546074003812,1.8433093528045985,1.9666917983848888,1.806025681199356,1.7426482544196193,1.8667519793891603,1.864432136929423,1.8094270264033758,1.8340005443325031,2.116067398880101,1.9840980142940305,2.133824012380633,1.8963821465934823,1.8292435347782443,2.1660548432664695,2.1064359480715336,1.8250746514852767,1.7832503517511211,1.8305006119763705
2.1874412449737237,2.2386138593740608,2.3953501681408187,2.2609644910492426,2.0111448634396725,2.1728692839926764,2.009953807655861,1.9411349211971998,1.9827472691557535,2.041960675524783,2.023598521669929,1.7980450491786988,1.9698578622625924,2.05328891354942,2.1171843070056475,1.99975333005838,1.9937354095990238,1.9108774224925875,2.0480031097578655,2.14199626142087,2.059545686129804,2.0233745287598475,2.2937469034458684,2.175469707661533,1.9272756353544596,1.771477438480622,1.7561398654508067,2.030919609533567,1.9550034631844477,2.031824012509049,1.9775485078210668,1.8681325917312475
2.315308335396653,2.079039771942498,2.5210006363563515,2.1662129303797824,1.9857775370961648,2.233026853120221,1.909010688052743,1.934784642909827,1.9563179893158413,2.0401390725006503,1.964164684938339,2.0743224673585536,1.8245564049593788,1.979317107981244,2.131646073349856,2.0167836815311206,2.0388542009366004,2.006153193820217,1.87905164697406,2.1106703021404414,1.9824048182713134,1.8628242019262433,2.313959464325188,2.2819574214303042,1.9042569585414681,2.0080274241642706,2.131830294564232,2.029643443274394,2.0888703283760335,2.1009424535227748,1.945533828410345,2.2589594318109585
2.060596199848494,2.268063511737242,2.4236246063538696,2.090645608506343,2.077814906013222,2.043649887412641,1.917017770498638,2.0010874186265486,1.7075730879849447,1.9245848727348227,1.8357778204010906,1.7439812679838371,1.783774810761911,1.852399235818035,1.7917208814585046,1.7447849256426344,1.8170694368067688,1.8199077270576696,1.8680566412257613,1.928676968669309,1.913377882011515,1.7761021637525702,1.8807070119158338,2.071599465591732,1.8950183670724525,2.066259253563083,2.075463973296622,2.0791338055953394,2.153992686747004,2.023291590112604,2.0295395730687167,2.241886945755113
2.2716523063909553,2.3394207559967,2.2915781433078886,2.2344378599365395,2.0662806365026753,2.1280498177627756,1.9879953986903793,1.9390618468841843,1.8332675253139652,1.9073162629133775,2.0343255976787296,1.8731413353101796,1.8638151819975473,2.002569957080923,2.240064548758803,2.010438781057778,2.0077339734148794,1.8234654474088001,2.0286863454817747,2.0299476723104926,2.045448856967237,2.107809093685791,1.9474434738196513,2.055250186587441,1.8793233388616395,1.9048591177918373,2.1854444798342887,2.038174525874627,2.2433511559580177,2.2087731074640176,2.1281867084254165,2.12498156288264
2.136446707051326,2.2917745416406814,2.1545675968355735,2.0733622894680837,1.8501020577279919,1.9745531406276646,1.940982747904833,2.114666930113796,1.9976462331146216,2.1420091666130174,1.9947803262392043,2.018783272656043,2.0096317069930705,1.9307635734425763,2.057675072577326,1.8808322802447361,1.8222884156757255,1.905853861916387,1.7408099895660016,1.922869853224051,1.9263512691422302,2.092788025572835,2.2749738217927535,2.2729512587045706,1.9326134844555498,1.857556417595903,1.83713530200072,2.1506180192513735,2.0050183818248852,1.9430708413552327,1.8489543100102925,1.9936750500413283
2.4517558600151066,2.3376030517271995,2.3150753165120377,1.9348393509060071,1.9676407673827065,2.097717635889733,2.0949806964851185,2.041323450565552,1.8374053481524708,2.0302567319598466,1.9168412739130658,2.042025565083722,2.1126937590594554,2.033660168441887,1.9352857555198684,2.117407523420894,2.012343130214117,2.0627663605353193,1.982705657447476,1.9812733451145903,2.0507606786473587,1.9799406949608882,2.1530801578395145,1.9926180043791826,2.1804798180120284,1.9706439153009498,2.0426903219121053,2.39684022760336,2.061417176158304,2.004224268129667,2.17191914626297,2.0986721556655232
2.2832591586725384,2.0388898861620746,2.150879928715507,2.0904396066072746,2.0241370921269954,2.384258329287087,2.0539081283369844,1.885979667563823,2.1153370096228783,1.9720957954082716,1.97764593582255,1.9874868200268578,2.0657093056360445,2.032763332383814,2.0314299020954802,2.0633040081688945,2.0445886262386863,2.1286534881720955,2.026312918478667,1.9787695639975402,1.8712404462502803,1.9756469980960778,2.1654156513756115,2.3284585833497164,2.0422159439038037,1.8801524279183384,2.0835915660179745,2.3447904533976454,2.2039403323961286,2.2859812400596025,2.1838778469762787,1.943173352521925
2.116010650849106,2.2573480231188796,2.1237928413406766,2.206964741836717,1.9396270635503683,2.0947057742780983,2.0007763318551186,1.9068109617427826,1.851862634334905,2.16088916936917,1.8833975737090585,2.0534264652455123,1.9410699132985503,2.035746456682888,2.092207715245137,2.1266780798957816,2.139238076035818,1.988823601133766,1.8958138511925886,2.003519860927921,1.9650293573158346,1.9117378151523983,2.0789038982005694,2.1898079424630676,2.243496012872552,2.0323448198804646,1.883794195639346,2.442641336073145,2.244295539998575,2.2899440099850596,1.9636972098123557,2.098420880907655
2.243859152806381,2.2302849749801053,2.2850211583651774,2.1479721689496083,2.129836963159658,2.1302933634665555,2.176178574964763,2.106373815476692,2.117722981431534,1.974993228009796,2.04054172134809,2.0150504041700046,2.1416971179005686,2.005803736563627,2.1090469668223712,2.1069031942244467,2.00722328281361,1.9808809263486185,2.0778837115635684,1.9996791217755199,1.8523188087462505,2.0740540094452564,2.277967370688039,2.248645567040046,2.238287411971993,1.9954126621045762,2.107996412553484,2.3872856753536333,2.1478139206652482,2.3157984869584824,2.338857232421648,2.13790353655743
2.3094706837525973,2.2283721696516072,2.2095592068184966,2.0718860371139525,1.9958397279012963,2.216091720288332,2.0987661060138407,2.1838343396270554,2.039722699019443,2.250572402251462,1.985481269986515,1.9635510251994293,2.0106721648552477,1.9194736841424058,1.98721843990984,2.003544268166956,1.90664328006874,1.9376030665672193,1.888542183536635,1.9333415113010397,1.7896368232397075,2.1394645635996405,2.2436389420718235,2.3166242982009577,2.306081480919238,2.0091794949493624,2.0095508508618374,2.4210799461141224,2.18640453777499,2.2994582604450273,2.1504106206810882,2.0018090307434258
2.4185972159407734,2.3535774699768335,2.2834070224794885,2.068555187898585,1.8162970744885907,2.184662391225674,1.9548368418543351,2.249711524518361,1.8387410561429927,2.1588500676476166,2.191748728673739,1.9642839288932092,2.1112597132675073,1.8822781323173015,1.981233074052786,1.985497002371401,1.9323627566361432,1.8998112489945658,2.0041437110997817,1.9516474232001084,1.8809806843539485,1.9393864218917032,2.1681179860149364,2.110609559981739,2.0006926079897447,1.7241471276028308,2.0022441821950907,2.3876614966308605,2.006630406229175,2.0575892595305056,1.9769798955035671,2.1210523479872228
2.387240876221196,2.3841407983412797,2.3411185748433434,2.131828542014631,2.070660715704726,2.3053316234930317,1.9015958059836144,2.3176751626119314,1.8900450705512817,1.9346937946652478,2.043548850625696,1.7880285277758021,2.0307352040003694,1.7537322008872822,1.8724159008392343,1.9606369897854015,1.9085898659362641,1.9031068064695449,1.9174168840354844,1.9689167338249494,1.9244320253522502,1.8381724200643068,2.2509822257873098,2.1604126800021826,2.2193879832042027,2.001317878617454,2.1079641938886433,2.1170239716744605,2.2639706817391767,2.0205844208460566,2.2908656784145625,2.0580247559945444
2.431064602628786,2.126990719996582,2.294263546184192,2.032251133183032,1.789243571234202,2.2914121431933707,1.9765316017449122,2.174333748826906,2.143688480547483,2.054717936317388,2.0455988482871263,2.1294346449592,2.0048271142236564,1.976691337140562,2.145318296368974,1.9483010769842006,2.019395046323374,2.0108794177849716,2.1107188776924763,1.9545251481315038,1.719755116472303,1.8485912899937469,1.8626699339520643,1.9054517938129567,1.8524042391985482,1.68882072629418,1.8847017604711038,2.4155445095386616,2.0520385156076184,2.095727610582747,2.0557310236155337,1.7525059284145463
2.2845584210026066,2.1881017345024745,2.2659050318431473,2.093172477238231,2.241280487672022,2.1377934263825304,1.8352211964458793,1.9735123669765153,1.9508433293212408,2.127966992461805,2.22652619831115,1.8919867735698888,2.1155660041798092,2.129054199353458,2.1263424374341566,1.8918386841875972,1.8537140690493323,1.9238970570381095,2.0882305484828905,2.017307000761861,1.848680901329138,2.107599730750477,2.1725999944764003,2.2470978937642854,2.075348610931048,1.942225050717751,2.215977277747012,2.27250725708354,2.1180935535208887,2.4025093993107642,2.3964952433617968,2.0291660633606616
2.2221367868770274,2.077071951329941,2.212320226961308,2.10123654659684,1.871688031382774,2.1671878681791688,1.888234185191402,2.031325286437593,2.0439952200443106,2.159193275793663,2.058279322166704,2.0457363538815363,2.051988332005755,1.9627235228835658,1.7981522114051354,1.6814597429042806,1.6873726903239181,1.7123436720539242,1.6912496462774538,1.6856268892354618,1.972358010063528,1.8625807011164353,1.8333620168538136,1.9121629680208794,1.9146477985594106,1.8843883783814306,1.9380542443902011,2.11185478228441,2.042807253426236,2.125214178774522,2.1953139823642123,1.7934017812245882
2.132317819216677,2.2906249051077014,1.9481179982101002,2.2414560488702193,2.0038487058335273,1.9024716830808066,1.7205939099979992,1.959044904711682,1.8776230406791579,2.110367889137713,2.1276575029554543,1.839563162454469,2.1774530286453473,1.8993079607591745,1.86435026011634,1.8397817842915063,1.8483507970991768,1.8550489490096596,1.7365415327883298,2.0232279488794704,1.78519122298648,2.011078051604257,1.776431496426211,2.1649972181258486,1.8875365302328713,1.822131960335475,1.9661817779180655,1.9927769128350112,2.0649163830977586,2.0754691287109837,2.0912097795244637,1.996848003255906
2.192624602254931,2.249449266589821,1.963709342471655,2.0610492624693624,2.119765429871284,2.2037321935142744,1.7293794454183309,1.9067074083816955,2.031371104047752,1.839324340123735,1.8124180826565754,1.7877925450206358,1.8646387208287936,1.7385998492442716,1.7390337887029255,1.6517643029671742,1.6962825823477887,1.6712605550708235,1.6436391990825048,1.829767130411121,1.809771932738405,1.6701461768032508,1.722077722479972,1.8149957715500535,1.8859406598818218,1.974810146637533,1.945970721955944,2.0522154863997404,2.3677580061809778,2.2320128913856947,2.2902199424647853,1.8388608276366876
1.939711719465975,2.464143873137495,2.249958685324883,2.074511368009626,2.103820672891509,1.929639198200552,1.6176766388134904,2.0437831147267054,1.948394326202114,1.9464145454584572,1.923380283746981,2.0365014207240186,2.090323186266521,2.0503281405225753,1.8965222313918826,1.710969315841793,1.7736703576020463,1.8587070266615426,1.7870306947030214,1.8436337409062924,1.9141708684291736,1.8471388669254323,1.695731303252473,1.810836919672277,1.8130717668554361,1.7651844150279523,1.762120713750679,2.1487494377997023,1.9111411394555722,1.9469344616921207,2.05862346405026,1.8271519716963422
2.2827884729898895,2.0154659592520447,2.0982392813927775,2.1682309010372802,1.9590985697718835,2.0945352428041324,1.7253337150740586,1.9664720632600665,1.9334372446331982,1.9747380736505487,1.935371423920448,1.7795743848991699,1.945511389434829,1.9140411918365432,1.9242676573345092,1.8077936966400532,1.8996423178545598,1.9730374187061683,2.0934874346803007,2.1087420339013674,1.8298516142281596,1.930085649577365,2.0116831934508195,2.273364553643652,1.9489818046544902,1.7143824231408407,2.0877092458906032,2.186029022433363,2.300916036999399,2.2709428396019677,1.950617847436023,1.83208345025713
1.9718730101932072,2.2618848169206975,1.9668851497914221,2.3291910352682197,1.9147268492712322,1.8485350777252845,1.5525239244361677,1.9867237800286108,1.8860301762206009,1.7652290909144792,1.894007029454682,2.093283440969664,1.8140903157496904,2.0674135171668713,1.9362887808359497,2.13681333356936,2.2688156008899827,2.0443125981227324,2.2415850614469175,2.2457181073178822,1.9603289540917983,2.1244757431255765,2.0233990752280304,2.1723520362020294,1.8210314797033689,1.9218306438797927,2.0317736919673917,2.1714499449160383,2.202356004304809,2.0121613033726575,2.3673052767019547,1.8439862397070328
2.126363834278741,2.2946477498046156,2.2555436713695753,2.0109548515789464,2.209095825047777,2.1592464585930005,1.8696163690675256,2.0968881886445248,1.8939216800817011,2.013436929865498,2.248290080458691,2.21012235034178,1.9727167934857825,2.0302063309301444,2.2895416710490024,2.17754270264433,2.2213603032675016,2.0235103071425327,2.185767006782422,2.263048145863411,1.8502246848785564,1.9876462792128997,2.1529675730665376,2.3275889767888955,2.10329255042241,2.056635316337051,2.2169869914834455,2.19213784155814,2.2836164126427154,2.002276257408931,2.145105274232183,1.9164291902421242
2.1981043248188734,2.250580217718554,2.2641108295575907,2.0483314068388334,2.009932546388415,1.9833843938855875,1.8484640452390912,1.9275248161974488,2.104919275882917,2.0612335508153743,2.1714532609563193,1.968283887280586,1.9633153022151164,2.092706212882575,2.0037634387684458,2.0552218874118466,2.294898894134332,1.9738176774296279,2.2035608805562954,2.2945157003697436,1.899197679639186,1.9803368673732615,1.8990268217576993,2.1826565592305998,2.0243334999746843,1.9635279591636052,2.2326139695202665,2.061912947511735,2.1432541732985912,2.0822877973535645,2.359840722682896,2.0451209362583294
2.222994573099075,2.408701192815711,2.225227189305529,1.957784292121812,2.297419257989675,2.1541604270296406,2.04712842633805,2.0245160858197977,2.031184426603642,1.991027030653834,2.0752286431141194,2.1946823547328465,1.8426602469184028,2.0848600478793062,2.187598838159719,2.2186744057260412,2.1210456751306617,2.042760361078687,1.9826773753165612,2.3987881619091946,1.8658516879874534,2.037912284195947,1.979223457883843,2.4784909127363965,2.069729235489826,2.2228809834986105,2.123681569390294,2.0606620095519297,2.1860364306872215,1.9623025355959753,2.165862771251,2.013912207067601
2.0470242118958373,2.3781910195106053,2.2605546756754165,1.9627105113351313,2.245726290423851,2.1524358005507875,1.8360176114724145,1.9576008112234387,1.725858322960572,1.9572933681734175,1.9637751657717837,1.9620193666125099,1.8823382530992014,1.8284921212678507,1.9495130079796528,1.9275757059214957,1.9296660601473905,1.7955453166333033,2.09358752552392,2.4043758646144777,2.1082079527854916,1.9082580054681302,1.9653375128973165,2.404437990036298,2.044669329110446,1.8813635211212245,2.014890307279253,1.953127627516159,1.9891918887561248,1.9805530723309595,1.96789908911828,1.9921895296037389
1.977719813015902,2.3274385768279293,2.201387899786236,1.8920985016843166,2.122866383619304,1.9707529940418214,1.7197319174960017,1.9053548580928952,1.8354135349723344,1.7843248123996873,1.7776322744387845,1.836105520616271,1.878205745483772,1.6854122877068478,1.8529395205876729,1.840680351043328,1.9277597397047324,1.8796252701816556,1.9051800859271997,1.9610401898107066,1.9267318985659778,1.8659299092543682,1.8549299604325253,2.1155267634037758,1.8883347867926161,2.037905061866671,2.0342717953389307,1.811399003407314,2.056348229070532,1.8060208457977809,2.036886361704802,1.9238977879684647
2.1327164359394546,2.1635565116372293,2.3958687484933807,1.9251575252267874,2.1631106866442242,2.0001063494755003,1.8622604910233624,1.8607831300455415,1.841763551855628,1.9778515735151996,2.2177001790985678,1.956673346938647,1.8394701385851042,1.9842169679562989,2.0144020269056546,2.121373684511607,2.2424336601791874,2.1858949218576478,2.1074439981094613,2.095433005240566,2.073204389049662,1.875931698743544,1.9143839752227998,2.0749827278028894,2.1029785503240817,2.230992715238008,2.2898367973846057,1.856556237285181,2.309969007656665,2.0096421521652057,2.4033773631793345,2.0261001940522365
2.588315751710429,2.5033555817268613,2.3629230713643095,2.111239251960833,2.2468918162590605,2.3991557345060888,2.3025849847853395,1.888119175794961,1.9067212197178927,1.9384691659896416,1.9852569470577042,2.1063521621191454,1.878884494637046,2.0738224013229654,2.101349907828448,2.2090241177622856,2.1437471202317684,2.0176108332760796,2.228183252055245,2.1630223285305594,2.064923688158491,2.070443036272544,2.12375666094741,2.2938065748388072,2.071947389763089,2.0324957145278035,2.195620338597743,2.2341062884878475,2.1231975160661802,2.022590359817111,2.2153846410463327,2.1739575263697812
2.5385860174437775,2.592745011685953,2.4378110601415273,2.0778606805920345,1.9976328379434505,2.3623359642095623,2.041833055134222,1.8823331926671163,2.084216233203774,2.071958993138414,2.1964936625833866,2.018593463230854,1.949250681179831,1.842931140289087,2.0638719590868457,2.0531435447458404,1.8327566365667207,1.840962565351978,1.9099756240290482,1.8880044726925298,2.04171744979843,1.903296321034658,1.91960183909666,2.0560120535574278,1.8795382629739825,2.16372420804514,2.3052085361857784,2.061468944945684,2.3072970851268315,1.976177979579616,2.2836392926668756,1.874769827367547
2.1342499507039783,2.405105382058397,2.217449791688074,2.193033846903113,1.8949262262357098,2.0458675956791383,1.852462637786539,1.9487710656538344,2.0937817927870244,2.151569170926255,2.1612282435506738,1.9225095384245223,2.0373921992863595,1.8509687562898651,2.0316930715093795,2.1334110911467725,1.9498289926517536,1.8916476600632313,2.048818588793737,2.1088097808928183,1.985817355813506,1.7329059694164197,2.036248400104783,2.021285889036844,2.0276216499653494,1.9379346476717312,2.1866982872078635,2.2282356932114253,2.5257812613547177,2.0366359989435807,1.9916596950721037,2.037363574686711
2.268817160838028,2.258141559660743,2.4477678798730786,1.899312082842164,2.1112954955445846,2.074290036073086,1.901489544702065,1.8789812845295226,1.8757881026984244,2.064835488271286,2.0885109720705026,2.027143491559551,1.9964863247064697,1.904445170173052,2.0680109902945665,1.8315772068107987,2.028936447009334,1.9148204952536887,2.0163484483256098,2.017576899628388,1.9027998044108774,1.775520872172008,2.017255470179589,1.9281223285191391,1.8452204769588865,1.9168834960803296,2.10364859390591,2.1934091362513044,2.3641190300833492,1.900562717585028,2.0166967906230124,1.8059125634646442
2.298241051254246,2.4424784190875326,2.2150577521471884,2.1738503582252733,2.140935127349487,2.325621807920517,2.070403740275903,1.7796823177528334,1.8208343009242012,2.1477014752213788,2.198217452125577,1.9660485566357788,1.7849390579881395,1.8345019729226895,2.1497256349667127,1.9183315226213342,1.8772906582468691,2.03348169999242,1.909920700603089,2.0292796624956546,2.121923723787579,1.976482295089552,1.9037793317898903,1.8213510543441582,1.9105463741428241,2.0072790387474853,2.2099559360970207,2.1052683592684267,2.3355668915155463,2.1006190619321448,2.0939944380150903,2.104215778492664
2.2482399553086694,2.3448981132245814,2.1133646306932086,2.1311449211783144,2.3515076114099323,1.888031756258525,2.0817511550091625,1.8688054899245283,1.9740002621721253,2.0050683086160093,2.090282898239566,1.8252674788620806,1.928673164871442,1.914654939094084,2.0369999048488077,1.978449910645425,1.9098847645225632,2.0244406185608783,1.9645826531212218,2.1729832481384013,1.8406719515968,1.844865449117546,1.943076362439906,1.9210250478799438,2.017023415572218,2.1099474181258686,2.0506944561283618,1.8944602737466032,2.446979385546868,2.011386222523933,2.0707496030621773,1.852860761168596
2.2703822900591883,2.368557131386851,2.110530286432905,1.9706014353891521,1.895715593828857,2.275877735171452,2.0060357062605116,1.8779398815630324,1.9658285035263403,2.010453618389071,2.1836453618123906,1.8815602690936006,1.886415913702228,1.9146291290642654,2.147264113970876,2.085073523405745,1.8467552712635775,1.9666481114825014,1.846836100239909,2.1046416487177453,1.857247275605625,1.7679349491430352,2.1592011195396146,1.9563509401482106,1.720809918456864,1.921924999397634,2.258853968022395,2.2286098515967363,2.3199081576496545,2.295786422517474,2.1710626308528744,1.8550531303530675
2.064721367337962,2.3560480447608243,1.9990984658626352,1.9743500930287134,2.1123848506396725,2.128547529312602,2.0452857428368163,1.9773544682718611,1.9911098627295807,2.0685115088197943,2.000787527867923,1.7810663656542691,1.9438769521879404,2.0180357152421293,2.137448799281419,2.057064788994721,1.853654934582088,2.10563027286987,1.9303254202747826,2.196671150423439,1.8224291683326221,1.96675209736875,2.113213703920136,2.028945487935921,1.80384419431322,1.8292551347894714,2.04719612386148,2.259446966258378,2.3551231904405183,2.122520799862325,1.841251934359761,1.7668184274716243
2.3195825935805803,2.2796114343992997,1.9864105953487023,2.0817030451198364,2.1200670807856246,1.9660355821684683,1.9899495132801515,2.013077603558428,1.707281965210154,1.8489705351277286,2.0312224831050036,2.0040650821685575,2.012514164900632,2.042020424424261,2.010537168082242,1.9855542093178382,1.8665254533664761,1.953250064227027,1.9178387250843498,2.0443776563089577,1.9008546778033275,1.9266009422624284,1.9465301743166723,1.9707237634373769,1.758082687795883,1.7538353881566833,2.028315895603716,2.1859192519143282,2.295736696778417,1.951013772246443,2.297309433867259,2.1462998237139383
2.044364728245538,1.9487935740325388,1.8502628947666544,1.8362373364989242,2.0498078588231796,1.7524088640592144,2.165434067349921,1.8133427184876088,2.0578055464643596,1.941753345257897,2.0331056926157727,1.820472326862244,1.8436397777780047,1.871889614521836,2.021222917523906,1.9573861932813643,1.8377412427936752,1.8356073803092958,1.788965777539073,1.9801953940785437,1.8869804179470895,1.8507908805169515,1.8447959384110522,1.878530451938571,1.7481724317084086,1.8412641500956688,2.18010475189759,2.1849280064048933,2.412738180271973,1.9432568176103282,2.02832970048539,1.9983021180337988
2.381059658997559,2.378547926292372,1.94693024521482,1.849330322045782,1.9002543710985318,1.8798377378010083,2.0468197137879436,1.7720075881158985,1.947172505898662,1.853015193035483,1.8184294401579006,2.0094488241427997,2.0048265234946467,1.725693446182273,1.8273108382051588,1.8054044420639734,1.7091427874262244,1.901389076127048,1.7710414914062607,1.7832471053127399,1.8392729963105052,1.8024053455351485,1.8372370378662972,1.706343903895561,1.6206841436364567,1.7700625578972224,2.0668281944121465,2.12932172343737,2.1350648561592838,1.8029828245991792,2.059794619369039,1.9451374342976369
2.171045469049092,2.06143105536205,1.8761039338361039,1.848216491764826,1.923394911767556,1.7869341189983912,2.119830949670237,1.8194412528491846,1.9041642919442163,1.931443400254413,1.8485764171312882,1.812638612478406,1.9605263279734033,1.7520719501471425,1.8970526782120136,1.8448743401702028,1.7228442365866325,1.8885184879696093,1.8150259205082624,2.1684729441733075,1.8191391379835575,1.7518904101999007,1.8699281954052658,1.9470359813722624,1.8973942960917418,1.8235577450111182,2.3580369915745063,2.330237891535241,2.2848584630553006,1.94825151448553,2.192599070203015,2.1288728400855135
2.356721910517702,2.14236726901481,1.8570286829009572,1.981923208027146,2.013863990768361,1.8262210157917635,1.9777602835367718,1.9967872978888894,1.955717221314767,1.8461454539015338,1.8264088001829015,1.8302708809143844,1.8762559435314736,1.8625862986090886,2.200791296409476,2.11781212954231,1.8359498240214862,1.9753898626128257,1.938264977407396,2.2264522967400424,1.9518296797247352,1.9304786945065624,1.9254244881206855,1.9990750283869236,1.833562112207922,1.7088371985298518,2.1166723133885843,2.387071277327517,2.1017887209754758,1.9505564625447824,2.0428846836326437,1.9604043330072263
2.4342473279289125,2.1689006444464094,1.8509746113516254,1.827610968342795,1.8131516380660535,2.065287610952635,1.898586957603739,2.0923276706899108,2.224180691681823,1.9255640774460394,1.8715923828237662,1.8907016336706925,1.7920260923495872,1.9520965205230625,2.019674318985973,2.108615610882967,1.9742090650017685,2.156203840583457,2.0594177347779317,2.159243443929904,2.0122461360861292,1.8235930579840958,2.098138285669995,2.0754626496680353,1.7437379414195604,1.6295179815017418,1.9477846006005894,2.4445993482135897,1.8969052469448637,2.086987692786428,2.1044314644439663,1.8041013178663312
2.3131907051027443,2.3337042012251126,1.842028521461684,1.9558417056283974,1.930087429100963,2.0366736955652534,1.9036750457552134,1.944339617353115,2.016677944486819,1.7834072647371146,1.7783460801678537,1.8011081946717993,1.742354029868476,2.021042252404214,1.9516204370364458,1.988738769139415,1.8592723420287927,2.2370460171826236,2.293728460765885,2.344675273628072,2.020684680401163,1.7571357537085237,2.322014836518698,1.9769688886831742,1.7790791817404412,1.7678132050311006,2.097022139563123,2.3096509443529993,2.1586865763417764,2.0731657161612467,2.2451324712987386,1.7423235184900252
2.272374829615126,2.3155456390644282,1.7957499214581485,2.1148093526839538,1.8112709952898431,1.837343024079998,1.9479258737906002,1.920088062258078,1.9201465861889353,1.9735043956036504,1.8666052818996985,1.8149653294999375,1.7136049504065831,1.9357723134983869,2.115480089541957,2.0508231673141064,1.8935739587442215,2.2981513373339864,2.2174779860100085,2.34546432214179,1.8675504824940616,1.778332526241131,2.120098776773828,1.992351298341654,2.07136019677737,1.7509792004987643,2.129523492708887,2.2897549983775494,2.13713131684684,1.9750883226371165,2.176883755252382,1.732239170901472
2.1039239066636153,2.176696150394747,1.9629998781265245,1.9751565695672353,1.7025607332556474,2.0101944370262537,1.8360734597350068,1.7987176315899571,1.8729919377039477,1.9862493685047087,1.8385262032820031,1.9930133907097296,1.8750275094643956,1.7451387341849587,2.2163193795863454,2.0724993527812057,1.9037752484845243,1.9966522100536241,2.1200286235823893,2.029977840285483,1.9396340250721584,1.9897368622850957,2.1569383814234775,1.9636460880113595,2.0610900664078735,1.8209672483659105,2.1290587332050004,2.3368874469556005,2.0397344148749323,1.9286517703185277,1.9705153334430732,1.8266726591189804
2.373001627458033,2.3886771978002552,1.6979263927329176,2.1416076810362377,1.9764323359722007,1.7936114901440428,1.7228503486693612,1.8299495662460252,1.8730864250812427,1.6753827665370722,1.7111490303919132,1.9331245345448986,2.150373734864958,1.7537263310498934,1.9559661928371868,1.9860037816108873,1.966803263051079,2.040968679158613,1.9143608128009935,2.081040558087771,1.7886843418188207,1.7236789005175195,2.0818868332623763,1.8471943986635582,1.8087451131127816,1.7429347208963013,2.092008962848255,2.084963304885608,2.065053277555005,1.7993021649380367,1.9824263675378246,1.6357502631480012
2.2760968866906532,1.9930822721526185,1.6825707301573838,1.9444796238224111,1.817724242504591,1.8314462257712663,1.8427259784805083,1.6813924983249462,2.0397394253951457,1.8705512738631918,1.8669326466491292,1.8010415849736365,2.0995975180480255,1.9060993184458936,2.259124927064359,2.124396723218295,2.039778983984807,2.2464442243241907,2.333859272122158,2.409636229844161,1.899353025111101,1.8255537364980512,2.1380937926720045,1.9044429367199067,1.8764566738950443,1.704511138259404,2.182428090543667,2.3773152894254395,2.1442359779276723,1.8842749711994082,2.3628994615101617,1.6413048343654053
