Fp1,AF3,F7,F3,FC1,FC5,T7,C3,CP1,CP5,P7,P3,Pz,PO3,O1,Oz,O2,PO4,P4,P8,CP6,CP2,C4,T8,FC6,FC2,F4,F8,AF4,Fp2,Fz,Cz
1.380256107031385,1.4881256827084568,1.6492360341307395,1.494441775479947,1.59098528417265,1.6031910898477295,1.6331163195508835,1.533686089820616,1.5249736623901207,1.5489907298434098,1.5366534248335257,1.564051189463893,1.572117223962091,1.6290666226900525,1.5483034638707478,1.5281245906086651,1.5539291716336419,1.5979815946440763,1.5933989570003955,1.4592206731108586,1.5903566741587345,1.5850503283582895,1.5786894958100282,1.5047534358329906,1.6087044558821735,1.617062699141815,1.5916297796052563,1.4611757755649715,1.5243296405285536,1.5219489835297952,1.5998998429070594,1.593243300102601
1.456079251922622,1.4498212396086603,1.622979531097938,1.5336065420739473,1.5411673649288824,1.612092491580686,1.6542035717593349,1.5868918808769126,1.5872759860434529,1.5279272495483718,1.521176136911771,1.620889050831085,1.6620948822907418,1.6721470668516427,1.6107908963254125,1.5926735029708137,1.6119319195581456,1.6582306328529264,1.6525904340223914,1.5336850779541713,1.6286671775525867,1.6604761877545866,1.5899949767945554,1.4923479101211827,1.544755140676111,1.6140320831034642,1.5606965447290233,1.4612576676129583,1.5576291328843055,1.5218255147902167,1.5235142897292555,1.5132831215984115
1.5411858673580776,1.4824855534758008,1.6134656273872516,1.5286029300649016,1.5322222093618745,1.6318026273813857,1.6397043366368294,1.5623674062827713,1.5731129623273958,1.520686445784251,1.5968177966031127,1.5974154910911216,1.6536944316055655,1.6143890621020622,1.5930423579100252,1.583374458143358,1.6091415163077085,1.6528643487405392,1.6247091143496712,1.5295535013252786,1.6027900485545714,1.5403372517794602,1.5005720265455724,1.4535832360232828,1.4739998546763722,1.534575473093306,1.5279241919393645,1.510512372841827,1.5789175984938828,1.553045355711187,1.5367775777488604,1.4837376906570474
1.3909410923182985,1.4028711768825561,1.5964023963863299,1.49526607474144,1.5547800388709638,1.4969116937328235,1.6031857804099325,1.6608213370645069,1.57975742956324,1.5177590213992411,1.6171266165110614,1.5797205109146588,1.6541526676540037,1.5685816482536437,1.494507815354302,1.4970630570929422,1.5128114113307696,1.6204429679122063,1.5745134129709104,1.4951834683745286,1.5248002710069581,1.5546232043292312,1.5131264473855641,1.4300927280616544,1.4898788198942627,1.5695440088964703,1.515126634136167,1.4825054865612242,1.5322945824858438,1.4484391673031674,1.5647368418872356,1.4777917786248331
1.4168205367013753,1.3463920022944587,1.5515228451587384,1.6910325945731242,1.5810709782820402,1.495718400315415,1.548971092201524,1.6516416790065267,1.6140368856839677,1.6196804770715825,1.572893630885729,1.6332925349533582,1.5897353967254866,1.5973161410641488,1.5283906790827386,1.4964068492080318,1.472372737861314,1.562558734183331,1.5060468951322568,1.4089007321796139,1.4691987075388875,1.556867947022982,1.4508695956884325,1.3734284523948497,1.485919128341602,1.6076533058788984,1.5001254241823458,1.3695731481953697,1.408493218784851,1.498700754375474,1.5361754080513677,1.4811813256195236
1.4581471101390893,1.3425833940605545,1.5790361242200024,1.7529070288888056,1.5664768060679257,1.5096741246127412,1.5649628934486792,1.679990637209555,1.622615489677651,1.6100296991570437,1.5169622365513582,1.6040308223841568,1.546331913137768,1.586973249170897,1.5749767629061788,1.5567833393450077,1.583702333001942,1.6009128980825609,1.5850374178276305,1.4816181911789497,1.512688466647968,1.5116392467428705,1.517878366096474,1.4129562213823053,1.5309929438504506,1.6185322883099553,1.5290170152539273,1.335245656394397,1.4343291917579168,1.5873675883915404,1.586346920798833,1.5160546723892154
1.4235693715470652,1.3648057267620284,1.4217094121634102,1.394209745671239,1.5709664712929565,1.4623300927310126,1.4945655562518243,1.6139393996618898,1.5568360996332737,1.5925634578500785,1.5187378126614137,1.578638168507288,1.5588327140076075,1.5706401133325616,1.5646525496978982,1.5410672949050808,1.5678846106537638,1.5624938013701009,1.5698623826614007,1.5723080031824777,1.5712358768996928,1.5478160951951674,1.5584297405834233,1.532428888473969,1.5973307737208966,1.5462485190653648,1.5446471861769562,1.3509231462517504,1.590771017247315,1.5317988124896034,1.538039008168255,1.508711211452917
1.4240849316002384,1.4115313682154744,1.4066027829545642,1.4227409891062002,1.5054306925996537,1.4788995910732894,1.521053746799812,1.5286830769798854,1.569545083601217,1.4734734058127692,1.4208719176195572,1.4800424418646834,1.55189563751893,1.5696432909807145,1.5341687393040253,1.5541778968829343,1.5438254121063673,1.5120476703580115,1.518698770194017,1.4404826584467596,1.5594353950804487,1.597878977319453,1.5299235392648751,1.3642473674157871,1.5365975682889643,1.530486632784388,1.5503959762444872,1.4407876013247825,1.565456734907226,1.524595211049175,1.5687021641814305,1.5019867123979735
1.4735609190197614,1.391345175763816,1.4620875799372965,1.4689493926708685,1.4926719340100074,1.5345216727170679,1.5854997903066672,1.4922492796670028,1.6121241668123254,1.4918928516551306,1.5059721588777575,1.6146178846187935,1.659753173691266,1.6964645632999216,1.6132335671741258,1.6733916109428035,1.62762155446552,1.6152558189500548,1.613358718298606,1.4796159896323737,1.5967122561786968,1.6259666426978143,1.5943382772553099,1.5295467231073765,1.579278114180306,1.548422960646909,1.5452923164229946,1.464830077900273,1.5360990360402362,1.5748995846473255,1.5546073097900799,1.6407495912377814
1.4380356058960109,1.3396286610628578,1.4300067166231374,1.5180494590288416,1.4760962937687667,1.5028497054412637,1.5142123804333445,1.5669622758465458,1.588283575776739,1.5057995382912628,1.486933418892624,1.5380162578187713,1.6857613455390994,1.5707100697060592,1.57387321617786,1.6180654490304531,1.5906778120163425,1.586847774273559,1.5721268272073683,1.503707364739089,1.5427320127030433,1.5741941750652093,1.5666179450891493,1.562581674667426,1.5953059975340123,1.4104860463218423,1.4969265562222245,1.5014555604906867,1.4787382868374297,1.549075014814487,1.4652193715399922,1.6193694997972505
1.4302309838267395,1.4427938772599525,1.4066561578112498,1.5297921753763855,1.5739198970987087,1.534499728398812,1.44280942172063,1.6279837637168288,1.5834148320350496,1.4973622740247474,1.5175449402145635,1.54593725937836,1.6181923622771097,1.5090174056165073,1.4996542302242215,1.512018175082023,1.525396366224016,1.524113365824906,1.5091872097086043,1.4826549756422611,1.6271870126948085,1.7027212134115688,1.5657204512034337,1.5083057070980765,1.5825978217442123,1.543741884876651,1.54048053166367,1.4086647277608222,1.4561139180248686,1.53848317407212,1.5713135707519132,1.615831998469668
1.3823665886882741,1.4805499604456838,1.334400957561083,1.4761272409579589,1.5682284109172038,1.434887843369346,1.4484376396020857,1.6610563580214606,1.6353282153871014,1.5039510062079298,1.5140041796366062,1.5626556204147106,1.6086225563390693,1.5521489523863083,1.5096189505980004,1.543721310561532,1.5569560939508413,1.5474760935763574,1.5576239345947143,1.5223261966756938,1.6797689945649352,1.672414925672498,1.5964763547686645,1.4863818726822577,1.5197076999181218,1.589300359850398,1.5570783556805543,1.4467089856329671,1.4617358907457625,1.4754844682635986,1.556191504661271,1.6116559963624186
1.3707899935721628,1.4430411275075044,1.4073049028142126,1.4284910001236641,1.487915894348144,1.4652400706097817,1.4972850238635942,1.6593166185895192,1.6133514364000625,1.5425471745364188,1.4855916014329253,1.5852831836677077,1.509926479352595,1.5956364449077016,1.5519391238249631,1.5907942816339966,1.581857440671161,1.5584423045357896,1.5365232352886458,1.5499651405144512,1.6586608722935972,1.5673737418127567,1.5575858229314739,1.4737901075581756,1.5683243359571801,1.622516783347959,1.5523022070436503,1.5306985758910896,1.4654171931420505,1.5043754354244707,1.528141272972114,1.5016036160547235
1.4053515685503264,1.450128509585891,1.4505073740062608,1.4769643764067901,1.6137465560223339,1.5233425919173444,1.552122366064373,1.6561827216591105,1.5710591735069868,1.5749305079928282,1.554519394810254,1.5928375041930747,1.5324937768059663,1.5376751048239097,1.4772029760119678,1.479541227208575,1.4835583948001578,1.4721070168188228,1.4968058962257424,1.4741288599505478,1.627058026728676,1.605582872864993,1.533122646162216,1.4414128382363047,1.5250584993380107,1.5403047177372262,1.5002092781703382,1.4906044156796923,1.451927351539755,1.5442973951896033,1.5774902218187015,1.5170606766151065
1.3939375350818832,1.427844713718838,1.4704883629699177,1.4918197331182967,1.6759128941582886,1.56452697912039,1.5512617767977182,1.6370917040610238,1.524552567405562,1.5169327434224469,1.4835315667847895,1.5539179014510471,1.5432935284067457,1.4555245846186164,1.4217796142969672,1.486151737249562,1.557312139115163,1.5592179616713624,1.556423749760293,1.5540937538283421,1.6294863208980002,1.5672483036213125,1.5575508192034517,1.4211379219517826,1.492561787623015,1.494765026005063,1.5031507935935466,1.5467952576023405,1.5037865103745218,1.5866580812084352,1.606230179033986,1.5966673330326606
1.3649896720017782,1.3933444972336235,1.3689536269657705,1.4143971865181373,1.5372106028528414,1.4758917990603857,1.4921251349069582,1.6061011631959645,1.552086440507901,1.5053763974465382,1.4613053492999601,1.5282280086961377,1.5513378799426623,1.507126268756658,1.4772080709769404,1.537663427022058,1.5795857679583243,1.5823539781336906,1.5830434611709363,1.5208973130488181,1.5577689110738995,1.5933047936245588,1.5747548414367516,1.4213947554490234,1.4721167501849883,1.5401860038795663,1.5486331901177386,1.3874879525255277,1.506777569432882,1.5461167372537756,1.5966065388204775,1.5927172619257912
1.395716651927263,1.3979652559919504,1.367165608488844,1.5095099835249604,1.541343743537768,1.4659867782793392,1.5169534239124587,1.5903222200196534,1.5768912948398612,1.5478641782048577,1.5035719211265046,1.5440338029533869,1.568539111890897,1.554904294238767,1.5293850496917434,1.55223373802565,1.5815386870549808,1.5827044763076954,1.559596864713669,1.5339904749747677,1.5773872181980202,1.5746559860460148,1.5624384192632628,1.5253948486664424,1.5257070068458665,1.566667578145137,1.5660723763543976,1.3271452400088541,1.5440416318826007,1.5540598230873204,1.6559371758124284,1.537852688626357
1.3168516733021811,1.3919157306521712,1.317481232924093,1.4359441188382915,1.595672260730263,1.4757987081818353,1.5088112368024538,1.6631653715026924,1.52463739269785,1.521744907801623,1.4897620332889727,1.5139107587174268,1.6506524976259247,1.5076210455422865,1.4680142402263834,1.4876316018878462,1.5102754269444019,1.5542139979416663,1.5520058505422387,1.4968335331950904,1.6538891864694163,1.5449391135421762,1.600584180973952,1.513050518748731,1.5375655924467466,1.65343782518044,1.6010071350951567,1.3818754720961217,1.4718339547835637,1.5039944348128653,1.585480727498865,1.546030946448062
1.3547903035163056,1.3306219242842316,1.4009699214287374,1.3732009212474277,1.6015822954955994,1.5354636728899929,1.4914087359532011,1.6108309674171002,1.4999550175610603,1.507590910441672,1.5062630925511191,1.523809284041973,1.6275345312553362,1.5342610466948396,1.4352762935234697,1.413742527524283,1.454952406226798,1.471723589112153,1.5172804733814123,1.5216753595090564,1.7071078063646077,1.5294315864454209,1.593697324665375,1.5097649216472369,1.5945786663573318,1.6982443750297884,1.5850398656009586,1.4188144579749262,1.495261010754582,1.4752835392723664,1.5617279420986325,1.5160230476032097
1.3778754235449315,1.2451744658656718,1.357485583855249,1.276715064009303,1.459779474168174,1.4720400314294801,1.5896803774420558,1.6809037925436456,1.585229046987929,1.5598440433997383,1.5583254735354155,1.6232859957694175,1.641926030895898,1.645761183906079,1.6361734823092096,1.5899212485219534,1.560965987292694,1.6055513263168786,1.6014615963782113,1.630498006455934,1.7606614260383553,1.570839996363349,1.6266347821924263,1.4922665885730007,1.597461083998441,1.9995091829458844,1.4612640508397923,1.3800356130953895,1.361124193463307,1.5070969778488068,1.4677535828197577,1.4742700059678993
1.4279703116689026,1.3187863511263607,1.3622652060465605,1.3124190027758673,1.5026274258257677,1.447460158074901,1.5528499764801966,1.6758410903359495,1.5990237304538495,1.5129792917292524,1.4769185383333205,1.6141828848675925,1.724662208216769,1.6276493785823127,1.6001999504555182,1.5641543506478697,1.6026020231078535,1.5927338566746139,1.5921423806584576,1.6086404541357706,1.7068409607758501,1.5839602752917659,1.5846420731751052,1.4123769064358889,1.5651483195556395,2.0210379569484003,1.4724836940979995,1.3816172817588737,1.3646631633430624,1.598450039535092,1.5046813785600985,1.5469032764368364
1.4215368129697026,1.284067053013151,1.3239874427458047,1.3268977110580795,1.5212385693976007,1.4250181721388249,1.5549469707783865,1.6231459422234797,1.5318515602602412,1.5625076297771758,1.531035452638313,1.5856799017365932,1.7278565477930432,1.6177692516868418,1.5828367168402862,1.5779945537398188,1.6248949502703145,1.5557704688939464,1.5625812009225324,1.5564840496140877,1.6774352590241153,1.5227733449246759,1.5551845924492183,1.482560241275956,1.5938347894593379,1.9375001789667383,1.4419305410448835,1.4085841432706856,1.391523462326425,1.5700504335337129,1.5273500662397606,1.571273948389051
1.4116319225572,1.3242733374111324,1.24044253627426,1.3313343714948385,1.5496769125314127,1.411927042698672,1.5209219096945488,1.606859747440482,1.5175086928340047,1.485733068745405,1.4783376039224354,1.562859491203915,1.6070507518842354,1.5716174739336861,1.5044643690454542,1.4700537520154608,1.4775848222336323,1.4399120237203498,1.4847253561202822,1.452097858363934,1.6601794939477856,1.5473617440962697,1.544849030726199,1.4677841163983945,1.5934187786576035,1.6370524804027116,1.539473793596419,1.4925120110706989,1.431903640870843,1.5570886057169597,1.58343197845591,1.565081646387424
1.4708392443441827,1.3713587126282865,1.2539550148617744,1.411999772874872,1.5991205829552564,1.4966820948065311,1.6016681142088705,1.6334586464745642,1.5826381681911827,1.4940161486260017,1.5318631359612633,1.5640359274642073,1.607667639646703,1.5262928711780466,1.470742676099024,1.4697978705426533,1.496721265029628,1.4551334799295779,1.4333054154816383,1.4243151955594893,1.6442189517948582,1.4980913448449007,1.465376898503841,1.4237407941160325,1.5925926577330203,1.6653246090636173,1.5285421185672174,1.4765934212050464,1.4813914593897923,1.5966892088974778,1.6180946280625306,1.572424609937922
1.5049959462073597,1.3943905370812226,1.3093033743152034,1.4933908094558916,1.573577828848419,1.4899984812781863,1.6179045094225128,1.6018982089383715,1.649467220025687,1.548478013517307,1.5737756070437836,1.608275252827421,1.6206548004776153,1.5318009787158509,1.510146935772041,1.5405688644389282,1.5848574405636868,1.6049788416837931,1.6076732790930681,1.5316064993788738,1.6814628001425072,1.5785156064093866,1.5410384044397347,1.5251426605494762,1.6374702203169424,1.7335353522995702,1.574619295858856,1.4662786216896804,1.528160399149208,1.6397187785114837,1.66142776677391,1.6164783119441246
1.480653168446203,1.3570192597107336,1.3559311749730667,1.431453521819977,1.5699427916632616,1.4626981531877257,1.598557764551939,1.5910876487204935,1.620045185719506,1.6097315712662614,1.5635914556619634,1.6195735180557838,1.611691113415117,1.5611377508855342,1.5218357783343883,1.5281513251432197,1.5756231581480706,1.5925386677286877,1.5921918020940875,1.5882001947962707,1.5984760241099096,1.5737265133401386,1.5843730439797603,1.5757158656157064,1.6312070549171989,1.6680108091312562,1.5691057736290939,1.4031568231722222,1.526007346541049,1.6479908054420802,1.6302506756997877,1.5651177762209634
1.4805965149235898,1.3183734553111621,1.3532288082093598,1.4245313313961518,1.5440575287745522,1.462975720646933,1.548746172055575,1.6018796172885263,1.6239639974018392,1.5930991269080494,1.563919038243416,1.6194532178674224,1.6333817001717872,1.5892940183364987,1.5370949813636254,1.5797965278328792,1.6225098802973412,1.6168348932258856,1.5965445256739823,1.610214316893617,1.6252108230144895,1.5698152878396905,1.6008783384358836,1.569390426251556,1.6468897129563502,1.6455682181448545,1.579945914185581,1.3919843490806323,1.5452216780276078,1.6463257135570224,1.622846133039047,1.4282244714317054
1.4746683441593176,1.3354348036664825,1.3368645546434479,1.4493692837339696,1.5111329393904112,1.4656922958024117,1.5460661170855086,1.5299522856671846,1.6024650695730904,1.5507345432284814,1.576131827695566,1.549668561156144,1.5500483983509914,1.5029023936128978,1.4524275028522802,1.468022274793306,1.4967245868292423,1.5204702237025558,1.4956763756635492,1.4884440872491236,1.6015692054254573,1.6057154862134504,1.5531823989941644,1.4228195733031783,1.5646742390419375,1.4861288383633544,1.500605785679956,1.4014817300791425,1.4727106032094388,1.4910576886318627,1.5436207800268984,1.5398905140807828
1.4814809501675548,1.370890331848004,1.336678962200753,1.402711886639511,1.536944854531339,1.4640474600535431,1.5271235890095847,1.516061490985288,1.623099654479234,1.581121805934784,1.5599259204177502,1.6001266348502985,1.6694037132615847,1.5681373403260364,1.5557114117423212,1.5187956967369598,1.5087190710676865,1.5460183148361195,1.547330606897668,1.5772451431733048,1.625927831617805,1.5339616719033908,1.5758607370825664,1.4796732285330911,1.5658776430514185,1.549598079626504,1.5083297476614055,1.437126464118951,1.5089294987812205,1.515802065375977,1.5140465397094245,1.6024860254577111
1.4040919536795224,1.3942684277720434,1.3647830002711785,1.431557007354513,1.5489984999950166,1.4660497362667055,1.5731811093874477,1.5859320353321247,1.6221679335392438,1.5975064846962261,1.5656376385614967,1.6204082435591491,1.6824739633912384,1.6374227802054566,1.6321586373425312,1.6091115739787591,1.6150621398881335,1.651781120634598,1.6354443883626488,1.6136446326493512,1.6803450111786995,1.5935526360981134,1.6130425089762461,1.4927321963522238,1.5475865479602642,1.6577005479774138,1.5511377207841908,1.4118110998249154,1.4985956518836496,1.5675036126777673,1.548783961104999,1.5685406757090457
1.378799556496726,1.362665096230127,1.3486731014569657,1.3975654432808564,1.5974603643923746,1.492013984874661,1.6228778310845484,1.5946512972542295,1.6392121504723047,1.6217277942486759,1.6220114872238696,1.6272474001473152,1.6623666138213669,1.6251507996045922,1.6210670575542658,1.619939135861621,1.6478944461914316,1.6845676109144458,1.6480163818193732,1.639951723581868,1.526828432327252,1.6237344433231402,1.572892033185447,1.5134487377298653,1.5925367862399953,1.686060664815116,1.5937856980709757,1.3801940035909839,1.4337947904860435,1.539231243050047,1.5989955226305117,1.532773642398098
1.4169668180017392,1.2664004629156589,1.3892680732418712,1.3070094282649731,1.4849717942641203,1.46944735098056,1.6127827458269044,1.5744299538957385,1.5949902968272611,1.5737927884292786,1.5590158945623704,1.5361293001552097,1.6297084816647835,1.559883014421316,1.5207848777865578,1.5601330100298503,1.5357431714355552,1.5257652657869913,1.5131364902069133,1.4689769483026474,1.5475124377219116,1.5007423197328333,1.5008466024188,1.4161124495667698,1.4989789267546922,1.5559986102876953,1.4870839008905723,1.4242192822670439,1.374975135459257,1.4431740347087938,1.5536819397106336,1.5237755148941643
1.314410747501201,1.312702768042345,1.3199764596326125,1.3439993378135682,1.507481438325692,1.5200557562388415,1.6531730509807088,1.6899463442885465,1.6268884096218603,1.662010173121367,1.5687485294834589,1.5607573564832349,1.6309716225001618,1.5572566385568416,1.5382956892595325,1.570770695997865,1.5794145235376635,1.600121402549512,1.561995757481582,1.5218503579347704,1.5689103684213817,1.4984194749835373,1.476197477684616,1.4685040025043137,1.4685888371733065,1.5877822392255505,1.4473645856196924,1.4920293200102877,1.3684593899026445,1.5313632366837024,1.44452032811089,1.5701887102626586
1.3477571475289751,1.3489659599336838,1.368543000942324,1.4297465700013159,1.5126906629802508,1.489109074165444,1.5973492450634874,1.5886038341154087,1.6194151588033594,1.5406358123043453,1.5335403616628156,1.5262464375938773,1.5768407244508007,1.5271694631020092,1.5140556059952532,1.5280984500364818,1.5377456598755341,1.5287559402785287,1.5510087336667269,1.538645785124995,1.557788957297262,1.5477123041805396,1.550641424338431,1.4866646528123164,1.526379384264276,1.604539512217304,1.481604074673133,1.4265178983393854,1.425820035293493,1.5173539290169928,1.5027382149570259,1.6014490558589982
1.3982209041234364,1.3409963871632975,1.3908839748358306,1.453429435668135,1.4905236269730735,1.4713993726236279,1.6710489576014986,1.5431717291430012,1.6186006939722641,1.5205669662301664,1.5269770546956072,1.4597197249617633,1.500776130399858,1.4907826457199576,1.4647147791813384,1.5099700259846243,1.5496851802130889,1.4769905296888048,1.480507275806792,1.5693084238875008,1.679792716855718,1.5691781853563775,1.5796903548035828,1.4957907284981746,1.5571334038938724,1.5738204841501342,1.4833805199297676,1.4082842768210837,1.4335753371977669,1.5315700320976873,1.5118492241105619,1.5128853230011914
1.3929662280043047,1.3348216967683881,1.2774906221952658,1.4356867022697215,1.5518234180856014,1.4793955074452128,1.585768890460866,1.6229945362510956,1.6143523199829515,1.5667788282982609,1.5823088759817479,1.5216957495545087,1.599277969181142,1.5137050905979088,1.532773874554926,1.5583732219459845,1.581167339775999,1.5686633198085993,1.5531682196117906,1.5695684759748652,1.6032218765251793,1.6051871022257136,1.5383553031245105,1.4220608460036464,1.558243370438902,1.573367823841499,1.4616275685619635,1.444100080247313,1.370453833237065,1.4955020470482758,1.528319333177404,1.481800118303695
1.3796448635504401,1.3440756619746312,1.3044656547298235,1.4361273442538847,1.5185760515365683,1.5042550735990132,1.4629076939580146,1.5818857484043076,1.6165145789458277,1.5541565247666793,1.5518032563007997,1.5383941574736946,1.5987032294481094,1.490284431073923,1.5174087814545143,1.5360781291794972,1.521480688929969,1.5442718008886938,1.5286522654129842,1.5060315753641889,1.5919607582836692,1.5620507710781053,1.5017661252888295,1.4170803693065501,1.5236304261059337,1.5691902442426955,1.4576703154367339,1.431271100088985,1.3848019919730727,1.4677637705198918,1.4347729777695901,1.5296507684162133
1.3479809809564696,1.3139425848079405,1.2844953184219823,1.3805399157433973,1.4310777768525649,1.493950626369233,1.5357664307451022,1.5434925021634809,1.625697683365232,1.5487518486751164,1.5818390504576274,1.5689470273964612,1.5927187986845452,1.5656201193800399,1.5164864030331717,1.5375868611067443,1.5303674697657532,1.5561438998088688,1.5164947253723366,1.5383392071361344,1.628180056166994,1.5672674531148252,1.572299493599776,1.5102368340841745,1.6322497294264373,1.5460267819039604,1.389027107214131,1.4643798936254453,1.4022192119991843,1.4671220644895506,1.3630964432588404,1.499148052809076
1.3621894685284344,1.3916180250216263,1.4486495047014958,1.523188082663962,1.5130763505125253,1.4792135326893787,1.594359609574279,1.549004767608011,1.6232519688042417,1.62544552450049,1.6118847623867052,1.5997292337420037,1.6660233487479725,1.5885926659602765,1.5644923984109211,1.5693586257005487,1.5908393999328507,1.5797782758721728,1.5323229724051064,1.5559153183635817,1.6764507747748432,1.5574998471096502,1.5376584064131171,1.4790792338289693,1.6089001255895317,1.5363847903034566,1.445616430596796,1.4074354010903052,1.4290444953694443,1.4929997726702555,1.4642060152737555,1.5219589271555964
1.4394005156461904,1.426912961778746,1.4742462946848023,1.5234294530449553,1.5522928087308843,1.425962795907987,1.58687680145173,1.5150196601433905,1.6285106096412691,1.578779795787284,1.637825116522377,1.6365602410165458,1.634585862863236,1.6583882068873492,1.6288154019898033,1.6314531114824113,1.630623403971637,1.596479316366758,1.5674607965801413,1.5752009259154975,1.619607557410516,1.5987677031042375,1.5096733362731154,1.5273577176668969,1.6230285203684751,1.619799787670309,1.607601232895399,1.4501351056720182,1.526375452053878,1.5743106587705338,1.5362252181988558,1.62842199426359
1.474799267264679,1.398400477131209,1.472842698302528,1.4664904696789287,1.5579333375863664,1.52332931288307,1.737888744574889,1.611100195509381,1.5169445692835855,1.6290579820785132,1.696770933842358,1.5967149339724054,1.5635039073445522,1.6214658260374244,1.604852103242313,1.5650454045684794,1.5323774404308348,1.5621787590560627,1.5726669256601904,1.5182739289935672,1.6209513914153688,1.5808671677069774,1.5643685483487388,1.5098261048300892,1.5358278974991029,1.6034355613043219,1.5506878084373676,1.459882603161816,1.5352334959310792,1.4994259265954464,1.5300372955190413,1.5490324274355889
1.4251351190773858,1.2891632118503014,1.3759103583351733,1.3647140055584988,1.4650396571138953,1.4994694822822987,1.6913061533677292,1.5851918828041693,1.501281511491638,1.624362933226582,1.7045873463324144,1.534158784070809,1.5330603038663997,1.5768562184057948,1.5598792062000684,1.5281948517206516,1.5382857556854117,1.5455240765946636,1.5349144589097539,1.5398356647138791,1.6456403733916474,1.5729714129597618,1.5619461213360106,1.5671796955572894,1.6024173254474305,1.5904626269370272,1.448449072021192,1.4049292408708605,1.4165229724214863,1.5367887772399704,1.4759784981712933,1.4558526431123193
1.4694558331446295,1.337987513053007,1.3900167615780978,1.3956793197899637,1.487485059514943,1.586544384520262,1.575234202565741,1.5644050882209832,1.5392887733262006,1.4480868215537248,1.5248373793194736,1.4768299553004702,1.5822517408269368,1.4781847008433544,1.4986758776300697,1.5142869672885384,1.582163881855864,1.6353744014908478,1.5814627998633293,1.6714693991258562,1.7452878350161187,1.5739152878533251,1.603537243856497,1.5619909284834161,1.587488327777811,1.5623772290307196,1.4477093198844022,1.362483142981794,1.4666617671111528,1.48949834023524,1.475249341989625,1.4871457450211951
1.5266854096343685,1.4432577783382396,1.4034526381520656,1.4502117244545456,1.514527879990422,1.582809827457707,1.5811372781599327,1.5927331757188874,1.5659335150380576,1.457602547115441,1.4983951744439423,1.493927384604372,1.5985149347262841,1.5299138973903659,1.5303277203477403,1.562952679242568,1.6059757476095877,1.5935506285343444,1.614651144310207,1.6458704213346056,1.7262005185892664,1.6448696284320503,1.589559587838195,1.5733811657623944,1.509173336932757,1.560726825479965,1.4551177060287577,1.3421709307585508,1.442768775451334,1.5164437677296057,1.5100675117869442,1.4857424416848257
1.4771997130439276,1.3663803115719633,1.3232206106649185,1.3918891757208072,1.5278439594880822,1.487514051492858,1.5747815850902307,1.5743877885946553,1.5316800116582008,1.6534421933032115,1.6458675075914504,1.5759229673092028,1.5072423774696757,1.568137937528353,1.5659439833506168,1.5665157687454454,1.5873611408244948,1.6065855966257088,1.6053220287714651,1.6537544839099554,1.6628084621138763,1.6010364166807753,1.5634745773338414,1.5977401573341063,1.5197578196255648,1.5978874826757696,1.525318560813993,1.3761080814806903,1.4734995078587134,1.5249937799993132,1.5231143468636867,1.5973176955493948
1.4680546798784724,1.3920636192902223,1.39377085621288,1.429832531237369,1.5419146184313095,1.4832712955931757,1.6249234571820639,1.5617256013390843,1.6042145642830712,1.6905556139526605,1.7147904238460725,1.6391710647766016,1.5719520441341468,1.6142592689711035,1.6009164707353132,1.6091732620739434,1.5901629629097827,1.590645442940633,1.5985708890378818,1.618376967172435,1.6340699079864023,1.591895288182167,1.5625567232656403,1.6228346854272568,1.5598020661640228,1.6365554555842565,1.541655576126929,1.439174808043042,1.4693035978669664,1.579340667206203,1.5965556443906648,1.6162381084062685
1.4894131369608414,1.466001289155882,1.4779115724351468,1.4960646301918943,1.4886714247703925,1.5475058435735212,1.594141159230192,1.5760770267886446,1.568056595415116,1.5260188821422938,1.6116255968723452,1.5556535258171982,1.5409629423416802,1.581964969776147,1.5759231035979413,1.5950586379344103,1.6152154213464636,1.6119312897426912,1.610620032135235,1.6334661694732378,1.6291444828700854,1.5847958203642862,1.5645838112948964,1.5978826691963222,1.598055843706976,1.600129499161016,1.5443017166617041,1.4579999410742452,1.5115148503621771,1.5945377102707556,1.559154052857899,1.603461284540565
1.487661247762285,1.4359316848602814,1.4057257697374643,1.5061943011882475,1.5408137278078065,1.5203584745715517,1.5102029170993423,1.4950999445974325,1.60519065825628,1.524051118396361,1.5944618283028718,1.583246073821047,1.639260149488821,1.6402983085040614,1.6209550515791888,1.6206356081476132,1.629276135237874,1.6485822248143487,1.6613693093231456,1.6724136164762298,1.7228658167180484,1.6816965646882585,1.6796018307917076,1.575212333379131,1.6136982870573817,1.6013142820972714,1.5093952120549547,1.4731850121064165,1.4908397409438034,1.5777800257486134,1.5479030250429495,1.7114847005153295
1.454609142405468,1.4298597986745165,1.411887667244715,1.4928235556077902,1.569498455937152,1.4799237507575016,1.5414925683583183,1.5416311620424654,1.632886099692672,1.5877463426291678,1.6438493710934408,1.6352993489153418,1.687362864522007,1.652869276078916,1.6708652256121583,1.6518425741975913,1.6849662328751573,1.7015202195757184,1.6893325636025354,1.7057696346370081,1.7837896391632793,1.6696589572372653,1.6571520361078944,1.6067125342341817,1.6075150213839298,1.5539718637076718,1.5308576510493954,1.4757362546213313,1.4894326988869127,1.5700132503125226,1.553417639251269,1.6472593083174207
1.4480979243315026,1.3790382790425537,1.3596308745746513,1.3905775947952663,1.4448036419816508,1.5004803176481076,1.5880713056352174,1.568089341888384,1.463845470981913,1.543343524998199,1.6272680504594201,1.5671692020316692,1.5505585564313746,1.6022922281169985,1.5882834470132083,1.5772376076086643,1.6183099736883368,1.6015067369819045,1.584161079148225,1.6413710406366524,1.7276453151152522,1.576795595759924,1.5870406560574633,1.537412312726008,1.5521481429485866,1.482641927037661,1.4891260305912737,1.4606511736029222,1.4600996327167803,1.5091465390201098,1.428326857839699,1.5494165980128984
1.468577111112396,1.375173596716412,1.4113397449716925,1.4679484711600752,1.5227675171446442,1.5884315492043324,1.7150143581215778,1.6110795206318684,1.5333778741182793,1.6499262936117491,1.6738489076111946,1.6301924987421677,1.5497782065755425,1.6076954408741444,1.6126840815140533,1.6052383107679513,1.6204501621023861,1.5882853052261219,1.6192955559089701,1.6244203307607084,1.6983926880243096,1.5899079534225415,1.6509243141132874,1.5911935516532758,1.5612841002183322,1.5934636637787947,1.4867677518584594,1.5236498071886668,1.4105298088219043,1.4939527809010882,1.4883405413018969,1.594865802633537
1.4147206394216367,1.367934379264876,1.3399267366594905,1.5640250821657782,1.618442330375912,1.5382014367320478,1.6810977458946066,1.5702172466789257,1.6456564267839044,1.6840962233786994,1.683464216258801,1.6845627859105294,1.6492811773488527,1.6091686645202645,1.5754162450126261,1.607736320879637,1.616009125633362,1.618473295571616,1.5931762710087611,1.6057351130904962,1.716317076756357,1.5857592855305596,1.6046222447975083,1.5968665465061096,1.6006001088440587,1.5480305701585415,1.4957522337610176,1.5018362652254833,1.4812385823035192,1.539244387683223,1.5472611484154573,1.5703044342355348
1.464441794593675,1.423599129200176,1.448244194996533,1.5304104266985552,1.5821855805472855,1.5556265829433251,1.5648335244269391,1.590561530060067,1.646840444765106,1.5877319766211138,1.5165851914562123,1.5942606109554112,1.6241840785624073,1.5616324271920587,1.4704419313365904,1.5192491416447906,1.5316882657137596,1.5057494128685298,1.5188333427359464,1.5403775905766979,1.7173707161199552,1.5789756919020883,1.5793112579514776,1.544535945241405,1.5950399554512025,1.5497191412425786,1.5408843359824644,1.4634369567890677,1.4934648052285027,1.6042718148039248,1.5913211763743118,1.6124907554141428
1.4451731033182798,1.439658752907814,1.4818231419453307,1.4807638795010358,1.591028137459568,1.5692589316424088,1.5676108505095523,1.6154565317298504,1.6606929912758213,1.5405441003618265,1.5271057149996052,1.550265084731641,1.58816435513004,1.5235961598253354,1.5055985265822485,1.5553253119041044,1.5658308948377582,1.5243244485211225,1.5459986169537099,1.5531894519549698,1.6857835276555304,1.5949722318622335,1.4872825832559673,1.5186848322439512,1.5494341472070572,1.5812044335700988,1.5327107257420078,1.4727126406369122,1.4134469268125212,1.6239184558894195,1.594314921746536,1.5496600624984755
1.5262855350301563,1.4301676806919665,1.4368928343880378,1.446257580306588,1.5463662386044184,1.5208055039050823,1.6110564633030109,1.602086471229229,1.6486393963491401,1.5194502336397213,1.5792026022242318,1.5695498022138679,1.5620765739004223,1.5301164697628336,1.48873674378176,1.516933976283317,1.5249277474909733,1.538106258821046,1.5763341614090352,1.5344146423947171,1.6303055651049438,1.5799621036815268,1.544483583436062,1.486293906779139,1.5074940553662017,1.6069842854974414,1.4778248302268067,1.40850996068009,1.399567914026101,1.494471758394144,1.5426477911894179,1.6095371657949757
1.5467807480154867,1.4295395695677413,1.419925304535792,1.440752680674851,1.508309426243115,1.4899007530487116,1.6116770997006358,1.5492791515297677,1.6206982763655065,1.5368323658847283,1.5924971246189101,1.5948125872201884,1.6217159850097635,1.5133134877393115,1.4820408796278264,1.4972481868284084,1.517149834843167,1.5739124282000003,1.6274526300343972,1.5629008886092874,1.6912241825648355,1.608409079605413,1.6402648491828793,1.5849159494467668,1.5966577828421422,1.5890493100687573,1.5073378914330664,1.4712589977284432,1.4646720544126595,1.5309177176320525,1.5679394209973083,1.6081726459368642
1.443674304690903,1.396962862022955,1.3744998043651648,1.4846172666013544,1.5766639340467743,1.4874858301101013,1.5932723183771595,1.5691053950830838,1.601574339417649,1.555308912243968,1.55317437318604,1.5739031564237125,1.609215547751394,1.5737002416181591,1.5152673035378392,1.4986292626782716,1.5179295517086,1.5548031015420314,1.5798015598757549,1.5526635808551237,1.6823657984962626,1.6142144946027581,1.6278978003111864,1.5875471860204355,1.5924742670868954,1.6154600911124892,1.552819178076344,1.5155073089428446,1.515201707836293,1.5588440715867884,1.6006385241424417,1.5913855378047146
1.3823086563361182,1.4158352503814777,1.4293377658222406,1.530734168547696,1.532497525112856,1.5705048455710668,1.5788596770228973,1.5177970922804231,1.5900936171949067,1.5576741588904568,1.536755867166104,1.5943116319950388,1.582692447961381,1.632134780430912,1.575348490925364,1.5637796240681192,1.5566797159356454,1.586670046579696,1.5657803755539583,1.5546841020874378,1.7736429562796008,1.5813450452819495,1.5777418928727551,1.5142024875922866,1.5600853357869695,1.5919065778341095,1.5268175441883018,1.531617144112889,1.5424957452957402,1.5821315330234087,1.5889577257901513,1.5438384116143553
1.4495909353360377,1.4856479418101631,1.4782974456656002,1.5548766345441107,1.6264510763218334,1.524009183311368,1.6088554924006555,1.5659772837613715,1.5694319034811197,1.5819027177561495,1.6118891890689528,1.5984834175771987,1.6481269269425418,1.601286470293738,1.5266538645575272,1.5724090311774106,1.582380631820309,1.641774418671354,1.6087006393179386,1.5749639203022128,1.683310485133292,1.6510641951113536,1.648125212946816,1.6057658442957394,1.6692541183663572,1.6554184818066653,1.6067590210806317,1.4944085711804513,1.568299063021179,1.633458335144745,1.6518715575730214,1.570424331903134
1.3948187814865642,1.3849891439049324,1.3312540903300574,1.481281128740105,1.604199115529522,1.4577598216291814,1.6157299161838834,1.5669677262718613,1.5681134260213583,1.590180735967263,1.646528204170967,1.5602700556757223,1.6580890555721979,1.5390866668949348,1.5074337631259467,1.5468674596869454,1.5386885284968934,1.5599417077450983,1.560120500393095,1.5823149850398135,1.623524379318916,1.6217129696661423,1.6411097366463596,1.590613632120269,1.6631479695983296,1.6721336299236733,1.538952012394377,1.4806930278865629,1.4255025015031253,1.5969214668387886,1.569627054964918,1.5895012992083515
1.4492245727940187,1.3428224514211085,1.3359942649070082,1.3793174469596001,1.4910167394192841,1.4750838422516768,1.6389675653451465,1.5795405564830478,1.565504428868252,1.5853159883518746,1.5933856469277343,1.5718880961730923,1.5826499053734624,1.5798104815993856,1.6033730580679175,1.5792778859246974,1.5563399788966892,1.5708960663462697,1.5259520430884994,1.582394327195152,1.6484932119748137,1.5401834827533891,1.5917166257622144,1.51089494589283,1.6223103820701095,1.6488331667736962,1.4797132942160824,1.4311084152308624,1.371828206869023,1.6041086242266338,1.4997538188780914,1.6176580494742598
1.4929638937800251,1.3629187191817311,1.3646852545595434,1.3609230759882087,1.4400995719454452,1.503102029220766,1.5796985947279822,1.5317137553025213,1.5130525360671752,1.5769072482345943,1.5885401884034935,1.5682269904077777,1.5284091361229735,1.611816216489606,1.596009115231909,1.60549490505445,1.6288149249112778,1.6324661064175001,1.6122984636169526,1.6307001416313507,1.7075426195391645,1.636127832503769,1.6197135251692627,1.5570979537425576,1.5676782809065084,1.6229954824101802,1.4972802627987598,1.4419849510874028,1.4753650078717928,1.599464006862353,1.4920749537512579,1.6442294990941566
1.5357048297166906,1.427682266745696,1.4431766443391676,1.5353713310915218,1.546645601458607,1.5199334647499527,1.528716433162519,1.5232298479493342,1.5491518174647838,1.5565103879467692,1.594451437857377,1.5758656254558756,1.6865167546220632,1.6108696133342588,1.5390244035534937,1.5694334782476727,1.6038459490230763,1.5943612547680595,1.6204517321281555,1.6119463752563952,1.6534274630144006,1.6672766644361934,1.6396005983910298,1.5925977627046688,1.6022746079103625,1.6521034408802218,1.6153452525327516,1.4683452525084255,1.5969358687391806,1.6201622539347658,1.60520854201271,1.627843906035959
1.5971121521149694,1.4331497294416653,1.5024113233603764,1.5363619889563027,1.6308184119980889,1.550682354047085,1.5524488926623163,1.5649220535665072,1.650613174245258,1.604487254377423,1.5771847904405454,1.6257590009803344,1.618019807801974,1.6376869550433555,1.5462435598419337,1.5458924408825523,1.5828672845101137,1.5886130633584161,1.642638284391707,1.6384638128863849,1.6369636078030698,1.7074844842144634,1.6736548238726836,1.650374487370909,1.6801458492053356,1.6470808899873313,1.6473739661582576,1.548924151006222,1.6423213875075275,1.6888253321241569,1.6764118536543495,1.6130149336799453
1.615865476795745,1.4726454645856057,1.528551876763583,1.5425143598238622,1.6379780081604804,1.662597196516182,1.6858498036641694,1.641650527563786,1.6276206103909772,1.654194567479085,1.6862756142252064,1.6288858250102662,1.609797202686504,1.6603381832922193,1.6148487689550974,1.613710888680822,1.629825176846682,1.6337800118143697,1.6497994404884677,1.663278148988294,1.6654402287317098,1.666772984357785,1.652334975436751,1.6528270270928596,1.6301188115436982,1.6417594378349682,1.5939694531402946,1.5342756385629106,1.5999439504399957,1.6753693143183985,1.6527545404335602,1.6256222253965613
1.4623064153231882,1.4298113467183204,1.454572874360054,1.4628034830502874,1.5162913209528563,1.6269503185207923,1.6749576754982576,1.6625558178296627,1.6237598233485615,1.6311918895773836,1.6394405071519387,1.5799063782572975,1.5989465618225902,1.6341396179500856,1.5771498854335342,1.600823935040228,1.6027427509305732,1.629928398642838,1.644038215305731,1.602700620391049,1.647718829342892,1.6999975399994656,1.5884018125087065,1.55568106738878,1.5806802929335284,1.5483956382011896,1.5230579537097293,1.5207142128907345,1.5426480386485613,1.5501299765281464,1.5483613809308847,1.6326961716314599
1.4116306645992556,1.329663863365675,1.3687365391443844,1.4800990858337366,1.5348610794243212,1.6327422666486102,1.6612492963436931,1.5539867025783547,1.631755366161325,1.611623563864996,1.4995801573131349,1.6204383080529627,1.6220306528497026,1.552274526749827,1.480683472011047,1.5122757122810022,1.489589411561352,1.5131121506415541,1.5409911786533994,1.5125869201210624,1.6072004658504595,1.6105269846303882,1.4790855477328617,1.4642286794787744,1.5206851584856904,1.5785843806608435,1.5019177839033842,1.49624849424668,1.5020847109436493,1.5220440343139163,1.6037897986654734,1.5392318082161094
1.412975775755089,1.3276715901649152,1.422705126450606,1.4911036870746248,1.5000696359998098,1.5449136748348251,1.5891979075918468,1.4624404220901013,1.6439645154981797,1.584868313518461,1.5100517331989134,1.5585063420511371,1.594066388671342,1.58533248351666,1.532429814998976,1.517881169269782,1.5685741622147942,1.569839049281692,1.5894618190377907,1.5677959566086281,1.5872016764364967,1.5867464872107946,1.49912303237228,1.476176070566523,1.5389793572952064,1.5684128673619644,1.4661650379771616,1.5191497534204121,1.460503177554347,1.5023933234084241,1.547600599951985,1.4850783589345948
1.3546528704541352,1.2777244604356435,1.366303114917705,1.363650420660473,1.4381314161686227,1.5182134678586,1.6752799425616165,1.518952845755922,1.5894166474577913,1.5716310851757644,1.6079943733079871,1.5683354824588451,1.5391720700952989,1.6219826720530297,1.5579945491592555,1.5360528068978945,1.5621080061837083,1.5637799012200229,1.5580068042222874,1.5715461125817776,1.5509587481065934,1.629184374696914,1.5060710744621244,1.4773483678641057,1.5607906954724982,1.5925199023807812,1.4763968125429705,1.426111571263281,1.4371244869590507,1.5005882696173647,1.4799398839787192,1.5342218711927855
1.29026803182824,1.3367810203892108,1.439886075796115,1.3531193591517148,1.4790397259824613,1.5646630837354394,1.5986373912415246,1.6015043882825095,1.5616839928302282,1.5447032795621611,1.5235924793221391,1.6109795949109185,1.627737884966098,1.5617700879279832,1.4203383883774767,1.4352839428513928,1.4603377601379017,1.545481138572938,1.554535524041264,1.4888506971675042,1.6008662733661143,1.626800985658849,1.5919405240187448,1.5207069877882997,1.616154543420966,1.6848773809433815,1.500825902282656,1.3901147977904726,1.5220006920433553,1.567188537663927,1.5610741543934024,1.5642576422271057
1.3772128039216267,1.2683522852520017,1.356876046974844,1.2834837966878403,1.5028353710311002,1.427604451047775,1.5581536132110352,1.529676550093096,1.6369593844598391,1.558096450407538,1.5782510977488593,1.5866724738419762,1.6233231076711223,1.6020579676300342,1.574798434337409,1.6216516329561363,1.6229756301936997,1.6102426251441126,1.622461255796274,1.6407864902191631,1.599190460856878,1.6423975312716896,1.6702224212021015,1.5582528521597845,1.5992478605732443,1.602684927389151,1.462735917261842,1.4434495702657564,1.4847801660110946,1.5292427094456034,1.537160834951723,1.6134268000254894
1.3899467870861633,1.345417833508205,1.5269438143772276,1.411328756280039,1.567357121835636,1.614425668063982,1.698383964060197,1.5993818724967115,1.6049471365329566,1.6525247214629672,1.6948915479685795,1.6415424172394326,1.6302688246504315,1.6576992349327009,1.6390637808618849,1.6379749670961898,1.6255947895639336,1.6167900236195731,1.6593040287208243,1.6523353584469702,1.5953791953940981,1.6763386690338522,1.6103915487169365,1.6028265185024475,1.5863837628510329,1.584248273442626,1.472268790109961,1.5776535890585162,1.4311721796469787,1.5777594470851102,1.5316574413748045,1.59255433123113
1.3982286772149017,1.372945171589742,1.5202315151948775,1.4486475833381693,1.5338343142611266,1.5832096143915777,1.6582711267850185,1.5884808955632432,1.5817843426736264,1.5961452554452213,1.64970481651566,1.6288901847089337,1.580376911879263,1.6075600363801923,1.5668283790007758,1.5672658310025285,1.5953894646519937,1.622703564642423,1.6489390107468227,1.6659088250542733,1.6371786794956786,1.6109850167702315,1.5655774256881339,1.6773791021734865,1.4100964585780282,1.5246015631819982,1.454581890954129,1.4897464043325446,1.3619762913260398,1.5379765441849909,1.4961354500917925,1.5790082941846115
1.3545432017108308,1.3904353771614886,1.6279822325877917,1.470017998704076,1.5441944071268248,1.4881704729997827,1.5200603583876002,1.625786842303441,1.5834765535917668,1.543700476297812,1.5235135671709934,1.5551937406253602,1.5236681840467663,1.4858445739154056,1.4687719713853062,1.503013620124963,1.5259029751432833,1.5750171649521643,1.5549972064536826,1.5398604693356392,1.5501471998726457,1.5764090328205438,1.5703046577444995,1.552995198359628,1.1977220855845272,1.5390599885727447,1.467292321353122,1.2659224652871506,1.4349101165319962,1.5563294143239037,1.5102341593150992,1.599540631081727
1.2695815708951894,1.4013614416350078,1.6092406327471387,1.4229205448616944,1.5360736399202437,1.3564965618917126,1.3909735509214138,1.5714986189172404,1.6250954094252483,1.5750306989114273,1.5277188100678591,1.6000453084520856,1.5533127762130936,1.5649476725071512,1.474402629058816,1.4537981259867319,1.4788530039705046,1.5416686457490134,1.528055669506867,1.5014037609715871,1.6059923710985295,1.522643247887366,1.5557173987292598,1.404790426932628,1.1491953296117607,1.5756421790331632,1.4340064376690727,1.2226450469283427,1.3855059167407242,1.4892239369682867,1.5549944534501918,1.5652593807833908
1.3344148715550488,1.334851251050411,1.489359678505796,1.4170648767590912,1.5357098867846273,1.3590519718666805,1.4272055830092654,1.6308349596685268,1.568506620573207,1.5674891535898976,1.5179569498949195,1.4999728295133534,1.544827164938626,1.4955118753418735,1.4668501472542093,1.505829252768926,1.5555872946542428,1.6108706021362453,1.598761633803061,1.6339437940229358,1.6173078804371481,1.5201696403023612,1.5584345821708465,1.472908749579242,1.314403517783771,1.5839052094827657,1.4897436595505977,1.32236328869356,1.4377164427885651,1.4927425044550169,1.5422191307054207,1.583087635704327
1.4302926509831722,1.3115209950692461,1.6165632034659818,1.4827540305270461,1.5948791966479618,1.4717123369605727,1.546405052730583,1.6331576017451623,1.5140273507358193,1.5575699840033719,1.5204978954512256,1.5428087771744559,1.6112700867110323,1.529218866361975,1.5102353909919202,1.5577711596444856,1.5953956178328834,1.618218476788281,1.623355713586758,1.6297087194769428,1.6511801744880497,1.6212112577211033,1.6365123626603273,1.5712553933892128,1.4845343072995925,1.6342360776259317,1.5710889551161367,1.4097895721951146,1.5009585907881513,1.5818814531689924,1.52611582980538,1.6342989100723435
1.3791634306688223,1.3894475601511131,1.6321440730683308,1.4321943674552495,1.5812966979309269,1.4955660538265259,1.5195553584903316,1.5977323062271547,1.6451547435337377,1.5618141815818518,1.5637957966477336,1.6085765395305582,1.5922451114631102,1.5785758361916542,1.544521600554428,1.5615226233185113,1.596269678745719,1.6401814759017155,1.6518042483883895,1.6713683290530221,1.665621710741888,1.6780108140769106,1.6323349906599565,1.5587409783891906,1.5151160950941716,1.6438482179874367,1.5899992325454937,1.399972261210817,1.5361757136339775,1.534715312390916,1.5554405462357215,1.5990204805005173
1.3818562947341249,1.4196987362901945,1.4251237722243353,1.452166027489556,1.5545307396417123,1.510748416245905,1.5082956801594323,1.625969406919463,1.6893908364671364,1.557667305262981,1.5618593031691417,1.631162348048873,1.5578936142935378,1.558996399128761,1.5548741913385304,1.539344083545016,1.5054603054022209,1.5521443419607555,1.5833618128288187,1.5210349080899221,1.598123819813247,1.6591547914395848,1.5904810489444239,1.4803757131807411,1.4909628528153118,1.5823904754641769,1.5590734403798863,1.4229656237261878,1.4473785564241757,1.5354822213357349,1.5439187674111359,1.5300232775256428
1.3912970465876517,1.369392809980997,1.4393874227980807,1.414174168337958,1.5399427417211944,1.5532866378863124,1.596430952529442,1.6372115631687671,1.609934608618287,1.5246573240510473,1.5083208095715805,1.5439326983207258,1.5573480379036877,1.5022159971435867,1.4438900255768,1.495603233447887,1.5092909078576475,1.548227761194065,1.5026661289349914,1.578747775336518,1.639483957921557,1.4805155846747078,1.5743933307413476,1.6300488437462992,1.5853151595858204,1.560953679072375,1.5969015830057043,1.5639412010354754,1.4572721843745868,1.591474583428109,1.5370791633381624,1.559399037581734
1.4510287782403477,1.4223825555349334,1.5057795390239728,1.404984883488036,1.5689214469231787,1.5992476209299986,1.65370370265281,1.5778520276357513,1.589949112911933,1.5186686623237613,1.5477062421266932,1.535504004760923,1.6283179848001264,1.4989031705805416,1.5194989593390333,1.5198928931172337,1.5706248629808996,1.539131422857761,1.529183211816181,1.6189349332616632,1.5920474160951592,1.5122946086187339,1.573821539816713,1.6381344603712131,1.609524628718834,1.6840057520162,1.5751035158504736,1.5085634750231895,1.50588674333078,1.5863550447899057,1.5757063251428718,1.5805424979333575
1.3949813867638772,1.4104549571494769,1.4482533608556076,1.4574229825506473,1.5592949482862684,1.500342276137019,1.620064829584775,1.585840502932019,1.6425845823667642,1.6063932466882282,1.6082321407515492,1.6007877618934088,1.6543274563578516,1.5593408474626413,1.5446895447633349,1.4772540002271866,1.5294596516733574,1.5537036290909776,1.636493856976566,1.5982858191323752,1.604949993716595,1.5972604617180013,1.6409619857708764,1.5720833327867652,1.607590495214278,1.6008894057017795,1.5247100218286522,1.4335520426387056,1.5236778344774629,1.5240016478197813,1.6094504724238308,1.6013361455855566
1.5512721212989724,1.4481490201753673,1.512234196284243,1.5902038718634213,1.661813160713972,1.5929923723354829,1.562447109311837,1.6565540879839902,1.7191574485362664,1.6580589739321703,1.6300750064387266,1.6949515122618513,1.6695688699611912,1.6399840786744764,1.5773658925448402,1.5430715265583317,1.5738640385680414,1.5919576167329186,1.6434714720595158,1.6233556722464386,1.6067944482846575,1.6229851881105213,1.6530789450304464,1.5673622021487659,1.5494618870695713,1.7081831877454872,1.6073428871491067,1.4480389174930945,1.5676391215544978,1.655157184892607,1.6796320419615838,1.6245891134392878
1.580372035312837,1.4935114438035457,1.5212468232172653,1.6049180375340777,1.674155976928233,1.6073646623082216,1.5799072259278604,1.6412944064495647,1.7201940044325252,1.6827460847972693,1.6531773058386314,1.7123631732553934,1.692017615185713,1.6901916116985871,1.5875645506991307,1.581690268186494,1.5672567891696263,1.587641747757469,1.6228497933146,1.6114537918413963,1.6541988483350496,1.6501479824604208,1.6691846215520103,1.5689479152218195,1.5264564689491946,1.718113271667554,1.6134037708396594,1.4487482050103042,1.583096178285432,1.690472752202168,1.7090941218036038,1.6476051200267317
1.4608130613579022,1.4552465819983593,1.4337992124382384,1.522656697213137,1.4793325478403745,1.5427906768825859,1.604324103354612,1.6028399593436504,1.6736648349907546,1.6098845372217276,1.649630627203156,1.5903378892725892,1.5710678792606128,1.5961141830479901,1.5604564421558622,1.5449196942332504,1.568687350361049,1.5754796052040059,1.618119330749737,1.614855716131712,1.616567833932289,1.6383161982896368,1.6262974299469655,1.5253193526805657,1.458773851420664,1.6353220956409884,1.479573282315886,1.3859183876054733,1.441792847310616,1.5350241187818703,1.5690116323538181,1.6602829279565108
1.574012827602197,1.5268347480771647,1.4865037878143585,1.589102617810709,1.6058266768443126,1.5844072284353798,1.5722636186775645,1.5476923368342546,1.61877613035484,1.530189855401386,1.6580763544093713,1.6600108800545599,1.5484917955419395,1.6335727064877816,1.5418045411183403,1.5170675536592555,1.5602163727999432,1.573637561101183,1.5676580658825754,1.5680210230499612,1.5692442299543388,1.6247269906122872,1.584719915079014,1.4919656166869704,1.5632855389989144,1.6633420979971818,1.6201026683933786,1.527914642362499,1.5598236490921824,1.6315839858024228,1.6396438153718083,1.6414933309690565
1.5951946575117968,1.5088555870846792,1.4908763212675853,1.5402040349298238,1.5936061941667912,1.6626240371907595,1.6320551988951706,1.6568535461219196,1.574212326511457,1.5910754054091958,1.5777937192012093,1.5877295090366508,1.6132284598914886,1.5682325174793794,1.4829965993560694,1.5161434922779973,1.5505873662281253,1.5724511646129609,1.5549145801700466,1.61617189226474,1.572130879697699,1.6540563143299862,1.567813584017883,1.4951122944024429,1.563567063097742,1.6857365619478275,1.603009765178765,1.515902794260077,1.53329646705622,1.596631336702253,1.6210803816549217,1.618465868959472
1.5652905803201331,1.4402990646134373,1.4655759918954516,1.5217461456013,1.6059684642918892,1.6914007328396512,1.6330016189513497,1.635318338277477,1.6108349609578791,1.5410263478002737,1.535660974243979,1.4981642154025951,1.5929952576132642,1.4616108962379082,1.4610564765852898,1.4740121652016578,1.5329075207334564,1.5291613879491956,1.5400819069660547,1.6184623039079116,1.5709439799549831,1.607739751290779,1.5858378901614394,1.583217686923508,1.6182341448423954,1.6967452774261678,1.594075027180758,1.5073205847674587,1.5500602969344626,1.6060258631038118,1.6033722066354226,1.612404218585014
1.5039355921003468,1.3854354982913235,1.4847897866349435,1.486949193298577,1.6286509594577188,1.6408774553706853,1.6158796499707706,1.6189885371652633,1.6988520561958345,1.5722095633051936,1.5907110079252398,1.5461373081719898,1.5840546165449227,1.4953458523066057,1.476427210266514,1.4723115046843072,1.503297119499234,1.479034059408194,1.5436713572239553,1.597432857819974,1.607237407163228,1.6633142512425938,1.5839682888587558,1.6121329454058064,1.639432600882588,1.666682271192949,1.5777054802530788,1.5476064157532292,1.5000753063143655,1.5734346332990896,1.6086544830398741,1.6020716064585563
1.5316201367762365,1.4042312802878953,1.4726328012999501,1.5525663998812407,1.6374404010671526,1.5836179020949506,1.5632710082670709,1.56773802108658,1.620766461135251,1.5824227017720154,1.557470323014062,1.5610516383253117,1.621985354189201,1.5846013989839036,1.4790065532739045,1.4974729220574006,1.4734416646384212,1.53562399090764,1.5735249314393682,1.5584965773208233,1.6082074695674957,1.6358517743647178,1.614871145357935,1.561905569926903,1.5835308005647377,1.6354981537340982,1.5904187564157695,1.5521892720739405,1.5375893355252424,1.6191237192356416,1.6190796949165973,1.5935175700714785
1.5584389658759936,1.5082450724923335,1.5207487288373405,1.5976323737664526,1.6283909463478705,1.6125642327294316,1.6182247486463734,1.5595898686586742,1.6416031556838593,1.5319052996666693,1.5851078848689755,1.602369051242857,1.6442520375095042,1.6083425265257145,1.5464100304778545,1.5464784026118412,1.581015388729455,1.6186658008946075,1.6427167929231599,1.626392524681471,1.6435535011512628,1.6884547461787667,1.6426872402970554,1.6594502650226672,1.6604850408452763,1.5976518943205276,1.6238210249968719,1.5872660903441183,1.6314280469911164,1.6690085906203382,1.6365749339070577,1.548624024195583
1.5468998457572036,1.4857931487641485,1.5012700405111299,1.5940710029462186,1.6038589095553264,1.6210790950521414,1.6446667780971345,1.5780227841582208,1.585225669720302,1.5580423335484832,1.6711087572012533,1.6081643572834055,1.6194869088561836,1.6226086294828523,1.6100167696680303,1.6073912050595818,1.6451326910175115,1.6225920694842617,1.635834676383732,1.6521007848598879,1.6634738827381512,1.6639273925222555,1.6671183969944272,1.6496865570176813,1.647157078744548,1.575697478649858,1.655257792230689,1.6035941053764193,1.6102119473929086,1.6788268465635148,1.6443250213578233,1.5622568750581618
1.446248195563396,1.45719115332576,1.4624399570945583,1.5674853517911684,1.595334557449939,1.5272868336816676,1.553105392516713,1.5801725048164879,1.5884463992482498,1.6237933100626907,1.6548405002253823,1.6346192689590786,1.615026511977264,1.6360684166176325,1.5950512525553595,1.5360637663989398,1.538805140099196,1.5079227139980351,1.5363858567674211,1.5914380604742775,1.5902914928296763,1.5699205898856836,1.5350778684749637,1.5393126992167008,1.561137462861069,1.5498610796829955,1.5875292049621297,1.5539145913737842,1.5081898941965335,1.5855227401856042,1.6056393590861255,1.5681822830157675
1.46126684487231,1.420120372840265,1.4849946874721407,1.5159773092141227,1.6020590885129053,1.5414210956962424,1.5768493804328185,1.5433715579870582,1.5517303197298384,1.569719885521929,1.5278373411582464,1.5587308291252766,1.5716990964696407,1.5654273644833332,1.5152700158502908,1.5410874182102543,1.5737390570820793,1.571342280328957,1.576057779263263,1.5501812163005098,1.5572697522953336,1.5709556066040335,1.561768261729196,1.5484478353426516,1.53949217852369,1.6003212418599084,1.5770224210102928,1.5217838145823748,1.4650931860713337,1.5736750017380854,1.630564676743391,1.5055351366488199
1.4364576373979714,1.3656157062689085,1.4907676904686116,1.4297959786656196,1.5764247757373888,1.5630434173656256,1.5529455558755654,1.4766121301439492,1.5129486579217541,1.4857827054700723,1.5054891474565804,1.5026176012170165,1.573225286552072,1.5394093540077265,1.4989801008647317,1.5261353229587076,1.5883329457242066,1.5908547433389357,1.5782449650761174,1.5944068677873786,1.6220433933804037,1.544354899341866,1.6082565243077709,1.6170824098560048,1.5674452015116869,1.5613598935754598,1.5374456027161452,1.4933239980799242,1.477389647230451,1.5337089032653635,1.5891912934885981,1.477360297002858
1.5051646072405152,1.3748896574365592,1.4287003662329947,1.452386011939217,1.5616841976569478,1.5168214594994482,1.514765589132147,1.5272965244072048,1.538563185458995,1.495503044551375,1.5680443508069855,1.54675598744574,1.5220624263095608,1.5892184536164262,1.5332553059000478,1.5752869326223455,1.6182782272896048,1.6283001151483725,1.608946944155264,1.6280398779412888,1.5979880674711173,1.57607929185769,1.5955525177858096,1.6133894585214987,1.5897499506506076,1.5552488440475878,1.526542050672956,1.4873402023941906,1.4782356683932039,1.576054749149064,1.576018414140248,1.577081829087554
1.5167549026649008,1.4816407918739847,1.4987856704525233,1.6345793459966602,1.5275865779605446,1.5595997843712797,1.6470315303188698,1.5629848466820226,1.568403732510398,1.5127687477289744,1.592964522664903,1.5667988756767437,1.576205080764662,1.5952313022239673,1.5590614693962068,1.5915181318821408,1.6081640377505837,1.62069005122866,1.6150588474920853,1.6046935378432177,1.631687113043509,1.6514479310136894,1.6032670574551777,1.6255551650454256,1.5895534755310803,1.6251961037070732,1.5233850568909066,1.4338500672737704,1.4655292018944992,1.6113019619895042,1.5457170376246228,1.5567108183039895
1.5636556664491437,1.441068332256698,1.463066965606459,1.610334910098409,1.5274979298105955,1.522851811424586,1.6847888805762261,1.5881521406284902,1.5396397752458273,1.4955262010799437,1.55477748224214,1.5069626617231957,1.5620650133288818,1.5150585779175714,1.4955313140714244,1.492362051283325,1.5367048061174553,1.5791894158713815,1.6101943677793409,1.6396032751606804,1.6195415816291008,1.668728809991007,1.6254125265927748,1.6390201244469391,1.5824504155267352,1.6151961854348222,1.5049263936916415,1.4305150174243226,1.4915121880832936,1.5612126366963088,1.5411575626654581,1.5205933148810686
1.576926673230043,1.457906049209824,1.5208031127178254,1.4909918851772377,1.5722575806617431,1.5152803750766233,1.5832650485073019,1.6690237934733687,1.548371486193923,1.464281812134934,1.4581323480794732,1.5006326159290555,1.6139645379452667,1.4928024610106787,1.4626551413323998,1.4839854315001062,1.5137968390876337,1.5748035382534742,1.6089661995232794,1.6289473297948307,1.6096636262421995,1.632542587428679,1.6352372330483016,1.6372550818267224,1.6473804802265963,1.6208337299927695,1.5703386653807465,1.5716950263318437,1.5222065949645351,1.6233962630032728,1.599505547067445,1.6124368592045435
1.5151032087219098,1.5189165279836419,1.5376959976542999,1.5613704841735385,1.559410795285216,1.570592652237845,1.6123715374242311,1.6544875371977765,1.6482045557313274,1.532957484097594,1.544549023094137,1.5387786504572891,1.6173072008224707,1.5557362163940405,1.470637203081911,1.4659202609541868,1.4973324434593742,1.5496760982995066,1.5824574205288513,1.59834500314719,1.6262195182455879,1.568608638313047,1.6446526843586093,1.6262243850279854,1.692559889533319,1.6407376016719701,1.5922882997122771,1.4978994388554998,1.5546988500879177,1.6796184683866693,1.636480144528543,1.5330626354875423
1.566462465066735,1.5179544695819622,1.4543880793275303,1.554123574976533,1.615922709637425,1.534039015237723,1.5807654863023548,1.5934439984975393,1.6518111817279904,1.5959217085834685,1.7070269615713418,1.6275867976055514,1.6328714600447778,1.674067468853265,1.6440270271452697,1.5751674826255329,1.572779230315628,1.6227959332397603,1.6385465519000606,1.6361226729766647,1.6756797564249917,1.6070988074636738,1.6588087540528917,1.608398583629486,1.6177745755721427,1.677033706037203,1.6312089731742698,1.50190422519908,1.577690221376553,1.6169313928807127,1.6808814715443052,1.5592644061270424
1.5787476800272855,1.533310653235243,1.4937979139173772,1.6433471912291266,1.6921199559120559,1.5520296516229901,1.5739258276326293,1.5315122696436887,1.649936334997564,1.5966846370428958,1.6734429015791576,1.6488992979341561,1.7192473829931325,1.6543934534754297,1.616627073572026,1.5925354193541985,1.576840824304157,1.6483425906600784,1.6431822256181667,1.6201830091974894,1.6400747335606645,1.5452339236028891,1.5223574750631212,1.5486568212392724,1.538916517357254,1.589456036567421,1.6252016461050285,1.7913867827581094,1.569407476869661,1.6685310831247937,1.7058753325490081,1.4753597423527944
1.5551009329991785,1.4551486926160866,1.5480842567657984,1.6071881742163145,1.5660597836662267,1.5818739189466036,1.572701725522975,1.531565813331288,1.5600701493877072,1.5187224048981016,1.6288307931423072,1.5901005004356628,1.6219042215110304,1.5895211122014483,1.5343292705593807,1.5474316930216048,1.5530276207952254,1.5547398294382084,1.5093423030270006,1.558291406696242,1.5615290341482995,1.5092169603971934,1.4825734461182214,1.5675539701514658,1.5814600646303651,1.5487985898065197,1.5317495761134714,1.8638080055556085,1.5553192648544367,1.6490414895766314,1.5494715498577736,1.5216207682435712
1.528759942631901,1.4057944967328226,1.5269983803736942,1.5530303871178557,1.5566818122543584,1.6035849797536108,1.6520336454169993,1.617368112370777,1.5349406999186836,1.54684118621821,1.5574934907196643,1.5218536798910614,1.6032590354229088,1.5482544389982391,1.561461160707101,1.5327607101587215,1.5643111942605417,1.597434643032162,1.5700343809458368,1.5916506304420754,1.6007028791801738,1.6118282239860355,1.593284616387525,1.5715600515053594,1.5932325039389075,1.614376496186557,1.5608549324073242,1.5226110815839853,1.5142247641610063,1.5824664861535171,1.548609164695208,1.6008076402993463
1.5476823161039888,1.4627903343820912,1.5328629873759698,1.5732588136874055,1.6168652280702651,1.6078603029530347,1.6189089643035552,1.5696805792199593,1.6449269055802198,1.6158078597386685,1.5615458631356525,1.6215780876409291,1.7015758578152482,1.6015578338009124,1.5639290163107735,1.5124875106129423,1.5628172427640248,1.5902789448006744,1.5828514016801174,1.6128578391488313,1.6689294456440478,1.6011290981879573,1.6446853998821152,1.5781918156454602,1.6259401132392113,1.6632371065305636,1.6721115830977897,1.435327557636279,1.519673524633959,1.606612249428082,1.599609477411561,1.5769112594091585
1.600227814973216,1.5397912796235547,1.5491190506724493,1.5983890064445871,1.6340401832429188,1.5384461333337798,1.5643871109314096,1.5945850058887425,1.6405194023017877,1.6096063072111109,1.6062815749082129,1.6193846933293012,1.5966724238664,1.5964644428035994,1.539304535202461,1.511439930975398,1.5546195570176322,1.5837983593595049,1.5840249443924324,1.6202890928973732,1.6272275079508636,1.6145786326015357,1.6312327153735928,1.6382132362262443,1.659697205724279,1.6426520627620178,1.6443116612419817,1.583665935316371,1.6326413220168197,1.6381927613400313,1.6635372016532928,1.6521946165501198
1.5434364345966234,1.53243071187845,1.4867052348097565,1.5919204206182214,1.682443668071572,1.52539908983257,1.5609721293371794,1.592492247202523,1.652785740805653,1.6314846140194044,1.6627960611928945,1.6740123872882777,1.5919947768966125,1.6782182599388507,1.6187744517981644,1.5627730326323404,1.5648570766691825,1.6249001745534513,1.6590714966457565,1.651241217302644,1.625185943019652,1.6480405888457503,1.6958145452485656,1.6358885817769435,1.6456788225782264,1.5757091362624225,1.567534834114036,1.6482981404650632,1.599981867420449,1.6302415376058006,1.6484755728775724,1.6495818828808604
1.544990002091383,1.5054794765724,1.525414096120609,1.5581539769084118,1.6511981366512032,1.5633599361430377,1.607617923612687,1.618682117800182,1.657540840246905,1.666460465598577,1.687631143286796,1.617405148594013,1.6057559883059858,1.636596149300056,1.638217562698768,1.6353954668079789,1.6173682992397784,1.67565666913556,1.6906979226611314,1.6694042868007952,1.6510662712517223,1.6575552916174237,1.6906239471338866,1.654531492641852,1.6677984857296666,1.6351616924514736,1.5878798430479215,1.5088029795858235,1.5752406002168593,1.6767461166895379,1.6335335587334454,1.6039299302329904
1.6135038291056842,1.467050693544332,1.5392822229396086,1.5304661755926263,1.5243707824891737,1.60331071497933,1.6594780223960985,1.6030798315913324,1.6246214407085777,1.584650381989064,1.692354899142263,1.577267644122614,1.6276982741852284,1.5377112750223527,1.6144131629718657,1.6321982629571303,1.6025109397318404,1.6229824623619127,1.590438519305505,1.6448412499886451,1.5776409668297755,1.6282670815182227,1.6485045872224477,1.6571448519208036,1.6516828536701418,1.711617882559211,1.6243399580612068,1.544662641765581,1.5603737330050118,1.7244077456211333,1.6070377494935892,1.5626201541416642
1.5346383789992983,1.4799649254401124,1.4787883402331763,1.4309985722787764,1.5146735575153365,1.551502692525569,1.5887573224377425,1.6052101729529382,1.6212270043840165,1.5650291986389842,1.6339165419929151,1.6056336828361177,1.685268052334305,1.5354290154103187,1.6288281911577762,1.6099430147161362,1.6171541651504104,1.6194837095466903,1.6444945054905367,1.6481348995497995,1.5802868333182254,1.6726401553421781,1.6788908190096177,1.6510140315534167,1.6130110485695652,1.6747868203812928,1.6189608679960326,1.5376770176762455,1.5714441603983498,1.5853455471159306,1.5524381071537707,1.575068602640278
1.5518245459543143,1.4702497852165441,1.5237257144291259,1.537191222270482,1.5507290666339677,1.6233288143688411,1.5881090063862888,1.5758622535085018,1.6447195481338515,1.6003834123721201,1.6081306201966368,1.5969950039695142,1.6582460639101042,1.5831749913832374,1.6149268542773194,1.5938560400190056,1.61428677142473,1.6121702460481373,1.652871884152868,1.6619053443175396,1.568910251050611,1.6568111048946115,1.6573866509621717,1.6487265608574881,1.6558955257142933,1.660269312892148,1.5940486656288917,1.5822339430119463,1.5984418729352294,1.6239836538587098,1.6027076389264445,1.56547282244555
1.5963562588625437,1.4724419663397152,1.530250477661779,1.5325759269907466,1.5745262068566492,1.593474708552983,1.6277322891487913,1.5803677498955409,1.515335948711735,1.6239957669495215,1.634465973167999,1.6114639489731843,1.6258961402656065,1.5739491611840297,1.5946923687689694,1.6177692170997737,1.6772759906539922,1.7039295515435369,1.705604716169848,1.6857995401740427,1.6209784447834183,1.6624065248839022,1.6390669942549159,1.6561915062894097,1.7365648724281852,1.6123787825758675,1.5912511933653846,1.5816211069521309,1.5575804028688118,1.6794859541990719,1.5932663107898917,1.5422370195757142
1.589286866624976,1.4843417159133845,1.5099399347751732,1.5115041107392067,1.53462169733845,1.611140388718766,1.6227384914270122,1.6104263379810158,1.547486472929967,1.5659214088865372,1.602324066985066,1.5669344000993026,1.5897469792526624,1.5286120945489765,1.546511014904789,1.5888068853095203,1.623631776768862,1.655996224347968,1.6668686894254436,1.6609672389698593,1.7111163112515064,1.6915697799288583,1.6903105624334378,1.7053362753889112,1.7590417952117565,1.6331267009196693,1.5647015024692448,1.6399546538352032,1.4521296119462586,1.6521965216810732,1.5191736549670611,1.402525501219198
1.4872218079630757,1.5216150490290428,1.4552534601183305,1.504941347779723,1.5688683492963411,1.6010094063693774,1.6549436446174415,1.5784975786465543,1.6265946665913555,1.6517407005386928,1.717112130584542,1.6772811903830078,1.6220715065356757,1.647618874636208,1.6575508111511512,1.6264567068091742,1.6371269891141658,1.6677012805776528,1.6997956900642615,1.7113891983781517,1.7347115495240757,1.7112226983281265,1.7207328470989527,1.7574172272678252,1.6806198835552917,1.6136279683157144,1.5571581185775287,1.635138773971848,1.4697296626489362,1.6480939055483637,1.5925923701288929,1.6007826984303464
1.4578363516259667,1.5099519290569519,1.3760143703191476,1.5217095732528207,1.6046669232777577,1.6414451959028387,1.5933175803660613,1.6574710405024513,1.6282541645617714,1.653253851184232,1.6706899828282822,1.699309115435776,1.6448773994073171,1.669072470925838,1.6718565300320314,1.645878762779395,1.6707974795387064,1.6581703580774627,1.6396800823503423,1.728387245241644,1.7031035561208956,1.6560983797443518,1.6114026033134803,1.7188227478038556,1.5912028047751559,1.6267491427495961,1.564009127381364,1.4771814251296311,1.4871284048633073,1.5993437843945137,1.5705558850061199,1.6119209503149845
1.5547884016964149,1.5139803925756448,1.4659749521558127,1.5822387470615304,1.576458518366038,1.6906964618492863,1.6053419975354606,1.6457818430269782,1.5794087388561657,1.5889258106993784,1.540059357011405,1.54649569762509,1.6349323135096236,1.544599598342595,1.54898498823955,1.5939210780017836,1.6380170500019986,1.624798115835176,1.648571394169985,1.6721924262929033,1.6877465102416143,1.6516857708804773,1.6410742489640664,1.735920681377478,1.6560987597968988,1.6380070826367434,1.6049588256133092,1.5603415826651499,1.506398216833533,1.6231640170419317,1.5247060774667542,1.6117099986547092
1.6078215492879198,1.462050596434459,1.4599705584288638,1.5833206400655448,1.4691441277035073,1.6183683772554784,1.5740761286407476,1.5054095909756064,1.5412602189586146,1.562151073876894,1.5370517530048193,1.5239896328790083,1.568074164960271,1.5014965842145696,1.535821703496182,1.59749711858885,1.594747430707528,1.6033280764030042,1.5966309220822807,1.5880742023111236,1.6507943092780448,1.584705383916779,1.6046124776134625,1.6365462358616871,1.60058486423997,1.6075305153047514,1.552636923333105,1.5209928775313812,1.4747038803093229,1.5963330022533941,1.479891147688391,1.587348827811133
1.4646437406046824,1.4456533551487483,1.4237397947512107,1.498137503676618,1.529691338822789,1.5656358014201353,1.5534044295851732,1.5979165020633643,1.5985906896692796,1.6192515296859373,1.5734228049328995,1.5757965702226926,1.6018604787934343,1.5646911487965847,1.5934894546716027,1.6028374788745923,1.6242292595223045,1.6672391848041936,1.6873805949128402,1.6705549023116277,1.6565784080639054,1.6335613778205431,1.6517431102307638,1.5988383745475487,1.542984584499263,1.5504527434297444,1.5113053626655828,1.5004486396034085,1.4925402303035191,1.554397416472298,1.5540856363576174,1.6364921467329205
1.4971674114210036,1.4874170428441083,1.4933168833247192,1.5011120697716007,1.536752647597614,1.5847458818755655,1.5465370378211498,1.594278012805635,1.6542914443297991,1.618821230779144,1.6099264109527662,1.6386410598320826,1.6321194456423067,1.6346696121548434,1.5783568544906652,1.5504761355488155,1.5746456296507885,1.5768068959334967,1.5949154967601955,1.5917853047401376,1.5706280415566773,1.6072538585143499,1.6255624436000813,1.5256080576293054,1.5236966121546638,1.6355812885141228,1.5427956180477713,1.4810939270626056,1.4914373381330082,1.5677218087760547,1.5603760834618836,1.6537467758590083
1.5682392131267588,1.5109149078329651,1.559237224957955,1.5657599603471892,1.569624418169863,1.6031611246121809,1.6444306092883278,1.5014290258116607,1.616957676731063,1.5734893800613847,1.6009800259351208,1.6028681634338837,1.6216996356177389,1.5676046316800991,1.5614721162456748,1.603437613738702,1.6285781894817775,1.6241207367435666,1.6326090455706286,1.6603523887817813,1.5424912895841991,1.6168665652830958,1.5952134673781198,1.5460162295817874,1.5657422039849183,1.621749914459904,1.5168785460563334,1.5665581058104299,1.5182253112233706,1.628769539404297,1.5713402743187805,1.6070729449348438
1.5839925204339895,1.563916263044455,1.5908684767382901,1.5493547268635102,1.593922783800054,1.6245171259835374,1.6755040022145589,1.6234275169900731,1.603201840264529,1.5964046956668572,1.6185997105936452,1.6528449848962719,1.6233546320795216,1.582243337563134,1.563669569781404,1.587088616363893,1.6064745717715216,1.6318950039814184,1.6318684351130182,1.6729811036527802,1.6162026044266518,1.6669372597840382,1.6364259986758325,1.6822122037008287,1.6574171408239338,1.686266111386656,1.6099846667533215,1.647128838651153,1.5924789022863168,1.6888232504125145,1.6145572646503936,1.6055834470483308
1.6316649994020391,1.62941973513693,1.6309723530844096,1.6240896217553293,1.6587000677933113,1.6828189132376457,1.7170592009209642,1.7261351661983215,1.6131514722413596,1.6043235243592961,1.6446567650949602,1.6364823256074355,1.6785470937620082,1.648272274250245,1.604231880448403,1.6041751621067168,1.6334460242051942,1.6825230006038332,1.6839671887052825,1.7220877610946996,1.6630654383578503,1.6800206632092511,1.6875453794844086,1.7235481428684534,1.6991437282416053,1.7176801114159304,1.682214743875248,1.6384491365186329,1.6384299249166903,1.687282109281003,1.656323595505106,1.6367856989241216
1.6328433056721046,1.5937603727191998,1.5706586859175935,1.6342406559471676,1.5965392340949118,1.6974555915772374,1.731708814286125,1.6902716810134815,1.666850754458143,1.6424074804820517,1.660395930770119,1.604014153065193,1.6666549807333364,1.6699214257114183,1.652359022563745,1.6378976311357742,1.6708710677160983,1.6825755601727967,1.6968838491182132,1.7156874777869204,1.6302003902026352,1.6385215438760612,1.7038999248509084,1.6800684782187305,1.6477910753944929,1.6682512043957327,1.6421537163989028,1.5909323513162532,1.5679363259221215,1.6339272003787226,1.643445670878052,1.6603803271007458
1.6082404309542657,1.5259575280165627,1.5788338549897403,1.604799699172837,1.5937031525561596,1.6023007128133504,1.6901079264314123,1.5688462872563325,1.7352308924265054,1.6110917862334146,1.5335844649383166,1.5131283475537534,1.6404705791674254,1.60114834869609,1.5563871365095248,1.5795402543147024,1.5549210832390759,1.5174229387794014,1.5665469771407454,1.5797051605251873,1.582550588735878,1.5522830994414938,1.5815908588033334,1.6231521096989856,1.657694699818751,1.658082778285716,1.6097195944982496,1.592924598586124,1.5693598106205133,1.643924908471199,1.6118991375368932,1.5394397171867207
1.5943027200678241,1.4800102572244822,1.5576407126880365,1.558019076286759,1.5946854692743586,1.5851605046666715,1.6191370500998452,1.5261501904389525,1.6489058046111988,1.5238375138683253,1.5852923358980175,1.5151304232179816,1.6725499902275538,1.5603930419798433,1.5512676587082805,1.590075985646396,1.590998789234076,1.5961838287891565,1.6016077719971753,1.6089742735495405,1.5745852938564788,1.5375517517958086,1.5557288549481223,1.561717429035895,1.6388590695439185,1.6283899800925792,1.5731758592081404,1.5765133081697476,1.5834133318082138,1.6568964616744397,1.8289826647437857,1.495025906258419
1.595608954504391,1.4760659867018016,1.571166102906555,1.6344896976586842,1.6222600956010067,1.6085035372003313,1.6224203204421404,1.5787922583999654,1.582486543077133,1.5688557369822769,1.6256276493584423,1.5738719145938378,1.609725082304687,1.601421225948668,1.59071609692857,1.6142748031004044,1.6229831033789743,1.6497913159583522,1.6693963440795925,1.6645913304099187,1.6456652568495829,1.6702061657073077,1.6779178543619993,1.5963506287675417,1.5970014308558613,1.6954606790751692,1.574660358471095,1.5895131174934982,1.5606091675465328,1.6534818671882874,1.8618664259368332,1.636644981932354
1.5281542482539352,1.4110956704157744,1.5672093882765932,1.5904205655196324,1.5783692379407628,1.5343966878657056,1.5696071798412727,1.5649111635327126,1.5823513618303744,1.5627497734643745,1.5540923651053524,1.5389816717549891,1.5789969486789657,1.5735564772544883,1.5822788601150513,1.6699630456513597,1.6723303682050208,1.6744429969819574,1.6688427641469494,1.674022339842457,1.653946530207332,1.6807772075364609,1.7326919935421021,1.635924424665801,1.6351839971271587,1.719070855979879,1.5648605607049444,1.5913542078816854,1.505090022616537,1.5937026476746858,1.6735043338740305,1.6683580072584592
1.5714456778527386,1.4457777847945879,1.5711544172893814,1.5752762076333837,1.619018852598132,1.5640651574359463,1.5460713625137665,1.5116087063756374,1.5253008060879272,1.5120032012830307,1.5557234181877146,1.5182149349148957,1.5774768642431145,1.561035615917252,1.5286473727728829,1.5580453837660528,1.586011779537851,1.5836279190773495,1.5605211076702494,1.5818869637895545,1.6098018427105742,1.602260202989308,1.6709672223863996,1.5751536868319693,1.6260121480873568,1.7041567477885373,1.6185930911740334,1.5437212460449605,1.5888034999695289,1.6197272079369536,1.61851193723917,1.691321608319411
1.5711595527672144,1.5175513031522396,1.5759919517341061,1.5949687517058153,1.6311050358847494,1.6272404961463904,1.541230864173277,1.555460916240136,1.5811703683803773,1.5831448154715955,1.598513061959388,1.6045610820521647,1.6350526045172729,1.630357616253665,1.620256567288893,1.6086894369641365,1.6112334145271823,1.6117932710686338,1.6105618192978162,1.635832732103702,1.5930463931015473,1.6373971206171107,1.626986714589902,1.6096958073696805,1.6262146902054182,1.6645720323713058,1.651524911164053,1.577489557071967,1.6436515736627837,1.640172146270563,1.6409031974578945,1.6794820961938588
1.604350843350779,1.5375327398508554,1.5411909166232016,1.6078069935875585,1.6450069047358216,1.600269044184557,1.5929315520832747,1.5684714430558722,1.6343749442136812,1.6605917990453272,1.6223201781151215,1.6067122618895173,1.5770656391270237,1.5890301843433543,1.5888425573115372,1.57957541571941,1.5862433774511226,1.5600543342840056,1.600759758558348,1.672231766579787,1.6129301405181342,1.6009214019303195,1.6242600613319942,1.596685313717755,1.6138803649221485,1.6658133565708724,1.6687093719912072,1.633725383693397,1.6402960184594964,1.6699362467701877,1.6985838881451412,1.6785590956261747
1.5865299592990765,1.5766602075864948,1.561925976983202,1.6064713353210145,1.6515098474037375,1.5833769246964675,1.645448569445997,1.5548841822431547,1.680945122444623,1.6566920374405238,1.669213419527671,1.658528723005017,1.6736855191335116,1.6743928563616297,1.6565050057230097,1.653350744331057,1.6627697668692631,1.6413361554242456,1.6512563062650882,1.67402277739535,1.6652245240770445,1.6638682579669175,1.6218554864127437,1.6254196951888007,1.5824009718651704,1.6245595568890678,1.6453890876546287,1.6337598867646026,1.6192519958065406,1.664114181136245,1.7164365500707701,1.67375895541267
1.43638339677993,1.5509667176081714,1.5209911973972265,1.5290924940719872,1.5580059345956139,1.5678530179721961,1.6150908890098463,1.5606049620747804,1.6241954331528454,1.6586573315797346,1.7022194271914737,1.663400056994538,1.7076787510570428,1.6817394962112995,1.6586437142683226,1.6429526708246915,1.6467300142002443,1.6429997956834146,1.6348253382477809,1.6319758618442584,1.603709182285574,1.5868561044906822,1.583263858464582,1.6227629335312617,1.5834123759471679,1.660180388285449,1.5186538122103468,1.5807972224004172,1.5295478632752126,1.596615899659587,1.6059876159987427,1.5311402869950548
1.5549570560016,1.62006661081981,1.5350993725314113,1.5927260716558826,1.5721450115298488,1.5541162605744023,1.5822096515333783,1.5800990942300204,1.6076901296503059,1.5766072126421191,1.5961633691899306,1.5888477405221784,1.6054448868538165,1.5889279447390705,1.6430992221470302,1.6421750585454595,1.6453581259628642,1.609928254225259,1.5717268781029465,1.5960890078434886,1.5752444030754056,1.5169787567297364,1.5648303144981377,1.5564052181551815,1.6226163107405611,1.6300816903982103,1.541223828685771,1.559890569104373,1.5115615999726015,1.5941089557060744,1.6175738788527152,1.5527712339794517
1.5110963448197052,1.6434575796874415,1.558784017871044,1.6643410110172605,1.6325301393059999,1.5926200593674935,1.5624257625818307,1.6095697198333643,1.6344167278453012,1.5868988685295171,1.5415108873859247,1.5655885462381254,1.5497894870227853,1.5402550302387483,1.5529272566706733,1.5904445967049836,1.5884608382649206,1.576422489910994,1.60763909032834,1.6049383143854412,1.6448991270288587,1.666050708051685,1.661393495790227,1.6247998817138078,1.6405818456616545,1.6629931727464582,1.5997702776318834,1.5775483228719414,1.5799042299044075,1.6143866929630262,1.6822718148217892,1.606923020100232
1.5067165588624374,1.5140233221102357,1.5691992529875993,1.62297757762887,1.6510026050441684,1.6220214680944656,1.557540131372944,1.5450021786670896,1.5962470691560642,1.6303589988995004,1.6314839672693198,1.612474365528102,1.5615632754539945,1.5839402949690482,1.5600642252346248,1.5800620916598236,1.5840527534605675,1.5748766525635391,1.5954270746733723,1.645529867661695,1.6588119186991508,1.6690476446372327,1.6108634406992082,1.6027893443372019,1.5897413133541085,1.6605362129557593,1.5869955379590275,1.5922166248001521,1.621770867559504,1.577281149347194,1.6311546883053238,1.6150435124027869
1.5908910908865785,1.5587658850402724,1.6119877794759174,1.6398888782660377,1.6370025923192175,1.6379559245026425,1.6351607549577225,1.5336164145321505,1.531709864588473,1.6224256820915353,1.5806642408012237,1.5799270435547064,1.6048894198881856,1.5377525520812054,1.5743115992125198,1.5827724907098581,1.59076027952316,1.566627462620505,1.561902142553449,1.611233075616234,1.6159034327952024,1.5967457163714835,1.647749017120709,1.6303554289223292,1.678321344831969,1.7141984238057257,1.6924353690537832,1.6876930104063577,1.6645828451928533,1.6761664512449264,1.6857769636356368,1.6738712106954365
1.5497451518560068,1.546073788844544,1.5537964983157582,1.5787563784307197,1.5324556270958234,1.5466599759179356,1.568321476614289,1.5721884513964814,1.5617872603503817,1.5542356707842961,1.4949234318995694,1.5553281973313886,1.6599115422771085,1.5230433279037898,1.5371979862557477,1.5542229331029191,1.5753140528212692,1.5756313379438713,1.5691824289118828,1.5753403901716336,1.57551504776005,1.5867386287780936,1.6426521748947738,1.5681093559725294,1.6181541785555693,1.6047612751685314,1.6004450601440812,1.5840960746590913,1.498679817347175,1.625459013863008,1.5840254373379707,1.6260241957104415
1.5583270530585753,1.4639699235148607,1.527367585997939,1.5251132108524186,1.5380639680659858,1.5577317452563193,1.5113277655814468,1.5767292169963147,1.595210734250886,1.5456386145895467,1.5360332799953553,1.551011730411817,1.5822514568903674,1.5108633776608649,1.540815684197535,1.5141650677240506,1.5473650012539588,1.5480696446126012,1.5899760766374185,1.6191335028269553,1.6602050185741346,1.5876970398057095,1.606469648544361,1.6010800752796182,1.5568494499124035,1.5693074664218458,1.5119296200172445,1.5703632492702164,1.5046655489271195,1.533553799781321,1.5484985115446799,1.5529672759184878
1.6204556115245392,1.5399244735038748,1.58121468933784,1.6053535238350953,1.6259947936711776,1.5974046076888222,1.605722521908266,1.6254760982298602,1.6484271161231598,1.614860043291104,1.619684372763986,1.6431534714306868,1.621798045583101,1.6205216939660443,1.6241047749262048,1.5925951261566935,1.6010371745185108,1.6217223671862788,1.6448557117795592,1.6319836082428614,1.6941989837798859,1.6536224817364884,1.6574608552593733,1.6536619924004923,1.61851989967386,1.6155958071364263,1.599721864377872,1.6194497877321976,1.5671456516797937,1.6420341038483348,1.643833385044274,1.641992893941632
1.6106227333295204,1.5508229832592233,1.6052945506050655,1.6311399117023144,1.6431364300984186,1.5998217787996376,1.659247762147915,1.6240885697312903,1.648166691428663,1.639500923432219,1.6628567012380102,1.6866526885908648,1.5940503120935776,1.6768872834083115,1.6783342884478674,1.6699152499962313,1.6597204968475439,1.6677110465035951,1.6888213248527721,1.7075614071484617,1.7292886553913152,1.6878537207591948,1.7152570192242875,1.7557048809508484,1.7318746840479777,1.6374321618794858,1.654329843098329,1.6758230070179547,1.626169726648504,1.6896248779373946,1.6636605559184197,1.5955243954070641
1.5618143564139664,1.5079284752768038,1.5336313625889308,1.4994812725612094,1.5874205862536057,1.594895938150296,1.720672431476228,1.6581720699148552,1.6635631226990397,1.6815786295501278,1.724418801160101,1.6796282993226759,1.6430589837069682,1.7128075423584528,1.686113897373951,1.6708191792514677,1.6472144016335288,1.664513143827492,1.683532208737207,1.6858160300276788,1.7360368947668539,1.6584034531792151,1.7753641063746965,1.752011391826171,1.7326416977918002,1.666811169738265,1.683902554600422,1.6888149919618596,1.6776645199128932,1.6664477081424105,1.6528798966942941,1.5709297582775876
1.4482371726559087,1.439979213808795,1.3978095274981366,1.4121022677727786,1.5847005044242264,1.5922816547740306,1.690685064503567,1.696713592590326,1.6853508843663825,1.7152436917563725,1.6596850586092982,1.7107010499436617,1.579293100649147,1.6493545057968257,1.5437823831277744,1.5782973911739597,1.626887542371237,1.655625776941053,1.6541606618817382,1.6424185810955547,1.6794265749493926,1.5782687459091689,1.6385863837614036,1.6574269422746613,1.6088831305702698,1.6345243082710217,1.5551459083629358,1.4148131622365627,1.5097248818208173,1.5394681730722954,1.6420413251005668,1.5641607049420374
1.444486605260456,1.4907988586925454,1.417204939653351,1.4271101366610024,1.5037695155972166,1.5697347559055659,1.6070131460559987,1.622663164230935,1.6400906708548142,1.584327420383359,1.5862404571390885,1.6478337568002799,1.5462661083915337,1.606095865985601,1.5010090647387968,1.5508473650662438,1.598685924767274,1.614787656663178,1.5918382355427194,1.659912646118729,1.6118102125967129,1.5227099831473596,1.6048643755151146,1.6973011942844645,1.608109179435235,1.5608980606367757,1.5147695834733461,1.4036410214203636,1.4635330054468016,1.475760221695292,1.6274247676140332,1.592354716043533
1.318749148331405,1.3815455653305035,1.391202378113443,1.348658542186098,1.5467335911455375,1.6098805826874538,1.6496210119408263,1.5935839308529374,1.5419456630583206,1.5014491132325998,1.5302868452690914,1.5465397653224455,1.6384862220561676,1.5226391126462422,1.461663196024729,1.509583756915708,1.515241176689977,1.6075927790338127,1.5743467967092157,1.5602010792726924,1.5508947206613966,1.5423463198827279,1.5890715263032764,1.5654302427105546,1.5981038167264607,1.6656101585207006,1.458182891365428,1.3282833909716834,1.3014423487252933,1.4883972220984487,1.5935504748079852,1.5685148868300496
1.3148075987476182,1.250907286830448,1.2426353616989778,1.2838155002642606,1.489532328894834,1.5791108457912955,1.673481693147533,1.5938305102204409,1.4642915564368935,1.5202761679425343,1.5553667915870766,1.5150722276783914,1.5811589987320969,1.491843503503934,1.4759822226087882,1.5010131805849705,1.4844643500244297,1.5867111597196353,1.5514444485477812,1.4621993509425866,1.518376130205655,1.5584144202709775,1.4887871699546131,1.3725223088495822,1.503568646060093,2.009068345792844,1.4140398227725068,1.3430302324339343,1.3655772810285776,1.4323692711535856,1.5001151131231738,1.5122418792970236
1.4231124649083722,1.2874655796024534,1.217597722653255,1.3198500546917376,1.5335316243713588,1.4425278060550413,1.5804777586014056,1.6056606395806923,1.5995644781499452,1.5721047721952555,1.6230604353813238,1.566647938183977,1.5761748075808608,1.6132779142389486,1.6103868815773825,1.5652287741790307,1.6053751223929185,1.646972237123596,1.6268201806538833,1.5906014684301781,1.6356915285650382,1.6749688228495707,1.6090340984647529,1.4810570352472148,1.59153261432533,1.9802953680282198,1.5417699102504516,1.4454213052070302,1.4684956504651538,1.5229324503961241,1.565168788482807,1.663878760189882
1.4380208716379281,1.3487963448536033,1.2750615650897417,1.365748455688327,1.5586686747916327,1.4419848493672518,1.5599113568155445,1.6364477584178476,1.6431365571296828,1.5974650232479708,1.6344028771092882,1.6284861260973145,1.6229722647779303,1.6297847356865,1.6212949273885031,1.595310814506436,1.6522517666933974,1.6985095534317745,1.6995964400188912,1.7114420998774529,1.7079562046030503,1.703545558444014,1.660300266917578,1.6293581079096235,1.6027676845073702,1.8436049281051259,1.535385993391165,1.4471050316317733,1.4305109120942014,1.5494560856365225,1.6203980416828108,1.6619989871148135
1.4805743234834814,1.3486732108200292,1.344207723087697,1.3596680056585808,1.6237462064553352,1.5200651932032203,1.5490530030418421,1.6115411792878882,1.5830116388994202,1.5964726583052535,1.585771858779534,1.5560483352522212,1.6721251057302031,1.5499771112556178,1.523635775914414,1.5228765579922352,1.5612062071046742,1.6138811354763845,1.6031963449185558,1.5803368034635932,1.5468305988527309,1.6248621327560853,1.5677033878518563,1.5605369679910577,1.597879689565395,1.7340400379257668,1.5717647978701281,1.493487971534491,1.4497305756780765,1.6157263801724382,1.6113644496057433,1.5947415006471948
1.482138275821381,1.4070983367898593,1.404570567101957,1.476509199887919,1.6235515457998462,1.5578341060835268,1.585497932061713,1.6184852027595726,1.6532153225829271,1.602922902306924,1.5903666464662722,1.5963634679955994,1.6840499989736653,1.5657432300897285,1.5204401824774076,1.4935197809590204,1.5593918445660242,1.608980909716308,1.6218116914478344,1.6435376337326069,1.6502748644113447,1.6419280678681234,1.5808143236865813,1.526377631192275,1.5260386685393879,1.6575171786655953,1.5071392849975749,1.494963496868512,1.4238272666617156,1.6202519613911357,1.6145540394239957,1.690331865424441
1.4802918313823943,1.4007987565808233,1.4086983731510403,1.4586364670030405,1.6061723604704843,1.5256544507018066,1.6006157763880284,1.5527261250662345,1.6592283875728084,1.5865049537374074,1.5665526508855907,1.6240760452540557,1.628495126552309,1.5846834503292107,1.5513869787321921,1.5237612017439672,1.583959942124804,1.6101606660108057,1.61375541499077,1.6362751373260485,1.5953276419842513,1.6573625225686621,1.5616977405016963,1.5562679896606975,1.5489935523931264,1.661084092014938,1.5561078671631685,1.4745898445993375,1.5025039265012519,1.651163628354896,1.6419322200499398,1.5884250316261634
1.438485721484961,1.3989268656330773,1.4889923834381356,1.4329800641140455,1.5866726985053339,1.6250387267035598,1.652148103719976,1.5836256090269907,1.631479153218698,1.6395026657458673,1.6400381509055337,1.6401481231147743,1.633557901075004,1.646938217844023,1.6466008626822366,1.6420761026479431,1.659073696225997,1.6615826338726074,1.6470146711765568,1.675205028305262,1.5803143110091178,1.6650417559849713,1.6060839896702905,1.5381722923872627,1.5741500031508158,1.657164175299074,1.5943318033985827,1.45730524671423,1.4774032953348069,1.6485571000682424,1.6220576188153257,1.4930166829865488
1.3605746839527044,1.4343977201605385,1.503029832634098,1.3775206362963486,1.5574208167660442,1.5678540244838814,1.6419513524496798,1.6193257892526938,1.6021262248850852,1.6094697514760903,1.5818324985868895,1.5658624061024586,1.7171299135351161,1.5720149400225911,1.586080352849096,1.5927384737858508,1.5926795828976132,1.582663637437638,1.5996007359887399,1.6026397305484792,1.6036654627324416,1.6181735989577672,1.5612838842533592,1.5316965555394453,1.5200807460742098,1.6347465000979968,1.5220137909970024,1.4842457498568902,1.3864423408111333,1.5414144838673545,1.5944053642781697,1.6049644150084208
1.372111813418479,1.4088223674514473,1.4811651939884862,1.3350560859644816,1.5073692641844108,1.490672894842534,1.6805881021557518,1.569468718109292,1.631977104420983,1.59598864165039,1.562909466062138,1.5646574685135533,1.7345058238540236,1.550202552307882,1.5048991035068047,1.5254417004514675,1.5434148674472965,1.5777038469970015,1.5724141527002826,1.5873150078991027,1.6003633770225014,1.5817082322516152,1.5541165433431197,1.5677206866139521,1.5387575232833044,1.556618998049231,1.5299668687862078,1.4587049209768392,1.4308162875845423,1.5359066861698887,1.5605722636036095,1.6203753289795852
1.3770384884924902,1.284982301762613,1.34472559900642,1.3829906539482983,1.5088452800392882,1.5266410737742853,1.584408661639734,1.5615911745094515,1.4824474352693564,1.511916549168643,1.5727351136783576,1.487134423079563,1.6570620950958004,1.5011966145472926,1.4923353303926918,1.482250802910719,1.4959068124534196,1.5374213452401533,1.482268842722897,1.5590210800718751,1.6895763453104913,1.6082663956831698,1.5517198707494009,1.5678927274757641,1.5365502571671932,1.493045933034559,1.4851377954133913,1.430217947779174,1.4347030908901701,1.5630201475964887,1.50971450082787,1.5459849464797366
1.4114942110529012,1.3495759731238712,1.3823677276350592,1.575186459164012,1.5644809691496728,1.6179397224036032,1.548025861393859,1.4937816575773608,1.5249213764586529,1.5406318638466905,1.6074658426348818,1.563725378990821,1.6394874172811382,1.5826630523696135,1.5723876249516056,1.4962862086986306,1.523470401003038,1.5563922372500796,1.550629410894424,1.5523505011815193,1.675010761226859,1.6132571038071368,1.5647869623814479,1.5039867058148915,1.5446246228300222,1.5097231923180514,1.4628497237386908,1.4741919773621943,1.4365399899211122,1.5481516759379885,1.5519148722267886,1.5685089322849508
1.3957605784670652,1.3980191842633882,1.4286969991487166,1.5764813391956654,1.5801644281139182,1.622916473783173,1.6686280556288007,1.5605008025995915,1.5238826983967382,1.6070002708452809,1.5990774150577625,1.6204954820175492,1.669647842415649,1.599099406090144,1.618011463681735,1.6152760806847286,1.634809491840415,1.6314912484135085,1.5973889186620465,1.6357460150668846,1.657527972317114,1.6149546103079333,1.569119117807587,1.545198678852873,1.627481509807432,1.5528128882464176,1.4495131402165395,1.5029958580095213,1.4098466544747499,1.623518304406978,1.5765385821867541,1.560422022083045
1.3141074379295847,1.3475551139300268,1.331763322337236,1.438546482455662,1.5416974790762616,1.5465237915464642,1.6316287478914395,1.4971302913922704,1.5659221312608407,1.6041778595776788,1.584384970435131,1.5764976272834994,1.6606155715052504,1.5339245161973385,1.5441287514975122,1.6059952837861118,1.6149470476127843,1.6340382884240228,1.621786085195894,1.617780339102588,1.509004687366769,1.6267203792193212,1.5827224750521367,1.5617579177492817,1.5561515030923776,1.605246765278899,1.5066468602761958,1.4757467619030098,1.3897471010395426,1.5406300940979605,1.508541549089891,1.5781213804002314
1.2757593255927624,1.3079189633881758,1.3290198461065539,1.3955973113453994,1.4977419045670837,1.416914941440114,1.5435074824744244,1.5348452525166059,1.5544667155011989,1.5460133628494395,1.5232044469010737,1.5191678885286364,1.5274367082990326,1.5268488732333607,1.4767353364058173,1.469214679348284,1.4480260588385818,1.4719587201995696,1.5007725698054741,1.4298859102127885,1.5675982108769895,1.4948113490334602,1.558937769440195,1.5307053238081159,1.4927794784504305,1.8638997512020516,1.5034949126606536,1.4760251619885483,1.3894016168159853,1.4445530317852058,1.4968759654293022,1.5395986364790064
1.3331389991140536,1.3142883471964255,1.4751857454064234,1.4309737329115737,1.575483789968041,1.453618045224376,1.675886052844313,1.6252240411270302,1.599841646030623,1.626453237523145,1.6593926918657773,1.6408888270225117,1.5576092093698113,1.6373746453305429,1.6207804299053803,1.5889603547654485,1.590347168867028,1.5814146483215687,1.6396775428119164,1.6626213621883765,1.6218582709698885,1.573820209369835,1.602411984917027,1.5828170075109276,1.5691844713033025,1.8141466649043152,1.4877103557370237,1.5030382989214648,1.4108598604990654,1.6013431491391041,1.5543974910305263,1.577719330088225
1.450750792926366,1.3212259977029228,1.4958801033595552,1.4280498493479867,1.5923899287482814,1.5383857150645035,1.667261232623307,1.4664911840766868,1.566588754506544,1.5758214500096548,1.658017672203533,1.6108241247904997,1.5018250283471082,1.5872851852322498,1.6148004047053957,1.622796630332597,1.6627111268751469,1.6318166995564323,1.6612495288277278,1.7249856535779338,1.5800668473041704,1.6627544844064843,1.6197964922905397,1.6775048634833547,1.6389027548205886,1.6528983156674686,1.5256317091376146,1.5295264779499953,1.4090908370719393,1.562455290344694,1.536923134714914,1.6059601173503653
1.3816353805694066,1.3022724798748313,1.4833104499206244,1.3853327390753243,1.5637770334390433,1.56867611086691,1.7021097816579775,1.4927731294804871,1.563743365532726,1.5950156402755578,1.608155798475525,1.5773080293249888,1.541946267983414,1.5534733223044521,1.5884230460909323,1.6089377745785647,1.6510398731350582,1.6396369871306513,1.5999645317700368,1.7097553806072223,1.7147193089150021,1.706813904739737,1.5821517648426342,1.6481408223410279,1.6403069231937653,1.6135185711479978,1.5666576162118382,1.5243312289755346,1.4178403884154325,1.518482925480628,1.5779856962559227,1.5769451054017725
1.3593992639909447,1.2688598607028012,1.4001561015352728,1.4025083736484347,1.575220926249526,1.556400038309536,1.6227225130224958,1.6364808808296167,1.644927578756242,1.5714392757426854,1.5281703185418098,1.5913002379660317,1.5661302466088036,1.558949614848949,1.56698137126401,1.5943289090603303,1.554189745037949,1.6024588281265661,1.6227952573563487,1.6177796574435839,1.6574192630630777,1.661958233704798,1.5980780179720129,1.5800594993634618,1.6236415369670154,1.6227935231459738,1.5499159156750042,1.402898712153275,1.3688170939699111,1.5085127729934775,1.5700798011079278,1.5922275920933602
1.394543623329878,1.3074653229574684,1.4268665817517505,1.4286691727733158,1.530117929916769,1.443221646670805,1.5393702471206783,1.65154680834923,1.6746396411031204,1.6135229493833179,1.5378361849141549,1.6477642114016986,1.6277439527808653,1.626387062447807,1.561845977568456,1.5385749486440454,1.5439972658494607,1.5908708392964432,1.5791185201089348,1.5693194820872265,1.552188402528657,1.6222600865786285,1.5464123677858337,1.5032258657860038,1.5119886414602677,1.6127990863049395,1.4681259113718401,1.3807338185489044,1.3225573069788534,1.4197421959418428,1.538676202730454,1.4970989697016976
1.4453606760073663,1.328541830971756,1.4404828349478371,1.4114230113393513,1.594824785348966,1.5161977101219961,1.578933357588922,1.6417810945184304,1.5535292257861102,1.5869630938777228,1.5450509828901833,1.6102403574460264,1.6469468140103312,1.604659058692282,1.55518096539313,1.531504660341125,1.5707324912555265,1.6221551811011623,1.6274569280776898,1.605767048328088,1.6147185212319048,1.6523577094507271,1.6529044860995554,1.5480828299880147,1.5343426188067535,1.6430101903156653,1.5230466304771144,1.4266457100132075,1.4567515866599863,1.4987858110609598,1.6006444763123187,1.5879617589067592
1.5322187880364644,1.3478159489887884,1.4311653082457936,1.4329147256246506,1.6178881488984387,1.5108031382915619,1.5978613116730322,1.6894986677679922,1.5824485006426523,1.603819538966607,1.6279479965726034,1.6137102571160653,1.612379531801418,1.6078571308769722,1.5633975047974822,1.532440606377508,1.5470049345028214,1.5874812349236884,1.5688797772832384,1.567232646527182,1.5362891845016011,1.5779638391492943,1.5903654371883815,1.5465596486758797,1.508279982330612,1.6435928219417495,1.5487805301685256,1.4482961975951922,1.4935825311765856,1.5642733921949146,1.649327057489321,1.6205110875105417
1.4797166478978305,1.3223346393366597,1.4523340314729374,1.4006657131412157,1.4760085754563892,1.5027155012472226,1.6531260205105773,1.5732144566426833,1.5486249838392343,1.5880920841124981,1.6597086232787366,1.5545146513096875,1.5798974135242223,1.545633744946498,1.5353664105970013,1.5606987574009967,1.5191908861741197,1.546967025982858,1.5202022468597296,1.5555102906645646,1.4964751186420864,1.5393575957307732,1.5347924960330634,1.5458776710930362,1.4894259157887884,1.6341954474546625,1.4245537082932602,1.5305443083928367,1.3813290750029525,1.5410343543123994,1.5135482450442161,1.522101751623771
1.4025591684844598,1.3373926435104482,1.418516202072563,1.385296739207512,1.4980573403571449,1.5096004009517294,1.6006633135427915,1.585471029037456,1.5259153200490854,1.5505640733184554,1.5594620271838247,1.5214781111806177,1.525586872332834,1.5413334859330394,1.5331417673433534,1.5309207708154489,1.5109414919865336,1.5491493664596647,1.5736338641585266,1.6078541057269318,1.5407159095049519,1.6437513391789185,1.6124611898378667,1.5940409182662196,1.5784407016214028,1.5865066724180805,1.45030804689847,1.4815486423614965,1.4125131697439417,1.5222490735580914,1.478858115279553,1.575191951747608
1.393050213211843,1.3748872982607607,1.4211928938325218,1.4203623672940195,1.5401233925605016,1.5635386791374948,1.654157085945481,1.6303367409509046,1.6137033068338316,1.6171196492707354,1.658481232953182,1.6371360887378208,1.553894350007405,1.675188283660317,1.630883609447777,1.6074272433138306,1.6091309569915802,1.6218373880597625,1.6184429701954857,1.6559277622108464,1.640223735272661,1.6997841781052776,1.6717979343649974,1.6406035542178576,1.6303776728656145,1.6106137840935406,1.5248763827065233,1.5244654752472344,1.3959606970531317,1.5583787114647323,1.4971710911581748,1.5861795452060015
1.3636224867818412,1.321262226798466,1.468714896398743,1.4254271091664772,1.5778539080410636,1.5468339207866408,1.7114753397613789,1.6912754214189527,1.5901658689850577,1.6242194894854587,1.634819840722013,1.6192655327851422,1.5841809618169431,1.6381513531125178,1.5525094363622793,1.542897984800933,1.5206385664655802,1.5668710390811407,1.6069449722516538,1.5902703114777315,1.606535642399906,1.7155744662604684,1.7272249105424233,1.6950897669590965,1.707310550591814,1.6357613162519111,1.6024178165721081,1.5415988216229994,1.4441586221068097,1.621122675371251,1.6141695919187742,1.6103220579885449
1.4001736511142124,1.2779819942723956,1.4932552690947112,1.4014093848570923,1.514954826911914,1.604784903917774,1.7114247301329297,1.7146034158784806,1.6116126413464893,1.5827009441040152,1.5952138822693616,1.568365947218915,1.6114849877682962,1.5933413883171526,1.5344836576311056,1.5069213546073439,1.4832504366468489,1.5283827937539987,1.5603076626699617,1.5909282138432776,1.5423872490420227,1.594672777535737,1.6182116400415392,1.6306929902390017,1.6911091876506033,1.566866638372129,1.5678779166555232,1.5724244281565838,1.5242280605551302,1.5738740567825351,1.6309655652203623,1.536833011025869
1.4220059875928426,1.2648686639052527,1.3485328124528204,1.3521926018840065,1.4497905423214708,1.4715817450658344,1.553647611556024,1.5931711796851766,1.5246661078899697,1.488303840775349,1.5160280298954742,1.4502140529563377,1.614385553086183,1.4338887335564754,1.444111940709615,1.438176127243711,1.439094309851521,1.477670522365075,1.5105438800011108,1.5396981564299428,1.54417178879467,1.5388481758122263,1.570677614175128,1.549495459339561,1.5876359613759978,1.5573034475501795,1.5737230704628393,1.54905185060659,1.5062548363719452,1.5354106340683267,1.4891100686054837,1.5269370571848828
1.2762849189879306,1.2881004059875836,1.3568697486327346,1.3229803493670467,1.4542718628792475,1.4368811967602906,1.607121093310602,1.5383684830428184,1.5138958640827362,1.5167159302766091,1.5051581010258641,1.4669974915696462,1.6315378112783854,1.424275244795689,1.5523544629091262,1.5308656494852868,1.5234133340142293,1.533310428211476,1.5777388012325666,1.5831290978402288,1.668388798459228,1.5603417628686957,1.635153024682821,1.6427875547007331,1.601319439692681,1.632173346186892,1.578246777057263,1.5036504997600297,1.4469998385698224,1.5186049205587677,1.4858517073620707,1.5649251125782602
1.3310681599006222,1.2039530193288164,1.3509305890251435,1.3905002792305179,1.5019767090774712,1.4605253955824555,1.5315196673417784,1.5162427338817857,1.5316094942915135,1.5149485408456778,1.5292276474655393,1.466008770611989,1.678250384640949,1.4271138848491973,1.5014137801336596,1.5192970069739133,1.495300855976179,1.5244024874878699,1.5301799944219705,1.5078255649232915,1.646871575528104,1.6010733101402224,1.5949779242546258,1.5401187128063991,1.5857041824887177,1.5694908493117459,1.4990686346578732,1.4880700857523697,1.4353533598372539,1.4748840726505286,1.528492789042834,1.5833077705340244
1.3026080861854543,1.2528325309145827,1.3760665526622853,1.4157306187124719,1.5518075530009112,1.4948137311353995,1.5157432423876762,1.554477683646753,1.5758600358712989,1.4881154525672435,1.4646507980041636,1.4763021209405658,1.6599660700360048,1.4348315300315269,1.4142027276780218,1.4491741842489025,1.4674882086313858,1.53802033013411,1.5104843862963901,1.5537116144008525,1.6263620701779251,1.5484324240379836,1.5692869889557692,1.5685680304353207,1.617663890808527,1.6146666906725897,1.4986425946527226,1.446575660639024,1.4062601129356347,1.52067717323052,1.57451011021001,1.5755434698546622
1.2701813180592119,1.29330223568223,1.3337381771508963,1.4806804155375684,1.6089974763003887,1.4624162606129887,1.543135117881077,1.6547644052447719,1.560904579958983,1.5616055004947529,1.5016622043753853,1.586416248610352,1.572167804813015,1.506324614864748,1.5319269038913528,1.5305190490962,1.5070650530951661,1.5497998098607004,1.5102430277367498,1.593613914107719,1.6274282592959715,1.539405427607275,1.5826145882896738,1.646014221745978,1.6200047531830382,1.6060643781372705,1.4694232789299722,1.470589732796348,1.3590759579988767,1.5478304019245435,1.581300503139606,1.5224399369560855
1.3872974078924307,1.3727316703454635,1.4039172099089827,1.5164361063535698,1.6473929402540086,1.6098264291860611,1.5476341213449896,1.642581966097469,1.58803550050425,1.5861440466307462,1.5566542293665862,1.638899846979228,1.6295659248395227,1.6367903596587994,1.5796613931163583,1.5265665812928602,1.456722513218815,1.5400996002643546,1.5639678375697164,1.571944002264563,1.6551786388977099,1.5306657761368685,1.5699125789771684,1.629314301297044,1.559262330027192,1.6182495949323052,1.5107414260363332,1.4990767459384475,1.4533065880411702,1.575760098839656,1.627194002836146,1.5727687937960528
1.4005079401567386,1.3657713800001492,1.3895178800304409,1.4229822461629515,1.6007729957919623,1.5528699618229094,1.595458929632131,1.5655643721840324,1.625344578813308,1.5648251875595574,1.5827826752930059,1.6049212476314687,1.6306788317320762,1.622446826842671,1.585136294163323,1.6023233676197584,1.6125056480145805,1.639489394667445,1.6543524628887325,1.6356221620800306,1.6613334324757567,1.6905944248079205,1.6506665636840667,1.640481619376584,1.5851455481064278,1.6359687073641815,1.5981440073392599,1.5723849013453048,1.5283779202780052,1.594998422699194,1.6166755906191206,1.622683136622526
1.404830911998564,1.2988564137826208,1.3345550748352992,1.3339070857553728,1.4874145697373569,1.437720768629016,1.5608823203233675,1.601045364603513,1.6161344640859414,1.5435208968901342,1.5193692792716262,1.510770519714201,1.53431599274838,1.5307951223355414,1.5105159897591363,1.5270501893045605,1.5526109496523104,1.5385698070972424,1.5832465860332212,1.5813307253178148,1.6511970822653006,1.611520658835981,1.6293318276205748,1.5326920823188983,1.629145094573297,1.6888081605284293,1.5751773751138405,1.498715076010704,1.465348643209608,1.5629727511760108,1.5320039214457044,1.6522957827452367
1.4601352070087492,1.3639020779496067,1.5329570652781948,1.4413669669629523,1.554295606424042,1.566398841893381,1.675764826033509,1.5923076561013692,1.5962131129756354,1.6068490425210518,1.6365543726134464,1.5821535924500887,1.6144162426391981,1.5974129897311051,1.5951522202792232,1.5827965410226486,1.636707409679462,1.5957597098147303,1.5816522877938362,1.6305285708020922,1.5978783286443428,1.584723796561051,1.5801969911249212,1.673911333407804,1.6209657817964653,1.6035636482101046,1.602927038878063,1.566398862351432,1.5432140185301448,1.6477192589402259,1.6102554924134984,1.6001507063716245
1.5871968279054576,1.51841485772076,1.5780246946886856,1.5806089410490407,1.6449190760432741,1.6559487015587229,1.7032023957793299,1.5150462781390188,1.5732862440432245,1.6773664573701832,1.6800158248639758,1.6329396687586688,1.5908982912757703,1.646804359885942,1.6166966662843811,1.5979678771094512,1.6453072069949153,1.6187988443411265,1.5784448308114412,1.6676189898679985,1.6275533591871294,1.562914661520603,1.5708077877015423,1.7576421864287872,1.6187682549198101,1.5668129675804543,1.606754983532692,1.640045786996546,1.519296732376562,1.682252252695441,1.6586175569170343,1.5372628197701237
1.4775554498869066,1.388092968575565,1.464763003762756,1.4291306122942178,1.5255001107981925,1.5412137594877222,1.5952359133190697,1.4929731704003117,1.5443546074534058,1.5903738010961417,1.565574416507129,1.540907005350413,1.646264998447697,1.5533737479147947,1.5066081109040228,1.5005896144710165,1.5082939848522363,1.523541626163785,1.4781715053669722,1.5468284881926493,1.5940634715942517,1.5984919299579754,1.5576907765292267,1.568232203970412,1.5615930983609754,1.6062072053465424,1.5506708020122406,1.5774391097253773,1.4445402866351038,1.5651022759301858,1.5257915213341513,1.5847724155567542
1.3925038523504447,1.3967404595461073,1.4267716372091295,1.4712306443991783,1.6277521648256152,1.5549965484999497,1.5868711197921572,1.5870719972769485,1.6167244817493698,1.6264881796168194,1.625097204796808,1.5879462569225256,1.6717032861367103,1.5880447773395756,1.5607916411623808,1.5735860545767293,1.5796101672775553,1.574428359321486,1.5644416182674485,1.6054744531850536,1.6185609791990756,1.5914139289414106,1.566171795957515,1.607274372801135,1.5862500081366655,1.6119392437590567,1.5042601939610356,1.5678470827399706,1.4210021944821192,1.620891640542693,1.5878777124311327,1.6054140199553502
1.386201685212689,1.4056924784920128,1.410058483258645,1.480622810617108,1.6686808532502944,1.5836272441101125,1.6548584051809005,1.6505385735228486,1.6214922856466936,1.6677016050909212,1.6865147111595904,1.6384973456623075,1.5931765650752985,1.6113132412322975,1.6041850186162747,1.6446836901735413,1.653118515566805,1.669566467535497,1.6606700150430305,1.670212985219484,1.6653568815460436,1.6339030764683575,1.6322942549551027,1.6455930906712297,1.5511038144263358,1.624693210455792,1.477385274296823,1.485002051292836,1.4206117658553985,1.5796419093112517,1.585213580505271,1.5607833354639127
1.3830931694789588,1.369878260070946,1.4046339407473079,1.5113701088219405,1.686790946811076,1.5375437767167728,1.6777166715153564,1.6683343324146447,1.6140839490768824,1.6928936731176296,1.7005019862107833,1.6617290940073275,1.545435507180706,1.643264972673601,1.628316027200583,1.6735431030281374,1.6827968102981974,1.693259584880747,1.6613332101225995,1.711695244804064,1.6793786575484342,1.6418420939412246,1.6604903163024132,1.6496388814421075,1.6305900583498885,1.6641187662451273,1.5460700939651195,1.5533919604930357,1.451464929473079,1.5724240979852457,1.6410067244592252,1.5833356234346576
1.4364925263378951,1.3078296755475127,1.41368148892507,1.4713644247449844,1.5507554867430366,1.4975028499739789,1.6050302802204435,1.5341857690701037,1.6329495365729478,1.5886887261279998,1.640656013276293,1.6059491549541223,1.6815421231398913,1.6340791597355564,1.6218572058577545,1.6260259237291501,1.6387976997054066,1.626945082756362,1.6374093092709197,1.674337672025364,1.6208246892562113,1.6259212062022166,1.6745477332711518,1.5862605372188892,1.6190743154737088,1.6490227169992187,1.5505749614933766,1.5215498923388502,1.5153481290126345,1.5766219939127875,1.5700872031439639,1.484282453949418
1.4926299255538362,1.5247693459447498,1.5026056429019434,1.624836415645073,1.6707866936012545,1.5705645467607192,1.6527038430813685,1.6601550681548944,1.7281929313026236,1.7125609553443386,1.733007590471644,1.6646017501431136,1.6927977567454424,1.6772579952398587,1.6669552697178505,1.6414827588464287,1.6091124438304445,1.6604824420344875,1.6668345915566236,1.6592617130007732,1.678682572049669,1.66003078871261,1.6088779841120524,1.5680465695246082,1.5448651741972923,1.675625329242968,1.5748196594166466,1.517308007270008,1.516623569991178,1.6149495037081127,1.678663702177322,1.5498278407370794
1.514857481837766,1.546767958357204,1.5156775275910346,1.5875640846734067,1.59941285030564,1.51340744389894,1.6192636256672037,1.6386805324305014,1.6723493361562116,1.6612610344941339,1.6654736254502718,1.604321083214351,1.6743618817705785,1.606519991022096,1.5786661798556234,1.5814660537275205,1.595469452234535,1.628740774713011,1.6051021418362537,1.6477338109441713,1.6152937653464416,1.631046457266736,1.5758602494994163,1.6039315485666223,1.5964307348122162,1.6198015555459795,1.5802666313077673,1.5257902340159482,1.57278751790155,1.5814578098637275,1.6700267132425624,1.6081770363937065
1.461147218215308,1.4423896883676866,1.4322424008226462,1.4669267732560276,1.5714453320631248,1.5434645937803957,1.6529178030172453,1.5970251808793472,1.5868681444506356,1.6182734354451438,1.6095859223105726,1.571728853198463,1.6245354467387725,1.571742867392675,1.5731875479288413,1.5623332926295612,1.5626348331265039,1.582944736685553,1.5952718226166043,1.59857642436229,1.559814858845312,1.6606361117248238,1.6185428553167391,1.5786561525026737,1.5820095030417554,1.6261944504468107,1.495461563501315,1.5163374669958378,1.532326587226577,1.5799072393647147,1.5545928025940285,1.6574514155672448
1.5268371407337546,1.4026911068948007,1.473538078857103,1.4281971572430867,1.5596627003813732,1.583648081435053,1.6639851175570592,1.6984726716141474,1.6231060489807898,1.6990783366161624,1.6899080317046458,1.6437877325889978,1.5921813694067497,1.6311850685446656,1.6648655692241496,1.6127028429010948,1.6098167144320676,1.5677163396515592,1.5909249185230427,1.5940747564794728,1.6288598076266012,1.698800639784642,1.6802250045636555,1.578533462351188,1.6024288202817123,1.6663018007712425,1.5333515643893498,1.5534488335728325,1.4912262388671782,1.5638093561623905,1.574662129816795,1.7070936250868443
1.5516474258296409,1.4028173849805898,1.449478196916708,1.436730827097022,1.5521599800636827,1.5147111507588324,1.5643473570122464,1.6525546880180428,1.606205551548367,1.5933425921596518,1.5878279049338437,1.584680230793004,1.6797242774813004,1.57188802530061,1.5806272184877321,1.6330366855327192,1.6485627853112552,1.6949711440609916,1.727739056270733,1.628723963374933,1.722747182073231,1.7663639551446029,1.752171418479719,1.5801600661625435,1.5882810228016104,1.6839208341628902,1.5643487409977064,1.5115325958993058,1.5058496781882762,1.5278532707131494,1.564450462295626,1.6706462097820067
1.5277853165557442,1.4918437302575727,1.527069910845115,1.517134967513021,1.5773067243514174,1.5749785633614812,1.6146626045792463,1.6660707281759226,1.6952631624370458,1.6500718666503567,1.6252670801223223,1.6111244088313568,1.675651361821469,1.6296849183479132,1.628276360897976,1.6568056547189929,1.6554683178205165,1.6975791114828136,1.7585732954019555,1.6762218867480985,1.7244199766027017,1.7535911466340761,1.7846487346893343,1.6292616525648629,1.622526500890368,1.6886272448631183,1.5485016576124042,1.5532630878324118,1.4812541412756406,1.5591464352863118,1.5729159568268876,1.721576980830872
1.5171226249352434,1.5072090560834708,1.6347632909382737,1.654538426459678,1.7122545274607388,1.7054126387244735,1.7503750166760037,1.6735848337235315,1.6585171871598148,1.7508176941042626,1.753285110116717,1.6663259882514085,1.5994705302198935,1.6307544317237512,1.6396169437299377,1.612314695237653,1.5990879964552236,1.5640228675832282,1.614640678982349,1.6484172627279108,1.652023530360869,1.6788781980413143,1.680733271121591,1.619087406925499,1.6444482924095938,1.6837325967933632,1.5907563396947462,1.5843032505572776,1.487115353542729,1.6463223847977873,1.6767904393927966,1.7154326082732945
1.4817265235547266,1.4635578154426607,1.498003401761747,1.5743617600616224,1.6433446496998658,1.5786885145719893,1.6725189495246888,1.6215249060616075,1.6621427469809007,1.7382452074510906,1.7540265852449055,1.6827087417834072,1.5951191166821763,1.6710607932157868,1.648191114609468,1.5993418108298958,1.5941086858550841,1.5534285425034837,1.5520503693499965,1.5604293653696646,1.58895925055676,1.6182137473822762,1.536935478704592,1.620480277148878,1.6160870561511291,1.674291080938636,1.6076206883174615,1.5570434485698537,1.5333497846592452,1.598605782624508,1.6402345953619775,1.6803403365530916
1.5031316518254885,1.4402476437720466,1.4790837972140993,1.5074718212660143,1.6961242287950484,1.5922324577290845,1.656436751350526,1.6001651381823017,1.740783161247957,1.6914102855963316,1.6985891894708942,1.7018981531281134,1.6858980798634577,1.6860552881271071,1.647964245957397,1.6186696726629317,1.5915117563153258,1.5941342757122252,1.5577745385057993,1.602872896037598,1.5561589865444423,1.6064427975031532,1.5257282499528446,1.6376359023973495,1.6420486871131932,1.595157664695285,1.6455156058721139,1.5588203718567355,1.5874832210780387,1.6811842281651677,1.704968813869317,1.6130210264629372
1.5366844082429294,1.4518917739645139,1.5244775918597289,1.5508335944930567,1.760225978681944,1.619339761305681,1.6621190731246274,1.6793433950474739,1.6847002812414547,1.648176286786464,1.6400182611490015,1.673794469488648,1.7139383097620005,1.6503973521734434,1.642491160867539,1.6492276740508922,1.644567263640265,1.6703767938913838,1.649773990471879,1.6432659062437214,1.6133564860249088,1.6555430456693925,1.6594010848196445,1.7091146028133397,1.7009775645568002,1.701909283009472,1.7083656701296817,1.6059919025438476,1.6641249893698564,1.7529632306620018,1.7890995116401145,1.5830547367785455
1.545378221857846,1.4566581318102034,1.5323118598834649,1.5916197273281467,1.723533066936672,1.6212688034025446,1.6315075488234327,1.705295025471207,1.6773055353750388,1.6873214125389493,1.619198763094171,1.6470919497486118,1.689986889155188,1.6471019639065128,1.635909063578127,1.6043848524092126,1.5848051801532281,1.6080164304321456,1.642506534921117,1.57882804883354,1.6193936161656044,1.6800529110373117,1.7091042815560058,1.6563917188668384,1.69709220308986,1.7245976468295123,1.6699217769164778,1.571306456945469,1.6665329650327796,1.7085372080091383,1.7475102680978936,1.6291180775933112
1.429824463416748,1.506796728472356,1.5474333665701479,1.5991481581941647,1.6307379751345237,1.6185162926544339,1.6220741813636792,1.6432890363090675,1.6470109355802565,1.7026346191588662,1.6689482445978772,1.6426448843374646,1.669666093426422,1.6605275210439872,1.6650058284207299,1.6557436843091857,1.6533786590970823,1.70715245248663,1.7116042322459906,1.67996704300181,1.6595895104198146,1.6904102787179773,1.7202866603169482,1.7147485210842652,1.6457136763110536,1.706077930496179,1.5554649662576074,1.499663115332695,1.5021083394742556,1.5565192403237635,1.5679722035196113,1.6864069169140847
1.5350302531499171,1.4938430875036406,1.5236945575388623,1.5760742686265183,1.6796311292170067,1.6147076696398879,1.5629372393823253,1.6581481153164885,1.600622744507699,1.6033925632399848,1.636426644339819,1.6469083392132293,1.6643369768659024,1.6610034979490325,1.6347494349168872,1.6309869659412988,1.6209426829367317,1.6890978139452013,1.6975283669217103,1.6272409958171006,1.651981015416352,1.677187350753798,1.7096404663009197,1.7254650508491904,1.674941516439555,1.7131909066295166,1.606101476933814,1.5412127582564492,1.532733598367624,1.632214932160562,1.6579091972262923,1.7055191624227473
1.5128579492262704,1.511015361468938,1.5066783688902625,1.5299792047603782,1.713959288508802,1.5720652981525927,1.6190526722417422,1.642340233656244,1.6686196484762372,1.5851314372906407,1.6280854635497055,1.7015098725623703,1.7200049912924011,1.728709327566831,1.6982993339343475,1.683611215239114,1.6558259721967772,1.6969738403177062,1.7012103201416007,1.6395869313732028,1.6858978026172309,1.694991042083365,1.6195296571313522,1.6817313203675326,1.6613991332780609,1.6569255726436893,1.6273740253803888,1.5072812081021911,1.5701362421218052,1.6590854108202857,1.7269235113852341,1.625643494243963
