Fp1,AF3,F7,F3,FC1,FC5,T7,C3,CP1,CP5,P7,P3,Pz,PO3,O1,Oz,O2,PO4,P4,P8,CP6,CP2,C4,T8,FC6,FC2,F4,F8,AF4,Fp2,Fz,Cz
"(0.17604882386222415, 1.867160304752016)","(0.2430158025828384, 1.5521825961378997)","(0.29034196432823284, 1.4632294802954624)","(0.20182961182910888, 1.896525614917852)","(0.1564246946507859, 1.8432354194581722)","(0.22866868203732155, 1.6523931803909484)","(0.25955940080350265, 1.490568213943327)","(0.16348734757426234, 1.9829117206017062)","(0.16516521488981706, 1.7755427604373384)","(0.18347471870809356, 1.8264565608336112)","(0.18285074543296095, 1.8843825308008588)","(0.16489450912531928, 1.8983676332099062)","(0.16960098012140457, 1.6773442213798884)","(0.14915465087042634, 1.946886016675068)","(0.16309573644962477, 1.9072395864796972)","(0.16282307489930348, 1.8609328638568656)","(0.16437562944531425, 1.802431913281115)","(0.1569567959468479, 1.7766496993023526)","(0.1601792642510903, 1.6985138212776205)","(0.15447951702998847, 1.8997648166456622)","(0.16216963214632682, 1.7191459759134364)","(0.17331408139131707, 1.563329125858334)","(0.17415313590729165, 1.5412612033468156)","(0.2263656998487596, 1.7078430334220678)","(0.15980056197566317, 1.8446152278770784)","(0.1790254279379, 1.5543432762690343)","(0.17935432068900586, 1.8700696154787853)","(0.18018678444957484, 1.9900202036381018)","(0.20621910944271907, 1.7541937384083082)","(0.17069147034493837, 1.9063418192759116)","(0.16157857318981197, 1.7196048930340662)","(0.17575618200727963, 1.5324892856723973)"
"(0.1878559660192717, 1.772085594994652)","(0.24553311284770266, 1.5068138354522622)","(0.3050290406026519, 1.4068208107176303)","(0.21310685221150816, 1.8048307382039732)","(0.1707698643479465, 1.6399265566771477)","(0.21944626366616007, 1.701975365446451)","(0.26110825113434666, 1.4987919700661987)","(0.15273659195515768, 2.060813102058082)","(0.1676873287153028, 1.8250708592900533)","(0.16053781273692622, 2.007612185996029)","(0.17665129475432534, 1.9393310961980776)","(0.15573170939954809, 1.9830444960134572)","(0.17235218737833585, 1.6942055826844726)","(0.1476357920725082, 1.995945531221656)","(0.1640781468953505, 1.9266500398478839)","(0.1622666502455461, 1.9000293000256003)","(0.16309824293478065, 1.8663485776482185)","(0.15702140400511005, 1.8091346455265558)","(0.16160976109063832, 1.7015945288234267)","(0.1499527647949517, 1.939264275521468)","(0.1640978682284657, 1.6941179841075662)","(0.17825792080475159, 1.5560399908922191)","(0.17845830067311802, 1.5177568469741431)","(0.22363878487621086, 1.6797939864976643)","(0.16116617705310332, 1.8264362910850462)","(0.18474541309459383, 1.501148809116282)","(0.18730815697771663, 1.7738977249242571)","(0.18423060382909343, 1.9548582635282126)","(0.2140969126557015, 1.7168560571744433)","(0.17335347674511326, 1.8603947337053808)","(0.1740594521629573, 1.6259632642094546)","(0.17763240880472067, 1.5116125843114756)"
"(0.16863819725709675, 2.005071496903252)","(0.2357695152478858, 1.5493384672150607)","(0.28801691060771334, 1.4886925343424051)","(0.22164316283974475, 1.7429065462066426)","(0.17717948385146026, 1.6082886544972883)","(0.21198111947487117, 1.7189805500550195)","(0.2531783310469393, 1.5741877533424888)","(0.14805292302521814, 2.097244697183973)","(0.16312555091271813, 1.8387447152825533)","(0.1495425498081702, 2.0742124106483475)","(0.16300319792482326, 2.097674351811481)","(0.14470149085957054, 2.0287988292324206)","(0.1563988362046358, 1.8554978573804222)","(0.14124890950013172, 2.081810520925642)","(0.1579875456114614, 1.9846878893992665)","(0.15486512480286932, 1.9854626981791526)","(0.15756157511426822, 1.9524598366191417)","(0.15188708023687067, 1.8445113651448706)","(0.1567865118684187, 1.7098731578179795)","(0.148546651729484, 1.9051304212963982)","(0.15959350878481485, 1.6839408515347765)","(0.17250869071325933, 1.5645373120182384)","(0.17574983594961144, 1.5164297091401928)","(0.21780481455122225, 1.709661520035644)","(0.1557238154381788, 1.9109714344667679)","(0.18219268913657638, 1.5094858649395069)","(0.1879808503274506, 1.7712251855793046)","(0.17802925882551202, 2.044699200849897)","(0.21266442197689372, 1.7395831417004224)","(0.16238547350853905, 1.9159653537738515)","(0.17022316227935014, 1.6619298806842384)","(0.1739000881567043, 1.5294939018622309)"
"(0.16715943773848244, 2.1100414608380076)","(0.2390439096166115, 1.5745510932891247)","(0.29587698910780436, 1.4653226483989035)","(0.20065565825635112, 1.8621935923771475)","(0.17189585989217568, 1.6719584618697318)","(0.2117740118564951, 1.7368596337281033)","(0.2720770530652862, 1.4950737947187736)","(0.1477509644122565, 2.1150115364640523)","(0.1540178674737939, 2.0345583285342896)","(0.15159591938511252, 2.0886230252834523)","(0.16454754912982625, 2.1252105466502536)","(0.14338932161884824, 2.097246664515262)","(0.15275245445360788, 1.932457792370406)","(0.1398315274278322, 2.18368516702028)","(0.15691466508423363, 2.0525832698282245)","(0.14676787546193631, 2.103817037359339)","(0.1525820230347486, 2.0701476025217627)","(0.13768826362018988, 2.056759433037416)","(0.14616215098433016, 1.8352875567656037)","(0.1403825724695104, 1.9774130619027368)","(0.15270516490915187, 1.747453112576754)","(0.16424693351039066, 1.6538948629270096)","(0.17394084571691268, 1.5494113154050593)","(0.225545344452006, 1.6259335155279964)","(0.15192255330329502, 1.9497903687492457)","(0.18764333668088284, 1.5154008200558955)","(0.1930263020131118, 1.7448952451662518)","(0.17110910229125342, 2.111351444890627)","(0.20633858555281231, 1.8372450084056668)","(0.1627546442096834, 1.9270476656521993)","(0.1687306609246813, 1.7171538363990326)","(0.16834521514805437, 1.6323404645783297)"
"(0.17851923029714992, 2.039854882293375)","(0.2551606039124741, 1.4931121668578273)","(0.30765686505905615, 1.4131629846487668)","(0.20934524996701984, 1.7978661169377301)","(0.16809266018530067, 1.6453971644654504)","(0.21770174816013274, 1.725484088474154)","(0.2754329767123413, 1.4837545949826165)","(0.14661772885913402, 2.1105096109220014)","(0.15830160363538376, 1.9287163342217426)","(0.14711908150894915, 2.098246775628065)","(0.1592475283469103, 2.182543472960482)","(0.13776066694942507, 2.1417722352986375)","(0.15313821715162532, 1.8963417499956292)","(0.13587065178046076, 2.2742742341155333)","(0.15097937781075693, 2.105219787985043)","(0.14749778722497373, 2.0715336582941717)","(0.14619983102583628, 2.063109740824589)","(0.14045079441143063, 1.9924102959916152)","(0.1431106839192314, 1.7735863545732047)","(0.13529777811645557, 2.046205523331915)","(0.14577232535606027, 1.7328872266443565)","(0.16118548809531083, 1.633379587369019)","(0.1677821325781409, 1.592614648895282)","(0.22832807735767302, 1.6092012379488643)","(0.15364715994067085, 2.0077267127626355)","(0.17723286389189818, 1.5954727097714734)","(0.1936802188594509, 1.7333773786127855)","(0.1742323058318209, 2.0334112024787885)","(0.21912030260964074, 1.775341550045643)","(0.16550134485004936, 2.000908097748618)","(0.17245123284632277, 1.6814886066710573)","(0.15866751474915072, 1.732021226861988)"
"(0.18526822340043134, 2.0049183677867566)","(0.26078642670501456, 1.4412471533011522)","(0.3051722200166985, 1.4140866460025816)","(0.20788988374705705, 1.8159956294540727)","(0.17031536465613223, 1.643481918185095)","(0.2142385690227423, 1.7934185293728153)","(0.2667574545577426, 1.520692971990371)","(0.14563254664418737, 2.1041461849528047)","(0.15700381546579112, 1.8665528705967906)","(0.14699041820510333, 2.0867027442442874)","(0.16219289152072922, 2.119097211078196)","(0.1388916520126675, 2.0625856775089297)","(0.15676245055403856, 1.8442884108483713)","(0.1370076136276989, 2.1548106237921285)","(0.15525721277322865, 2.0086626885347583)","(0.14913606246930705, 2.0102482746643426)","(0.153435883359722, 1.9097775460205557)","(0.14476607716804982, 1.9724887612421431)","(0.14916916024367588, 1.7213293700337)","(0.1425628456521344, 1.9884829535347153)","(0.14854501348758645, 1.7677430427068144)","(0.16439664836629775, 1.6115296490311697)","(0.1748705218246484, 1.542097184950653)","(0.23997169947225203, 1.5382127375701196)","(0.1617857321250549, 1.932777260743068)","(0.18907816974228858, 1.5385323826028634)","(0.19698861935822268, 1.6859211178892446)","(0.18927429727337386, 1.8714689349946678)","(0.23358190905438528, 1.6901130802507398)","(0.1774497279250313, 1.8737637013505954)","(0.18066131085274048, 1.6697681240894018)","(0.1669903337701985, 1.7320731243804)"
"(0.1913842586851193, 1.9474677862354501)","(0.2671321743084032, 1.4128653942931306)","(0.31585038390713116, 1.3696486098204925)","(0.218628445082494, 1.7373273221327723)","(0.17574252950380437, 1.629853144651111)","(0.2053298192613501, 1.8130157293908693)","(0.26221924793275514, 1.5438014410416838)","(0.14385580496124797, 2.0434714022303333)","(0.1626247178688416, 1.8074666477667947)","(0.14741525827007174, 2.07533877970749)","(0.16611010310345273, 2.0841795912919023)","(0.14857714225332952, 1.963595314451695)","(0.16986143429827646, 1.7546972507038225)","(0.14567054578782068, 2.0661548387261366)","(0.16003675982532797, 1.9623680734373645)","(0.15082463095254559, 2.009111628577619)","(0.15236079605899053, 1.9521092654822774)","(0.14314516605642036, 2.0077606092841553)","(0.14764185312857564, 1.7644350398817263)","(0.13609907052247222, 2.1125749936425096)","(0.1455590277978601, 1.8042525482657514)","(0.16317122736865866, 1.623665707431198)","(0.1739428136546966, 1.5519286853592706)","(0.2398434857964138, 1.5845807903661013)","(0.16127697592477008, 1.957573987604766)","(0.18611972325363837, 1.6044514543330637)","(0.19944773468226693, 1.6675796991048182)","(0.18828061752575606, 1.8737329798535522)","(0.23792228053129832, 1.6819241402077472)","(0.1785700088137214, 1.887974079224127)","(0.18596749852008423, 1.6600628170554623)","(0.16138213531360143, 1.8460973557343994)"
"(0.19285019153462715, 1.929589005626498)","(0.2516178404492825, 1.484978198188497)","(0.3018852003080387, 1.4367940578628797)","(0.22282181291947084, 1.7201088759865755)","(0.17089732654828133, 1.6867804084912845)","(0.194488737187913, 1.9956736463403453)","(0.25857468687184837, 1.5759095804481984)","(0.14320475771567434, 2.000938219982922)","(0.15642963760846548, 1.8743169983366987)","(0.14006532450768103, 2.137424024522423)","(0.16606723143063495, 2.054158181682751)","(0.14411060750892285, 1.9725374114513416)","(0.16593904437387164, 1.6973761747437628)","(0.15081619628469256, 1.9173763392664824)","(0.16209124510428424, 1.8567037388564427)","(0.14991788420762656, 1.9275975093266717)","(0.15207383670601538, 1.8470871697124978)","(0.13872658907248983, 1.985301091557082)","(0.1504521883566502, 1.6897872048596654)","(0.14086500629024326, 1.9782445038366425)","(0.14650222737371854, 1.7673507974118932)","(0.16339971829872738, 1.635427159276742)","(0.18031969049868282, 1.4957966382403178)","(0.24815264865826253, 1.5765988562841808)","(0.17396415439369353, 1.8472539529850034)","(0.19001754265249587, 1.525266481086142)","(0.210161125775466, 1.5930075383071183)","(0.201836953029876, 1.7952220156417837)","(0.2553602584773268, 1.5690449852175385)","(0.1864458338507529, 1.7758375024592763)","(0.195542324994076, 1.5497186228584086)","(0.16587285398507734, 1.8356003236842122)"
"(0.1943147048518826, 1.8703521143630877)","(0.24907018221736685, 1.4772682813110625)","(0.3004896090652014, 1.4406075694009832)","(0.21230455500547704, 1.74211834508437)","(0.17426333104138847, 1.6708719011469457)","(0.20073151305667755, 1.955066620963909)","(0.262747968787612, 1.5777424356716627)","(0.1471933958008152, 2.007127790046908)","(0.15208763212691373, 1.9148998864442421)","(0.13834477389824676, 2.1655738954311956)","(0.1535162296769938, 2.1667449289768)","(0.13834564981462463, 2.0125600453807633)","(0.16032469621271292, 1.73309855263385)","(0.1408011990830581, 1.9942674135020297)","(0.15292902567782707, 1.9162713415120105)","(0.14014348525264841, 2.00570858673108)","(0.1465451570573529, 1.9056970314834063)","(0.13367311324787753, 2.025069868446314)","(0.15225687960076176, 1.667006089397277)","(0.14627788402034622, 1.9163575921542724)","(0.15223455895766322, 1.691550713462304)","(0.16569909958264548, 1.6308429668269029)","(0.19104563603658128, 1.4484479914961796)","(0.2590648818533209, 1.4907197997426807)","(0.18305704703684228, 1.7844354598844632)","(0.19487739660124132, 1.5076972023772572)","(0.21459571679864464, 1.5764877688124816)","(0.19741002392073315, 1.7851195189960778)","(0.2559049015386679, 1.5333789627312426)","(0.18445569452268812, 1.757550011542772)","(0.19926829026620027, 1.5180678837131583)","(0.1681042894587524, 1.8118241404713793)"
"(0.19373595238185362, 1.8365211258786245)","(0.24835487362940067, 1.4909687730695669)","(0.29945610035467396, 1.4200979845892119)","(0.22209552101591162, 1.6806026387742614)","(0.17775601216962214, 1.6454566022198707)","(0.206293914241349, 1.9048992870761854)","(0.26416470607154846, 1.5585778413661155)","(0.1527810851917889, 1.9453274344103615)","(0.14638657629632226, 2.0244636824696323)","(0.13336947797303209, 2.2012311453993516)","(0.1518489323896877, 2.0839459459334866)","(0.13169354380387766, 2.1106124004009232)","(0.1574517893843169, 1.7925451518390623)","(0.13666022350210882, 1.9880327184352637)","(0.15143178227554438, 1.8565735099415661)","(0.13976370007013175, 1.9530348092723675)","(0.1490197777014888, 1.8536538698165443)","(0.13247112002146402, 2.0429468772123003)","(0.15025988251135805, 1.6989416898543714)","(0.150011906051672, 1.840729978225338)","(0.1491605042537125, 1.7229288933114886)","(0.1644460467468611, 1.667244121899576)","(0.19128847382735892, 1.4469818166479134)","(0.2570908943509499, 1.5187384562973798)","(0.18613764595330304, 1.7184696671303386)","(0.19351790493404966, 1.5201439478642451)","(0.21702136330778463, 1.5120714067663996)","(0.19631725670458103, 1.758642214630874)","(0.2573944080700014, 1.5130090875966227)","(0.19060582083127547, 1.6457474358286037)","(0.19415396951911543, 1.5419746088843984)","(0.16810413868019433, 1.8353795678980367)"
"(0.2049014107812303, 1.7179024506240885)","(0.24289197251812658, 1.4446678296918385)","(0.294500860369844, 1.4240496713692052)","(0.22587065806551937, 1.6590398639485542)","(0.190704158748248, 1.4844418186095327)","(0.21133103825691374, 1.872405311286953)","(0.26245979602418323, 1.561043855198918)","(0.1692697986752241, 1.7894816439173196)","(0.15829349189972466, 1.8786850181168409)","(0.14263929081837698, 2.1102370377819595)","(0.15799886694055548, 1.9901094142876583)","(0.1402285442300455, 2.028537329384174)","(0.1699699027472911, 1.7818836051759464)","(0.145928865512204, 2.0006725671760823)","(0.16088462465158476, 1.814820585219864)","(0.14564369465048954, 1.9572381618949763)","(0.15056219663630427, 1.929423558225975)","(0.13586717045180874, 2.133914395637273)","(0.15662053197514358, 1.7243305430317857)","(0.15121836484413256, 1.8910138905479839)","(0.15938965296396743, 1.7202020298147946)","(0.17866306707731847, 1.6156677686457475)","(0.19825867068344996, 1.4581859728167204)","(0.2595580678996719, 1.4985215914884444)","(0.19544597372507988, 1.7284764734772868)","(0.2066576195750474, 1.4529811479496253)","(0.22485349441529737, 1.513240394832414)","(0.1996920686680137, 1.7552884826504467)","(0.27032356160984267, 1.451179539405694)","(0.19672556433113383, 1.575991106070326)","(0.19374299097847, 1.501964702721165)","(0.18389208542690216, 1.6934866124883983)"
"(0.19914814261818253, 1.7652178955702316)","(0.24027236627746212, 1.5063373707338588)","(0.29801930156645157, 1.404647394309337)","(0.22819999280103356, 1.6312093028033738)","(0.16855153482968138, 1.7389359737340868)","(0.2320104157659846, 1.6885197680537973)","(0.2782927565856002, 1.434544996959713)","(0.202237740804338, 1.5143291269396166)","(0.16256242951699687, 1.759318527113149)","(0.1561131806650173, 1.9469293121614206)","(0.1737815873288299, 1.8815142675016447)","(0.14649443042779842, 1.9562864967999956)","(0.16966177166610732, 1.718728816661769)","(0.13727522973687886, 2.075958207820657)","(0.15471540850676863, 1.8099638575378845)","(0.1412639589353217, 1.945675544136728)","(0.1553377852601416, 1.8101665794051054)","(0.13839198973692582, 2.0439370516053867)","(0.15377359178372774, 1.7342555557008834)","(0.1516510388259366, 1.8713291383316073)","(0.1597593008938738, 1.7164173441500874)","(0.17482263218629637, 1.5956996081883141)","(0.19546428722250914, 1.463582224026177)","(0.2659220232811637, 1.4695639633737114)","(0.1970573781293682, 1.7598366429073822)","(0.1964042083533464, 1.5591338773473196)","(0.21426172736400523, 1.624939402557575)","(0.19769418813752507, 1.7761551020179283)","(0.2643386334617971, 1.495760725930725)","(0.18653970095995387, 1.6515007428281172)","(0.1732722545799715, 1.6881233961785953)","(0.17790240421669462, 1.7912890927131613)"
"(0.20247451310203052, 1.7130043532610837)","(0.2385182199118545, 1.5258404961204735)","(0.28287451411413805, 1.4719881761049327)","(0.2187424364116808, 1.6851638315550528)","(0.1610665016618537, 1.738907027466974)","(0.21577408446436508, 1.823810202139365)","(0.2274607518638875, 1.752198045769234)","(0.18701810701232027, 1.6426161273386588)","(0.1534575584853279, 1.8618257732734753)","(0.12577468033668163, 2.2421493962394545)","(0.14377868793567955, 2.1486432195412704)","(0.13351938725731202, 1.9650349140832954)","(0.16785991146205798, 1.7655912163198864)","(0.13612318292153502, 2.0149854013695276)","(0.15152654161026965, 1.8357570046920662)","(0.14077236227166948, 1.9682097874689264)","(0.14483308559436717, 1.9896416940609438)","(0.13312420099840536, 2.1279323385923044)","(0.14968006566523728, 1.8214516828220488)","(0.14258826529876334, 1.9813451705316902)","(0.15213062945461472, 1.8161443968254019)","(0.17381084617826256, 1.711983882307381)","(0.19471809665234394, 1.5668462499177975)","(0.26831991542366007, 1.4694176280351614)","(0.20141835457769464, 1.709839235094619)","(0.19932409910253404, 1.57289122433074)","(0.2212023658634985, 1.6660591001466867)","(0.2087567038431358, 1.7045054317430088)","(0.27101210940164633, 1.4838562774456134)","(0.1976638761165226, 1.5982939907131617)","(0.17326577552459715, 1.6963547466753592)","(0.18731197148499384, 1.7276915543027058)"
"(0.21058475937607826, 1.6814781546995283)","(0.23258239739422606, 1.5613877024605913)","(0.27512647334375834, 1.4912031066194935)","(0.22497990286569866, 1.6437018507358856)","(0.1570988549224643, 1.751619213214452)","(0.2153052005682022, 1.818948441132168)","(0.22210837695887128, 1.763827382055768)","(0.17444006569739345, 1.7463535245336979)","(0.13919811483662434, 1.9794845821495948)","(0.11566852135877141, 2.372180360304772)","(0.13075122048536045, 2.2565411950284466)","(0.1166346562350342, 2.169842336795537)","(0.15359726903178578, 1.9605646611057486)","(0.12359953029895401, 2.1173773417051973)","(0.13265492957032146, 2.096987030508778)","(0.1315244154665456, 2.165749311494356)","(0.13746285451091528, 2.162487866707903)","(0.1413322621022723, 2.0352206883955875)","(0.1619415920733197, 1.729907156675501)","(0.1483388112209028, 1.9518189236958958)","(0.1622722110563603, 1.703249241031814)","(0.1908684517671491, 1.56754045075243)","(0.19903710218057635, 1.5660907739826586)","(0.26638058586037083, 1.496184905660148)","(0.20313990213082592, 1.7127389815212342)","(0.1961302903567306, 1.630042668432953)","(0.21922361580990324, 1.730343977943752)","(0.21986269557682922, 1.6087254655162566)","(0.2748900051690072, 1.444153225069874)","(0.19830528573352002, 1.6254117906027945)","(0.16250300716234514, 1.7466416512017533)","(0.18862742106568992, 1.7406266619626702)"
"(0.2091650770535062, 1.662334663114502)","(0.2274594423314311, 1.535310151972824)","(0.27570013727942644, 1.4834383314171953)","(0.2245248320202576, 1.6127812763157552)","(0.15938572172168147, 1.7628071547662392)","(0.2116936257488798, 1.8152887317592732)","(0.21941232246571904, 1.7660152713803243)","(0.17183127131548043, 1.764053872267161)","(0.13691590891473626, 2.0500677265303726)","(0.11953350683218997, 2.256169619916431)","(0.13357899249627392, 2.1883453395605126)","(0.12047457305648523, 2.107163266819511)","(0.14951066561790355, 2.017621410229586)","(0.12532746857158228, 2.057290035884491)","(0.13277289584403007, 2.013953500104449)","(0.13061140334150914, 2.1134830674939575)","(0.1374564719757146, 2.12505121665767)","(0.13731626088007334, 2.0594567647253634)","(0.1568497830925588, 1.799047362088784)","(0.14829898579259965, 1.924511795210407)","(0.15454387158033822, 1.783415730954012)","(0.18212998847187678, 1.6829941389583054)","(0.1882406809747903, 1.6729727093235047)","(0.26213048221152807, 1.5508999706530122)","(0.19736933506472173, 1.7478745628418146)","(0.20280479107575342, 1.5528899964565508)","(0.22846569288309304, 1.6845688572751445)","(0.22812377481623744, 1.548777030833955)","(0.2785910766904961, 1.416926759002636)","(0.20645736476676876, 1.5512990859044862)","(0.16543744851910275, 1.7334990065925058)","(0.1923383058646371, 1.6768850825257091)"
"(0.20573714502258997, 1.6719778850746487)","(0.22444252733556416, 1.5640130821419147)","(0.266701252986212, 1.5162339968889524)","(0.22718854263066823, 1.5830526791492576)","(0.1567016525882877, 1.8070578931907064)","(0.21110844877932405, 1.7877075592839107)","(0.2169537389875718, 1.7380250214627941)","(0.17372698732517194, 1.7244133992984125)","(0.13808141829783663, 2.082434962822727)","(0.11956961525635998, 2.206272537229277)","(0.13269106279380108, 2.189417893136932)","(0.12010482000502146, 2.113654113191916)","(0.14723967010105787, 2.115312295328365)","(0.12663031304257627, 2.1119773259603094)","(0.13242343070046553, 2.082204729839717)","(0.1317230460404468, 2.238898256397959)","(0.13689552540223882, 2.260763582667958)","(0.13341481994703655, 2.199946508097379)","(0.15856081066977792, 1.8512122284843395)","(0.15185299187736379, 1.9778283923271835)","(0.14924407200132958, 1.7974324884268316)","(0.18411375490676624, 1.7364855234981103)","(0.16991640822187812, 1.8388411964128857)","(0.2584277681278222, 1.5837129516567838)","(0.18688618276982635, 1.838948667940226)","(0.2005225374744927, 1.503589579478838)","(0.23067990721727913, 1.657267368504655)","(0.22687340969616068, 1.5748608228864962)","(0.2750506948009368, 1.450316454570378)","(0.20693633871794567, 1.5555711338419966)","(0.1686473344124229, 1.6821080972813598)","(0.1930856301751402, 1.574891367271068)"
"(0.20087920383245206, 1.72379083997214)","(0.22248020982180636, 1.5702781142662998)","(0.25937411612590855, 1.5528235131089705)","(0.2213100911617587, 1.6125947335575828)","(0.1448113690440594, 1.9264354557852823)","(0.20902580051814926, 1.8023955994812284)","(0.21638389935159866, 1.7657044355152542)","(0.17520291716898975, 1.663586588507784)","(0.1401155307772875, 2.0428868718175033)","(0.11610797067554904, 2.215512013512129)","(0.12807927510405706, 2.2143613403627507)","(0.11870307978729996, 2.099914835270093)","(0.1394832034290054, 2.1451474617798683)","(0.12580074618034626, 2.0838003967205605)","(0.13122627417289498, 2.033539214160288)","(0.1315775844792969, 2.1761684418295433)","(0.13727655777538111, 2.18861674417249)","(0.13481481923285288, 2.07312339971252)","(0.1550496045523406, 1.831368025957954)","(0.15305397562310644, 1.9018436088155513)","(0.14735481780266732, 1.7727631092655247)","(0.18054321498532697, 1.7676882057813752)","(0.1710719223605998, 1.8345927579501586)","(0.25937173837470723, 1.5642893431560418)","(0.19316091941495236, 1.8127168718639997)","(0.20061670502848472, 1.4437122471219386)","(0.2342115502033411, 1.6581896685129676)","(0.23804813503306313, 1.4971349257125932)","(0.2746996638973841, 1.4336968642749606)","(0.20907214047344766, 1.537196308079004)","(0.16640092147132682, 1.676801721176814)","(0.1958857135581172, 1.4975189152499722)"
"(0.20408303652829818, 1.7161008067615438)","(0.2258831400787874, 1.588464024929134)","(0.2594927525371283, 1.5339400838806756)","(0.2209627301856394, 1.6109896293493466)","(0.1516815419841321, 1.899039792925886)","(0.20701972416624131, 1.834157542942106)","(0.2156754354875506, 1.743117719533367)","(0.17122705453146292, 1.719139472451502)","(0.14033439453299548, 2.01608629204241)","(0.1156605270995347, 2.1876795423006636)","(0.1273870181647995, 2.2147419261854844)","(0.11562065721843993, 2.1043444149356474)","(0.13592377336298045, 2.133608554395373)","(0.12311031273797128, 2.101253137855136)","(0.12908284382353777, 2.0685712778827208)","(0.12958276079251552, 2.2392805770867263)","(0.1368484958841449, 2.1950802188317544)","(0.13463084713909707, 2.0887074603927065)","(0.14391212198758127, 1.916826484815381)","(0.15080100266927146, 1.9776210373342131)","(0.1389022542712741, 1.8397247604964584)","(0.16262008698784008, 1.8644180238611299)","(0.15809810925672282, 1.9449832442100903)","(0.24787653934016765, 1.5924365584741227)","(0.18335319917971588, 1.904682136958167)","(0.1957003740012984, 1.4669447161949232)","(0.22484411043040822, 1.7084486204627725)","(0.22362741280391404, 1.59733958496963)","(0.2770598740842772, 1.413793294948923)","(0.2063571746941599, 1.597777113288783)","(0.16324087062388934, 1.7582508180031122)","(0.1796632140741661, 1.5598121017631044)"
"(0.20582624391378382, 1.7283716524176997)","(0.22818844818204623, 1.5421138357011988)","(0.2596117203496548, 1.5320847120707761)","(0.21621625504833172, 1.6317898107300435)","(0.1461424727716496, 1.9394312677703553)","(0.20345131460499943, 1.8476306400324258)","(0.20859125401345222, 1.796543293662903)","(0.1649773684559026, 1.7456183396079696)","(0.14077846874515157, 1.9244212714734723)","(0.11790686965250495, 2.0535518515867244)","(0.13057393638267217, 2.144526645820662)","(0.11879568417346456, 2.0213359845545944)","(0.1426464110814573, 2.0795549565658877)","(0.1291612308562129, 2.102666541534899)","(0.13542400428052376, 2.0107410383680504)","(0.1408954873521832, 2.1196041670286268)","(0.14662429601715304, 2.087455355060591)","(0.14078742802068467, 2.1034338799090904)","(0.1480141178861875, 1.9213295017753746)","(0.15234002487493215, 2.0363756696686233)","(0.13944871629613353, 1.9201654035919706)","(0.17211260892526947, 1.7446094195164137)","(0.1566692685809326, 1.9661127046490072)","(0.25292517339336584, 1.5873068423334855)","(0.18568110095890675, 1.9234403543790626)","(0.18289771405508992, 1.5632950902992393)","(0.21846580328585777, 1.7397602933900724)","(0.22690881169175775, 1.623510892098711)","(0.2703173334789252, 1.4893964727239024)","(0.2057201225738971, 1.6359466665908804)","(0.15288181918427501, 1.8490961579499574)","(0.16238590577242426, 1.711485905060731)"
"(0.20296609463872647, 1.779682131643238)","(0.244563075980759, 1.5581723563514533)","(0.25915228461125767, 1.5303799365293531)","(0.20965731385750452, 1.6476269984352725)","(0.12982506910515612, 2.1629850282753633)","(0.20355094282682235, 1.8507872689346296)","(0.20306447668779018, 1.85664455744587)","(0.15678297180746376, 1.8046763344787837)","(0.131019854887912, 2.02907631689229)","(0.11469644308067325, 2.1260367415095507)","(0.12858051290512912, 2.2031859519099637)","(0.11597399186553536, 2.0199585368796686)","(0.14082316917653734, 2.04148927341476)","(0.12727697886695494, 2.10737515677771)","(0.13480441676251034, 2.024508384264972)","(0.14204828995127725, 2.0993085819608326)","(0.1476296266885903, 2.0664366769656253)","(0.14363794479273254, 1.998720810700819)","(0.15137538800089703, 1.8394944213678912)","(0.15541722557316745, 2.0309953174416373)","(0.14599656597814278, 1.830047744092298)","(0.17155677740706265, 1.7176908314512356)","(0.16158891570852407, 1.8800693127770642)","(0.2536460792640624, 1.5958841951370897)","(0.1894171179051617, 1.890795238345832)","(0.1835677581288326, 1.5099150164255066)","(0.21468007922214244, 1.7909993370134247)","(0.23987515814434754, 1.5595807723775996)","(0.27361698323746564, 1.4805757702665285)","(0.20661477178342375, 1.6468503918143578)","(0.15427415163484132, 1.819886588762165)","(0.15948800074661856, 1.7149805200915853)"
"(0.20576488277470711, 1.7561727018704736)","(0.25756473818598014, 1.5215938519787562)","(0.2607701489727786, 1.5290052946206476)","(0.20615752032134374, 1.64941452875763)","(0.12037468153193216, 2.4049262356066463)","(0.21613077049874002, 1.7590513434594641)","(0.20144195224104802, 1.8833505641412016)","(0.15315562002663421, 1.8488703449922428)","(0.12626295873609028, 2.0616241706027902)","(0.10709750094843486, 2.0100187582660447)","(0.12154446685889711, 2.180865158078674)","(0.10926163448629586, 1.9811356105444429)","(0.13662249868535709, 2.0088585553226523)","(0.12180180065649167, 2.0853114797292993)","(0.1302254695462423, 2.055170303063704)","(0.13605952695221699, 2.1857681887241904)","(0.14296615844366806, 2.1074568683727986)","(0.1376329849175301, 2.026079908624087)","(0.1408275998375726, 1.9199139225667603)","(0.1511920431064834, 2.0944958113179655)","(0.13368887368028878, 1.9070629646763764)","(0.16026825357544205, 1.808562098126052)","(0.1541216155545413, 1.9440084736494407)","(0.2507371680995215, 1.6128819123258202)","(0.17733680054507983, 1.9614804814636246)","(0.1780335643486014, 1.5427316591071374)","(0.20638598433891836, 1.804053516543674)","(0.23755505859325138, 1.590755184630851)","(0.2703423897369913, 1.520597442249865)","(0.19794968495647972, 1.716094938426404)","(0.15388412184073672, 1.825121365054512)","(0.15980139797453202, 1.7129842931488553)"
"(0.20277885544809657, 1.7769937400417368)","(0.25248259015855734, 1.5465188906554896)","(0.2609069014436062, 1.5189057789026383)","(0.2014947393694566, 1.6323172916274988)","(0.1217356800079247, 2.4085269914878022)","(0.22117842133341065, 1.7462106980026342)","(0.2122620713873123, 1.7954992853245932)","(0.15551790443261115, 1.8894076044125732)","(0.12496189073408329, 2.0994372906986842)","(0.11301406957526317, 1.901671580578269)","(0.12263328299126271, 2.036736927713673)","(0.11311793122027171, 1.9013041268659865)","(0.13764479971417792, 1.9968495649707003)","(0.12928686700564798, 1.9895988776965345)","(0.13648298451538046, 1.9855107577326234)","(0.13968630745589417, 2.144079621748275)","(0.14303943923317824, 2.1159362735701315)","(0.13938556173297198, 2.0184366630441004)","(0.1453342723030659, 1.855284364396228)","(0.15355724650445368, 2.091253112303097)","(0.12997290799309452, 1.9300767818967148)","(0.16301855906297621, 1.7802280911003738)","(0.14909705295550585, 1.9669918928932948)","(0.24085013139429912, 1.6675443887412023)","(0.16392588859104934, 2.07528639657666)","(0.17728699525109026, 1.5271552066381717)","(0.20784377400335238, 1.7799796529008454)","(0.21328195907085848, 1.7129380132476586)","(0.2705409248551428, 1.4849394297245355)","(0.19729323845393562, 1.714311010297954)","(0.15918654549371614, 1.733300018873043)","(0.15954924247505187, 1.715684713941172)"
"(0.20433343350148786, 1.7940849370302696)","(0.2535095274010823, 1.5244057622306375)","(0.26321995312499463, 1.5036342986642148)","(0.1912910996630445, 1.7067270094590754)","(0.1198982078810949, 2.454868446838792)","(0.2143650957794017, 1.7986463528815126)","(0.2286445984701829, 1.6541491079942896)","(0.14837798073398878, 2.0718100963062054)","(0.1233453975622042, 2.1712270581494453)","(0.11418992322491947, 2.055720553797849)","(0.12922315270215348, 2.0534116101605555)","(0.11070460787671825, 2.057402894264689)","(0.1389996791929877, 1.934192192879917)","(0.12770892005457452, 2.0743012716071854)","(0.13872386431656722, 1.9584097835314878)","(0.14048823132278151, 2.0721292945649976)","(0.15320942164217, 1.9366068709276798)","(0.14472824451839017, 1.8819294377672267)","(0.14702477784220616, 1.7492887014786054)","(0.16981005889491674, 1.8493243503996613)","(0.13666369724154656, 1.759811837010976)","(0.1602719323845761, 1.6789670103169043)","(0.14953847243240503, 1.8420688545233521)","(0.24170009519498725, 1.648900719406266)","(0.17265170672575478, 1.9675820404506559)","(0.18060387164722086, 1.4751999866463603)","(0.20379935292471899, 1.7282001868518453)","(0.21049224931921443, 1.7123534989540115)","(0.26575773399171326, 1.4673382357082052)","(0.19716812833630742, 1.7218238345898011)","(0.1635697839898297, 1.690731077873999)","(0.16227605460614758, 1.6458519264303064)"
"(0.1883532799151885, 1.8750113567267837)","(0.2592212248894749, 1.5124953617543142)","(0.269615869708573, 1.479732605047462)","(0.19606208212944207, 1.670438158888844)","(0.11864506079707915, 2.57673721784581)","(0.21470976691064605, 1.8000646480925648)","(0.23005072006303617, 1.6346354288196991)","(0.15018420349397887, 2.07760684935336)","(0.12963964749663429, 2.077204907471034)","(0.11969022210078539, 2.0078500087839277)","(0.1422927433205801, 1.9830732891350709)","(0.12071746359785195, 1.9158337671044998)","(0.15023865490549337, 1.7050682005127977)","(0.14727782963741992, 1.8314080538536117)","(0.1605215561004598, 1.6748271446375222)","(0.15346224023506322, 1.8447734759856227)","(0.15834477941053907, 1.8009699389697298)","(0.1474681133050958, 1.8108911250657993)","(0.1411060408277985, 1.7718436834615587)","(0.15459158002237985, 1.967175043926723)","(0.1262606883806087, 1.9156495949637327)","(0.15316463126773175, 1.7186080490920277)","(0.14255525742341887, 1.810936504925141)","(0.2249898348080824, 1.7716625454390715)","(0.15883107660807322, 2.0444794168814173)","(0.17543856149221546, 1.4690276691272877)","(0.19620977141959092, 1.7624759868806052)","(0.19281248812857865, 1.783398674428587)","(0.26528750474904345, 1.5073973449659817)","(0.1880580715520155, 1.8113182780363013)","(0.16751156568038078, 1.7286341949150976)","(0.15794031087751098, 1.6195952725424456)"
"(0.18379882606608444, 1.9574654931854925)","(0.26128413148646484, 1.531676853824922)","(0.26723732269089123, 1.473178219773003)","(0.19262587158762362, 1.7278202993555378)","(0.11347484398764277, 2.733414981984133)","(0.21607323238464085, 1.7901266735312356)","(0.2339138335417183, 1.5940768149627136)","(0.15189971818634468, 2.054504723534096)","(0.12943180873763188, 2.017544065251605)","(0.11738202000215082, 2.0604503605595177)","(0.1430762959649952, 2.0085300629752196)","(0.11976036978206223, 1.898302505754914)","(0.1512030146018343, 1.6840529857820516)","(0.14756343938712643, 1.8730523077325545)","(0.15901480725088207, 1.8180315223271821)","(0.15609203301612856, 1.8853686673416792)","(0.16006888301295583, 1.8419520971639898)","(0.1474328960569405, 1.8583634061885839)","(0.14136788764977118, 1.7845364039401388)","(0.1491556948510027, 2.038836034690389)","(0.12665955946899407, 1.893693213070611)","(0.15488397355927913, 1.7032036036027485)","(0.14344250916611356, 1.7724853234527886)","(0.22305391940950176, 1.7507673823798287)","(0.15797490391723806, 1.978635622566736)","(0.1746346929385429, 1.4724351503786797)","(0.19854557817230814, 1.6913476698674248)","(0.18773578749026779, 1.8190581087622553)","(0.2666184454025933, 1.493521458726292)","(0.18435827752010153, 1.8466280707391325)","(0.16816456884816133, 1.7080232990200293)","(0.15946562403849304, 1.6048442741135953)"
"(0.19604069990035253, 1.8618480848449779)","(0.2536746897111892, 1.5665672513205713)","(0.2829705620463212, 1.4011186236852091)","(0.194356175659029, 1.6627633951178005)","(0.11246423643662498, 2.6690519464081626)","(0.22319905992105366, 1.7755149708172335)","(0.2384650321988903, 1.6069818576537611)","(0.1495541440709032, 2.108409627961274)","(0.1256489733303106, 2.0198045378154)","(0.1154949874297126, 2.0806771135435356)","(0.14368972201316813, 1.9794807922826227)","(0.11501449761023214, 1.9429815143200355)","(0.1514192684453734, 1.62837664298505)","(0.1458047332290318, 1.830491936642218)","(0.15819971640663363, 1.7685266695192974)","(0.15729208573100473, 1.7669698481810963)","(0.15633988187116066, 1.8002683944481876)","(0.14955256447262139, 1.7444969660543617)","(0.13857135313799884, 1.7457674700280175)","(0.14135056926114536, 1.9630165628071272)","(0.1263513787739053, 1.8556397982627357)","(0.15265210571123816, 1.6876552322260607)","(0.1466330939918446, 1.772963444778732)","(0.2335251158418893, 1.6490476454232492)","(0.1594727702637899, 1.9884239045186058)","(0.16606416743763486, 1.5746516965334207)","(0.18746327586150444, 1.8140338694777765)","(0.18610733754186912, 1.8256294917999714)","(0.2649477196584919, 1.5046487510272342)","(0.18827390982696798, 1.8681767627753594)","(0.15841826747164675, 1.7986444403622406)","(0.153644029866126, 1.7140035905426394)"
"(0.2158618022228118, 1.7501278349688383)","(0.2639955633417948, 1.5066325942463887)","(0.2984766701418645, 1.3458076141473092)","(0.19795233940676205, 1.5909866586565091)","(0.11836598156166343, 2.4838920493353265)","(0.21798758457990003, 1.8168245669134517)","(0.23904588303079655, 1.5849050116083716)","(0.14584321219813978, 2.1902194827138315)","(0.1236024872524, 2.1071031869938217)","(0.11454697355739434, 2.124178664590951)","(0.14116621972842155, 2.013553937171798)","(0.1148416091859872, 1.9713744157771869)","(0.1476602081369428, 1.7290092257028442)","(0.13984941096920667, 1.9382265362880489)","(0.1564581970977556, 1.8460101585210562)","(0.1542332540219273, 1.8577697698039413)","(0.14913086094754333, 1.9397221551870794)","(0.14496902516922885, 1.8878021478828184)","(0.13353567964225319, 1.8534456726810453)","(0.13720459181630584, 2.0746195087228245)","(0.12374366942646246, 1.9568667867648777)","(0.14739093508831055, 1.7505304681146094)","(0.14304561121515705, 1.8320204516314953)","(0.22877626086954359, 1.6707375820630639)","(0.1608602878711483, 1.9896949581189605)","(0.16715642865966102, 1.5696583695080693)","(0.19432637120991123, 1.6992044764490706)","(0.19019358348743926, 1.8591265470924847)","(0.26694503453381163, 1.5068335750629889)","(0.19430303327374565, 1.845026381699716)","(0.16152982768961954, 1.7768184108970198)","(0.14633939133594837, 1.8308873293426398)"
"(0.2154346954518353, 1.7575585972814796)","(0.2533715425310136, 1.5694235926956417)","(0.29206557609298994, 1.382624975318634)","(0.18765226106537763, 1.6469907742185064)","(0.12204042814160657, 2.3307778184248833)","(0.21618878379626927, 1.7747342162151294)","(0.24070088217852273, 1.5744833326545666)","(0.14968459633206635, 2.1590018575688172)","(0.1313596871583433, 1.9510954021730789)","(0.11850153950940483, 2.059573243550136)","(0.1421627844959148, 1.9619474104706174)","(0.12482250874846854, 1.8733440089201026)","(0.16451932276447423, 1.5395817265213665)","(0.1497917076458364, 1.7681816017405503)","(0.16502735536026805, 1.6653114979668677)","(0.16651182105448417, 1.6502447917382193)","(0.15898709498664107, 1.7538207768445506)","(0.1568661912482682, 1.6576709613033087)","(0.14608626825825036, 1.6682526077160618)","(0.1416453188907799, 1.9030564696982626)","(0.1387561391761448, 1.7547274308530556)","(0.16837091793429382, 1.5326221625651775)","(0.15582162254958473, 1.702037121484165)","(0.23690979555421432, 1.59815810199778)","(0.16796676075116823, 1.8919505600665754)","(0.1710899790674907, 1.568171638203405)","(0.1976573776301739, 1.7344185395578406)","(0.19563370662768892, 1.6984823652966883)","(0.26043297578563146, 1.5199983465009317)","(0.19801719551766278, 1.7512172199216158)","(0.1619682903331197, 1.7865844771352737)","(0.154751928650482, 1.7829906249991396)"
"(0.21863759553456474, 1.7428958237532857)","(0.25495269822995253, 1.5694301790412182)","(0.2886505328972239, 1.4062292748875098)","(0.18936135815358454, 1.6468574920631265)","(0.12512500541709454, 2.2613896640622273)","(0.2314655199801298, 1.7227201725652788)","(0.24113600825505047, 1.5425018898032112)","(0.15897033622928247, 2.0682716078045353)","(0.13243791651302966, 2.0691803302186615)","(0.11456068186439383, 2.2442820857320913)","(0.13707566765319493, 2.0718807458467623)","(0.11958530216795958, 1.954633766923706)","(0.16546363522073623, 1.51312218067659)","(0.1444917131923771, 1.7542338474211465)","(0.16269809376118297, 1.7172890221319488)","(0.16090480757366626, 1.7084650444834464)","(0.15689985751025184, 1.7866925587233684)","(0.15492686639989756, 1.665581201065245)","(0.14074125401628954, 1.7332214426757173)","(0.14129352253851568, 1.9462052735429)","(0.13231068587157135, 1.8459867916137966)","(0.15909331161953494, 1.623875714364345)","(0.14792057165523034, 1.7744717004804553)","(0.23453881266587723, 1.6127889451555606)","(0.1649901814022071, 1.913096838339461)","(0.17172637936643845, 1.5569785686179787)","(0.1969547003003111, 1.756363217790001)","(0.19299995145407042, 1.7500804823005909)","(0.25968258563476354, 1.5233902609477143)","(0.20159865124372256, 1.7453479678213946)","(0.16531132887535346, 1.7581005776094187)","(0.15768705227696986, 1.776072823698451)"
"(0.22656466547681217, 1.6977850893750812)","(0.23328381383257837, 1.6041626243234641)","(0.29881606927278254, 1.3689042564424017)","(0.1915456951633295, 1.7120348770277227)","(0.1331578857413273, 2.147814115877382)","(0.23407958649815763, 1.6792887962780119)","(0.2524610316770882, 1.493778484443473)","(0.1641662710074634, 2.0094599700304316)","(0.15002221057065337, 1.8490103007447682)","(0.12034345491821245, 2.0765365558395055)","(0.13951485403329816, 2.0017549226795115)","(0.12946767548687751, 1.7833606870284295)","(0.17033416468273624, 1.5000257895569775)","(0.15156467396583448, 1.6962116800609282)","(0.16630783566033747, 1.7055755300631104)","(0.1603113901068988, 1.745964512067872)","(0.1545547196259072, 1.8232591203728767)","(0.1508371817690293, 1.7224679661545068)","(0.13758544392075037, 1.7575625094532443)","(0.13492786970733192, 2.0277796898223324)","(0.12692316403992748, 1.8708369845340755)","(0.15385110795242138, 1.6389806464514522)","(0.1383649345911612, 1.7969343561902344)","(0.22812299305955963, 1.6509039558480396)","(0.15621416238575028, 1.9539038276767329)","(0.16272020926927344, 1.6007859146840033)","(0.19226229181507543, 1.7854911802460625)","(0.1937856860010476, 1.7510376370691174)","(0.2509902508312462, 1.544071486437262)","(0.1926908398301674, 1.8163734367359663)","(0.16140864216660508, 1.7677022031728788)","(0.15400308598887136, 1.7715657706372319)"
"(0.21919899876946297, 1.785237854336658)","(0.2374516872565261, 1.5529272378244265)","(0.29969611470346075, 1.3776354485161302)","(0.2062040447192455, 1.6291370743789588)","(0.14699896271843, 1.921766627327551)","(0.23601208132640325, 1.650500174227665)","(0.26126970653761034, 1.4446816928159343)","(0.16248143034063708, 2.0202512969949766)","(0.1547025442040337, 1.7597773758049189)","(0.13275035836155794, 1.9692652178350571)","(0.14976082120140066, 1.8794994225454933)","(0.13930652326637813, 1.6452413231014669)","(0.17364568686163429, 1.477990412547023)","(0.15076781105320444, 1.670582458407938)","(0.17091691892510366, 1.6461694763060333)","(0.1637700653798682, 1.7261578775605577)","(0.15908150978331043, 1.8002608755958835)","(0.15872618129404334, 1.6577171591385973)","(0.14251649726641252, 1.7182462973337436)","(0.13593009897782063, 1.989800709802212)","(0.12903734798325678, 1.8335188115474583)","(0.15416681377047026, 1.628912161247811)","(0.13806212104164395, 1.7730377739508418)","(0.2276887176458709, 1.6476711759859617)","(0.16013403632353704, 1.9247493955317159)","(0.15674611281018844, 1.6683795786395268)","(0.19932788305891466, 1.7752253120847223)","(0.19269153361887584, 1.767870051974831)","(0.24868149529013336, 1.5510187359556287)","(0.19084686722486197, 1.8112931158040857)","(0.16291763395868278, 1.785492584647329)","(0.14725291701050253, 1.7859726020726674)"
"(0.2116186892780342, 1.8117714013840316)","(0.22753099475665844, 1.6416512514982564)","(0.3106255328941428, 1.3602167063943935)","(0.19994619170389968, 1.6922978664174217)","(0.1588516720227688, 1.786756361751772)","(0.22291588683088773, 1.729872357341612)","(0.26734384904280145, 1.44612344113104)","(0.1641599148955236, 2.03803497133136)","(0.14867745474527547, 1.7411831996123721)","(0.13010013725531933, 2.0439656586807615)","(0.15451084499048118, 1.9053197935116326)","(0.1418629585316763, 1.6136331362250078)","(0.1709086405835035, 1.4864420171149177)","(0.14763793913326848, 1.7149595167929577)","(0.17134897009834496, 1.6489743511026287)","(0.16402984335360427, 1.7313624376489953)","(0.15342946135411595, 1.876432203108987)","(0.14906348700437727, 1.7269197128452487)","(0.1389167629126704, 1.7274718664287803)","(0.13425346037307465, 1.971375536798619)","(0.1249742908299248, 1.8209355953664834)","(0.14900051244048962, 1.686654349823874)","(0.1365442410578946, 1.7846602419323272)","(0.22332377962002783, 1.6927567265293657)","(0.16070612258321865, 1.9061881052558747)","(0.15405663356328578, 1.695223372648575)","(0.1905123276339688, 1.805649393908352)","(0.19655272962369894, 1.7664685256181787)","(0.24691781591655632, 1.561069179310339)","(0.1830985440495559, 1.897222178678343)","(0.1566773561009021, 1.8404848823889692)","(0.14909515812745192, 1.7762955270187202)"
"(0.21343528070257436, 1.7964252778452794)","(0.22766885555608846, 1.6516506965575717)","(0.3182303099027989, 1.3296316156571055)","(0.21600870423587554, 1.5901190538404004)","(0.16550252119898465, 1.7517910521238376)","(0.22663344743538497, 1.6934214134068282)","(0.2640684480487016, 1.4638282764092128)","(0.14355611580569516, 2.2347588982885593)","(0.14134771694351178, 1.8309154563350691)","(0.13127408320049352, 1.9312197415071053)","(0.15089656450934888, 1.9336958633310464)","(0.14252055980828784, 1.6169945427859511)","(0.17045618329835982, 1.519969108478658)","(0.14741715960990595, 1.7270501061394157)","(0.16956068986824963, 1.6927864400128463)","(0.16348790293425955, 1.7985801695306805)","(0.15111178356529623, 1.9067544054213752)","(0.14715474069198567, 1.794027148522736)","(0.1388326429546392, 1.7241318367932559)","(0.13226002210091448, 1.9895952559002392)","(0.12387344528614874, 1.8286955809031784)","(0.1494226396804044, 1.666848161829312)","(0.1331789233645531, 1.7876915679905685)","(0.22418443938593222, 1.7054068571145309)","(0.15557185572873225, 1.9356151067819753)","(0.15110644204443235, 1.7221496173161037)","(0.18843761321574165, 1.8419087468065465)","(0.19412107323597172, 1.7702192454992018)","(0.23762782997352, 1.6109811877391549)","(0.1843447791185867, 1.8863985842965216)","(0.152429754105209, 1.888850161319717)","(0.14262413681431385, 1.8050134835675595)"
"(0.19202753962802477, 1.9769513040535196)","(0.2202915405618949, 1.6868905666366003)","(0.3046416828783316, 1.3944219634842407)","(0.2077546658461989, 1.6476786590506984)","(0.16157636729518388, 1.7505148170955425)","(0.22640914800766232, 1.737136748171652)","(0.26117771682623586, 1.4924334758569744)","(0.13756175702169213, 2.2840536513783314)","(0.14535916382306943, 1.8259392976634752)","(0.12785614313616134, 1.9940941474082097)","(0.14934924087251072, 1.934539771058722)","(0.13994023151069607, 1.6823412212105624)","(0.17304497959917287, 1.5431789980537198)","(0.1493732379680168, 1.741724896920426)","(0.1712275953232883, 1.6973196925830538)","(0.16878358184843054, 1.766292810826358)","(0.15798099945528749, 1.866030942938682)","(0.14905793643508647, 1.8052952452566766)","(0.1377573925540576, 1.7270363854946091)","(0.13383926733493295, 1.9894877619566687)","(0.1215288677992493, 1.8634587109610365)","(0.14495478249597127, 1.7348897277773203)","(0.12971961856542386, 1.848028888112763)","(0.22628824874080936, 1.730008482736346)","(0.1547428470572619, 1.9772900183060342)","(0.14451366352077005, 1.7780644814924214)","(0.17847369906175348, 1.8959780630839702)","(0.18876971024956954, 1.8779180720802144)","(0.21960247309175826, 1.6844428598765449)","(0.17635416275463173, 1.9648933546801532)","(0.1439987655234216, 1.9048159292587343)","(0.13930534883873538, 1.8599689820816883)"
"(0.1947914204770405, 1.9647508834424894)","(0.21731112912338502, 1.7251872661842325)","(0.30983161730850667, 1.3693481766716509)","(0.21723734776680378, 1.634929743054848)","(0.16045042234535478, 1.78246604658116)","(0.2373543714243417, 1.7068077879611263)","(0.2597835192145481, 1.5282145423605502)","(0.1386413714799734, 2.2525011684029987)","(0.14774222152725547, 1.764096799683356)","(0.12848523366402476, 1.9567713586790014)","(0.152367707185014, 1.932427794212088)","(0.1429141843194256, 1.6828340888143771)","(0.17291345195160235, 1.514029272676208)","(0.16166726742532206, 1.5796069738107672)","(0.18072218262055445, 1.5583898883655982)","(0.17518103725572942, 1.6830893910138052)","(0.1627459956610681, 1.746310696503643)","(0.14813305792784862, 1.7476317231654628)","(0.13733347386416578, 1.6665182908909582)","(0.13841303507422933, 1.905555494996095)","(0.12297685095623401, 1.8089986205476387)","(0.1425892889961193, 1.6782036236382116)","(0.12870486892286861, 1.841345479804498)","(0.2281910310685016, 1.7021220840676143)","(0.15492516943668705, 2.0040317849208926)","(0.1411883290351935, 1.829995114117193)","(0.17739070511537552, 1.9242613374180655)","(0.19283794920830935, 1.857463933101877)","(0.22181942694729412, 1.6767061842169888)","(0.17424028932868915, 1.980431782821586)","(0.14042575781520322, 1.9921667995248122)","(0.1387115521616436, 1.883584980568889)"
"(0.1894830380901565, 2.0062319673860998)","(0.2335207885914336, 1.624569331847587)","(0.30436845718344757, 1.3983997403012167)","(0.20934808335212315, 1.7195598332535207)","(0.15807347343279352, 1.8300879121568616)","(0.24181331005493462, 1.6459257667924152)","(0.2557785548251522, 1.5205523954862494)","(0.14156300092361615, 2.214121488826871)","(0.14718868960388568, 1.8058758955495569)","(0.12907681049177433, 1.962094288769102)","(0.1552613720373304, 1.8898453894718992)","(0.14732031395730835, 1.6286911100255779)","(0.17483122016737962, 1.491315712393925)","(0.1689954287358218, 1.50687001079957)","(0.18792799176739178, 1.4698423291212594)","(0.1805605816350787, 1.597234442463321)","(0.1650369474629537, 1.7031503401643484)","(0.15125826140901005, 1.6869341884748421)","(0.1408640960545337, 1.607420717733645)","(0.14123597370761076, 1.8951150400919927)","(0.12582611815822817, 1.7819116038377028)","(0.14564268032263336, 1.626787242894209)","(0.13396985204929998, 1.78757318001059)","(0.2268416333692553, 1.7505413350839671)","(0.16362094995102025, 1.9488191351404824)","(0.1420337215161738, 1.9030995059293507)","(0.1906016831312995, 1.8423856492035071)","(0.1947268302263085, 1.8472416227102524)","(0.2194107263106873, 1.677812665739101)","(0.16614790885290845, 2.0065430550874175)","(0.14357376009563272, 2.008772806753168)","(0.1374116239472053, 1.9368257686974026)"
"(0.179826083585763, 2.0504587688029665)","(0.23396641344422203, 1.6040699314169187)","(0.29354355489165, 1.4257594211610913)","(0.2010351588850816, 1.7872969292595573)","(0.15770148151217286, 1.8006053619516134)","(0.24961567118703842, 1.6253511004303125)","(0.2591251947952269, 1.5039477548253954)","(0.14295750162813978, 2.1677374240196094)","(0.14543921485933872, 1.7728192040831232)","(0.12761118669483978, 1.9571826201071771)","(0.15570844670158998, 1.913775557730749)","(0.14237445074072508, 1.652022000626126)","(0.18382811142836009, 1.4172831574697569)","(0.1653254539629084, 1.559070580759734)","(0.18738340098265138, 1.4620110177716266)","(0.18665317426027384, 1.5420876295585413)","(0.17048111296701327, 1.633525461170189)","(0.15386753096979444, 1.6551440236643757)","(0.1452831233615703, 1.5642185248982026)","(0.1431745783314378, 1.8443162900107488)","(0.127981423704822, 1.7551030348845753)","(0.14779819593837218, 1.6177477560463531)","(0.13364561861465932, 1.7688875967611435)","(0.23278062882915804, 1.6936203982801592)","(0.1608163447978402, 1.9264057890378883)","(0.1376431469918503, 1.9657634060733995)","(0.1869700924408009, 1.9000974758895661)","(0.19482658074178896, 1.8177669222532755)","(0.2188792239823446, 1.6603166847388462)","(0.16607991329124538, 1.9080804785377556)","(0.14111722291550155, 2.0072926164336136)","(0.1394052788091286, 1.9216115970250687)"
"(0.174148006585798, 2.090054641728457)","(0.23684199232530578, 1.5816063298922487)","(0.30201167158353565, 1.3799151228005357)","(0.20519562013963488, 1.7624713543099537)","(0.15826159156620181, 1.8194255891517626)","(0.26641163437997495, 1.5466886609721677)","(0.26943997548123433, 1.4317977384693332)","(0.14184837280504467, 2.2112671236646024)","(0.13377152075278448, 1.8894520601568785)","(0.12825813342290238, 1.8935931113685165)","(0.16064211502527548, 1.9127247546926005)","(0.13495472138055042, 1.6708100613607704)","(0.16996608918131376, 1.64777522073179)","(0.15466861477466337, 1.7256730518641952)","(0.18990827200623428, 1.6028549412152782)","(0.18065498228858812, 1.7527098122283855)","(0.16107103572202197, 1.9002634122834652)","(0.14434879682989984, 1.9439047073660405)","(0.13507224105912136, 1.7431725676442875)","(0.13782589553294092, 1.9901485877552603)","(0.1198353611744591, 1.9087488894086793)","(0.13646300287390076, 1.769797031067546)","(0.12766107701693705, 1.8193197211045624)","(0.2378630688751361, 1.7329128610694244)","(0.15350548063447692, 2.031837773044243)","(0.13545971473460713, 1.9457478967015707)","(0.1824575977576591, 1.8850188368323777)","(0.19489842096873147, 1.9103142433912927)","(0.21497519506055754, 1.7218241042649207)","(0.16302814714578795, 1.9774556668520635)","(0.13822702517607696, 1.9996992530211184)","(0.13765972007628124, 1.9733874987911708)"
"(0.1718064823722898, 2.069961920447412)","(0.23950104379520612, 1.5588144776310622)","(0.3084030755746083, 1.3378160311460607)","(0.2121972443028506, 1.7186556146630005)","(0.15796631608297262, 1.8568332347565015)","(0.2731414601858951, 1.498994235893542)","(0.2742766123697352, 1.3969874392666743)","(0.13873168565999827, 2.1988329019666275)","(0.13446720060632092, 1.8306032513259947)","(0.12932576489183462, 1.8219252292748196)","(0.172086393991061, 1.8057047984515813)","(0.13866959868044315, 1.6928144041507225)","(0.1751336916404831, 1.6493695473245178)","(0.15432633414879215, 1.7184865517348387)","(0.18442992986246404, 1.6008871308394637)","(0.18243826023977727, 1.6881654136296014)","(0.1664725773644015, 1.809685755498087)","(0.15119896212657144, 1.8390969097916752)","(0.14603864045989676, 1.6710865760081732)","(0.14167038712934876, 1.9359481118156696)","(0.1282169127636845, 1.8191471034557956)","(0.14509144341378583, 1.709472057624126)","(0.13658517126978423, 1.7494054675357766)","(0.23719896302062812, 1.6965980880384872)","(0.15551525693387933, 1.977676892543192)","(0.13619575487559463, 1.9322530161930498)","(0.18646184524663895, 1.8352079699643657)","(0.1924245158253042, 1.8676150977255062)","(0.21252080069117316, 1.70232949647797)","(0.16131948884004801, 1.8949942793987642)","(0.13796708003293162, 1.9802677977909289)","(0.14144634804128514, 1.933397645777455)"
"(0.16516223515098394, 2.1453362012920896)","(0.24447270380542505, 1.5473876485439302)","(0.290376894833639, 1.4105521154588698)","(0.21321483584329928, 1.684540085703719)","(0.15903893739540506, 1.8699924885631118)","(0.26935588412333494, 1.5484042589103653)","(0.26268292855064806, 1.4369334792776662)","(0.1358549626477051, 2.2595451198842786)","(0.12985326980251405, 1.8696997261145327)","(0.12351427958585003, 1.8764892324714755)","(0.1607360120070274, 1.951769293067794)","(0.1318465683611849, 1.767035026014103)","(0.17255636672010652, 1.660852435809137)","(0.14808127966587242, 1.7741453332730108)","(0.17722777416009627, 1.6311853370489977)","(0.17904384601178305, 1.6842628841565832)","(0.1605906118028751, 1.8667837301134476)","(0.14993129781968192, 1.8561072332856148)","(0.14499833465767417, 1.718719620407511)","(0.14319398247658477, 1.9230405200680227)","(0.12524570989348707, 1.9198534703787644)","(0.1475957229433731, 1.743151095289303)","(0.13628294860898446, 1.8583987696185773)","(0.2403108263300186, 1.6959300552141416)","(0.15899607343055108, 2.0251698160418004)","(0.13332800439255585, 2.068335648917553)","(0.18693744245482175, 1.8640475523821278)","(0.18984141021708348, 1.9009512524743508)","(0.21270832169438136, 1.7396079736526935)","(0.1667385297538901, 1.9229550434289704)","(0.13687870100519622, 2.106998565044664)","(0.1434328370257067, 1.984716297943146)"
"(0.16494746780321118, 2.128911875846354)","(0.23789619089864963, 1.598104881019862)","(0.28160291446589203, 1.452743936655519)","(0.19905547835264253, 1.8060238842489562)","(0.16236606300935919, 1.855507166551135)","(0.26857896666378306, 1.5681640157140722)","(0.27359858201385895, 1.4104989511174129)","(0.1427560961327725, 2.14003292836115)","(0.1287032627293078, 1.8883999272812175)","(0.12422095295387738, 1.8560191243687698)","(0.15785597933965143, 2.027746614796272)","(0.13020448726310888, 1.8302919255404861)","(0.16191040700340759, 1.7678032956791037)","(0.14790158936629705, 1.843387663440901)","(0.1656382019396076, 1.7486788021514048)","(0.1761151100963426, 1.689246698629075)","(0.15206690527768427, 1.9376275748182357)","(0.13987580027116017, 1.9500370754566052)","(0.13992691901844675, 1.7745701603750632)","(0.13883023099250724, 1.9692888633709278)","(0.12494758458477465, 1.9402878142081386)","(0.14949876051013494, 1.7210010898037356)","(0.1399457500871644, 1.8439629178714776)","(0.24450843951377366, 1.6896271178441213)","(0.16023784332790877, 2.043555907354942)","(0.14466685693763184, 1.9055486255723355)","(0.18538017552614408, 1.8419292197687387)","(0.20335623147479975, 1.8650143502337122)","(0.21768882226181865, 1.7017116050736605)","(0.17502306038173915, 1.9258263924397718)","(0.13871828113292078, 2.04566596420718)","(0.15077028231759074, 1.9569705210991537)"
"(0.16701575773223826, 2.1420670770057875)","(0.2470862161898902, 1.5343857362445112)","(0.2736021653130718, 1.4578749826788833)","(0.2071541209755732, 1.7756846206152317)","(0.16290287150461524, 1.871240328556366)","(0.2693922567389762, 1.5804806710283754)","(0.25586510140370694, 1.4759136722059543)","(0.1305476814179011, 2.267658662712795)","(0.123979496396495, 2.0073744873760577)","(0.11501600366087347, 1.9505571817125933)","(0.13636339721272733, 2.2015287155736902)","(0.12202392337178755, 1.9395688341976924)","(0.16245982549688262, 1.7785514234878337)","(0.13588784032317858, 1.9016306727951402)","(0.13218803345102062, 2.0275610871636576)","(0.15192785823482752, 1.8481475985024112)","(0.1346272918946385, 2.076163789017469)","(0.14764656705442283, 1.8348274815140528)","(0.14055571140747297, 1.7984248364560782)","(0.13004942920141938, 2.0959608211210647)","(0.13174777160603138, 1.9150871819729771)","(0.15253873311551067, 1.6937288335009555)","(0.1454291819786417, 1.8136958786925985)","(0.2454311548252231, 1.6893371603893144)","(0.16692874731975202, 1.926309417537856)","(0.14869535641114173, 1.8593807206076507)","(0.19873616146751466, 1.7196339282025859)","(0.20910388617105277, 1.8386426032916354)","(0.22082706116879242, 1.7151591650933005)","(0.18892867997594315, 1.8531076003117513)","(0.1477343570606689, 1.9600889903329333)","(0.14928664574141073, 1.9485412889582925)"
"(0.1618683282935419, 2.1445239194158185)","(0.23945731779568802, 1.5553885703287862)","(0.2630180167917548, 1.5238891428162809)","(0.201771960226542, 1.7968402818716303)","(0.16841452970640564, 1.7789293187467559)","(0.23971730723968274, 1.763131857356707)","(0.242477565245593, 1.5675357823542722)","(0.13295508409963647, 2.2697444800612514)","(0.12518854762602966, 1.9123411270741706)","(0.11046527374809463, 2.010428072798377)","(0.13056975150871913, 2.244385159394159)","(0.11724841299625406, 1.9493400067644877)","(0.1600377323956129, 1.7807942366311018)","(0.1316565916338508, 1.8736053740402439)","(0.12916295400916034, 1.9589447762831578)","(0.147407431247899, 1.803150448179115)","(0.13168404315376045, 2.0562995108331275)","(0.14216994054008494, 1.8607504798936154)","(0.14139351685923876, 1.8226790489208466)","(0.12647425203514437, 2.174203154908268)","(0.13341104953100966, 1.9291341388642347)","(0.1538979203249044, 1.715598900558223)","(0.1493397277832269, 1.8248100148559967)","(0.2608262968583359, 1.617235827270473)","(0.1696223149946156, 1.9020394456787804)","(0.14741266802670094, 1.8431181301564459)","(0.20310573452296463, 1.697898067918984)","(0.21139274431400215, 1.8104811443194007)","(0.23713522045654659, 1.6103614886041606)","(0.18467271049037215, 1.8732889763737601)","(0.14925864701523264, 1.9224817234119782)","(0.15304616442426247, 1.961143378476162)"
"(0.16679463403462247, 2.09248358235858)","(0.24713981954413689, 1.5335652934350066)","(0.2532562273651569, 1.5865264548135123)","(0.20149282766338766, 1.8209725826054413)","(0.17227196084008747, 1.790162976860998)","(0.23217238185395586, 1.793242411204882)","(0.24210771746892598, 1.5535182838379658)","(0.13792227708900304, 2.2614692064069266)","(0.12467280619619683, 1.8943116610631683)","(0.11511326688709483, 1.924413349912188)","(0.13244183182674454, 2.1801021787425197)","(0.11948443974016817, 1.8898004531991683)","(0.15576617379363583, 1.7812722681882809)","(0.13023856802480752, 1.8551043117712633)","(0.12674153959326714, 1.9237043027879004)","(0.14304332373249418, 1.7883465941729395)","(0.12613432572892744, 2.014310126667119)","(0.13895301968838086, 1.8318132735515682)","(0.14452261324380203, 1.7759548982677795)","(0.12940070268569143, 2.1114785165473386)","(0.1392099705431907, 1.8333887617750637)","(0.16098757567154945, 1.6352622304573152)","(0.15854440178092388, 1.7322626086140793)","(0.2648179697274439, 1.5639815614462977)","(0.17952585192795673, 1.799909470962579)","(0.15824169533656185, 1.7702668446207688)","(0.21651647523895906, 1.6134675170298791)","(0.2210589495201662, 1.6996469724497771)","(0.24901501717210625, 1.5384547503640635)","(0.19220892580164237, 1.7640470933816033)","(0.1555490834407482, 1.9329398955031216)","(0.15875372776047877, 1.949966527775646)"
"(0.16302035255672093, 2.1435043677111913)","(0.2541023010848432, 1.5253055862178968)","(0.24640497333014685, 1.6353941605471647)","(0.19399634840601698, 1.8113386326683403)","(0.1570818124420593, 1.9415852331894754)","(0.21823409283662576, 1.8626835156855217)","(0.23388223256764412, 1.6089233880154903)","(0.13966454975966877, 2.2261057597689264)","(0.1300157295650296, 1.9504825768109366)","(0.11769638342599759, 1.888338214751852)","(0.1312070068049604, 2.194367644944352)","(0.1181208704665076, 1.8985267233040173)","(0.16212106321053926, 1.7824064015524381)","(0.13192165288746072, 1.9136166988868204)","(0.12883696718773763, 1.9791375546950538)","(0.14206566902775333, 1.8606780676758825)","(0.12862022020142624, 2.1497286749742726)","(0.14409739033980237, 1.8831588762449936)","(0.1509933990833749, 1.829833768014737)","(0.12682424367955586, 2.2132216221651784)","(0.14310435576838315, 1.9245480897297147)","(0.17590721825403863, 1.6039093731155774)","(0.1655072617129556, 1.719034305086127)","(0.2701423378172715, 1.5455119835905395)","(0.1860951168858424, 1.7857614195077294)","(0.16683271867962027, 1.6413834824901121)","(0.22407627473634273, 1.5920539458625307)","(0.22103787479573334, 1.7034497067247691)","(0.2560411710575112, 1.5104485380910422)","(0.20034993589586478, 1.7150289555939007)","(0.16078482150549533, 1.8312240225576348)","(0.1609857326543739, 1.893500857263771)"
"(0.16396344685475375, 2.153683499993325)","(0.24700817605699096, 1.572869444584481)","(0.2422742383213685, 1.6669446101628473)","(0.19609278171310154, 1.7990765016920731)","(0.16081363569300078, 1.8780196632532276)","(0.20884514843803437, 1.9625882920585382)","(0.23428770165825893, 1.6268387354616447)","(0.13602146177652422, 2.286443114822928)","(0.13329361000255038, 1.8394554464837714)","(0.1207246585309317, 1.7880104976109819)","(0.13165177444556603, 2.207009725996329)","(0.11927552220111065, 1.8377742896462284)","(0.16514863770266866, 1.7564822658323054)","(0.13038957189806566, 1.8994111544340526)","(0.13047553052209834, 1.9754016092945075)","(0.14015948887725901, 1.9113218559931358)","(0.1270921126522494, 2.1663084122549243)","(0.13736003318910428, 1.9855030365451931)","(0.1499195769640361, 1.8988879038511606)","(0.12817353547727406, 2.164796185815112)","(0.14295793927372116, 1.943517319414353)","(0.18174012350173852, 1.6407657881557938)","(0.16511348925704775, 1.7132596463956373)","(0.27031721982177037, 1.5297198110434804)","(0.1792044404324676, 1.8297344219448024)","(0.17512663739050205, 1.504667200679868)","(0.21741704719682814, 1.6173369563475355)","(0.22067805078417269, 1.6959594538367067)","(0.26362462275646587, 1.4739565988942642)","(0.20545771992400427, 1.683556554998119)","(0.15843651815215526, 1.8163830606428535)","(0.17062187732326362, 1.7565182271959165)"
"(0.1627431779524471, 2.2331335802688064)","(0.24259647139086185, 1.636821628645059)","(0.2387857141496641, 1.7380281450878448)","(0.20064794672185954, 1.7865224815166776)","(0.158685456767388, 1.9171527691494594)","(0.19605780679088047, 2.0414855969830317)","(0.23285312780276085, 1.6487728695633268)","(0.13256675555610917, 2.321359929993897)","(0.13619717028546283, 1.8372747541542607)","(0.12159244690542492, 1.8538979701049976)","(0.13147255530835322, 2.200135939093684)","(0.11949860009829606, 1.8860698931781192)","(0.1623661054990972, 1.78833956102504)","(0.12934649564796138, 1.9398703333512135)","(0.13130037927686108, 2.0078629709723477)","(0.13899055380168962, 1.9195095282836223)","(0.1279289387821119, 2.164492223070152)","(0.13512686187637976, 2.0367622926586044)","(0.1465116256386378, 1.9319502191060074)","(0.12765340624284421, 2.19327370416389)","(0.13963612739984205, 1.9508056401937628)","(0.17876588039282862, 1.648081375150599)","(0.16856801023741622, 1.673615734114458)","(0.27646519572643763, 1.5162212460828672)","(0.17737651994164033, 1.8891476279154995)","(0.17471114535587887, 1.4908906688721282)","(0.20902822236231045, 1.6825895406317901)","(0.2148350425148793, 1.736617916005043)","(0.2701277601815101, 1.4524882927126213)","(0.19965017722707507, 1.7761695841944976)","(0.15810224105066026, 1.8186216062107587)","(0.16308902484469567, 1.7885903811666795)"
"(0.17043638273949005, 2.165726212105893)","(0.24049974148965647, 1.6153954251372609)","(0.2366081175142981, 1.7635889018019426)","(0.208838338296284, 1.7132621730375361)","(0.16875823883137045, 1.725911594115913)","(0.18049054444609555, 2.175420424233159)","(0.22522336625539213, 1.7269523303827328)","(0.12893007168168144, 2.288946449868156)","(0.14434002018909747, 1.8044653569241191)","(0.12393730423912568, 1.8854074508083847)","(0.12994005078786316, 2.1969777632575007)","(0.12259846676335072, 1.9255718597029927)","(0.16831490135921373, 1.6768290334418021)","(0.12955627886685311, 1.951063965917719)","(0.133159955854481, 1.948942565368529)","(0.14098758411794407, 1.8033589239122212)","(0.13319570455088645, 1.9982476746969569)","(0.13908461782904497, 1.882911609568037)","(0.1528607890164806, 1.8111248299161968)","(0.1312691767348091, 2.138614243407558)","(0.14037591783334052, 1.8913027642331892)","(0.18637590564602166, 1.6196516059923698)","(0.1745428383537997, 1.6386087286200703)","(0.2698049619935972, 1.5392259516117612)","(0.18122579841156947, 1.8552252792937476)","(0.17921158842279375, 1.4630315086720567)","(0.21503054497388877, 1.665896996820826)","(0.22104001620335365, 1.6447717477421295)","(0.2773292998081697, 1.4237035357969334)","(0.20137036099346975, 1.782189246445112)","(0.16484645790444472, 1.746660672849671)","(0.16309070689763813, 1.7607703567589634)"
"(0.17800040801785091, 2.1645265963371307)","(0.24033146357457563, 1.6436780000179336)","(0.24899723363949783, 1.7084996467269378)","(0.2179144425880924, 1.65335694118774)","(0.17144599721519757, 1.6569642176760206)","(0.1766632276869383, 2.2078471551708003)","(0.22283678550491542, 1.7745449131052178)","(0.12331073144873159, 2.3901151430193135)","(0.1388807902129036, 1.9201745457822128)","(0.12203495742698092, 1.94947816076401)","(0.12638851218658345, 2.2596161330709204)","(0.11600437774444806, 1.949497561787486)","(0.15275331019214944, 1.76014003661824)","(0.12733538449239842, 1.978287425737384)","(0.12743451206316478, 1.9915842174339158)","(0.13461412501916928, 1.830555428347464)","(0.12377276823043605, 2.082586305507951)","(0.12871432279964243, 1.9848078991028013)","(0.13497774634826099, 1.9945593473163163)","(0.12366571867944914, 2.2429030306680997)","(0.12045249749596795, 2.1907194034208888)","(0.16917163587581285, 1.8105557410961475)","(0.16724503144718383, 1.746356868638769)","(0.27500291086380924, 1.547807081969288)","(0.19121177957001592, 1.855590241499986)","(0.17963582231148087, 1.470924193045422)","(0.20905146384365572, 1.7313386137371385)","(0.2434220517586542, 1.6221135610647333)","(0.29014331836101886, 1.394894024784798)","(0.2051396660224533, 1.8170017034496233)","(0.16847556025335553, 1.711317282372287)","(0.15546798651061983, 1.8371996746361015)"
"(0.1738468802359395, 2.1841396198165373)","(0.23779092521459524, 1.6396514141648815)","(0.25565532560574233, 1.6650893670245661)","(0.21311672423621525, 1.698862403506257)","(0.1692657091975932, 1.6743515901096906)","(0.17281796775943353, 2.301678938174548)","(0.21875465353226065, 1.8042844344510096)","(0.12473314149287275, 2.376995247257142)","(0.14019832986816458, 1.9463805284877387)","(0.12519047517877047, 2.0946971730080723)","(0.13176186881084653, 2.359931357540218)","(0.11280353680023873, 2.1543729496180384)","(0.14712538479651968, 1.8741827585508335)","(0.12070931506133277, 2.1633506590692275)","(0.12019328524677661, 2.17541367339497)","(0.1225672855470778, 2.0423684077717654)","(0.11787985755234573, 2.2603928958607624)","(0.11598452160400059, 2.270569363080862)","(0.13570868551239906, 2.0203219370801495)","(0.12027883922358817, 2.307753404400355)","(0.12816234600871845, 2.0490640641010827)","(0.159826861488348, 1.8783005266383783)","(0.17485081348011167, 1.686396348557261)","(0.27334244525244755, 1.5383351966882988)","(0.20412667467514892, 1.7800946310567782)","(0.1889618051829229, 1.466884644254359)","(0.2164440684542794, 1.6834849486510357)","(0.2396155323384802, 1.6756705643485177)","(0.2923177298882149, 1.3798906195014016)","(0.18853453954314114, 1.9332992981721033)","(0.16872987892754243, 1.7181262016736034)","(0.1543287899568416, 1.9216327482714548)"
"(0.17726804699974516, 2.141701141539752)","(0.2425067700963357, 1.6092123179195257)","(0.26573942498648084, 1.611820059851966)","(0.21012541996206074, 1.7299967074419982)","(0.1659544674065229, 1.7169832675197265)","(0.1727242995567904, 2.264039883289692)","(0.2125384329695375, 1.806815942981113)","(0.12283204672147363, 2.563212340479959)","(0.1587535156684241, 1.8154360179857618)","(0.12812475810380577, 2.094923146587454)","(0.1367399256608738, 2.2781974427862637)","(0.1203234537195511, 2.160134795455836)","(0.16826118505197915, 1.7761253478975438)","(0.12448681084849823, 2.2355623444602606)","(0.1283820981421725, 2.2604319509134103)","(0.12566538567195953, 2.1995358962894485)","(0.12423537370883048, 2.3886133232664504)","(0.119701062808622, 2.3702740676596283)","(0.15074431450393128, 2.0365420780730625)","(0.13030591365275548, 2.387131259857303)","(0.13966541839571353, 2.0188786505742784)","(0.1653625396529023, 1.9003343007863538)","(0.17274040220955683, 1.724870759906757)","(0.2778331106943194, 1.5063188967069887)","(0.19483504685551625, 1.8348461914015313)","(0.1859789494179444, 1.5269375184953584)","(0.2130052394087801, 1.742106448581785)","(0.2278728721960561, 1.678135488825328)","(0.28575998304122724, 1.3958799865532194)","(0.18487254998379452, 1.9008910839598923)","(0.16588656831484036, 1.7732985757485165)","(0.16053736206705665, 1.86345489795831)"
"(0.17568250966578747, 2.170888666293456)","(0.24887684126479925, 1.5562507747493632)","(0.2666480794864869, 1.610050715545851)","(0.21020722426574726, 1.7231027203232254)","(0.16585298281147665, 1.6972012531083585)","(0.17733991818130077, 2.2119581750366355)","(0.21292289069118206, 1.8042516802350907)","(0.14564092688397678, 2.240778787638385)","(0.16766989596167373, 1.7299665620000897)","(0.14543046445934735, 1.9403247109383541)","(0.1586707360302264, 2.0162597056207883)","(0.13944615874701877, 1.921331495118284)","(0.1810123217140787, 1.726271964869264)","(0.14739003336277606, 2.014823904581038)","(0.15967592904477054, 1.9474906956933098)","(0.1410919317775491, 2.075748631726129)","(0.141773248890388, 2.2394812173708467)","(0.12738498700179632, 2.376115863041276)","(0.15658805085795185, 2.002877663911094)","(0.14680217930228578, 2.256451179381241)","(0.14689639710414507, 2.0174573450609006)","(0.16393409881109294, 1.9403913222176759)","(0.16435670756103932, 1.7908498534229707)","(0.28648772545047174, 1.4821279633594493)","(0.18825445390384493, 1.909313387818924)","(0.18682188611347175, 1.522910112076767)","(0.2009283037785679, 1.866326545553967)","(0.22589392958845486, 1.6971097722367365)","(0.28043873906261985, 1.39956970419009)","(0.17815114973690538, 1.9557041045679922)","(0.16076834402747586, 1.8404516061736047)","(0.16016964464277514, 1.9114778339711525)"
"(0.18049488679811201, 2.162651551064741)","(0.26113305646741725, 1.493064921488629)","(0.2805107352402537, 1.5502319268968499)","(0.21656773537914184, 1.699383353950545)","(0.169970141801263, 1.6485992765425488)","(0.1883467444908729, 2.0964133002807586)","(0.20915995721146408, 1.8188099246878238)","(0.1499221183453086, 2.1977286301669685)","(0.1644803054451929, 1.7314313823263565)","(0.14276663429855835, 2.0104090095070224)","(0.16320464420363168, 1.9940047417979703)","(0.13227181651342243, 2.0656181711545245)","(0.18199151196165866, 1.6927371952028318)","(0.13995481770316506, 2.1587791246993397)","(0.15835420565201086, 2.0203896942013664)","(0.14640183188094139, 2.057825854955749)","(0.14598254112733625, 2.227858595144357)","(0.13550035651357087, 2.241145289416713)","(0.15942587903212269, 1.9432519942826736)","(0.1603177094497644, 2.063288280805835)","(0.15140715600163177, 1.9395659681994468)","(0.16562511542033245, 1.8884734919998205)","(0.16486202768582878, 1.7759510229937996)","(0.27838896975798655, 1.4979339682663488)","(0.19022144126738938, 1.8875494322715543)","(0.18991111418473305, 1.5169790519337678)","(0.20257723545928888, 1.7882770157566663)","(0.23008185557730623, 1.6855318166098578)","(0.275722120581475, 1.433351347156001)","(0.18296501921388017, 1.9033516577183895)","(0.16113630582444824, 1.8478070484043407)","(0.15805099267010533, 1.9049501140441372)"
"(0.17997266174482487, 2.160228157670629)","(0.2560369104018827, 1.5302915117348326)","(0.28478340786732015, 1.5205623104145265)","(0.22637040699402677, 1.612213694299423)","(0.17713619376223755, 1.5760194979472535)","(0.1784661778547159, 2.206235992211957)","(0.19486011374150708, 1.9765201172841265)","(0.13541461176530148, 2.369560778777829)","(0.16522399015511705, 1.7074733450006923)","(0.13590301856561865, 2.1351353666441435)","(0.15857287419571742, 2.0781425727858225)","(0.12771760856604444, 2.1568292310045165)","(0.19002966196821572, 1.5931531042257827)","(0.13265063583356115, 2.2779396229417714)","(0.15660408912135101, 2.045580186666576)","(0.15283685172148503, 1.9945547694155057)","(0.151362646438566, 2.147961181481622)","(0.14149630981981623, 2.08123408582827)","(0.16047729961668755, 1.8246937297723669)","(0.15513461276014462, 2.0959013374684794)","(0.15362046419817108, 1.8412607389610018)","(0.17428233223367742, 1.6471867402721552)","(0.17491558414546704, 1.5867753591088951)","(0.2714934389519953, 1.5159075623787077)","(0.1942210821434226, 1.7631940215168869)","(0.19527986775706233, 1.4203373323556985)","(0.2188134348563422, 1.6420979021664552)","(0.23012147953497683, 1.7014705116413977)","(0.2837615423839497, 1.4231095856543987)","(0.18568767335347222, 1.9431716902370664)","(0.1717180287727166, 1.7146155135939105)","(0.15913205680817802, 1.8048824747726873)"
"(0.1908114823367189, 1.954296097596253)","(0.24476268525867456, 1.588961601743876)","(0.271930155341918, 1.5897388061948632)","(0.2174271065719691, 1.702148110286711)","(0.1880728210306192, 1.4906243271388155)","(0.18042196967568708, 2.238626996726908)","(0.20082808518741313, 1.9788405184825548)","(0.1336955211223523, 2.460548435842832)","(0.15833286770804433, 1.7546450744013133)","(0.13157533476260452, 2.2532864341400645)","(0.1544018608447727, 2.0983653563720197)","(0.12283818509793698, 2.2582780813632546)","(0.18679214892222973, 1.5736933773659523)","(0.130163634840027, 2.2625327730610785)","(0.15515862737998878, 2.0313526099729717)","(0.15546530690758328, 1.8912067252745914)","(0.15094076850565483, 2.068531119787693)","(0.1411482831470634, 1.9998598016352458)","(0.15969175019178874, 1.755767223900754)","(0.15605266198929732, 2.051738022906159)","(0.14651051634013004, 1.8694629565604062)","(0.17507670076260898, 1.608885736121348)","(0.16951762490322123, 1.690018175132805)","(0.24860570754546255, 1.6075858064892277)","(0.18049570844037993, 1.8799664225752823)","(0.1854096556688246, 1.5107442396973305)","(0.21356441596731565, 1.6873931297016194)","(0.21846966022248293, 1.7490646023760739)","(0.285324070974263, 1.434669469067814)","(0.17979475010796456, 2.0168450978638215)","(0.17508783420471358, 1.7145951076360793)","(0.16426955541595264, 1.7581565481209196)"
"(0.18677370071684965, 1.9771571766774252)","(0.23984230737520834, 1.6489748171935517)","(0.26368453445063694, 1.6198711354647357)","(0.22776675196510923, 1.631250702782115)","(0.1939012286382945, 1.4337680410831513)","(0.17992100093137733, 2.2320887037752546)","(0.19539575047574062, 1.9991600128557816)","(0.13312958218118792, 2.5870397542263674)","(0.15951881286383732, 1.7909774460539665)","(0.12596028794744304, 2.385112748857457)","(0.14882944815849958, 2.136574525295527)","(0.12108854616345457, 2.352134487487921)","(0.19089525962700774, 1.5258132930438952)","(0.128513918427076, 2.2629006480780993)","(0.1474999983821387, 2.0902287561907986)","(0.1531686328573822, 1.856498920159107)","(0.15121403569970324, 2.022840924078654)","(0.15064044281093558, 1.8535068516050164)","(0.1601145688614942, 1.7130853807450255)","(0.15599428152471823, 1.9837232573906622)","(0.1490339839056792, 1.7815723552730254)","(0.1865388896116455, 1.5056136951319314)","(0.1761106695707495, 1.6285452082953231)","(0.24047585095454402, 1.646936874671319)","(0.1760088334770518, 1.8754220136467294)","(0.18551395649516225, 1.5336940627648998)","(0.21686516382676707, 1.6617411106560216)","(0.22625000018112423, 1.6578792818901433)","(0.29032872736725973, 1.421209653617378)","(0.18895810888888656, 1.8626844235682676)","(0.17709465933059018, 1.653726645830668)","(0.16373819506932183, 1.7133910479026118)"
"(0.18881389796273612, 1.906240143860359)","(0.24618418966593003, 1.5972986933034552)","(0.2788489096979846, 1.541004550922876)","(0.23986473157415267, 1.62775183254166)","(0.20329361720345293, 1.3828251365321784)","(0.1909759230189711, 2.1243381706126745)","(0.19394662700987664, 2.029219383647808)","(0.1366148331924513, 2.5826613222191286)","(0.16053340506548716, 1.8045849406458192)","(0.12677665796836873, 2.3076908157332054)","(0.15301881521897676, 2.0738664025411313)","(0.12521799622801155, 2.2602288034828835)","(0.19438520894995331, 1.5046273401895323)","(0.1319491165106227, 2.1483729697889693)","(0.15110351218700924, 1.9994841073672043)","(0.16075957521901968, 1.745293106040801)","(0.15873728305435975, 1.9343118337683622)","(0.15857091847137367, 1.7312117182241988)","(0.1593130839367286, 1.7651685365238177)","(0.15747437168614728, 1.9934707913665148)","(0.14401211381635717, 1.8749730156807218)","(0.18379103151831463, 1.5432015958180747)","(0.17447883852240478, 1.6687521439513522)","(0.2311874865373663, 1.6559970485317377)","(0.17332090634395847, 1.9130232763581294)","(0.18479813879867518, 1.5780798495946502)","(0.2187139411461755, 1.6636314565943642)","(0.2198439569302888, 1.7122863930435417)","(0.29704821447638213, 1.3772044125640075)","(0.19343417324682288, 1.8524245513660182)","(0.17852799633889813, 1.7385127129210058)","(0.1705762879507547, 1.7269011687771918)"
"(0.17870516562158345, 1.9961480356001247)","(0.24239788574717924, 1.685805509063615)","(0.2598142912139296, 1.6482332554969334)","(0.23333249580291587, 1.6821654486906765)","(0.19989437487982295, 1.4745990200848484)","(0.1901189887918675, 2.1517573435542356)","(0.18329876784294657, 2.1523123253736927)","(0.13691618256495622, 2.6060632550282827)","(0.15816903439389673, 1.8936084513473426)","(0.1124376645155405, 2.626670291040294)","(0.14072297147787943, 2.3005999047672283)","(0.11911355777162497, 2.417514397231775)","(0.18191003937182926, 1.6196339234814918)","(0.1297596063357243, 2.220853101963868)","(0.14738230853927684, 2.0423374301977386)","(0.155199360182108, 1.8638703496926767)","(0.1561745450938762, 1.979998548349636)","(0.15322860144355147, 1.7952287346313924)","(0.15407982001742973, 1.8231344027930794)","(0.15499020320881515, 2.0427786935349737)","(0.14265080259071333, 1.8672710894305915)","(0.17971512695200845, 1.5384951855492834)","(0.1676855007661613, 1.7092168620598176)","(0.22472750088555482, 1.6665756201094397)","(0.17210069177684864, 1.9074075596324807)","(0.1860922386498424, 1.5824855131999953)","(0.2204424987529348, 1.6428091872076154)","(0.2134224537176068, 1.779830163446171)","(0.2911194426827872, 1.3944313487847317)","(0.19247180237736566, 1.8570819714644209)","(0.17652168646985802, 1.8098028753262982)","(0.1716496188243432, 1.7161702427783778)"
"(0.1661657509796408, 2.0127300070293432)","(0.2396392291195093, 1.6733911527698293)","(0.23957922829601755, 1.7478933501264111)","(0.21455336426576999, 1.848220239806818)","(0.19225971496393818, 1.5067951262965829)","(0.18230641833700675, 2.201561031381805)","(0.18649242158856794, 2.078795487149382)","(0.13327482263798124, 2.6978071671229236)","(0.16722430698892918, 1.7687559945430682)","(0.11968871519483357, 2.4024010209720355)","(0.14367388037794396, 2.1757582085236344)","(0.1268474092716678, 2.2701654211600744)","(0.18701957620844945, 1.557435163247459)","(0.13525044338769873, 2.104006640519741)","(0.14962167683652883, 1.9943379041915357)","(0.15754664876822483, 1.8280474030453802)","(0.15864166717971848, 1.9474586437351593)","(0.15622924398784388, 1.7632044762642092)","(0.15547480827435126, 1.7862355133968166)","(0.15724160102824083, 1.991862542576734)","(0.14390131522558416, 1.8408682833007664)","(0.173034882062412, 1.5723063002125264)","(0.1633967261308915, 1.761201798031579)","(0.21635362282206222, 1.7150048858150326)","(0.1666230788402873, 1.9033536812917338)","(0.18127769483772133, 1.6392858089630313)","(0.2229240215275186, 1.5877011567135146)","(0.20078103783543957, 1.81468599458763)","(0.27944060908338836, 1.4173335149246522)","(0.18739961822365772, 1.9291363240091726)","(0.1803938405929032, 1.8480356558918682)","(0.17728966202029656, 1.685049810003733)"
"(0.18101194316634925, 1.9027971464113849)","(0.24128327261661137, 1.6551164489370132)","(0.24113104887529663, 1.7679571087108081)","(0.21136650222734177, 1.8379816439286982)","(0.19449396379410996, 1.457218357520856)","(0.18610200325014525, 2.092084117241672)","(0.18097083194233707, 2.1335738720479838)","(0.12833414259507772, 2.8174348360101713)","(0.17246941271828298, 1.6983729763988658)","(0.11323439871387889, 2.3573403718506007)","(0.13672706819609545, 2.174220143455395)","(0.13359169026028966, 2.1281778965026925)","(0.18848653464682982, 1.5309902600904854)","(0.14629663515799216, 1.9526521596320574)","(0.16122471093130156, 1.868682702042305)","(0.17393404576969318, 1.6981457839211458)","(0.17341782091889546, 1.7909098626992515)","(0.16993518243724254, 1.5980140464136312)","(0.15394107298260487, 1.7479088296362133)","(0.1674801557396898, 1.8737815962042879)","(0.14470429570381024, 1.7867092764450514)","(0.17522018797693448, 1.5387988888998438)","(0.1632681133686735, 1.7198647097516049)","(0.21722326534626077, 1.6957131844468605)","(0.1630762349896919, 1.8953611819777711)","(0.1797332616321253, 1.6035229972981306)","(0.22797038583200668, 1.543314408042636)","(0.20046354960357857, 1.7877702267098992)","(0.28615951178718857, 1.3951747238096928)","(0.19306133628538485, 1.8567734724715868)","(0.19296973008237914, 1.7353610507559043)","(0.1842810798487812, 1.5775065870986933)"
"(0.174343780405278, 2.0260414499357204)","(0.23093240501387116, 1.7646242007983397)","(0.23840636309771532, 1.8160835846263108)","(0.2160449931378604, 1.83910136451472)","(0.19818018548821095, 1.4961007318032162)","(0.1801805933173902, 2.1922304256225593)","(0.18111371052054062, 2.1327990777108687)","(0.13140317665956405, 2.6945438591154214)","(0.16962305061951174, 1.6707906983812568)","(0.11286364241215063, 2.28878636668065)","(0.13243468395657368, 2.2109700871401183)","(0.13814120103842428, 1.9062675881995903)","(0.18177935592843808, 1.5029883439021612)","(0.1498860776490493, 1.7852739357400957)","(0.14931435537120347, 1.8392598443837547)","(0.16986518908581044, 1.5966262265135562)","(0.1625247147277761, 1.760393338603123)","(0.16259916447317888, 1.566730490961766)","(0.14311392836084746, 1.7101963746459858)","(0.1530904501060193, 1.9054989178038864)","(0.13332032885315945, 1.8238540896109103)","(0.16600753294319717, 1.5696608272929768)","(0.1545941074396576, 1.7595855650098244)","(0.21449113361294, 1.6918181027750654)","(0.15378288564991316, 1.9764468184805362)","(0.18135012870956338, 1.551119398516985)","(0.21835142774078703, 1.601106362238867)","(0.19697762849338554, 1.8028366943117384)","(0.28139162573892396, 1.4252955343780642)","(0.18433932603793324, 1.948141303321291)","(0.18045449954772733, 1.8201086192645508)","(0.18189605118648036, 1.5730157640658387)"
"(0.17507992303499922, 2.023207815296588)","(0.23206775524742201, 1.7220477718458334)","(0.2419769222174858, 1.8009983578723388)","(0.22158592560534413, 1.8122464694393507)","(0.19814812900589038, 1.4837674012079554)","(0.18551455630030095, 2.124908254786883)","(0.1907149023088978, 2.0539531271858853)","(0.11852618407499035, 2.828151019354611)","(0.16598474709987449, 1.6257540824581052)","(0.1103122952795815, 2.2799526014384823)","(0.12997938754812724, 2.3419059751580638)","(0.13646536500304668, 1.910914994515742)","(0.17639761901083764, 1.5099901870821404)","(0.14231510404580286, 1.8548823870782036)","(0.14779678836302332, 1.8099472024715768)","(0.17121847743058946, 1.6008871331528993)","(0.15858076910910246, 1.7322309977882584)","(0.15954341770739178, 1.5399257690066233)","(0.1400772995687677, 1.7154912013350838)","(0.1523491484744201, 1.8239329240563507)","(0.12884134502118308, 1.743746617426263)","(0.16264614226119128, 1.5482673492980503)","(0.1489151995169534, 1.7499943951110868)","(0.21664468654231067, 1.7082368199253775)","(0.14804947168310745, 1.9987748191653085)","(0.17338931729970453, 1.5995040128977176)","(0.2147559420082206, 1.6426929312768865)","(0.1963195745841248, 1.76097415056394)","(0.27200443422115944, 1.4709361757363408)","(0.17873632251481067, 1.885749519772313)","(0.16993784100593254, 1.8969576173594669)","(0.17515846683098105, 1.585301032608417)"
"(0.17979232750106902, 1.9333947900421533)","(0.2423091533827901, 1.6645466262976865)","(0.24223993233886384, 1.7806060683685403)","(0.2166340526952442, 1.8442697553534362)","(0.19310050295726328, 1.5432805553831133)","(0.1720642550610063, 2.268236550988142)","(0.17981472944855123, 2.201001410995391)","(0.1187560258301177, 2.62793126026963)","(0.17046372401067117, 1.6718773082163783)","(0.1015911459466727, 2.3980683438751593)","(0.1289016560027222, 2.4101691582123683)","(0.1410805797557456, 1.9235099400077118)","(0.17505544316156804, 1.5494338970205688)","(0.15134157044958285, 1.792320422957357)","(0.156881479494037, 1.7527299118942672)","(0.1740782976731617, 1.585439309182845)","(0.1646502135200189, 1.7064980145773547)","(0.15735431153516694, 1.5842030780269283)","(0.13937189220755242, 1.7273675391446004)","(0.14935334865383293, 1.8663437199479262)","(0.12806744586622582, 1.7610677620564281)","(0.1524101563717252, 1.6158218757220277)","(0.14155365471737424, 1.7599968902195309)","(0.22243972635736187, 1.6317678942504101)","(0.14568731579643374, 1.9558198525896475)","(0.16639786685904948, 1.6026746110724976)","(0.213145053812833, 1.6585217275875197)","(0.19117710388257056, 1.7656739540585755)","(0.2665423301173359, 1.4794629398257777)","(0.1760020837191452, 1.8823804497356962)","(0.1736970104798807, 1.819409698804074)","(0.1695016691198137, 1.594770218578948)"
"(0.18431975489968766, 1.8572957303250566)","(0.22938305609643483, 1.6835509548424965)","(0.23810327059420217, 1.8014034306850368)","(0.21894250402682436, 1.805108476991584)","(0.18313392706274942, 1.587733548376905)","(0.19064997470875278, 2.0061950011042224)","(0.1816096021884277, 2.1185365053886756)","(0.12069487875317934, 2.5268065492319134)","(0.1581390943669491, 1.8294432705537187)","(0.10595202970176826, 2.359592779816029)","(0.1324257936196328, 2.3228123349250978)","(0.13791210299041673, 1.9707890345771726)","(0.16596648293007055, 1.6614741651232592)","(0.16382079866312896, 1.6830716759013795)","(0.1601867150952275, 1.8016035269080914)","(0.16740763687647592, 1.7920822338381313)","(0.16988176151896073, 1.7590907271578278)","(0.15177018074706813, 1.714268355909458)","(0.13158181193657958, 1.8658948730898666)","(0.14535159204165948, 1.9863547458689599)","(0.12053433175997333, 1.8630287772565308)","(0.14264552415323864, 1.7606813816793496)","(0.12939418916088447, 1.8989685860194212)","(0.2186388820092924, 1.6772550197312501)","(0.1377650337805574, 2.09123477588905)","(0.14893216002288964, 1.7732614325778213)","(0.18663972942104834, 1.8643301796276146)","(0.19139987603568046, 1.7805647318258904)","(0.24795719513762823, 1.5727615268011272)","(0.16612598521558944, 1.9525227375198393)","(0.1475611852863012, 1.9744906944086877)","(0.15971402313082508, 1.6693434630177444)"
"(0.15276310230705462, 2.2102285583310963)","(0.2124031175127506, 1.7738425258730244)","(0.22421362773309436, 1.919557703542639)","(0.19818892316854422, 1.9628054942691335)","(0.16985456371937632, 1.6921500917437513)","(0.1744009115091536, 2.1293429941240607)","(0.17233312675995827, 2.174367262795762)","(0.12136142491641766, 2.33346027521149)","(0.1560966136268926, 1.8251248393194455)","(0.11027935382844273, 2.190110171594069)","(0.1360701478103922, 2.3519407849984044)","(0.142329877741862, 1.888667812535277)","(0.14777022971649523, 1.8637588466954411)","(0.16231719246485102, 1.7221916576421765)","(0.15592361288844223, 1.8962850458922227)","(0.15555868109537, 1.9977932428197644)","(0.1431661371736393, 2.1596591465782407)","(0.13623501640811717, 1.8956342443157563)","(0.12140105867605142, 2.0087192300489756)","(0.1317800333206577, 2.141531052275195)","(0.11147764811105369, 1.943197729626382)","(0.13319818933735275, 1.848910834936033)","(0.11760883011682116, 1.9782490006510312)","(0.20813640863004199, 1.788094946664089)","(0.1312155028727988, 2.144663534577732)","(0.14265001460822738, 1.8107280076579213)","(0.16683194274786195, 1.9892715399443355)","(0.16725519470077935, 2.033020244120136)","(0.21387804008085098, 1.7483457462172018)","(0.146649379602904, 2.1344550626989567)","(0.13629011617532402, 2.0503832087106444)","(0.14853944253753618, 1.785411901843569)"
"(0.14840225496993498, 2.3011328560205477)","(0.20805829469995515, 1.7767998402729932)","(0.23272586707858284, 1.8700202812962963)","(0.19149676544805466, 2.0021684555907044)","(0.16268620879799214, 1.751732391192698)","(0.17416782795605484, 2.1286799868435407)","(0.1695591261181016, 2.2071929072198073)","(0.1186571972573021, 2.281769832641995)","(0.15184649090948096, 1.8569641361604992)","(0.10651096914823685, 2.298160511964433)","(0.1366761681698523, 2.4288590141927084)","(0.13746739998192717, 1.9444225628173566)","(0.14451174509373052, 1.8978675832593688)","(0.1648163335271124, 1.7325201186800436)","(0.1601042382751441, 1.912835961329379)","(0.15861533526233473, 2.015512315545403)","(0.14123970349634984, 2.2199723978178176)","(0.1316750743050481, 1.950325264353237)","(0.11831520053339221, 2.062352908357893)","(0.12933585894451077, 2.239394422405718)","(0.1089860552271404, 2.0066356008221335)","(0.12383748979026303, 1.9306884468096253)","(0.11441109376039474, 2.0157336465828046)","(0.2115123777580117, 1.7667622348031757)","(0.1320587085449519, 2.15854304629087)","(0.13733020228962065, 1.8573511368870232)","(0.16155277578996816, 1.9923858217315715)","(0.1599954747395417, 2.199356705034428)","(0.2116565350503765, 1.7564870620602073)","(0.15204120898502646, 2.1801152694103645)","(0.1347114339810669, 2.07488081770656)","(0.14190524060758278, 1.9578758829909721)"
"(0.14571315108260682, 2.352007205832776)","(0.1985695521377851, 1.859250259911894)","(0.22199133610229208, 1.9429282240559453)","(0.17469677934392808, 2.0870395918691536)","(0.1570994742803634, 1.7631672880731686)","(0.16493565665353502, 2.2328845187926953)","(0.1638828980393217, 2.259002817172347)","(0.11566007480873539, 2.2951975714218693)","(0.14993611073825547, 1.8553558893730935)","(0.10453778583278815, 2.3811911916755197)","(0.13783397157341476, 2.4261048431001218)","(0.13377256902554216, 2.0203282508452576)","(0.1374181912408559, 1.9744975945548038)","(0.15990360763565933, 1.8129089186806377)","(0.1563621051791019, 2.000617753226395)","(0.1591056136243725, 2.0399273852302158)","(0.13257801757051205, 2.3726354163898566)","(0.12925003157724124, 1.9655028742559344)","(0.11916904140025343, 1.9522734094964846)","(0.12880735892011622, 2.135306977120734)","(0.11382892612751817, 1.8909558020810016)","(0.12498808005219265, 1.8401242861185207)","(0.11621481813247819, 1.9367034580968856)","(0.21220675441268064, 1.7451655594449251)","(0.1346804126625344, 2.083676456631728)","(0.1360733056208248, 1.889420848263573)","(0.16191702477993575, 2.0046121623428372)","(0.1642524569150994, 2.097504598457712)","(0.2021597399022229, 1.8233150867575811)","(0.15253323446194245, 2.135353540353307)","(0.13199703424233117, 2.001478632057155)","(0.13944402388605043, 1.9160952155877053)"
"(0.14980781396671997, 2.2930980783260178)","(0.20464367475509926, 1.77854379548595)","(0.22388069698390198, 1.9387270483125076)","(0.1743232354601795, 2.067478030363748)","(0.153319064921065, 1.7997006902579449)","(0.17174479470545098, 2.161242263486069)","(0.16793139375151, 2.199002618502581)","(0.11663527683820195, 2.323835629309226)","(0.1492583442687778, 1.8409729534004273)","(0.10795326341598534, 2.2912901861920942)","(0.1469921416839163, 2.29750704510863)","(0.13228421589260286, 1.9910379001659622)","(0.13846305867176717, 1.9737023726974128)","(0.1586681558186445, 1.7858763692991901)","(0.15067311703716008, 2.0679127076225914)","(0.15220588713094846, 2.133955011334627)","(0.12759122562085845, 2.432785084458373)","(0.12727681357975662, 1.9696477990353933)","(0.11814847931760192, 1.9328440402759983)","(0.127766584134589, 2.0951139503804495)","(0.11329931254146021, 1.907687342009795)","(0.12387279477694324, 1.8611407783980956)","(0.11531328551879495, 1.959773021022333)","(0.21577225555411558, 1.7183143019813492)","(0.1330087341500597, 2.101085985068479)","(0.13593006201077, 1.910105124756024)","(0.1618623204631781, 2.020381300189012)","(0.16839536153929693, 2.060172714316689)","(0.198786638857493, 1.8532254148036413)","(0.15241666236953988, 2.1204385792450013)","(0.13289126050096187, 1.9739802266169717)","(0.13843886779894957, 1.9439740636198628)"
"(0.1525310420841656, 2.2629790399197556)","(0.2033968038970115, 1.7769892616376128)","(0.2280657527711916, 1.9428416544395952)","(0.17616193963849605, 2.0306375023597707)","(0.1536125674052435, 1.8490183301040215)","(0.1787341893792851, 2.070201027763357)","(0.16964235549468595, 2.2237722546264944)","(0.12256627423664476, 2.2182451534843453)","(0.14339821148687582, 1.963991474015736)","(0.10362252312391981, 2.39647146035844)","(0.13860695818333596, 2.433985907535126)","(0.12301981037414413, 2.0914249888256187)","(0.13334845858868172, 2.0859963725523234)","(0.13970250799172731, 1.9649036577232353)","(0.14515550724988094, 2.1460521151570604)","(0.14435490533557718, 2.21954286977573)","(0.12593963764781888, 2.417687363391509)","(0.12393822858795817, 2.010340502520345)","(0.11605170918815214, 1.9670178462556063)","(0.12431979030133365, 2.1556464457108446)","(0.11305287738636911, 1.9078502400916926)","(0.12234690451315965, 1.8928206360867248)","(0.1130831093267596, 1.925698577429592)","(0.21900611372188367, 1.7212316015027662)","(0.1319374595312787, 2.1194552023521607)","(0.13405150384938183, 1.8763108202053895)","(0.15691541154844377, 2.1101827877946064)","(0.1646955583733944, 2.069007986887904)","(0.20377439513455622, 1.8252416167865426)","(0.15134955700385969, 2.0987074579221137)","(0.13064466867030688, 1.9214991181863674)","(0.13585812929879526, 1.905035415849472)"
"(0.14630851553916466, 2.2514186379595764)","(0.20677030738575708, 1.7661470065929503)","(0.22859710343588624, 1.9294785754047683)","(0.18355233912507846, 2.003170514307286)","(0.14914494156890437, 1.9372643850076925)","(0.18042015385839605, 2.049070314812571)","(0.18029592245340098, 2.100792430413634)","(0.13075461873191793, 2.1064289419487006)","(0.15211114066686238, 1.8914346767172776)","(0.11447609138741517, 2.2806700041558083)","(0.14849966511075294, 2.246573460559871)","(0.12890217439394414, 2.027234199170439)","(0.1377520789251179, 2.0588867248572424)","(0.1407662409541048, 1.935585024878131)","(0.14725267748494478, 2.0778788296706345)","(0.1476817797713343, 2.1240916883350005)","(0.12752171742132662, 2.361875431949659)","(0.12780259307126057, 1.9741340750780756)","(0.11727077790364838, 2.0213660856498032)","(0.12372078514446867, 2.143946768641519)","(0.11053761089599676, 2.018158379072907)","(0.12344745791730734, 1.9616716734827093)","(0.1119304969961491, 1.980667418774103)","(0.22149429233934817, 1.7298261772161652)","(0.13209293270328065, 2.10581766455768)","(0.1316761191353069, 1.8779497296395085)","(0.15036559281409184, 2.1631185369190464)","(0.16097737494687325, 2.0758287544571603)","(0.19443780055365442, 1.8880369657259652)","(0.15381702474597247, 2.0780077727182853)","(0.1255413743066127, 1.8884455606338657)","(0.13880158835978965, 1.812837961459701)"
"(0.14068845855520076, 2.270181013550625)","(0.20467398568196887, 1.7633256343881447)","(0.22754782796326206, 1.8941106197685444)","(0.17839723953465755, 2.0085477524199544)","(0.13915524320032047, 1.9806764267705799)","(0.1808815829714602, 2.016231941842803)","(0.17543853435121093, 2.1779888164862635)","(0.12735716906250916, 2.096648958140937)","(0.15142269170132286, 1.9430699762919512)","(0.11164301291608598, 2.3569255560561113)","(0.15537269210713195, 2.168605698583441)","(0.12467663255681491, 2.1630243188181457)","(0.13275812753523408, 2.210363712911082)","(0.1402081624093473, 1.9873234493559846)","(0.1565327507482899, 1.9879407320853333)","(0.1469932033778043, 2.1596233116367616)","(0.1300957407617315, 2.3425579708708413)","(0.12880091022899223, 2.0549891300762613)","(0.11795668205329432, 2.121608716493018)","(0.12657291497844703, 2.1221598236511348)","(0.11119945568497266, 2.0984725859968707)","(0.12430032590533888, 1.9835480931927378)","(0.11183028081462591, 2.013082515402601)","(0.21636573084215607, 1.7703286536015794)","(0.1307772499119887, 2.1549190133116625)","(0.11960906242909279, 2.118566877275031)","(0.14690663516866168, 2.2467268378602117)","(0.1588356188256063, 2.153287617246476)","(0.18732687187582722, 1.9267414804502936)","(0.15277526326748223, 2.1198639753899893)","(0.1241061100086981, 2.0054214154225596)","(0.13418352021751284, 1.9478936004878642)"
"(0.14805783109907095, 2.271618617072853)","(0.20411385151187972, 1.8139601098819038)","(0.22570614550749907, 1.9014821621028901)","(0.185432269142139, 2.0013052674472642)","(0.13967175655045594, 2.1502343377251583)","(0.17779285663407796, 2.0135835473838597)","(0.17090401840520278, 2.174554066005264)","(0.13561202024851765, 2.0601689555552234)","(0.15504595231119858, 1.979109013512767)","(0.11279991488838452, 2.2449731318745716)","(0.15623657241207467, 2.089186925595636)","(0.12829642079916004, 2.07495838112434)","(0.13089203350979528, 2.2097020394695805)","(0.1456616192888528, 1.8685795581900384)","(0.1550120037607937, 1.9640121494638205)","(0.14178768502854677, 2.1486140205241036)","(0.13186028815963455, 2.25994583180359)","(0.1262911063854946, 2.091808940750144)","(0.11507539229574257, 2.203999764452225)","(0.12660120976425682, 2.1509301361844977)","(0.1075357861139335, 2.3157912309433373)","(0.12045119899255444, 2.1557129951024554)","(0.10930135240666855, 2.210026201668716)","(0.20895780483436205, 1.76770145766977)","(0.12876596002394783, 2.3028261397126295)","(0.11866664900105056, 2.237706186039918)","(0.1446563554238218, 2.3199082240387883)","(0.16261611878496593, 2.249224688002231)","(0.1910853101874321, 1.9026662354604464)","(0.15539264739249584, 2.1800808875357744)","(0.12694583030040574, 2.1450387670048157)","(0.13496834405422645, 2.0548582887372735)"
"(0.14610939919569865, 2.326511732512699)","(0.20037706422609639, 1.835384097269983)","(0.22302586170512315, 1.9166242700230551)","(0.18318072877728614, 2.01501840094636)","(0.14385782868525188, 2.0657609069805694)","(0.1843337713205992, 1.9690391538757925)","(0.17510110361578873, 2.047518003231019)","(0.1324532592434544, 2.152691275435356)","(0.15480869745001896, 1.9108926477733175)","(0.12560544530443035, 2.0247607804210523)","(0.1564024553323771, 2.117215273064392)","(0.1304111233080928, 2.0012069037479505)","(0.13829634933381166, 2.069900672980223)","(0.1455445837845279, 1.840139378777334)","(0.1487874819960642, 2.0324700672622553)","(0.13628272070024824, 2.2532979124073136)","(0.13096759864360116, 2.2276045329590084)","(0.12860163573788638, 2.0147973051008057)","(0.11628348928091625, 2.1304677792442153)","(0.12763508213406688, 2.1188960294831656)","(0.10790383689281564, 2.2522346459516327)","(0.12769021262391067, 2.0619774700295466)","(0.1120031430325538, 2.219437208309191)","(0.20312484066798153, 1.8853818831622604)","(0.12814739193097383, 2.3432116571912776)","(0.11881568996059637, 2.29720502569157)","(0.13986655432032866, 2.4297898571644567)","(0.1632657873054045, 2.291849035102239)","(0.18887267025471516, 1.9359948607463482)","(0.15856471076236284, 2.187089985610346)","(0.12463030395672095, 2.1863182040062545)","(0.13758814148932746, 2.0201600549939087)"
"(0.14243209893317202, 2.4857159445830197)","(0.2102861847789601, 1.8035715059785546)","(0.22931660953131236, 1.8823440976487285)","(0.18164686245367995, 2.040124873630118)","(0.14687251712889393, 2.123194339739461)","(0.17749648603018947, 2.1039914029708036)","(0.1834336634151373, 2.0227215698928083)","(0.1390241969060917, 2.1860598903972366)","(0.16790870175474956, 1.7651915453926375)","(0.12616031488559135, 1.9655258072855977)","(0.16004170273160467, 2.0880135549867265)","(0.13544000282106536, 1.8835697997050904)","(0.13165927068048056, 2.139371970911802)","(0.14631733455964377, 1.774523019104628)","(0.14370470144478473, 1.9699863711602466)","(0.13574343938119984, 2.0860293921160835)","(0.12456337502229793, 2.190282259391756)","(0.1280989847439548, 1.936985430316144)","(0.11757062488486242, 2.0387501386163676)","(0.12491988683840258, 2.084515529060387)","(0.11017124081117644, 2.191172771694545)","(0.13040560568780202, 2.010560670676829)","(0.11433905696983701, 2.256897712379532)","(0.20583090586198843, 1.8683935383093626)","(0.1307314329395641, 2.313563398974919)","(0.12490372892593908, 2.337625056366038)","(0.14785939975674242, 2.3598920146638616)","(0.16380841223033682, 2.2602860229067283)","(0.19394062346724247, 1.8978579794017378)","(0.17286803781842672, 2.073922377751008)","(0.1345486467684003, 2.2266897830619548)","(0.13829358011603715, 2.107890688256685)"
"(0.18313117652083105, 2.0347978440545433)","(0.22720053224543896, 1.6881183765050307)","(0.261468349114629, 1.6383316376886492)","(0.20185732393932068, 1.8557198952592007)","(0.15486233332250823, 2.054417327719812)","(0.1885024199816414, 1.967553765872386)","(0.19693906182914261, 1.8773644327614918)","(0.142300260454945, 2.296168699801133)","(0.17857663216391467, 1.7597575363847526)","(0.1248226750240202, 2.124254989279779)","(0.15691669459361765, 2.1037101028013634)","(0.13306377969575597, 2.0243684158124484)","(0.1466734109393771, 1.9742805855681602)","(0.15223532212602786, 1.7481845404469827)","(0.14300703213408858, 1.9651816401016684)","(0.14043680863000482, 1.9655519300143298)","(0.13588588323886536, 1.99778891369055)","(0.14553025259617855, 1.7864499198442412)","(0.1305503833388258, 1.9819799036529335)","(0.14214162853055798, 1.9202873764952606)","(0.12458362793029709, 2.0708571882561873)","(0.14505657980199618, 1.901450282181077)","(0.1435531700101611, 1.9167342250439308)","(0.23171341280965652, 1.680081540977607)","(0.14483171304272602, 2.1817713509336976)","(0.13494546793013648, 2.268759424728472)","(0.17134321537393607, 2.114500132031212)","(0.19667981408358493, 1.9450063001948172)","(0.22403670784643948, 1.7075221654347876)","(0.2050080990754597, 1.8045859752363043)","(0.14537894551332836, 2.192999968214392)","(0.15460263566580498, 2.0401511485783352)"
"(0.19248526045649528, 1.961580825315827)","(0.2250649877223295, 1.704944478328823)","(0.25544926199037715, 1.647442271210166)","(0.19145460038062428, 1.9857793774376078)","(0.15522747510940096, 2.0784407346527054)","(0.18681260264202876, 2.0215536093297817)","(0.19681014102901281, 1.8956890683185736)","(0.14195735118207017, 2.297581472848389)","(0.18178894317069327, 1.7289444133043226)","(0.13095454031358642, 2.0300780257402624)","(0.15363199709745531, 2.0948210573664428)","(0.14135554268239572, 1.9438558843001361)","(0.146834342358218, 2.039990705476567)","(0.1567129574075315, 1.7663479999828462)","(0.15028304736301015, 1.9312212217905005)","(0.1413625197213501, 2.0235441862120025)","(0.1415530600653662, 2.004031159559532)","(0.14806925568221532, 1.8464252192823671)","(0.1375566540095166, 2.0119395751352593)","(0.14615819555541373, 1.9473134599255393)","(0.12549073868442154, 2.11258581157573)","(0.14689328925185113, 1.962228110420495)","(0.14597513318203192, 1.9725787075709145)","(0.23031305054038467, 1.693536563384247)","(0.14240595878477544, 2.235694710103785)","(0.13992640796833147, 2.2262204179294405)","(0.17796151564558146, 2.073185625675955)","(0.20660992604383183, 1.8892251573744994)","(0.23627323375807677, 1.655234544233369)","(0.19689857219397192, 1.8794419239573688)","(0.14285647664693168, 2.306530251231918)","(0.15197516529728353, 2.0854276657202684)"
"(0.20850194988686888, 1.8200795329569808)","(0.24045313001677177, 1.578349126181237)","(0.2687244097048161, 1.5841913081774248)","(0.21231928507787992, 1.7992765379404956)","(0.170449986556818, 1.9445616879902519)","(0.19292903560177066, 1.9531496971507503)","(0.19921491605564207, 1.86115783330569)","(0.14255392318877586, 2.296762228851442)","(0.18067706045661272, 1.7482149143838062)","(0.13192666690359728, 2.013823460765281)","(0.15332519665139446, 2.093559010499627)","(0.14497260383038954, 1.9225560764720189)","(0.1563071211958162, 1.9691892267670494)","(0.15767337682437482, 1.8183161692809577)","(0.15446090949136074, 1.9600732600271877)","(0.14252638017549127, 2.1128046381557875)","(0.1453630624870319, 1.9599846086773884)","(0.14907573983216968, 1.9063874663822828)","(0.13489061529793284, 2.158428897043252)","(0.14093640187368278, 2.052576967343646)","(0.11942229538588804, 2.323179338946949)","(0.14232083369717896, 2.1192949305764035)","(0.14281561814025023, 2.0793019821417524)","(0.22337951135592882, 1.800241616393151)","(0.1428864940874221, 2.2513566563072915)","(0.1475747604073599, 2.1477986662620685)","(0.19102655780365305, 1.9492186795739606)","(0.21812820400248764, 1.8147522191751968)","(0.2363296973208024, 1.663949523940389)","(0.19902990803031984, 1.8860028152751969)","(0.149315675361993, 2.2998720340414716)","(0.1441804468322927, 2.23031055178524)"
"(0.20440456411587293, 1.874983537602461)","(0.2453825593717864, 1.5708486599273863)","(0.2802231125979027, 1.5089490239053203)","(0.21605315060216554, 1.7968288028765045)","(0.1752308279027469, 1.9060751508763856)","(0.20556407579145067, 1.8475842866901009)","(0.2088507197194563, 1.8096482288381288)","(0.14241519389681911, 2.3295626399800655)","(0.18370273382573904, 1.7452421436190408)","(0.13628909025233163, 2.003804235449333)","(0.1533933032846956, 2.056340337883274)","(0.1481592347542907, 1.9302301673408653)","(0.15882523829834005, 1.9603138923608567)","(0.16057350752819166, 1.8379236766572615)","(0.16392744733673148, 1.8598327271441555)","(0.14944145868417835, 2.018074894286184)","(0.15374705980464784, 1.9076333117882662)","(0.15333203187862066, 1.9171487287029982)","(0.13641566219311432, 2.1879331853348374)","(0.13957484961673639, 2.1460750736510903)","(0.1254440219499184, 2.2502048373650414)","(0.14960635518091384, 2.016178211493635)","(0.146417042008153, 2.0382890466741572)","(0.2349883214052897, 1.7148013005271259)","(0.1441406190110249, 2.2447707381800064)","(0.15229582697433172, 2.0848843491837874)","(0.19612252650265885, 1.8692485869457336)","(0.2222293308541089, 1.777054999072783)","(0.24235201931055858, 1.6191139805518844)","(0.19956599467408637, 1.87243103871413)","(0.14679881961060467, 2.3562875821692155)","(0.14599746011947803, 2.200488175919295)"
"(0.2122082008852117, 1.801905861099561)","(0.25055314106092563, 1.5501018036190284)","(0.27656559766946875, 1.48273075230251)","(0.22575150581174327, 1.7247818814883273)","(0.1738982969897743, 1.9369837486153292)","(0.20274726085286907, 1.8926071254818468)","(0.2101587456195705, 1.788014566010386)","(0.13802125314824903, 2.406917030390321)","(0.19842012663123984, 1.6391292661682213)","(0.14635103299488206, 1.932870276865568)","(0.165641957547017, 1.9663512423005727)","(0.16683736444468764, 1.7915715748276035)","(0.17425573529427224, 1.8204042908021)","(0.1910020882819078, 1.6247198143096633)","(0.1772757773856669, 1.769310184246762)","(0.15843774863246918, 1.9323528402747523)","(0.15961540834691618, 1.8880214960665935)","(0.1625674338523313, 1.8610462074680907)","(0.14614645135858378, 2.0607417043461007)","(0.14828828754445167, 2.045549052818969)","(0.1294086012072603, 2.2068164353116515)","(0.1524618161376516, 2.03962323595545)","(0.14950349826709097, 2.06167346771885)","(0.23741784636939364, 1.6944605551492593)","(0.14990709591216092, 2.2899084568966543)","(0.15661376616942477, 2.1216097744561946)","(0.2137835925287207, 1.7716160873788527)","(0.22630577015809858, 1.773251955428758)","(0.2342858646378163, 1.7021030177122292)","(0.2027320295412478, 1.8878315809509798)","(0.15317951624919082, 2.3541619501669278)","(0.1474846012875088, 2.252119283582626)"
"(0.20977973243512707, 1.839648218809403)","(0.2397200819794869, 1.5655921424648547)","(0.27528565685454043, 1.4623927588205234)","(0.224636657614279, 1.7352736661584591)","(0.1741697935033004, 1.938623434422671)","(0.2045137600362788, 1.9312441869871502)","(0.20852451240948613, 1.8186297330587489)","(0.1438478723375757, 2.4563700812993674)","(0.16848773767069963, 1.9181141685865235)","(0.1398464106725228, 1.9637364331950922)","(0.16343333372909016, 1.9506045382760138)","(0.16237336243660208, 1.8216708619473794)","(0.1675333088344286, 1.8483455938261766)","(0.17354438799669034, 1.8206346045602078)","(0.170474997157062, 1.8829810282231652)","(0.1544664783766661, 2.0328085947783996)","(0.1543409000603933, 1.9798643271011316)","(0.15949097421745495, 1.9269145537838717)","(0.13561897555591823, 2.2075569838885283)","(0.1436764516929494, 2.1411852024653655)","(0.13140629149519056, 2.178660524301541)","(0.15050673706562837, 2.0483054982784528)","(0.15058377828951733, 2.027194963055397)","(0.23544152276924044, 1.6583188373519824)","(0.1560310057143035, 2.2016035762221953)","(0.1600046723660336, 2.070377549467817)","(0.228128413745012, 1.6526843968546536)","(0.23286516362366372, 1.7388392759255182)","(0.23808095003566299, 1.637519140034513)","(0.2021473126076109, 1.896468608279578)","(0.1690998313330881, 2.1385285957778533)","(0.15527404583140375, 2.2060857361358757)"
"(0.22373790132481522, 1.786366620910599)","(0.2515336165140729, 1.4840429858757453)","(0.2753619362347686, 1.4545951717279384)","(0.22758619874567887, 1.6980740387559041)","(0.19424450594448334, 1.7336469499478144)","(0.2109901201092059, 1.8959422024678838)","(0.22688677169828972, 1.7267375238681557)","(0.15174468906169444, 2.4281455747824072)","(0.15624508251849814, 2.076217984952086)","(0.14213118804419808, 1.95738706779933)","(0.1531725549485609, 2.0358188649992495)","(0.14973355745642314, 1.9527051898162278)","(0.16088646923843117, 1.958103800259317)","(0.14822126570135313, 2.0878131323901368)","(0.1443121257445138, 2.2005655476795662)","(0.13825022762868927, 2.260357520369531)","(0.13952910020384357, 2.2127262691726126)","(0.14883314381750082, 2.098795185548085)","(0.12820782993537494, 2.323996360451689)","(0.14195911225999852, 2.2069736659934343)","(0.13558761918725784, 2.109008420440885)","(0.14926932914228938, 2.0945278182530993)","(0.15100809252924008, 2.027882465485754)","(0.23785257651898245, 1.6473013043472013)","(0.16410789544633136, 2.084231961041559)","(0.1785264093018717, 1.842217808114986)","(0.24057927802702667, 1.5627433361430636)","(0.2289433034508962, 1.7624280183667016)","(0.26597074205930227, 1.4747817673229089)","(0.20995382266382764, 1.7955681027157904)","(0.16985301951552617, 2.1004037725923186)","(0.1554916972644905, 2.1882851025272894)"
"(0.2168784771786326, 1.8060539960266542)","(0.24537793082624365, 1.5067217648370967)","(0.2740453154117461, 1.4414441219609655)","(0.2249061282249789, 1.679737268286371)","(0.17495421966460634, 1.8052302211972486)","(0.2189192575013975, 1.8665154020144752)","(0.2316394440872841, 1.715731700567422)","(0.15549745880192362, 2.3849402227541288)","(0.15714074210454768, 2.0690652422943803)","(0.14270939720741255, 1.9906539826361942)","(0.15312914152846183, 2.0472514495350964)","(0.1497552125845402, 1.9832632900206066)","(0.1701538754734534, 1.8571665148384606)","(0.14950512046993628, 2.0969798250284386)","(0.14313700023265474, 2.249054194343044)","(0.1337359191085919, 2.3991354099834035)","(0.13887196211562156, 2.2392335843078146)","(0.15786952932389114, 1.947625391212832)","(0.13933354498884193, 2.0829768797946095)","(0.1482463014779025, 2.16419333801308)","(0.1517457630021628, 1.8845764222755568)","(0.16234634995496533, 1.879252149920757)","(0.1520252437350041, 1.9877893320204487)","(0.25771262799003375, 1.5146160024184046)","(0.18821153540238433, 1.818660970703815)","(0.18817038744983827, 1.7124799810165106)","(0.26220698010587634, 1.4167948786155529)","(0.22848120933633917, 1.7116851253499523)","(0.2786320118525886, 1.4010722321433922)","(0.22147747794962575, 1.7060093463069477)","(0.16718770080374537, 2.0677096644005424)","(0.14868644722252344, 2.224927094632464)"
"(0.21986264128155125, 1.817584573416597)","(0.24920976395108693, 1.4449809618422016)","(0.27654957723807744, 1.4427049248380954)","(0.24364404440251303, 1.5671659333039585)","(0.18352524805189993, 1.731178275778821)","(0.2356071894653883, 1.7580777706331723)","(0.23979901906381532, 1.7114750323667476)","(0.1647166657197073, 2.3155295438905354)","(0.15069740237666138, 2.121136292173996)","(0.1255224546767824, 2.2944456792960817)","(0.14559994631193673, 2.071179519989956)","(0.13805863940510488, 2.118519130190004)","(0.17958459598769272, 1.6997193946892803)","(0.15008218817303037, 2.0963506335271243)","(0.1462715350669928, 2.2238718908900075)","(0.13650261227571972, 2.381806090334124)","(0.14432260663526678, 2.2457205078554967)","(0.1610775865958465, 1.9192533763801118)","(0.1442068144903921, 2.046425136238062)","(0.14903116343605136, 2.1693434348681113)","(0.1557101923151289, 1.9002303825788114)","(0.1681339941099474, 1.8315629318033524)","(0.1534275760983468, 2.0142100698612633)","(0.25738766753395553, 1.4874103473568145)","(0.19268812299983956, 1.8459451701344194)","(0.1888030393085715, 1.7533591088972384)","(0.2554162885892668, 1.4510804459045028)","(0.22718154894071732, 1.7141321694499767)","(0.2707043024597239, 1.4450121016923683)","(0.20764797684142997, 1.792811564985762)","(0.17885711605879878, 2.0098415524216136)","(0.148443845277304, 2.3137493699473977)"
"(0.17706992524735096, 2.097911802906744)","(0.21701306837997042, 1.600406193424266)","(0.28478781807995296, 1.358399633189474)","(0.22313766312718597, 1.6426029154320887)","(0.14706671784592032, 1.9692100924060085)","(0.22154763986729314, 1.828306623394791)","(0.24274106480073346, 1.7037353425129973)","(0.15369118258113365, 2.311209948492783)","(0.13538830589613854, 2.3219633716129726)","(0.1246596236024129, 2.3154162096721493)","(0.15104908218616084, 2.064723512586885)","(0.13752931756384668, 2.1617004091040104)","(0.14979453066453033, 2.063774823249981)","(0.14213655936507655, 2.2585402422991048)","(0.1475399722056791, 2.253139503494227)","(0.12752222471678368, 2.576545264661369)","(0.12432053218870223, 2.6936436485165336)","(0.14174476972922842, 2.2693873790550807)","(0.13142398030065622, 2.396055571372618)","(0.1302247583209244, 2.5668862604252585)","(0.14307964441894808, 2.2491075707659847)","(0.1355489924938256, 2.370999285381224)","(0.1376000894370464, 2.326534112829594)","(0.2387359968712717, 1.6175819269312315)","(0.1706675658917918, 2.140847459615151)","(0.14473339183157086, 2.264798549014215)","(0.1995496542382715, 1.8200141408399144)","(0.18685734341457255, 2.0816938359881516)","(0.22974833092424934, 1.6640296632470848)","(0.16330037762479635, 2.2201760959958436)","(0.13961771884338872, 2.3938324542689178)","(0.11215602192005807, 2.9796337980267786)"
"(0.16592024622653606, 2.1627204983594153)","(0.21333120491030333, 1.6347398922183842)","(0.28682626487699064, 1.3553053722013115)","(0.2133733173355619, 1.724940680671162)","(0.12878994060517068, 2.2372817656171726)","(0.22804548219435009, 1.7714264652257274)","(0.24259272207002244, 1.6786134651105962)","(0.13377539830894203, 2.630619439697453)","(0.09965997660667844, 3.059988893013782)","(0.11042539533533917, 2.6446369019115665)","(0.14612389933147485, 2.166290377147401)","(0.12521831313948886, 2.381499025197813)","(0.11985429928148954, 2.601514193538439)","(0.1298084135374762, 2.502104523800716)","(0.1382043600503828, 2.3968121505998936)","(0.11465202973340466, 2.8204706857514465)","(0.11382157224228891, 2.825512327599347)","(0.1280561980238484, 2.423019632674158)","(0.11142748941546818, 2.762284042880898)","(0.11156173942601189, 2.9149241802897685)","(0.12424424198624646, 2.5537578090155404)","(0.10475068829017113, 3.0489101570299306)","(0.11512161262185858, 2.7258479047701036)","(0.2227148652280114, 1.7374677298139234)","(0.14637087642138139, 2.432168629128154)","(0.13073385265973503, 2.4131418375279305)","(0.17121022452532572, 2.152684721905698)","(0.16914065085305152, 2.2533168708908207)","(0.20251864952053067, 1.857257133486786)","(0.14129022976589484, 2.5384805044874565)","(0.12779917863987353, 2.5250364544202104)","(0.08059268886800279, 3.915047584670715)"
"(0.1549867175475235, 2.3037647837000064)","(0.21862576054479493, 1.6806691637330953)","(0.28069856583375274, 1.3854181024784737)","(0.20440652749181035, 1.8323417051582747)","(0.12487741441329643, 2.3715011364255987)","(0.20757193962825968, 1.988341569400693)","(0.2535803791713377, 1.5981560067818035)","(0.12956755433812187, 2.69502795159578)","(0.10504326165525116, 2.7681853679819173)","(0.12051072079152429, 2.4333494913767826)","(0.1567736718545122, 2.0214682422557297)","(0.13476251587029148, 2.1722246017190123)","(0.12814993464854893, 2.320824939945706)","(0.13386683495503895, 2.390373229703819)","(0.13421697742869682, 2.4339163095499816)","(0.11664619774589233, 2.6986300424871743)","(0.1174173323268721, 2.661996091336567)","(0.13850740066407694, 2.197797708594536)","(0.11628280297479704, 2.5527730038148086)","(0.11050696454779896, 2.9312593300560783)","(0.1316003353567626, 2.3530049331385117)","(0.10767040016150382, 2.770783412881794)","(0.11222188082279955, 2.6054636150670665)","(0.2356314191820411, 1.7131149576922993)","(0.14745739758478923, 2.4121520308136684)","(0.12955790639154263, 2.3860646859766947)","(0.16691366378646091, 2.1848314278788776)","(0.1616426481962207, 2.2570885424319993)","(0.19807007510756064, 1.8950523786700026)","(0.13645043010875563, 2.62550573967058)","(0.12452836459563404, 2.58085880236545)","(0.07855903065165867, 3.9401629091024732)"
