Fp1,AF3,F7,F3,FC1,FC5,T7,C3,CP1,CP5,P7,P3,Pz,PO3,O1,Oz,O2,PO4,P4,P8,CP6,CP2,C4,T8,FC6,FC2,F4,F8,AF4,Fp2,Fz,Cz
24,23,25,21,34,13,18,21,20,18,26,24,27,20,22,28,36,25,25,24,23,17,17,24,27,20,26,17,39,21,24,16
23,26,37,24,27,22,22,20,21,19,30,25,25,25,23,28,31,20,16,22,20,20,17,22,23,19,23,21,36,17,21,21
26,29,47,21,24,29,23,17,23,17,31,21,27,25,27,32,28,26,20,23,22,25,16,21,17,22,20,25,31,21,20,31
32,31,40,21,25,25,31,20,26,25,39,26,28,28,26,28,30,30,26,32,25,26,25,25,25,23,27,25,26,25,23,37
29,27,27,27,25,23,33,24,20,26,31,25,20,23,21,17,19,23,23,27,21,24,27,23,25,24,27,21,23,23,23,30
28,26,28,30,24,24,22,19,23,24,27,19,18,15,16,18,20,28,24,22,22,24,22,18,20,24,24,14,26,20,20,24
24,24,24,26,20,24,24,15,32,18,32,20,24,18,18,20,24,30,26,28,21,26,19,22,17,25,21,18,34,18,16,18
25,25,23,27,19,23,27,24,28,16,34,30,21,26,25,19,17,19,21,21,17,19,19,19,17,31,21,19,35,19,19,15
32,33,27,29,25,23,21,29,28,17,33,33,32,27,25,23,19,25,17,21,18,22,23,21,27,33,26,22,36,28,24,20
31,27,21,27,23,29,23,24,22,18,34,24,33,20,20,19,17,23,15,19,17,25,19,25,23,29,29,23,39,27,23,23
27,23,19,27,19,27,23,17,17,22,40,26,22,26,22,19,19,17,13,14,14,16,16,20,16,20,26,20,38,22,22,20
17,23,19,27,18,21,19,19,20,22,30,26,25,22,22,21,23,23,17,21,15,18,16,19,23,18,25,27,39,23,20,18
24,32,28,24,20,26,22,31,20,20,16,22,27,16,20,19,25,25,22,20,16,26,18,25,30,22,32,31,42,24,20,18
30,33,34,18,23,24,26,26,21,19,21,19,25,21,30,28,28,20,22,20,16,29,23,24,30,28,31,22,34,20,23,27
21,23,31,17,23,19,23,21,17,22,27,19,22,23,31,28,26,20,23,27,19,31,25,22,27,29,31,22,33,21,23,29
20,29,24,26,23,24,20,25,17,21,27,21,23,21,24,24,24,26,24,24,20,32,24,22,24,29,31,30,40,30,30,23
28,33,21,32,22,26,20,23,21,23,26,19,23,23,20,24,22,26,28,30,20,29,21,24,27,29,29,32,40,30,30,23
25,23,23,27,22,19,19,21,23,25,21,19,21,27,19,25,29,24,24,34,24,26,30,30,34,24,36,30,34,22,23,21
22,25,21,20,24,16,18,16,20,16,20,18,19,24,18,26,26,18,14,22,20,21,31,28,29,25,31,28,30,20,22,21
27,30,25,19,28,21,19,13,20,15,24,20,20,24,16,24,18,16,15,21,15,23,23,31,21,23,21,31,37,24,22,17
23,33,28,21,35,26,29,20,20,20,19,19,19,19,19,23,21,20,16,22,16,22,21,27,21,20,21,29,37,33,29,17
21,31,27,21,29,29,29,19,21,21,14,19,21,19,26,23,27,19,17,21,19,21,19,17,21,18,18,23,37,27,24,23
26,28,31,23,20,30,21,18,18,18,17,20,23,25,23,19,29,20,17,21,19,21,18,20,22,20,20,23,36,22,22,24
32,30,32,24,14,30,20,20,14,16,20,14,18,18,13,14,22,16,17,17,17,17,17,25,23,23,29,25,37,26,23,19
29,29,30,22,21,30,22,18,22,20,24,16,16,16,18,20,17,11,18,12,16,20,22,22,22,24,32,25,41,26,23,22
25,37,27,19,27,26,22,24,28,24,27,26,23,24,26,24,21,21,19,16,19,21,23,21,23,23,25,25,43,25,23,27
22,32,24,20,20,22,22,30,19,24,26,27,25,25,25,23,22,22,18,18,20,18,16,20,20,18,20,24,37,23,18,18
15,17,17,19,21,15,16,25,14,21,23,26,19,25,25,20,17,13,14,14,15,18,15,19,17,19,25,21,31,23,23,13
12,23,14,22,24,12,16,28,24,21,25,28,20,24,27,22,22,16,16,14,14,20,18,24,22,25,32,24,41,25,34,16
17,28,29,24,20,19,25,26,27,25,33,26,21,25,29,30,28,23,16,20,16,20,20,30,26,24,34,32,39,28,32,18
22,25,35,23,17,27,25,21,20,21,29,20,19,27,32,29,27,27,21,21,23,23,27,25,25,20,30,27,29,24,22,17
25,26,26,27,19,26,16,18,28,21,29,17,20,25,31,28,26,28,30,14,24,22,30,14,22,22,24,18,30,18,22,22
27,28,26,26,24,22,18,16,29,25,24,17,23,19,28,28,30,21,23,22,22,17,22,18,18,22,20,21,38,17,23,23
19,28,25,24,25,16,26,22,22,24,22,16,26,16,26,22,26,18,16,26,21,16,19,21,17,19,21,21,37,16,21,16
15,22,18,22,24,18,28,20,24,21,34,18,24,19,28,23,23,22,18,22,15,17,19,18,23,21,23,22,29,18,22,18
20,20,17,21,24,26,22,14,25,17,32,19,17,19,27,25,25,21,17,23,14,17,24,24,28,27,19,28,32,20,21,20
33,31,23,29,25,25,21,19,19,21,25,18,14,18,21,21,23,21,19,19,17,20,28,24,24,30,20,24,36,18,21,23
31,29,25,29,27,19,28,20,17,21,33,18,17,17,21,22,28,21,21,22,20,21,23,18,20,25,31,20,36,19,25,28
16,18,20,22,18,20,23,21,23,15,27,15,15,15,16,22,24,20,18,20,20,20,24,24,21,21,27,23,29,21,20,22
19,23,23,25,19,23,18,26,23,19,25,18,17,19,19,16,14,17,17,14,15,19,23,25,24,21,20,27,26,21,17,19
22,27,28,25,26,22,21,20,22,23,32,23,18,24,23,15,15,16,17,17,17,19,19,23,23,18,23,31,35,25,21,23
19,23,23,24,22,21,24,17,26,22,28,22,20,26,22,26,24,20,16,22,22,22,19,23,23,24,21,33,38,25,24,20
25,24,18,25,23,22,20,24,21,18,25,21,24,23,25,30,29,19,15,20,20,19,20,18,24,27,24,25,36,27,24,21
23,24,22,23,25,24,20,25,17,13,24,19,21,17,22,20,22,16,14,14,14,14,20,16,17,21,23,21,29,25,19,20
18,24,24,23,27,23,23,20,19,15,27,19,16,17,17,20,22,18,16,20,15,17,17,20,15,19,17,21,27,23,16,18
21,29,25,27,27,23,29,17,19,23,33,25,17,23,22,24,24,20,24,26,24,24,22,28,26,21,27,31,43,33,27,29
21,24,28,25,27,23,27,19,26,26,34,28,20,28,28,22,24,24,24,20,23,27,28,27,32,22,34,41,45,38,28,32
19,22,23,19,20,17,15,17,24,20,28,24,20,24,26,18,24,20,18,16,15,20,21,19,23,20,24,25,29,25,20,28
18,28,18,26,20,18,16,17,19,13,23,15,23,17,21,19,21,17,21,21,21,19,22,28,26,25,22,21,25,20,24,24
25,36,24,38,28,26,22,23,19,13,17,11,21,15,17,17,17,17,19,21,24,21,21,29,32,24,26,29,31,31,30,22
28,38,24,36,20,28,19,26,15,23,24,15,13,17,17,16,12,12,14,16,17,16,14,18,24,23,26,22,34,28,30,24
27,31,17,27,19,24,17,24,13,24,27,15,20,17,21,17,16,14,18,22,20,20,18,20,22,26,34,20,36,24,28,24
25,24,22,23,24,23,21,17,13,18,25,14,21,15,18,14,16,14,20,26,22,22,20,20,20,25,30,18,36,20,28,28
11,27,27,19,25,27,23,16,16,14,24,18,16,18,19,21,20,18,22,20,20,20,20,16,16,26,20,18,36,14,24,30
7,30,34,25,20,31,24,22,24,20,27,20,17,21,23,24,26,21,21,14,22,20,24,20,16,25,24,26,36,22,18,24
14,26,27,30,24,31,25,24,20,22,30,18,12,17,18,16,18,14,15,12,18,14,22,16,14,20,22,24,30,24,14,15
19,21,19,29,24,21,21,23,14,21,26,17,16,22,18,15,15,12,11,15,13,11,17,13,15,17,17,17,27,19,15,12
22,16,24,27,23,14,18,20,17,18,24,14,18,20,21,18,16,13,13,16,14,14,18,16,16,18,16,14,24,16,16,13
31,26,28,24,27,18,17,14,19,16,21,12,15,11,17,17,11,17,13,17,17,13,15,13,17,15,15,15,23,15,15,15
28,23,25,24,18,19,15,15,16,21,22,10,11,8,10,13,7,13,11,19,21,15,15,13,17,13,17,15,21,17,15,13
16,16,16,24,16,16,17,17,11,23,23,13,11,15,17,12,12,13,14,22,20,20,20,14,16,16,16,18,26,16,17,11
26,31,18,23,18,17,19,21,13,25,24,21,17,23,25,21,19,19,19,23,21,21,25,23,21,21,19,27,37,21,21,23
31,38,24,26,25,24,20,20,16,20,24,24,26,22,22,23,21,20,25,25,26,22,26,28,22,22,22,24,32,28,20,27
27,27,16,29,23,18,12,13,19,13,21,22,25,22,23,25,25,20,20,29,21,19,17,25,23,19,21,19,29,29,21,17
24,27,10,29,16,8,6,14,20,14,18,18,21,22,20,29,23,17,13,23,15,16,16,28,26,18,18,24,34,28,24,16
23,35,16,27,21,12,12,16,24,13,22,24,20,22,23,31,25,16,16,21,18,17,17,28,24,20,20,24,38,25,19,19
23,25,21,20,26,21,20,20,22,12,28,26,21,26,32,33,27,19,17,21,23,15,17,24,25,17,27,27,39,25,18,19
23,19,18,15,23,21,20,25,18,15,26,22,24,22,24,28,20,22,20,18,22,16,19,23,23,16,26,25,31,22,21,20
24,21,19,17,17,19,20,24,20,18,24,22,24,18,18,24,20,20,20,16,16,18,22,22,24,18,26,26,32,19,17,18
21,23,21,27,21,25,28,27,27,26,28,23,23,23,20,22,25,19,21,21,17,21,25,24,31,20,23,28,33,17,19,22
23,23,22,27,17,28,28,26,26,24,32,24,26,24,27,22,32,22,20,27,17,23,25,23,33,20,19,25,27,19,21,27
29,27,29,26,10,26,24,26,20,17,28,22,26,20,27,23,28,20,16,20,14,18,20,19,27,19,21,26,34,18,20,25
32,34,29,28,20,25,25,25,24,20,29,20,22,21,30,26,23,18,20,21,21,23,17,24,26,25,27,28,42,22,26,27
30,30,24,24,26,23,31,24,25,25,37,18,27,25,29,29,27,21,23,21,25,31,19,31,26,24,28,32,38,30,30,24
27,25,23,27,23,22,32,23,23,26,32,25,30,29,23,26,27,28,24,24,25,28,21,33,29,18,28,35,38,31,25,20
29,29,26,29,25,19,17,18,22,23,27,29,24,26,22,26,26,26,22,30,24,26,24,33,31,23,29,35,35,29,21,23
26,26,28,26,24,20,12,17,17,16,26,19,17,17,14,25,22,19,21,21,19,20,20,29,28,25,28,30,30,24,20,26
25,29,31,29,25,22,17,17,17,15,21,17,17,15,15,23,23,19,21,15,17,21,21,26,28,24,30,32,36,26,21,25
26,34,28,26,24,21,19,17,22,18,22,18,16,16,19,25,25,21,19,21,17,30,20,27,24,25,30,38,40,32,22,22
24,29,20,20,21,23,19,23,21,19,23,23,19,21,23,25,25,22,20,29,27,27,21,29,25,22,25,33,37,29,22,24
27,29,24,24,29,26,18,24,17,18,21,21,23,23,25,22,22,20,18,22,24,21,20,22,22,18,20,20,29,19,21,26
26,26,24,23,24,22,17,19,15,21,21,19,19,19,19,19,19,17,15,13,15,19,19,13,19,27,24,18,34,16,24,30
24,31,28,25,23,24,20,18,16,24,28,24,20,18,18,18,22,18,17,17,15,18,18,13,20,26,31,21,37,21,27,31
26,36,34,28,28,28,25,21,19,20,30,21,23,18,20,18,23,19,17,18,13,17,17,15,21,22,34,32,36,30,30,26
26,28,25,24,22,27,19,17,18,15,19,17,20,17,17,17,17,19,15,13,13,15,17,15,17,23,24,28,38,24,28,24
26,24,20,22,22,26,14,14,19,15,15,16,21,16,18,20,19,19,17,18,15,21,18,19,17,23,15,21,32,17,20,19
31,35,20,25,29,20,19,18,18,14,24,14,22,16,24,26,26,18,19,21,17,28,19,19,21,23,29,33,35,27,23,18
35,34,27,29,33,27,31,22,18,21,33,17,18,22,26,28,32,20,18,24,18,26,17,17,26,24,38,30,46,32,31,21
27,23,26,23,27,34,29,26,23,25,26,20,17,22,22,22,28,23,17,23,21,22,21,27,29,27,27,21,47,23,27,28
22,31,19,34,28,25,25,24,23,21,19,19,20,17,19,20,22,22,20,20,22,24,24,24,26,22,20,24,40,18,24,28
27,31,18,41,27,18,22,18,20,18,20,18,18,16,18,28,24,17,19,23,19,21,19,18,23,21,27,25,37,23,25,25
25,21,24,25,19,20,20,24,21,18,26,19,26,21,22,28,26,18,16,24,18,20,18,24,26,22,30,26,35,21,19,28
21,25,25,21,25,23,19,29,24,19,24,21,26,27,23,21,21,19,17,21,17,20,21,26,27,19,23,21,33,19,21,30
29,31,26,27,23,19,18,27,25,16,18,21,22,25,21,21,23,22,20,22,20,18,20,26,20,18,22,18,31,25,25,22
34,30,24,26,21,12,24,25,20,13,17,17,20,19,19,21,25,21,19,19,19,20,19,23,24,16,30,24,34,26,24,12
30,32,15,22,24,10,24,22,20,20,22,14,15,20,14,18,22,16,18,14,18,18,20,24,30,16,34,28,41,28,24,18
28,32,18,24,23,20,22,27,19,23,29,21,19,27,25,21,25,23,24,18,18,23,18,24,23,18,30,28,44,28,22,25
21,26,28,26,24,26,18,25,18,18,32,26,18,28,28,20,20,22,21,19,18,25,18,24,24,22,30,26,36,28,18,26
15,25,27,27,21,23,17,17,22,21,33,30,21,23,19,17,21,20,18,23,22,23,28,28,30,25,29,26,39,21,19,25
27,28,16,23,19,15,24,16,25,20,30,25,25,17,17,21,25,22,22,28,21,24,27,21,27,22,25,27,45,15,21,22
29,27,15,17,21,15,25,17,25,21,31,18,21,15,13,17,17,17,19,22,19,23,21,17,19,20,25,24,31,17,21,28
19,17,17,16,20,14,23,17,20,21,27,16,20,14,14,12,14,19,17,15,15,23,17,17,12,17,18,15,24,14,18,31
23,21,19,21,13,13,25,20,19,16,20,15,19,13,19,15,13,17,15,15,13,17,19,17,17,17,20,16,32,17,18,26
24,24,20,20,14,20,23,23,20,17,29,12,18,14,20,18,12,12,12,14,14,14,22,16,23,18,25,18,35,19,18,22
25,23,23,19,20,17,21,18,18,16,30,10,18,14,20,20,16,10,12,12,14,16,18,15,20,19,21,16,26,17,16,21
28,30,20,23,23,16,18,14,15,16,24,13,13,13,21,23,17,9,13,15,17,12,18,20,20,18,22,22,34,20,17,20
28,28,16,22,20,20,19,17,18,15,27,12,13,16,19,21,17,11,13,19,19,13,17,22,21,18,22,23,45,22,18,20
31,25,16,22,20,19,18,16,22,14,24,12,17,22,18,26,18,14,14,20,17,18,18,19,26,20,24,26,36,26,20,22
32,28,25,22,20,27,23,15,17,21,22,14,20,22,17,29,23,19,19,19,19,25,22,20,32,20,29,32,36,28,22,24
30,29,31,22,15,32,27,21,20,23,29,17,18,16,14,18,28,22,18,16,22,25,28,24,27,21,25,29,37,21,21,23
30,30,29,24,21,25,24,24,24,23,36,24,19,20,18,14,22,20,22,18,21,21,25,21,20,25,24,24,32,18,22,22
29,28,29,19,27,25,23,21,26,24,38,20,19,19,17,19,21,21,25,21,19,21,23,21,20,22,25,26,33,20,22,16
22,22,26,12,18,32,20,16,23,18,40,12,20,20,18,20,22,22,20,17,18,19,20,18,18,18,20,24,32,20,18,12
25,24,24,20,15,26,20,18,19,14,36,19,20,28,30,22,20,16,16,14,15,16,13,13,15,18,18,19,27,19,19,14
30,28,27,26,22,25,21,15,28,14,30,28,22,30,33,32,23,22,16,17,18,20,15,21,16,22,20,22,28,18,20,23
30,23,31,25,28,23,17,14,20,12,24,26,19,28,30,32,22,24,18,16,20,24,18,22,18,27,30,24,30,20,24,32
30,22,27,26,30,17,21,23,14,18,25,24,14,24,25,22,19,20,18,14,14,20,16,20,24,26,30,26,36,24,28,27
28,28,23,24,24,23,21,22,17,20,26,22,17,16,21,23,19,22,16,18,12,18,16,22,24,20,24,30,36,26,22,16
30,30,21,28,26,21,13,18,18,18,17,16,16,10,18,22,18,20,20,24,22,24,16,25,24,22,22,29,36,26,22,20
28,27,20,27,27,19,13,21,19,17,13,15,13,13,17,17,17,16,22,20,26,30,18,26,26,30,20,28,40,24,25,24
22,26,17,22,28,18,13,16,18,18,18,16,13,16,17,15,15,13,15,13,17,23,18,17,17,30,24,29,42,26,24,24
23,25,19,28,30,14,12,17,19,22,28,21,11,28,18,11,14,16,14,12,16,18,20,20,22,24,22,20,44,29,25,26
25,26,30,31,29,13,18,22,18,19,34,26,13,34,23,13,17,17,15,15,17,17,19,23,23,19,15,17,37,27,21,23
27,34,38,33,35,22,28,21,18,22,35,22,20,25,22,23,28,14,16,18,14,19,14,17,16,20,20,20,37,21,19,22
29,37,37,34,36,31,29,23,21,23,36,16,22,22,24,28,32,18,24,24,20,26,18,20,22,22,30,26,44,24,22,21
27,25,31,24,25,24,22,24,22,18,28,17,19,18,24,21,19,17,22,23,22,21,24,27,30,25,28,35,45,26,21,21
34,26,24,22,26,22,24,24,26,23,28,19,21,12,18,23,25,13,15,21,16,21,22,24,28,29,24,32,42,22,24,27
40,34,24,22,36,22,29,17,28,27,35,21,23,17,21,29,30,17,19,21,17,25,20,19,23,28,27,29,39,27,24,27
27,27,23,19,29,25,26,8,21,20,32,18,20,20,23,30,27,22,23,27,26,26,29,24,27,26,29,35,45,27,21,27
19,19,24,20,20,26,24,14,20,16,22,14,19,16,18,29,29,23,25,33,23,23,27,25,23,19,23,27,35,21,17,21
26,24,26,18,19,26,21,22,19,16,17,16,20,16,16,28,30,21,18,24,12,13,21,26,24,16,22,26,26,22,18,15
30,28,29,19,25,29,20,22,12,16,28,16,17,16,24,27,29,21,15,19,15,13,21,27,27,26,28,36,32,20,22,23
29,25,33,29,28,23,23,21,12,20,38,14,17,18,29,31,31,26,22,18,24,22,26,22,23,25,21,35,35,17,17,26
29,27,26,27,21,18,25,17,18,19,34,18,16,20,20,28,26,26,20,16,22,28,30,16,26,23,21,26,35,21,17,28
27,27,25,24,20,16,22,14,17,15,25,17,13,15,12,18,14,18,14,14,16,22,23,16,22,25,25,21,29,25,19,25
24,26,25,23,20,16,16,18,17,16,29,15,17,19,16,20,22,17,17,14,14,16,18,18,20,18,18,28,36,26,18,20
28,25,21,22,22,22,18,24,23,24,38,21,21,23,21,19,23,19,19,19,15,21,20,19,27,16,19,28,40,22,20,20
36,30,22,28,26,27,17,27,26,27,32,28,22,22,23,17,19,18,14,17,15,19,19,17,25,23,28,22,36,20,28,23
32,27,18,23,19,21,15,25,24,19,25,26,21,23,23,19,18,16,12,12,12,12,14,13,17,27,24,23,41,25,29,23
25,29,23,17,15,17,21,16,19,15,26,18,20,20,22,20,14,16,14,22,16,18,18,16,16,22,21,23,35,21,23,23
19,30,31,19,18,21,29,15,19,25,33,21,24,22,20,28,26,23,21,28,22,23,22,28,26,18,24,22,34,24,24,28
24,24,24,16,22,16,32,17,17,25,27,21,24,21,17,25,29,23,26,24,24,22,24,30,32,18,22,26,45,26,25,24
28,29,25,19,18,16,24,14,14,18,22,18,18,14,16,16,18,15,22,17,21,26,25,19,33,21,37,33,45,23,25,21
29,34,30,23,21,28,20,22,18,17,23,17,24,13,17,19,25,19,20,22,20,26,23,18,31,25,35,34,43,24,24,21
28,34,26,22,24,37,23,28,22,16,24,18,25,13,17,17,27,23,19,27,20,19,22,25,30,24,24,30,44,24,22,20
22,33,18,24,24,27,21,27,27,17,37,27,19,21,27,17,21,19,19,25,21,14,23,32,32,21,31,30,47,31,25,19
34,30,26,28,25,24,26,19,25,17,46,23,15,20,24,18,20,18,20,21,20,12,24,27,28,21,35,34,48,38,35,23
40,30,32,30,26,28,26,14,25,18,38,22,15,17,15,19,17,15,17,13,17,14,20,17,21,26,33,39,40,35,40,26
38,38,29,28,33,20,15,17,22,29,29,31,18,24,22,22,20,14,18,12,16,18,16,14,20,25,28,44,46,36,35,23
39,35,37,25,29,19,19,18,19,36,34,30,20,29,26,22,26,16,18,16,16,18,14,15,21,20,24,37,52,35,29,16
35,28,35,24,20,20,24,22,22,30,30,26,20,27,23,21,27,16,18,18,17,18,19,15,25,22,24,29,45,25,26,18
30,30,30,30,24,24,22,19,22,28,25,24,21,18,21,18,22,20,18,20,16,20,22,21,28,24,30,34,44,26,26,18
30,35,33,33,27,23,26,18,28,24,32,26,26,24,32,24,20,24,20,25,20,20,21,30,33,26,36,35,51,33,29,18
36,34,26,28,22,16,22,18,24,21,34,20,22,22,26,21,21,21,19,23,21,19,19,26,27,23,37,31,51,27,22,21
31,32,21,26,22,21,21,17,21,19,33,15,14,15,15,15,18,16,14,16,15,18,17,23,17,21,29,31,45,23,17,17
27,27,25,22,29,21,23,21,24,17,32,16,18,18,18,16,18,20,18,18,21,21,21,30,25,25,33,37,41,27,18,21
30,24,32,18,26,19,21,23,24,21,27,22,24,26,24,24,20,22,18,26,18,22,17,33,24,24,38,34,38,26,18,24
36,28,34,23,26,20,18,22,21,20,28,28,23,26,26,29,23,21,18,27,12,22,18,31,22,22,30,34,44,26,23,22
34,31,20,27,21,13,11,15,17,13,25,17,19,19,21,21,21,21,21,21,16,21,18,24,19,23,21,36,45,27,19,13
34,30,16,26,14,14,12,14,16,12,16,9,18,15,14,16,16,14,17,13,23,22,18,21,22,22,18,35,36,26,14,9
35,28,23,25,20,21,17,15,18,16,16,16,20,16,18,16,18,18,16,16,25,24,23,19,30,21,23,32,33,23,15,13
22,24,26,22,20,24,20,18,20,16,20,18,18,18,20,18,20,20,23,21,17,20,20,25,28,21,25,22,41,18,16,17
19,29,27,22,19,30,17,22,19,13,18,13,15,15,15,19,17,14,22,18,16,16,18,30,24,19,20,22,44,20,14,20
30,36,27,30,30,27,17,17,27,15,22,22,21,22,24,24,23,21,22,23,25,22,25,25,27,12,20,28,44,20,18,17
38,31,27,35,35,17,17,15,32,16,23,26,26,22,24,26,26,23,21,27,25,28,24,23,26,15,24,30,39,20,26,18
34,36,25,29,26,13,13,13,28,15,21,19,25,23,19,21,20,17,12,25,15,19,15,19,17,25,26,27,35,25,27,23
24,35,21,19,19,13,13,13,22,19,28,20,18,24,20,22,20,18,14,22,16,19,19,18,18,24,30,30,45,26,28,28
18,21,23,15,23,15,19,16,22,18,30,22,15,18,18,22,18,17,16,18,16,20,20,20,18,18,30,22,36,18,28,22
24,18,22,22,28,20,24,12,21,18,27,23,19,21,19,21,17,16,18,22,14,13,17,18,18,16,28,20,29,16,24,16
29,25,29,23,21,25,22,13,23,21,19,19,21,19,19,25,21,23,20,26,16,14,18,20,23,17,33,31,39,23,23,22
26,28,34,24,20,26,16,18,27,20,24,16,27,20,26,30,22,30,24,27,24,17,23,26,26,18,36,28,36,22,20,27
27,28,34,23,23,21,20,16,22,18,24,16,25,20,24,26,19,29,27,27,27,23,25,25,24,16,27,22,34,18,14,25
28,22,34,22,20,16,22,12,16,12,19,13,14,13,15,24,17,20,19,20,17,26,18,20,19,13,19,26,30,20,13,20
25,16,20,27,19,13,19,14,14,19,27,14,8,14,12,20,12,12,14,18,14,18,12,18,18,16,25,26,31,22,18,18
29,16,24,29,20,17,28,20,25,26,33,19,18,17,17,17,19,19,20,22,18,20,15,18,23,16,33,23,35,23,20,22
33,21,37,29,25,26,33,18,30,20,35,22,32,23,35,29,33,30,28,24,22,26,24,20,22,20,34,28,39,24,25,28
33,32,27,27,33,25,24,16,25,20,34,20,26,22,30,28,28,24,28,28,22,23,30,20,22,23,36,25,48,27,31,24
30,31,23,23,33,21,19,18,24,20,33,20,25,21,21,21,19,19,21,27,19,25,26,18,24,20,28,22,46,24,26,20
22,23,21,19,20,17,25,17,26,19,31,21,28,23,19,15,13,15,16,22,15,25,21,21,19,21,19,17,37,17,22,20
23,27,16,22,13,12,20,15,21,17,29,21,22,23,23,16,16,18,16,18,18,20,21,19,21,21,21,17,37,19,19,19
36,33,23,25,11,19,25,19,21,21,37,21,25,31,29,25,23,22,18,15,19,22,27,19,27,24,29,25,49,25,21,16
36,38,33,27,18,26,28,24,24,24,32,20,27,26,22,23,23,19,18,18,16,23,24,20,28,22,28,28,48,26,26,20
37,38,30,32,24,22,20,20,21,16,24,18,23,20,22,22,23,18,17,18,15,17,13,15,21,18,25,19,40,21,33,25
40,31,19,29,21,16,18,14,22,12,22,14,29,22,22,26,22,16,18,14,16,17,16,16,17,20,29,24,44,25,32,22
38,31,18,28,18,22,14,16,25,14,20,16,27,24,22,26,25,19,21,15,17,21,17,15,19,21,29,29,45,27,23,21
39,34,22,32,22,24,18,26,31,16,26,21,22,29,25,25,27,21,22,20,16,22,18,20,23,18,28,26,46,31,31,20
40,28,20,29,29,20,22,22,30,16,26,22,25,31,25,27,23,19,17,23,13,21,21,25,23,19,27,35,49,35,35,19
35,23,17,23,29,17,17,15,22,13,23,19,20,26,20,26,16,14,16,22,12,19,19,22,23,17,31,40,48,30,30,17
27,27,23,22,24,16,8,16,20,10,22,18,19,24,21,23,17,17,22,23,15,16,15,19,22,12,26,30,36,20,20,12
30,36,26,24,21,16,10,18,26,18,22,16,24,26,20,20,20,22,20,22,15,14,16,16,19,14,12,18,25,10,14,16
36,38,20,21,20,13,15,13,24,20,26,12,21,18,14,15,15,17,17,18,15,21,28,22,25,23,21,15,31,9,21,19
33,27,24,21,18,22,20,12,22,16,26,16,22,14,14,16,16,14,17,17,15,22,26,25,24,26,28,16,33,13,20,16
27,17,27,21,19,27,23,19,24,16,24,18,20,16,14,18,18,12,14,16,12,18,14,19,22,25,23,26,40,22,26,23
31,25,25,25,23,27,21,23,19,15,27,15,16,17,19,21,22,16,16,17,13,18,15,23,25,29,29,40,52,27,27,29
32,27,22,27,23,24,22,21,19,16,27,18,22,20,24,28,26,20,20,18,14,23,22,23,27,22,31,36,40,24,21,24
27,21,21,22,19,15,19,19,28,17,23,17,24,27,23,31,24,21,21,23,23,21,25,19,29,17,25,23,33,21,17,19
27,26,27,20,20,15,15,22,26,19,24,14,20,22,18,26,22,18,18,20,24,17,19,19,32,17,24,21,40,19,16,19
35,29,28,21,25,18,16,16,21,20,30,18,24,16,20,18,26,16,16,22,20,18,18,20,34,18,22,26,36,24,19,18
33,25,26,22,23,22,12,11,26,19,36,24,22,20,24,12,24,16,18,24,22,16,21,17,25,23,23,25,25,23,21,20
35,33,27,31,21,27,15,19,23,23,39,23,19,21,21,15,20,18,18,18,20,20,19,21,22,25,30,26,24,23,29,25
31,35,23,34,25,25,17,26,20,21,31,20,18,17,17,20,19,18,20,26,24,26,20,26,25,19,29,26,34,23,33,26
19,25,21,25,24,23,21,24,20,16,24,22,16,18,17,19,18,16,22,26,24,29,24,23,20,18,25,23,35,16,25,22
28,32,30,26,28,16,27,25,22,20,28,24,22,24,20,20,24,24,20,18,20,28,23,27,20,20,26,27,37,28,22,17
27,35,35,25,31,15,23,24,22,18,32,16,20,22,23,22,32,28,22,26,25,24,25,26,27,25,27,27,42,29,29,29
27,30,35,23,27,26,21,26,15,13,27,11,13,11,17,15,21,18,20,22,22,18,25,18,30,26,26,30,40,22,24,35
32,31,37,25,25,37,27,21,17,15,26,19,19,17,16,14,12,12,14,12,17,17,22,20,24,20,28,29,40,21,22,26
29,30,28,31,27,30,24,14,19,16,34,21,23,25,19,23,21,20,20,19,19,19,21,24,26,20,34,37,40,26,30,18
30,27,27,31,25,21,17,17,17,17,30,17,18,17,16,22,24,19,23,21,23,21,19,27,27,21,36,40,47,30,28,17
33,35,33,29,27,17,15,21,18,19,23,18,25,24,20,22,18,19,21,16,20,22,16,24,18,18,34,23,51,20,26,19
34,34,30,30,28,11,14,21,19,15,23,21,23,29,21,27,19,24,18,22,14,21,16,20,18,20,32,26,48,22,26,23
28,27,21,27,23,17,19,21,22,17,34,30,11,26,20,22,18,17,13,21,13,17,17,19,21,24,28,36,49,24,26,27
32,28,27,27,23,24,18,22,24,20,35,33,22,23,19,17,21,17,17,20,15,16,15,19,25,23,23,29,47,21,23,24
38,27,35,31,27,25,19,21,24,17,26,24,31,18,16,19,27,21,21,27,21,21,17,21,27,20,20,24,39,20,16,19
36,30,30,33,29,24,26,21,24,20,24,23,27,19,15,19,21,17,17,30,19,23,23,23,26,20,28,29,40,24,20,16
33,27,33,29,24,21,26,26,22,22,30,26,29,26,18,21,23,19,19,29,17,27,29,28,26,19,30,30,46,26,28,19
33,26,28,26,24,16,20,28,24,25,32,23,30,29,21,24,28,24,22,22,18,24,24,24,22,14,25,25,42,20,30,21
36,34,20,23,25,13,15,23,23,22,24,18,25,22,24,25,28,23,21,28,20,17,21,24,26,19,34,24,38,22,22,19
29,36,22,28,19,18,18,22,19,16,20,20,18,19,27,24,26,20,18,22,20,20,24,27,26,23,36,27,41,25,15,24
30,31,28,32,23,26,25,20,22,17,19,25,20,23,30,27,31,21,25,14,22,29,22,20,22,15,32,25,40,21,19,27
34,39,39,31,31,32,25,19,27,25,26,21,24,31,31,29,35,21,28,20,24,28,20,16,22,17,34,26,40,22,18,16
30,35,34,30,29,30,27,26,26,28,31,21,26,27,26,29,29,21,21,21,19,23,19,23,23,26,29,27,45,23,18,16
26,21,26,22,29,23,35,24,20,22,33,24,22,23,19,27,24,22,21,27,21,21,21,25,21,25,23,25,41,25,23,23
27,21,19,17,24,23,25,11,17,20,27,21,18,21,17,21,21,19,19,25,21,21,27,23,23,26,29,29,40,31,22,22
26,19,16,18,20,20,17,11,21,19,21,21,21,17,17,17,20,18,16,23,16,21,26,23,27,27,31,27,39,29,21,21
25,25,23,18,23,15,20,15,25,15,19,23,17,21,15,16,20,21,19,31,23,23,25,25,25,29,29,25,37,27,25,29
28,33,32,26,23,22,26,15,25,16,22,21,15,19,15,17,19,18,21,26,27,24,27,29,25,31,37,32,44,26,31,32
31,33,35,36,23,34,31,23,23,19,36,19,17,18,14,17,17,19,19,21,19,19,21,23,23,22,35,29,51,23,29,21
38,33,36,31,27,33,32,25,25,19,41,20,19,24,20,23,21,23,17,23,19,19,21,18,26,20,31,27,51,24,25,15
39,32,35,25,27,28,27,25,19,15,37,17,16,22,20,24,20,20,18,26,24,18,20,26,30,24,34,30,52,28,28,20
37,31,33,29,19,25,16,21,15,13,30,14,11,16,20,23,21,15,15,25,23,17,15,27,25,21,36,27,49,29,26,19
36,30,28,31,19,17,15,15,25,17,27,17,16,19,24,25,29,21,18,24,22,25,22,21,21,14,32,25,38,27,20,19
34,28,20,28,28,12,19,17,26,17,22,18,16,18,24,24,30,20,18,22,22,22,21,25,19,15,23,21,31,19,17,17
30,28,17,24,26,14,20,22,22,16,20,18,10,18,20,27,28,15,12,13,17,13,13,26,20,24,23,22,34,18,21,10
31,31,21,27,29,25,20,26,22,24,36,24,14,26,16,22,26,18,18,12,14,18,19,19,23,21,27,25,35,19,23,9
37,29,33,31,32,27,21,21,20,23,43,21,14,25,16,14,18,14,16,13,13,16,19,19,19,20,27,27,31,21,21,11
36,30,36,24,27,24,22,12,17,16,34,15,14,20,16,20,14,15,13,16,19,15,19,29,28,24,32,29,41,22,28,21
36,33,35,21,28,27,21,11,23,16,20,19,18,13,13,18,12,18,16,18,22,26,22,24,32,20,34,30,40,26,26,26
35,28,29,19,23,22,19,15,29,14,22,25,22,18,20,18,18,25,17,18,19,25,21,19,26,18,30,36,43,36,26,25
35,28,26,30,23,22,20,22,30,17,34,26,25,29,27,29,27,27,19,25,21,23,23,30,33,21,41,39,50,35,35,31
39,38,29,35,28,24,23,21,29,22,36,26,19,28,26,28,27,17,17,29,17,25,22,35,36,22,44,40,50,36,34,31
40,41,27,29,25,25,26,21,27,18,28,24,17,23,29,31,31,19,19,24,19,23,29,33,32,22,36,38,53,35,30,26
29,26,28,26,20,27,25,21,24,25,29,21,18,23,27,28,26,20,22,18,20,23,30,22,24,20,32,23,39,24,24,25
21,29,33,22,18,22,20,14,21,25,32,17,15,18,18,20,18,18,24,24,24,20,28,29,23,19,29,21,37,17,20,20
32,35,36,25,27,16,23,18,22,17,25,20,16,17,15,22,24,20,26,26,22,21,29,36,28,25,29,25,43,17,19,29
42,26,32,24,28,17,21,18,25,19,18,21,18,18,18,24,24,22,22,18,16,24,20,24,24,23,34,18,36,14,23,32
31,25,22,21,17,20,12,13,25,14,14,16,20,15,17,18,16,17,18,14,18,22,20,22,26,16,34,22,42,18,25,24
23,22,18,26,23,20,14,17,21,15,20,17,16,18,21,17,15,15,17,13,17,19,19,25,27,19,25,27,39,21,19,25
27,19,27,25,28,17,23,23,22,23,34,21,11,21,23,20,14,12,14,14,12,16,12,18,18,26,23,18,26,20,22,22
27,20,32,20,24,20,36,21,26,28,40,22,17,21,22,22,14,12,12,16,10,18,12,12,14,22,27,21,30,23,28,18
34,22,36,26,29,28,35,17,23,25,30,17,22,20,26,26,17,15,11,15,11,15,11,15,16,20,24,24,32,24,27,18
31,29,34,24,26,24,18,20,17,21,21,12,17,15,19,19,11,11,9,11,9,9,9,13,15,20,18,18,31,24,20,14
29,27,29,17,15,21,17,21,21,23,25,11,17,9,13,15,15,14,14,14,10,12,10,14,13,17,15,15,33,25,15,13
31,22,24,14,16,24,22,17,23,17,22,16,17,9,19,21,19,15,15,17,11,19,15,17,17,23,19,15,33,21,18,21
29,27,23,15,19,15,20,16,19,13,24,21,15,13,21,19,15,14,14,21,15,24,19,17,19,25,23,21,33,19,17,23
34,28,30,18,26,15,22,17,18,17,29,23,16,17,17,15,19,16,18,28,16,26,22,20,24,22,30,30,40,30,18,19
37,37,31,23,29,21,18,19,16,12,33,26,16,20,22,20,28,20,19,29,18,25,24,23,28,25,32,30,39,35,29,20
35,37,35,25,21,27,15,18,17,12,28,22,21,20,27,31,31,28,26,28,22,26,20,24,26,21,24,24,30,25,27,18
29,25,39,27,22,29,22,24,18,15,18,14,22,14,24,28,28,30,31,24,19,29,15,22,23,20,22,20,35,17,20,17
26,22,36,24,21,28,29,29,23,23,34,21,27,25,25,24,24,26,30,26,25,29,23,25,27,21,28,18,41,18,21,21
28,21,26,17,18,25,24,24,23,21,43,25,27,29,25,28,23,19,25,27,23,23,29,29,35,21,37,28,42,24,18,25
32,26,27,22,21,27,25,21,25,21,34,20,17,21,22,21,22,16,18,21,13,16,21,29,29,25,36,36,44,28,19,22
33,34,31,30,23,29,26,21,30,30,32,22,23,27,23,19,19,19,19,20,17,17,17,29,21,25,29,33,45,29,24,17
31,32,28,24,22,21,19,19,27,20,26,18,27,26,25,24,22,20,22,24,26,19,21,32,22,25,24,32,44,28,28,18
31,31,35,25,24,18,18,16,23,14,19,15,20,21,26,18,18,16,18,23,24,18,20,26,25,25,27,31,37,25,29,20
27,31,30,23,23,17,17,16,16,20,25,18,13,22,24,15,15,15,14,16,15,14,16,13,19,20,30,25,33,21,21,22
23,27,30,19,23,24,24,24,15,20,31,18,16,22,18,18,20,20,16,24,18,14,20,16,17,22,31,25,39,23,21,26
22,22,34,22,22,24,26,24,21,18,34,20,22,26,20,24,24,22,15,27,20,10,18,22,22,24,26,28,40,22,22,26
29,26,31,21,21,14,20,22,26,20,34,27,20,29,22,24,22,20,14,22,17,10,14,21,22,17,22,24,42,24,20,22
36,28,34,20,22,16,22,27,24,24,34,32,17,30,20,16,23,17,17,19,17,15,19,21,25,23,26,22,44,20,22,29
24,21,25,17,18,15,21,23,19,29,33,27,19,27,22,22,28,17,19,17,20,21,23,20,23,29,25,17,30,12,19,29
21,25,23,23,19,21,27,22,17,30,32,22,25,22,29,35,34,25,25,26,23,31,22,25,34,26,27,21,31,17,19,24
33,33,32,28,33,28,32,22,15,26,36,20,24,18,28,33,31,23,31,27,25,31,25,31,37,28,29,28,47,24,23,30
32,26,34,22,28,25,27,21,12,18,38,16,20,14,19,21,19,14,24,19,20,24,23,24,23,25,27,21,38,25,24,25
28,21,33,17,15,21,23,19,15,18,34,16,18,20,18,17,17,12,18,26,16,22,24,24,24,24,30,25,37,23,25,24
33,22,32,23,20,18,24,24,20,24,40,22,22,24,22,27,21,15,17,29,15,23,25,29,27,31,34,30,45,24,29,31
40,25,42,32,22,28,30,30,20,22,42,24,23,20,22,28,20,16,15,19,13,24,23,25,28,26,34,24,38,24,26,29
37,30,35,27,21,29,20,24,14,18,30,20,14,16,18,19,19,15,15,15,15,23,25,21,23,23,28,17,35,17,17,21
34,29,30,15,17,32,19,23,13,20,28,17,17,19,21,19,20,19,16,20,14,23,26,18,21,24,22,14,36,16,14,19
33,31,31,21,15,31,26,19,18,24,34,18,21,25,23,21,24,20,16,26,12,24,22,18,20,24,26,17,36,25,17,20
41,46,27,30,20,18,16,17,20,20,30,17,20,21,21,23,26,18,16,24,14,20,14,21,18,22,25,22,41,29,21,15
49,46,31,29,20,17,11,20,21,13,17,16,20,16,18,25,22,20,20,24,16,20,14,28,30,22,28,34,50,30,20,20
45,30,28,26,20,26,22,23,23,22,26,20,22,26,26,27,28,24,23,31,21,20,21,32,36,31,30,32,49,28,22,26
49,32,42,30,24,34,32,26,21,26,36,26,26,34,33,24,32,23,21,27,23,17,21,25,27,27,31,27,46,27,24,20
41,35,44,29,21,31,29,22,18,25,37,28,20,28,25,18,24,20,26,28,22,26,15,23,17,21,26,26,41,24,21,19
32,37,37,27,19,35,33,17,16,22,36,18,15,17,19,21,19,19,22,30,22,30,16,26,16,16,20,20,34,20,18,18
32,44,39,34,21,26,30,15,21,18,32,19,15,15,19,24,23,17,15,22,17,19,18,16,20,13,28,25,41,27,21,17
38,51,39,38,27,21,17,15,23,16,28,17,14,14,22,22,22,20,15,22,14,16,18,12,25,14,28,32,47,26,26,21
41,43,43,35,28,31,16,18,18,12,26,8,12,10,24,20,18,22,14,22,15,24,21,21,21,14,21,29,41,14,26,18
36,32,46,33,25,33,19,25,15,17,29,13,15,11,21,21,23,21,18,25,17,22,26,22,18,20,28,34,44,22,24,16
38,41,49,32,27,32,23,25,16,22,27,16,18,12,14,18,20,18,16,22,17,16,23,24,30,22,34,39,43,33,24,23
30,54,50,32,24,32,24,27,21,20,29,21,15,17,18,17,15,13,15,17,15,16,22,24,34,22,30,36,38,30,24,28
36,54,48,33,25,29,28,27,25,21,40,31,19,29,31,25,19,15,17,19,13,13,20,27,30,30,28,34,52,22,27,23
50,48,50,43,27,30,33,22,26,27,46,28,22,27,31,28,20,16,16,18,12,12,16,32,34,30,34,41,56,31,28,20
45,44,41,37,21,28,29,21,24,25,39,21,24,22,26,24,24,20,16,28,16,14,17,28,35,19,35,34,43,34,26,18
32,33,29,21,18,19,19,20,28,18,30,20,26,28,32,26,28,26,17,35,20,24,17,30,29,17,28,28,42,26,26,18
37,35,30,35,23,24,18,16,26,18,26,18,24,27,28,24,26,30,20,32,20,30,21,35,31,21,33,39,49,31,33,26
42,36,38,37,23,30,26,17,19,22,42,22,22,20,20,18,22,26,22,25,18,29,24,30,29,21,34,34,46,24,28,29
36,34,50,26,18,30,26,17,23,20,48,26,17,20,17,15,19,19,16,15,15,23,15,22,27,23,31,31,46,27,21,21
40,39,45,24,20,27,25,18,27,25,35,25,16,19,15,18,16,16,13,16,13,17,11,21,24,24,26,30,48,28,22,16
