Fp1,AF3,F7,F3,FC1,FC5,T7,C3,CP1,CP5,P7,P3,Pz,PO3,O1,Oz,O2,PO4,P4,P8,CP6,CP2,C4,T8,FC6,FC2,F4,F8,AF4,Fp2,Fz,Cz
0.561752576006619,0.47985366879817815,0.4604506633229396,0.5664516236775891,0.5047895418696815,0.5452461784397884,0.5950278713612412,0.549371189427206,0.4892828186122339,0.48713036353708605,0.5310156124016742,0.5031329530056149,0.5353850056992581,0.5342136181846092,0.4635783227780821,0.5093242086892337,0.46870355037364575,0.46373832101970974,0.4843012214578322,0.4820711422769662,0.48875685902283345,0.5376860934335564,0.5600371066692725,0.5117904449778398,0.527107407435318,0.4243426924630525,0.43018581672052414,0.4847526667256822,0.4484790145619483,0.49147933767894303,0.45593217054655316,0.46082989474221864
0.548795123294706,0.4723464829110169,0.4595046718341518,0.5285056874222548,0.49461565408271574,0.5328837821624955,0.580057241731268,0.5329972591096931,0.47107493988009225,0.4915563363616598,0.5258573080104683,0.507815462205456,0.516918368899954,0.49846562479934503,0.4410458609220128,0.5021019250823266,0.44540536914869866,0.43810826962494925,0.46011625526339694,0.4331085502090791,0.460263892934449,0.5314449109687263,0.5677558127056122,0.4702844886774371,0.5281112600530163,0.47923501399767926,0.4326623369928634,0.47414412112329507,0.4251310534247141,0.4769944425910244,0.44181287215617937,0.42952911108368236
0.5351165116864409,0.5252356595786811,0.4684108992514709,0.5443902671336955,0.49075107180309036,0.5657398546433827,0.5930423268232959,0.5335612571783579,0.4747133748206134,0.5076944902354237,0.5121347260629112,0.49018371414770795,0.5190717853046491,0.4846400411557954,0.45129706878863385,0.48674581038880904,0.44513341482019303,0.4534937447188396,0.46892215834004175,0.40355710636793724,0.45703000537219646,0.49707864124388307,0.556436135018043,0.44232958972787134,0.5095460842255883,0.48218858284809824,0.4469657067785817,0.46690832830546297,0.4344755936567054,0.5030508420095763,0.4249972521839632,0.42156819749043006
0.5167015128716599,0.5097843831081588,0.44709947531320526,0.5139175156752422,0.49926876992597397,0.5603400201164019,0.5988520002788715,0.5296718318226242,0.467955564386214,0.5314786429010633,0.520457768741599,0.510098967563494,0.5376961461570948,0.48306282678863427,0.464620563581608,0.49379398816083514,0.4831515638436639,0.4642183868223637,0.45820557195154843,0.4177644101463157,0.4697352643091003,0.4699133398682195,0.554771286647925,0.4165065621002069,0.5245115678113199,0.4560084645152918,0.4869430775934075,0.4969636748745008,0.48288255732071644,0.5129240286444375,0.44608427860142863,0.4625286803808798
0.4968627318694216,0.4815751912631785,0.44908438141598545,0.5012328058070528,0.49391533426689327,0.5655226682466098,0.589044922381747,0.533934828878258,0.48876660368676755,0.5408745649837972,0.5173559786455401,0.4891613484236337,0.5326729688479493,0.472964530128749,0.4734704128679739,0.4877823722531711,0.4658837368769803,0.45624088690781806,0.45861056413285495,0.4042090713880396,0.4752213643743191,0.4764404330792149,0.5574456004161709,0.4360845200031814,0.5379106566493166,0.4372076326495506,0.5099129121194904,0.5098048627165263,0.4837969513780713,0.49622109002474973,0.43418604667171157,0.4765574359725452
0.4554497821403704,0.47726180066850515,0.4629002466364882,0.505429766546207,0.5091727308276911,0.5454320412200365,0.590381491970515,0.5237373589848879,0.46560801777269745,0.5151768964541911,0.48200889036822797,0.4867392347076508,0.5027626895384573,0.4564136518854546,0.43769595804162537,0.4713587483592382,0.4476991305280654,0.45586260048947774,0.42022757166171554,0.39710907847157884,0.46330309238868267,0.4510000637389247,0.5531821393230455,0.4230593523901128,0.5216312298866407,0.4657699857172388,0.4988212522082936,0.5221957578530232,0.48191254428453034,0.4880389794173539,0.48491347855385875,0.5049270773106254
0.4388849589326498,0.5175343666146562,0.4843374482974113,0.5387011815397152,0.5145293317034751,0.5594560154511,0.6039593487189876,0.5120676205422746,0.4966547567153831,0.5230569369814784,0.4809792126013973,0.47615430435253486,0.503905180921417,0.4604409567646756,0.4539287884655062,0.4628769945237376,0.4284935049367145,0.45710137655722877,0.39746169554721444,0.395497967565891,0.491670585480915,0.44484090453518715,0.5453072950688627,0.4528478125097167,0.5198368878612684,0.4937586263412757,0.5218898433713707,0.5072870224351828,0.48811350484304544,0.49531841673445276,0.5275829172995147,0.49664706660731994
0.42265693078738054,0.5156586006521484,0.5070548012398256,0.5448509202799736,0.5066246030028446,0.5512854418670384,0.6146367163373256,0.5089764392452455,0.5089501390559351,0.5283500388400708,0.47381415878917144,0.49963843437542627,0.5131372009252297,0.4626364673508771,0.44814971917899843,0.46696513939957945,0.4394643494239371,0.4615345516905245,0.4023317351498351,0.41365494913974854,0.47507617740556013,0.4486714484993804,0.526698972922281,0.47333805159049086,0.5563911869946248,0.46108405808791464,0.5336080897071983,0.49943880622382447,0.49609161695493365,0.5322202531814526,0.5312202167202598,0.49926434518956636
0.4002759935803506,0.5065428078405431,0.5218231491216062,0.5410153839075786,0.5081484599589502,0.5323944441581016,0.6322834250302359,0.49384139351961615,0.5099372373402548,0.5283857697441394,0.4631620974290189,0.5074365080458457,0.5197928381012391,0.47776413613848145,0.4714230758999618,0.47507137019746914,0.45878669790230037,0.4762971354988765,0.4286104889597561,0.43512891018662975,0.48625024568269615,0.46897247352352184,0.5087240730994841,0.4877237975177015,0.5373069889265996,0.4427917986477761,0.5363638147141151,0.48382867902792775,0.5198633122336943,0.5374102503884146,0.4913564059162874,0.5105897468926244
0.42672017931888173,0.5107166260003368,0.48678453517361614,0.5426330537572622,0.5113199391492642,0.4988406636456744,0.6258036084947655,0.4962185542824048,0.5077401024088051,0.534474339652717,0.45653431672163813,0.5010245894135419,0.536683560903379,0.45173217131257465,0.4543630367046634,0.4519402810288698,0.45879849092705083,0.4663767545420504,0.40900597932025246,0.4256678154256838,0.4547936379594715,0.4767087862101951,0.5128864737822149,0.4925613711383357,0.5196263312328014,0.43645686141650203,0.5445354495288818,0.5076661931174393,0.532346759819871,0.5516604006743066,0.4807991549335632,0.49557135722644985
0.42513433981954013,0.48777948108679275,0.47313729457975456,0.5433639158909817,0.5013080529757036,0.5112623830193255,0.6086982649340156,0.48855093871195954,0.5122897528708802,0.5413582689880488,0.44726669454348883,0.5105776078917035,0.5248900765615929,0.47376416148638384,0.4477564276259832,0.45669903113050697,0.46421232454894057,0.47183564054434923,0.4172377133892477,0.43330997341705657,0.47042133604153347,0.4960471204468781,0.4957535247178441,0.48767652105806797,0.515446254555027,0.4381544334686317,0.5412481813644408,0.5166148867171794,0.5451985770845938,0.5740344489328663,0.4929744682762542,0.48325809604768544
0.4230039228610867,0.4704563539673165,0.47374953981082996,0.5399898755102592,0.5118751535922778,0.4895482253187058,0.6203430235535039,0.4927128637775379,0.5195702141547421,0.5208902302416958,0.44397814463587837,0.507854941783973,0.5276262918358113,0.49740260343385,0.450045079714548,0.4598628751124516,0.5098703383937148,0.5151947633844479,0.4527301383880814,0.47761381025776706,0.5107881207188637,0.5156918134171636,0.5068156099416661,0.5238057531555234,0.5236565297915414,0.43260584243234584,0.5167087146402343,0.5326170662195924,0.5458889017157081,0.5575559854208607,0.474543776000299,0.49152466272894363
0.4225244723674909,0.44570722438659777,0.4874581419995766,0.5346809175007687,0.5299385788754208,0.502898062429341,0.6191746271890155,0.4923208842447876,0.5208379541466994,0.5506429451746144,0.466694684310715,0.5041324902024042,0.5296643439510172,0.511725766675526,0.4964755054481321,0.4962273694107515,0.5466867491261782,0.5411081263762467,0.46883143358930185,0.5172151729131282,0.5120131131319418,0.4954516606766579,0.49208971270852087,0.5321372964174583,0.5161072912274464,0.4018342714811592,0.5076453055646262,0.5584427672730593,0.5593632945620322,0.5421745086548414,0.4942031928499205,0.5292229889057067
0.4287378155464998,0.43583794291503763,0.4932796939091692,0.5318610434928029,0.5487130430192361,0.5354599481742746,0.6043029072371142,0.4890395767868592,0.5286531856133149,0.5375056320256812,0.45551380383438933,0.49676426924423783,0.505126896747989,0.4978686576425668,0.4807481685287127,0.5044905786854935,0.56197401293036,0.5253287826798871,0.5249193868418501,0.5404610421987627,0.5127095051175864,0.5099489201153525,0.5007643757066412,0.549204142954343,0.5220804578008162,0.4133429469090655,0.5121145784360375,0.5758125323177937,0.5556656265882556,0.5641027478780223,0.5150220210277562,0.5359472014022894
0.43009488965746767,0.43738822512350434,0.4431757049349876,0.5183422369488263,0.5703345933224913,0.531020584119997,0.5778538693646786,0.48613208866596863,0.5307830065190972,0.5345675153213543,0.48240137198621047,0.5008778309806677,0.5425700146970694,0.5038136978009832,0.48910525006824096,0.4992099634637936,0.5557085154468924,0.5259626315366616,0.5323553888239576,0.5341922227188426,0.5138201619478757,0.5099252389953322,0.509574381561012,0.551270816003242,0.5064944363617729,0.4202111299562808,0.5097909625252144,0.5499032472554675,0.5374086947465105,0.5436830712720165,0.5490438490100239,0.5489822778295562
0.4766836808061094,0.4427351683540621,0.4163301590131541,0.5094170074983302,0.5802882674220837,0.5318872278603147,0.5913495220518468,0.4908529579889538,0.5451891436961084,0.5359825520994035,0.4972543250515073,0.5288109755181478,0.5368560291980221,0.5195911455068849,0.5230776565784706,0.5487657719113569,0.5768572964920553,0.5412869643542261,0.5522946460368471,0.5412819410731122,0.5359394567344313,0.533877035626496,0.5078935728487324,0.5445103262594279,0.5022777441327134,0.4287709214341062,0.4878730259970746,0.5473469192626583,0.5505684717164995,0.560012634811854,0.5600826497348561,0.560544564597018
0.44668587387756603,0.4137294058439002,0.3916058193185843,0.4880999727045546,0.5718333687268918,0.5048195997057788,0.5780510993957885,0.487397349178048,0.5095803686290781,0.5264213034040934,0.482875740564093,0.5156397544864423,0.510784025563027,0.49481336581196916,0.48165424646571087,0.5557114716896431,0.548676754514991,0.5536615041754378,0.5565425398276408,0.5451518814872769,0.5380869963498465,0.5152406419751074,0.48005851716462283,0.5524042564039208,0.4964532129777826,0.4218476549200611,0.4507803043202069,0.523489765531012,0.5319393898454601,0.5430685502122112,0.5354211958076074,0.5246551240989911
0.43327939283430483,0.40591728989294346,0.3619285755218148,0.4734836228148991,0.56949840636764,0.5294787439965757,0.5930866050363386,0.5014665883213686,0.49157360873051376,0.5128928708085078,0.4847133091852281,0.5163195393536062,0.5417018163923044,0.49785278759645496,0.4869136135221469,0.5626981851595922,0.5509867177133548,0.5557371468514957,0.5511492435933643,0.5528134002637295,0.5413587911042925,0.5006096168060716,0.4926119772733282,0.5466693108397543,0.4943970124611618,0.47376276383828253,0.4472843991557509,0.5166543746888008,0.5201072454968555,0.5243311496399408,0.5310716854688601,0.5040538072329661
0.44989977714194207,0.4332679022667974,0.3474547223708338,0.4600867664799397,0.5666482137360241,0.5504749564647619,0.5915673877420251,0.512257748831747,0.48671684531428777,0.5197881659256043,0.511221820284644,0.5172522968134343,0.5348871224193524,0.49842627689042857,0.49232066421358495,0.5597510601710026,0.5431563558674626,0.5769911957158574,0.5576607530996194,0.5495148774600711,0.5446360758697771,0.49101663082392866,0.4933364888365296,0.5479262225289232,0.5093364801506951,0.48456071582241866,0.4777177679197184,0.5057631291478268,0.5104000012866988,0.5190094906573365,0.5240708505160114,0.49659520684997843
0.4375317703737239,0.3898397902050835,0.3499314400372667,0.448866942233065,0.5773694556365947,0.5442339031179491,0.5821214423036103,0.5122119456146376,0.4808971054914188,0.5226774965091052,0.5249154961167551,0.5314210629430207,0.5222097374764046,0.49665756379464976,0.4797218787146568,0.5678474162518092,0.5307164383720737,0.5488590255235648,0.5538227657298112,0.5349849420795665,0.5605713541810913,0.4626895512123069,0.49110917006848515,0.5417552281413138,0.528481000993564,0.5106110084630959,0.4988583904432966,0.518955749849241,0.5103002067041201,0.5408249890826855,0.5114292501860092,0.5221354564364408
0.4323409532811689,0.4232264206673408,0.3667457966108967,0.4595939879047329,0.5772016078537789,0.5413321125014606,0.5810298824392393,0.4992430750110017,0.49327444064872333,0.4892846921573888,0.5338514813948352,0.5524370062084171,0.5290758192237036,0.5327518600960464,0.4812839446655157,0.5777470393652738,0.5349546065656852,0.5592656645929425,0.5525374212624472,0.5501992538092404,0.5601363953224522,0.4646707514539075,0.5008118115889666,0.5515814378879103,0.5260828790440806,0.5362343367092086,0.5036872352761979,0.5016109988273069,0.4975308704077897,0.5464281669593748,0.5358305052872575,0.5153241606792716
0.45872444721503863,0.44971134799003804,0.37728621218465414,0.49627790380163245,0.5902022607062377,0.5612686262344149,0.5938174719444304,0.534173727941461,0.4923128162976121,0.5265839826845102,0.5428037315222005,0.561688179429982,0.5124882019555745,0.5444100049427271,0.4867193363880632,0.5510572322092228,0.5192482755699055,0.5166687121766501,0.5258662099060157,0.5344382410638013,0.5482236985445356,0.42447885327710483,0.4766137178960969,0.5257007570257971,0.5012005909473078,0.5540538119879902,0.5227587746545769,0.4964954017766189,0.4995274714291429,0.5466238527688716,0.5645089264559169,0.4734221560593373
0.47147981187909815,0.4778989825617916,0.3536791200808995,0.5076497109630211,0.6032345751077813,0.553693480237151,0.6107894042568279,0.5497848572333011,0.45163759984729207,0.5421571406166317,0.5415111866901255,0.5474903559755825,0.5077051219539429,0.5329400695213844,0.4647274702951065,0.5455739623044867,0.519002543854776,0.5197465105820849,0.5369109942416657,0.5231594380215991,0.5513762110380064,0.4238417362959833,0.48536128490005537,0.5351390953399294,0.524572271452577,0.5580295260075792,0.4916931968136974,0.4862903678106226,0.5341436508155165,0.5371365674402296,0.5669412509643144,0.4739597648542615
0.48832224933792645,0.49839436247048724,0.3462364226190436,0.5131329137250792,0.6167501295780359,0.5532142468621797,0.6102435495024305,0.5398037065647731,0.4464582720009311,0.5510567053085272,0.5382112631579848,0.5624199427589781,0.5283301225752652,0.5484336678674356,0.5032115709766004,0.5432174975518174,0.5187398799071251,0.5232002705328561,0.5462234817154252,0.5528197975364278,0.5451482824158568,0.44897177665015237,0.5041614006568625,0.548381942179821,0.5363129089136385,0.5562754221132769,0.4992404494307611,0.47836392874790723,0.5400771822359224,0.5215169182076406,0.5778300636505611,0.47420347979031474
0.47885853932401745,0.5028685497556731,0.3963296600303427,0.516793548329362,0.6069039036199978,0.563286279261546,0.6309076259004646,0.5455447765668446,0.4475476952738177,0.5757826174847696,0.5447720174855799,0.5508898783761718,0.5305262544789675,0.5539304596800193,0.49458450322983677,0.5484557528396954,0.5264895878918912,0.5195937084035731,0.5471272504422054,0.5555378802946241,0.5420487225966344,0.4480936598580296,0.5026721113029838,0.5462399931681821,0.5204150751703849,0.5645798911895145,0.4831817216262906,0.46843901759023326,0.535976034795157,0.5129957046393123,0.5751786677630877,0.4795038137937558
0.47176570170522925,0.49896961663958656,0.4403421361076489,0.5301957279383777,0.585525755053654,0.5494279350266902,0.6067561509847506,0.5423912760439819,0.4456387601443959,0.5605111398839657,0.540032233606219,0.5328045304847658,0.5330367794377272,0.560788889543232,0.48899887260536484,0.54909440919389,0.5122607854679866,0.5060266736326754,0.5366412752852951,0.5610292157325698,0.5190405198848822,0.4206019199962289,0.5196487065297457,0.5468989309288462,0.5007566244061757,0.5413500136719298,0.5020919437972361,0.4799906226137054,0.5487755733825579,0.4959126929389116,0.560553282952928,0.4697378249647217
0.527554478150265,0.5180546212542947,0.48156949739917104,0.5420215436534743,0.6016607222633157,0.5515045437693132,0.6131284741344749,0.542886991369905,0.4710467447784277,0.535361625416768,0.4985750168362092,0.5360432348739942,0.4992808364761491,0.5509397557641964,0.4899086186830974,0.5439848019203926,0.5437919457290065,0.5227625509793734,0.5350871017096955,0.5623422736992711,0.5405500904049785,0.440341793942052,0.5156457398292585,0.5624639411995742,0.5415972824327444,0.5462801700529595,0.5472501620853177,0.5065082231955923,0.5681804484125808,0.5049233412029138,0.5399859318905366,0.4778190765445894
0.5419905424428689,0.5353918540497169,0.5008412096633947,0.5456440211971723,0.5988698097433555,0.553987611554004,0.5722708381196132,0.5475481295445638,0.4474043879399576,0.5456117398514061,0.48370899482855007,0.5419183309421544,0.5090696970637257,0.546211707176574,0.4649667414606666,0.5324293922715527,0.530958380450493,0.5142004424088646,0.4990288307605568,0.5759299615132496,0.5401524497343534,0.41019277370598023,0.5145691531454245,0.5776473420507074,0.5428186337978189,0.5541345657822412,0.5620071800674984,0.5339930430374525,0.563895964225666,0.5210105057756199,0.5395464670848162,0.4951730970084891
0.541479869009826,0.5310903380801276,0.5185816387997783,0.5568755627109687,0.5953624587105768,0.5406055115383877,0.5378304535954923,0.5271970079346131,0.4258533799348629,0.5071337249593887,0.4694047499875574,0.5316804409553675,0.5062897136981686,0.5374390090655418,0.436409613810614,0.48273549941370414,0.5004792716066606,0.4687668883755469,0.4517087167075514,0.5509105809686604,0.5251955640489434,0.41773877226248374,0.5282881563905552,0.5562176347692599,0.5529738931677035,0.5509887518827338,0.5520326520478416,0.5403143814614347,0.5737413666467265,0.5253851821095784,0.5559934307621711,0.4907547234057434
0.5387704864928279,0.5557950632287576,0.521692728111044,0.5461909834039727,0.56029260691219,0.5693450449613142,0.5694789217730813,0.5285897774047572,0.40369197526527323,0.4358663068666869,0.467918847392658,0.5492782814507912,0.5199452040202094,0.5449830349627252,0.44246935707507445,0.4782255722691221,0.5080689851173591,0.4673758179301766,0.46381623359985275,0.5344063673277225,0.5134925655457203,0.4257078126258852,0.5055847832203967,0.5747220903068665,0.5509646392835719,0.5397124189283116,0.5286331331872379,0.520746549464433,0.5445314055041467,0.5247668683280743,0.546238413049274,0.4827763199560911
0.5272361255982615,0.5290743053543902,0.49412010283772034,0.5417111823462644,0.5658319769759171,0.5616681933900933,0.5607123995158735,0.514647654923568,0.3730109368001893,0.4579039774044661,0.4697777681493492,0.5397332373655431,0.5178895416218604,0.5499423111207802,0.47142821143969427,0.47996051826539016,0.5024826698662755,0.49386047492190516,0.4782706145655784,0.5490520740026407,0.5146550169655649,0.4215582136847849,0.503595643126713,0.5737587107828822,0.5438679381408736,0.5276306130615831,0.5257337068542766,0.5129208978424573,0.5472609313460874,0.5170039130940066,0.5369970944844898,0.46607534402278267
0.5269106860724481,0.5234007992062475,0.48984828268486486,0.5244243590922757,0.5560145836433912,0.5681700982791701,0.5318473504342872,0.5116883834177078,0.3832912506138424,0.4746827515036605,0.46867177555274614,0.5168361602681331,0.5270711661081313,0.5585542498545343,0.45767869201221534,0.48896154299034955,0.5168718247281979,0.4975280639310662,0.48170778745879006,0.5381024971541931,0.5251606586716003,0.42725792792381906,0.5066425468001899,0.5838399825123789,0.5487086124699098,0.5256342567517456,0.5297293081830176,0.5165224601805559,0.5656142714305362,0.521336867445662,0.5431478290915664,0.4753106065255281
0.4873319242068062,0.5205546789641098,0.4969884887328637,0.5215599475328841,0.5701056932926262,0.5663193980000818,0.5225757705203595,0.5354175837921532,0.45225607428198134,0.46511146916622226,0.4609034322339811,0.524166366061239,0.539702308819344,0.5384913226466718,0.4472929702739995,0.4951974216038976,0.5234081872967301,0.49549125976588404,0.5012965727094455,0.5452692646487796,0.5312102475742363,0.45746402306397793,0.49293097531029656,0.5703929767614724,0.5449026756176226,0.508058131868996,0.544109646806604,0.5293094915192673,0.5595142496300097,0.5183700291006214,0.49969770160131893,0.4771861911002331
0.4973306412611073,0.5143100770079274,0.5022652602071657,0.500972568916709,0.5624715728367807,0.5612098756579582,0.5514771287858292,0.5192535504752418,0.48662202202510435,0.47387551426321844,0.46300904585700364,0.5168574249094713,0.5209316316779341,0.5342901024928735,0.4589189395310986,0.4947998358070306,0.5104002728450733,0.48262217297887106,0.4828185718812808,0.5339637774780768,0.53202023524719,0.4534675278806345,0.521006753623867,0.5702363763075544,0.5402414205229245,0.5063551275874814,0.5294321916202234,0.5600277909626061,0.5606459724295403,0.5143528229016259,0.5017431936526626,0.4825520008882529
0.494385354164132,0.5167903815313953,0.46550053800298313,0.5384593926137738,0.5597824684925216,0.5558876861898221,0.5418096748533929,0.5068913589032508,0.44259888287163396,0.4745268268292055,0.4639433899027312,0.5246248771907741,0.5141460916818886,0.5253888842912208,0.43400326279495405,0.47576335027171573,0.49351692546216636,0.49130393181434867,0.4968697711372159,0.5269412209854809,0.530903323270359,0.4708548595549199,0.5252014328862974,0.5703057592185496,0.5421500364032148,0.5060884074090788,0.5194005787210267,0.5648772964430251,0.5525211861945021,0.5090594771181628,0.4819994110417,0.4824352671340483
0.5200680818426054,0.5398433699081462,0.46401152786500394,0.5533457696567039,0.5669988273157476,0.5545560441823676,0.5644480546364059,0.5030644915066238,0.41812772315239594,0.4948163836035369,0.4811223076988863,0.5395066464871122,0.5179657790528639,0.5344572282992678,0.43820486542877923,0.4664352152798243,0.4916039087886539,0.4750685898651563,0.4943891775943453,0.5316871398093423,0.5387582200185503,0.4590705422540945,0.529010338859345,0.5701055876500949,0.5467845541534345,0.5164735835554947,0.5156762842852882,0.5649280313818027,0.5437671663325627,0.5116587835725696,0.5021272393089112,0.47858107329793886
0.5060371667468248,0.5298070065241739,0.4656931819736255,0.5386949726927291,0.5530575229606315,0.5633258478418587,0.5756887675326096,0.5042074659235126,0.461122897394952,0.515628884432502,0.5349231753450512,0.5398095232769854,0.5211688416606486,0.5397786673740496,0.49197576330220594,0.440865545411153,0.4790991466037262,0.490830084462471,0.5094709948800431,0.5244786808642414,0.5227680175507222,0.4693653087162423,0.5140633891301584,0.5536281630007511,0.534234280522108,0.48148366548197546,0.5047352438689207,0.5617149472638749,0.5532409623291008,0.4946441043162771,0.4811276072891397,0.4722533489797511
0.4924660226032214,0.5348504255860026,0.4414049447858835,0.5277805040170556,0.545351293675195,0.5571125694654018,0.6262508094137146,0.5208860707918321,0.4854274331603803,0.5042466526679482,0.5493750270006316,0.5337398832888665,0.5300658765189913,0.5531563387498731,0.5047378257696561,0.48194318594869523,0.5233843884602317,0.5273168538298589,0.5312644273874422,0.5244667580595014,0.5072253352033889,0.49145277659654635,0.519023440907278,0.5657895131710734,0.5455609291549165,0.4828356376819664,0.5185870834058858,0.5619362644956442,0.5707451990472674,0.5002864098778196,0.460588776535949,0.46163391276294674
0.4961627737515896,0.5287385493709835,0.4557090605192806,0.5325490712024248,0.5424704774432814,0.5397607346254429,0.5986592432667386,0.5058723320895311,0.48667721446306916,0.5051843677324994,0.5339454111774091,0.5168160486505432,0.5093376864099538,0.5559777978572098,0.4869558671992044,0.503001252702506,0.5182500726075298,0.5316311922031242,0.53537177151048,0.5342047577406445,0.5123339196778757,0.4666805784783231,0.5188288509972496,0.548481932256266,0.5486069891749761,0.4838474519651515,0.5320184699176304,0.5680862557395252,0.566647845880885,0.5301711380493458,0.4810623241367663,0.4666927035548388
0.4808388861701163,0.5468144809616493,0.439571586815902,0.534454479298186,0.5568700421137315,0.5434898634583245,0.6080395339913627,0.5119203146251722,0.508284326337318,0.5192114171422647,0.524911760850948,0.5297283264176509,0.5075263530497237,0.5429550206670667,0.5113337538582247,0.5070649733876716,0.5200248347473831,0.5564973345741415,0.5291944448582752,0.5433454681856138,0.5244930635547852,0.4993926977851541,0.535068969654894,0.5499535424126403,0.5323416746560906,0.4853184397750748,0.5424538713625463,0.5806724155011243,0.5710461116109402,0.5487248963569765,0.4903468296465829,0.4655128622997182
0.5015655897393012,0.5688858039527507,0.4755809897030811,0.5175701994956363,0.5497883516052119,0.5554867233920094,0.6111099863919562,0.4868990636795259,0.5162996542244983,0.5386828215501092,0.5113604444228156,0.5259688954370777,0.48135332653664176,0.5222996745066364,0.4896362208435616,0.49642785276781765,0.48716774413110614,0.5328141008243695,0.49765516057624565,0.5292343731760606,0.5025121118706445,0.4730015704080989,0.5036601034305578,0.5350064219632054,0.5312994333955492,0.4836254693712045,0.5462415276572824,0.5611788278203547,0.5672292946972859,0.5443789253946213,0.47315544414696187,0.46426288358690876
0.5235569263727499,0.5691712461721727,0.5111015021447874,0.5303191063205195,0.5405523831452685,0.5674988548229636,0.6117599545182556,0.4971053199501084,0.49663305498940086,0.5295539722602659,0.5145446611039659,0.5322376762011507,0.499831382772289,0.49626776516488835,0.4712233132173636,0.5053117289215773,0.5174412467802166,0.530251356022976,0.5130511925317132,0.549480175654348,0.5113852088267586,0.4637498696020573,0.4939948189906494,0.5478544572817863,0.5437934732448972,0.4997365949740993,0.5418535644435635,0.5576177852727495,0.5573456394008836,0.5488663519270454,0.4859881966019089,0.47775512914728896
0.5404583476752416,0.5625407005083207,0.5065169304801646,0.5141520801527836,0.5453437862187657,0.5493187789778204,0.5992153607257419,0.4774773756876674,0.44698740286770366,0.4968523032738619,0.541137708515323,0.5226048013896176,0.4491373866579265,0.4811005317748162,0.36353918152995657,0.4936956750809861,0.5040822907426195,0.4648950342307502,0.4770541872424023,0.5496518288336206,0.5171918707658343,0.4238602756364644,0.49613448829531764,0.5521500586515738,0.5331317218518463,0.4973002021230238,0.5279222712511926,0.5484911266524656,0.5510418571607736,0.5463063739829522,0.48867892213415376,0.4784710803448341
0.5142286898066699,0.5483410557622832,0.5331506490316318,0.5028312242646176,0.542935405760326,0.5628904816822149,0.6022528790918669,0.4683443721269845,0.4537214951639605,0.46836914997953816,0.5350273990914206,0.52245653934095,0.4619377684496126,0.47241288558760486,0.32686312352597086,0.5066586171754197,0.5046648881487776,0.46843554808114657,0.4625031125560349,0.5286683050923919,0.5128030654402359,0.4943780782546052,0.47835041711386966,0.5436004357436455,0.5224591324981375,0.5185404685246424,0.5173422345049342,0.5442088813441927,0.5542170018161731,0.5229453874524255,0.4959229524937093,0.4930075975648659
0.5156898074775764,0.5577472952649524,0.5555185279990733,0.49409234061599033,0.5360823759018343,0.5610404925502518,0.6006663277657802,0.48217675468111415,0.4660596919265294,0.4793083051696966,0.529763773920202,0.5184525547153881,0.4596147775392058,0.4427647132985097,0.3097860867333831,0.5164737832466523,0.49642841923600656,0.46321517582877664,0.47644476381881723,0.5323005824655684,0.5149745107162269,0.5022734870711675,0.4707441602838678,0.5369062386889635,0.5069369325124838,0.5225987159509653,0.5202465623511969,0.5309643290354228,0.5572254480470327,0.5354686278501467,0.5053627618171328,0.48512149165095436
0.5185299825411452,0.5559358394790546,0.5425507995546381,0.49885522510286984,0.5104333130508768,0.5510148078870383,0.6052389841265386,0.4738174996819467,0.5093629223837998,0.4876287073508385,0.5342780359936526,0.5140847697850245,0.43723042243825777,0.4516584509029985,0.30163268385446823,0.4899658340969454,0.4991975857708716,0.4734482684648741,0.4563462296520697,0.5388785414285101,0.5104675644436714,0.4974079958828038,0.45271361958642437,0.504051853397727,0.5244143619155927,0.5110770063716383,0.49314466633339854,0.5323806273278204,0.5369030863214881,0.5204832932110285,0.49238544358280056,0.510994457127864
0.5323082561456951,0.5492242846594043,0.5486672857385159,0.5269620674616083,0.4967694693106092,0.5503706261881393,0.6130479549560806,0.4769850369197182,0.5395876046364062,0.48372219480413037,0.4967102971153209,0.5066566402746774,0.45856551185898115,0.4019521683454656,0.28091110165087496,0.43410821386459164,0.47641346420053604,0.4745594457815962,0.46964908217589857,0.5414353121922907,0.5114705770292373,0.5026641898786602,0.4727066656623809,0.5032098051421422,0.5309712977008189,0.5208186303899964,0.5138173986228133,0.5537276453102001,0.5525227974241279,0.5373549543261629,0.528759091639467,0.5100339735506914
0.5440556589083237,0.5434009122571175,0.5551425154754697,0.5357428374944149,0.4804648032811593,0.5723517524680585,0.5878212675769092,0.47754019062416064,0.5318540770179984,0.4991123538868257,0.4814390940747077,0.511454604052471,0.45879384760862635,0.3845450475991664,0.2981205043980496,0.4371284622381309,0.443160370020926,0.4704962511236304,0.46350038284249595,0.5352899358768177,0.5083051435406557,0.48100970382721936,0.48876234148386255,0.4985183969003514,0.5345162808433951,0.5208244360439319,0.5135252244949009,0.5568078728805782,0.5642455907137701,0.5388326245134909,0.535173713433845,0.5172361724791625
0.5170548968086948,0.5011594143496839,0.5227788077073442,0.5084284682722737,0.5201234840455626,0.584579640463839,0.6017524767020881,0.46982897201011564,0.5532224566703782,0.4870593855391921,0.4649622069728094,0.5406218058351128,0.47009575693477756,0.4481723675885012,0.3246275088954629,0.44261737373945714,0.46927181537707235,0.4894074063924094,0.4932013450364157,0.5409570631132241,0.5250196672020258,0.4920812598409604,0.5004732187363515,0.5267526540167646,0.5241313248943317,0.5342145669401359,0.4960225700890779,0.5434195440851128,0.5399414889906577,0.4912682603936488,0.5366922425504123,0.5183243198571112
0.5306670265328125,0.5061294014572162,0.5291485325819909,0.5120859130116109,0.5058700914671246,0.587758240064494,0.6116181152499859,0.44571357694420294,0.5359468351831486,0.48218490022523436,0.47609634248034677,0.531360750053006,0.44715204597275515,0.46065513518968493,0.32891460815148443,0.4212782143348227,0.4666163248332477,0.49006053868410443,0.48094452587905095,0.5554965804340746,0.5246454047109769,0.5026748492102584,0.5000801104388553,0.5418426095861918,0.5214404186949105,0.5249783469042865,0.5082365526962582,0.5502622314509389,0.5445031652856083,0.4960574228706401,0.5541895692412977,0.5378939647885869
0.5286891487303379,0.508919045495409,0.5314811404355695,0.5043102024068549,0.5025105042772859,0.5568132383303883,0.6045069492253055,0.45681493640194026,0.5451063819796671,0.49691621828568083,0.4898357001666366,0.5558039463855428,0.4620429222552801,0.4528568963169219,0.3443424676839989,0.4347917476162472,0.47185468178883355,0.5171040735014677,0.4946475575294836,0.5694855005197145,0.5422813329616496,0.5239478980928555,0.5429923381479554,0.5444985234394945,0.5412876304070334,0.5438210714944273,0.4939159556212906,0.549821390343135,0.5319199390930277,0.5032745976109789,0.578958147310483,0.5348849145624958
0.5235380360508878,0.523006831022064,0.5174284468553657,0.5236816318675248,0.5133669211946633,0.5516043741079866,0.5990151682322916,0.47233447886181096,0.5485446760584408,0.5151482515401984,0.4833970691758764,0.5464820749853504,0.4812449318839481,0.478760743909984,0.38998891580538897,0.45041261976856584,0.48714850523916076,0.5259946832920132,0.5150613345961285,0.5814603898492416,0.5568627412940739,0.5446827398843317,0.5425669115717283,0.5460247222993582,0.5350344601279837,0.542527993514158,0.5155983685729149,0.567819521909472,0.5143648467000816,0.5021871848271438,0.5810252311790964,0.5377425820730933
0.5067757129460485,0.5185708420224941,0.49255335284686974,0.49514033639517313,0.5048656586381909,0.5274451607795998,0.5735214120548763,0.47636486448479104,0.5205096953698315,0.5203160505776941,0.5179614490848565,0.5508731248952661,0.462772607781169,0.5270946784808593,0.4613302409495597,0.47725642983238653,0.5050474711387938,0.5361240561351754,0.5098536626524321,0.5776917718597593,0.5683832591292814,0.5463757701834252,0.5519302027246442,0.543733774380768,0.5144958336796126,0.5367402193363475,0.4928912192945267,0.5463525785220723,0.5249882858066492,0.5016340256209071,0.5385776525590243,0.5057930156376413
0.5118667482744013,0.5072628410297425,0.48503484743887676,0.5139146406702635,0.49525594107322296,0.5479884615430215,0.5735862003000852,0.5119542920573651,0.5327850682269487,0.5307660015961715,0.5398434746928406,0.5383794686373945,0.4636829201040544,0.5317099874195026,0.4957696332485837,0.4672979044022777,0.5140093259139152,0.5452820499333424,0.4983807276017106,0.5858494842769476,0.5475348245066112,0.5342772848010405,0.5284155953735703,0.5471171830862958,0.5201980110313804,0.5026866859726095,0.4939518866849822,0.5286078215949795,0.5225597870876395,0.4953018690986834,0.5477257396026249,0.5167114559432521
0.49686603249839406,0.5027610639292602,0.49151624563409796,0.5306978348352627,0.5115012138774023,0.5427818651176706,0.588217792306943,0.525262082056807,0.5116138583688137,0.549950418258223,0.5532485234398885,0.5205080810943786,0.5016820062670388,0.5306030909811535,0.48592224993700656,0.47356192976213335,0.5014989088725941,0.550037299862822,0.4777115037070026,0.5818668607266659,0.528486429153228,0.5124953111893856,0.5379854350958065,0.563136471026891,0.5219559891023412,0.5133963192690915,0.49742044457884416,0.5162953314814455,0.5296759607321339,0.48667700697133953,0.5519607365194015,0.5079552059625304
0.5160002795560082,0.49830016855787546,0.5048096321750102,0.524813505191154,0.5568940245330567,0.5664903853491561,0.5992998035582487,0.5368717677018554,0.5117348918678654,0.5331288001655313,0.5373189539332404,0.5552795275933781,0.546139801953289,0.5510320442440313,0.5317844747868341,0.5177472208444965,0.5259957789255958,0.5557843656238667,0.485862782359409,0.5706485648174153,0.529795495982817,0.5063083941761709,0.5190249759146769,0.5853550527617468,0.4915152455903461,0.522348020246473,0.5240847447117113,0.5140881255576089,0.5151888357375315,0.5192437872290261,0.5520373335206927,0.5055788813620175
0.5281219840861108,0.5270470668730141,0.5144779894099266,0.5074319553505543,0.584836987829676,0.5675814684775543,0.6011299445753756,0.5368168118375538,0.5524685878226907,0.5419596315172991,0.5224901050373354,0.5663677616149487,0.5315947097286176,0.5166979185953652,0.5404445822780197,0.5311968251748762,0.5353315308837021,0.5462574946171238,0.4658754711800031,0.5735285993057222,0.5344303274959783,0.49843027731127293,0.5190694822561105,0.5695791727829103,0.5316502785307083,0.5512680841695944,0.5226397446359652,0.521053513949247,0.5278609039709315,0.5283803542506944,0.5486765589826635,0.517271680203066
0.5124047792461501,0.5190274174052911,0.5168272340395929,0.5064943497257406,0.5814954101232668,0.560061917766601,0.6035043239531094,0.5237031128418373,0.5608601757395676,0.5303074606318058,0.5263811668794609,0.544950309484175,0.5297957981597451,0.5199351198175015,0.470023413792027,0.5333525078748407,0.514916989112135,0.5374575967587886,0.4948382347807653,0.5702935074546018,0.541843572944082,0.510702006731406,0.5008372553795889,0.5597877658538819,0.5344961622305542,0.5508337278452246,0.5170199912302641,0.5195987758761257,0.5283414786528593,0.5130857954965988,0.5122815170811902,0.5258421397059064
0.5245700210224635,0.5455976482985873,0.5244301402317536,0.5142720123890949,0.571410709063385,0.5417727524831273,0.6019668791350753,0.5066933864810801,0.5539449096326914,0.5360397322712775,0.5058080111670995,0.5469624376185178,0.5459783914305049,0.5241943295240801,0.5119317038621656,0.560764673121066,0.513477741578855,0.557196236791333,0.5021254665340356,0.5662240994263921,0.5589048031916437,0.5297449322867004,0.5154868394153691,0.5428587643816445,0.5351070803168552,0.5450325429723725,0.540549657836088,0.5277514023171845,0.5303667789728261,0.5314333783604983,0.5082349487418982,0.5121593757289673
0.5217114314112419,0.526279367667831,0.5149750073128021,0.5240877411239891,0.5523175604534931,0.5130069045747754,0.6085982782906576,0.5163574076597319,0.5547972603854019,0.5226822369225157,0.5082922971201074,0.5641169208162142,0.5498248775008051,0.5201269165354888,0.49722277592944025,0.5394634631506984,0.5184664974575184,0.5709001732024778,0.5274554939276747,0.5571521970944481,0.5332281568825269,0.5387038035258557,0.5228111763116697,0.5449974091955122,0.541371845008752,0.5449739435949335,0.5366987056040369,0.5474330674455034,0.5189476310001147,0.5395940954318789,0.5341729877629818,0.513286333056538
0.5192704311654892,0.5359706721065036,0.5089592703212488,0.5189784258433008,0.5280892104055581,0.5211807458811949,0.5969119642218743,0.5437117346830331,0.549582553301386,0.5403345919225272,0.5141478859579685,0.5605925448187228,0.5375770540784608,0.5151714677512135,0.47878524440612025,0.530523297241755,0.5207241156310443,0.5658199815532048,0.5373062773957169,0.5410776669365115,0.5284820396414285,0.5397234034324271,0.5198037669892153,0.5422776537473216,0.5371912884212272,0.540049585890561,0.5377865792299739,0.5624615020371471,0.5135950317427431,0.5294840043521845,0.5259145385347523,0.5258879887275646
0.5443719270820561,0.5383089408925426,0.4952808519908714,0.5287961572842985,0.5327494583402427,0.5273178128925231,0.5833499747528292,0.5574890188548534,0.5380599349785533,0.5544258730070885,0.5230972848610059,0.5588075289546488,0.5411405041055142,0.5054002674712521,0.46047000627197576,0.5241666921856466,0.5275274733839221,0.5664023275918014,0.5395655019547138,0.5260318207611887,0.5275089663729675,0.5369740322648877,0.5194856596565418,0.5598855478507354,0.5392644176800364,0.5399185847076554,0.5362456883120831,0.5521600218040793,0.5173505176889225,0.5243482375321149,0.5235107832933064,0.5232331306656187
0.5294840043521845,0.5620758137762849,0.486972218150989,0.5348323795900395,0.5357405522164124,0.5466668135946195,0.6186038368823186,0.5496654570822546,0.5633572181988702,0.5479618270334182,0.51105694460903,0.5683548074632271,0.5695759639407558,0.5145848824798469,0.4355064591901079,0.49571198595594246,0.5313512297657912,0.5602745380675919,0.5497001980018503,0.536121346700754,0.520401468010434,0.555980644248839,0.5328353438022841,0.5671316528876046,0.5465562525537161,0.5354106348781538,0.5510627628316667,0.5634658066761307,0.5279958046587979,0.5149531587018268,0.5303412658399397,0.5493149608549076
0.5224795070866173,0.5400101855635332,0.49880772039632576,0.5150642557150203,0.5144531972724257,0.5674047805464131,0.6387551257639938,0.5149876030837367,0.5566987275581725,0.5520618182078992,0.5102115852925393,0.5698320129619592,0.5297892745642262,0.5266401367026872,0.4289893857038955,0.49515041166128604,0.5163800915279873,0.5444309365342223,0.5599726886137534,0.5214147917913396,0.519383506847194,0.5499436991279472,0.5367720684726335,0.5633663463910337,0.5512942495805301,0.5336011774144502,0.5448801368488205,0.5536059643748451,0.5271015890760536,0.5107114619986426,0.519752982548278,0.558431655174206
0.5429936693581565,0.5341684546611389,0.5038587718252258,0.5185107516218904,0.4914553354302851,0.5716337915236553,0.6095033770508536,0.5088076945624711,0.5278499299145016,0.5409309901342294,0.5217469789194114,0.5740684371303436,0.5225216635291818,0.5380470064496159,0.4577569954705313,0.49659050794411863,0.5100308691046466,0.558017773213229,0.5526002044714705,0.5140378329122894,0.506323572758673,0.5580446957033816,0.5327477822123488,0.5693789325175649,0.5625633172312202,0.5319143181563957,0.5473033940313548,0.5550969155331269,0.5276107589873711,0.5280831094654531,0.5263892417719391,0.5436444161419833
0.5557288451985738,0.5579429217838782,0.509985576368467,0.5126563491997227,0.4983696844212457,0.5506629508835756,0.6016792475437427,0.47792209755238435,0.5214983485528286,0.5289657206858952,0.5201315259329201,0.5716052589741705,0.5205942123638906,0.5473044964559725,0.4429032540021709,0.5125817707301227,0.48423650674020513,0.536300533814947,0.5323289203571953,0.5042659188573277,0.5344993705497137,0.551494151461127,0.5361977524288772,0.5925285072961104,0.5684417858197226,0.5166947459162071,0.5617467912159905,0.5505005376409468,0.5307343293480447,0.5295059864640522,0.5339764297122048,0.5343780509788872
0.5539570881349084,0.5617318113197908,0.5096067617273807,0.5185056043611549,0.47471603069451673,0.5640223036420295,0.6038432065464365,0.49810266000546866,0.5104641126455867,0.5285606986222503,0.5485859086419492,0.5773563226232465,0.5290600017510712,0.5580012102579532,0.45173392559267017,0.5223378258424354,0.49681902109323034,0.5658409206295898,0.5419254202535722,0.5163166269728401,0.5239905462776252,0.5270833322480694,0.5139801323559602,0.609783164503987,0.55964972823444,0.5336713931307574,0.5769233754521154,0.5608223032637637,0.5563716090762875,0.5413086404910665,0.5516254350303682,0.5340234130786464
0.5347748585788586,0.5702784936794628,0.5165225555744021,0.5325552546298299,0.5003220662541652,0.528493398801435,0.6057832755339068,0.4988229528241338,0.49232010419828537,0.5363201270682633,0.5228106934024314,0.5862213110734819,0.544731557553017,0.546768754191682,0.5065706103767936,0.5309686676830259,0.5215041560451767,0.5580100988646641,0.5358527298010202,0.5255059246247832,0.525213754090227,0.5231767177440182,0.5042383184664687,0.6070444815065335,0.5627853626967017,0.5429783618670224,0.5586444774894204,0.5532885107030111,0.5450641972951119,0.5431053075650372,0.587472742438389,0.5398883625532308
0.5277333084539763,0.5437791797043698,0.5258394425831295,0.5343264954966436,0.48606184364590627,0.5387210717503085,0.6194304734198962,0.507915825398647,0.5134619946357778,0.5374593029001075,0.5239499870363075,0.5799746923740262,0.525496823998064,0.5343166368415894,0.5027130575431272,0.5336174080213266,0.5139715170407693,0.5442772926001717,0.516780450074385,0.5405363292868667,0.508908766823482,0.510413422605991,0.4868832267114504,0.6019399434871752,0.5469773890636999,0.5420066597929258,0.5486253243958766,0.5554275158237887,0.5584661422828373,0.561465800453887,0.5847015411537467,0.5474222712011628
0.5349849741120227,0.5312781797341857,0.5158700735693321,0.5373576475628411,0.5170683283940752,0.5446545445698882,0.6066351793609678,0.5214448894400033,0.5261867692993257,0.5360210015756003,0.5168107168243393,0.577975176758653,0.5296354930226612,0.5719832306010422,0.5099949726954905,0.5172486212807164,0.5004592822217572,0.5250311864840459,0.5135338177028702,0.5239732686691599,0.5006658847068662,0.5112714100796284,0.4529692725741539,0.6030159757500092,0.5335644533599401,0.5474041887693246,0.5407298479368026,0.5659961099712245,0.5673624176443548,0.5500738287061024,0.5640689907384578,0.5222762083217375
0.5081634731134113,0.503369323089536,0.5043263616375666,0.5412907537844138,0.5024573740954741,0.5384467783286504,0.5901519093758859,0.5181785980712496,0.5447466684290704,0.49793501393491313,0.5147260531688218,0.5540162602186857,0.5155742817805995,0.5538186702510968,0.5181658582989749,0.5030525258893178,0.4984469039889172,0.5440292051558756,0.5084292456162948,0.5205123954391847,0.4983777157051299,0.48740827959161687,0.433275307421296,0.5767064269842913,0.5115620008243026,0.5365287202114486,0.5222761305539861,0.5489685798174528,0.5616591289700842,0.525812905365386,0.5613968566979949,0.5196022008965421
0.4911956824299811,0.4942714458834862,0.5046081513084488,0.5260419991041138,0.48339315939886807,0.5450940806008056,0.590299348910465,0.49445677713067865,0.5281329363171539,0.4890181309264456,0.5135872935687199,0.5619780631635203,0.5121539046191741,0.5640743510194787,0.5270741348618132,0.4850092698636057,0.507027670093232,0.5309381268044784,0.46960955691799433,0.4994353040895655,0.46417080623158147,0.46060662239327976,0.40277331644245296,0.5276506022550803,0.47679115844169445,0.5482710299614079,0.5297224970792868,0.5382603947001847,0.561428307998607,0.4947735526917265,0.5499529587077364,0.5279649686976203
0.5014329312624448,0.5233414316978214,0.5035308593748414,0.5232481437645479,0.49421536112818937,0.5255016271123729,0.5684164125149752,0.4873941605052612,0.5183034921765279,0.4646615166850893,0.5175787655626285,0.5415667242882326,0.5070342567739284,0.5154106150307723,0.5160150490082162,0.4738799297090812,0.4579067907771189,0.5167706968453278,0.43792292237400277,0.46377706139338987,0.43197595323618554,0.4464133195423179,0.3765325706849314,0.4895879818102006,0.4588567894552778,0.5205203753512032,0.499656272529155,0.5162975365023497,0.5526619067279157,0.5014558304283392,0.5271990230874317,0.5098806673999033
0.5483855184506718,0.5510646669461725,0.5137401541190412,0.5530961790701854,0.5103329849171392,0.5256419783926346,0.5779027858548031,0.47773116669213844,0.5253682239420717,0.4781858164806047,0.5225480303175768,0.5311319146255645,0.5166392533593052,0.5315955858944109,0.5087466209381576,0.4915069649342942,0.4958544542046201,0.5254676180808491,0.4308860947316196,0.47373256321160645,0.4517841994908241,0.4581327490240169,0.4037132041495455,0.5158783394550435,0.49805172744544873,0.5386888872978081,0.5122148518415607,0.5244952953190395,0.560829320611941,0.5247297192701745,0.5492840347298567,0.5219785326390772
0.5394204990430458,0.5360583267067061,0.48386287139075196,0.5584368900682648,0.5316184727051574,0.5032665833101077,0.5632362795911794,0.47159426619186845,0.5057292922789763,0.46969180439967817,0.5018753294781827,0.5195603346354792,0.49744904054639866,0.5057087651907562,0.48594929740116233,0.4867263149632031,0.48388967026180246,0.5124264282327018,0.4428792563970474,0.47345416048306976,0.45294435643051745,0.4472050656192387,0.4154388452833811,0.5028314715896428,0.48944376849409826,0.5444219147806169,0.5030726107292893,0.5111033078822601,0.5489073103594093,0.5165721965997923,0.5625065082290406,0.5160558248268737
0.5435779452295529,0.5145904383113534,0.49472006015000974,0.5444639829148206,0.5041654620264783,0.5346239533200778,0.5588931843076376,0.47922197515496673,0.41553032037585524,0.44533395684900573,0.5027475157135385,0.5124408599228141,0.4777122684112132,0.5289926183921135,0.46336036229681854,0.4805044300510289,0.49948037028253217,0.5166027757076659,0.45271306356002255,0.47224812537007993,0.46442754047755547,0.43514149215227105,0.42019923815292065,0.4883373359342403,0.5063862807900863,0.5367548097389798,0.5132108365843646,0.5245667376600816,0.5487126223269827,0.5048957825176762,0.5399945310190745,0.5151251646065661
0.5316083749926468,0.5044521158938986,0.47277476088428927,0.5231870678690036,0.5334762415952307,0.5052460625336588,0.5720859735122915,0.47567568871314236,0.4356852389399173,0.4398370870259815,0.47298688740902955,0.4942045414648886,0.4845555254516643,0.49918941703494885,0.45094246671339644,0.4614922529605806,0.5064273617897819,0.5152804620688964,0.46563004035161815,0.45003342758804105,0.4799798559887957,0.4806294286389746,0.4598294469160783,0.48653153196050947,0.5113062774642615,0.5284740036861224,0.5185957932165206,0.5426606927836822,0.5619706172747063,0.4982225265730741,0.5157051103675083,0.5097923879241123
0.5117626209624448,0.4999963867468192,0.44635987135730326,0.5222128628414591,0.5208432565310133,0.5310132545961251,0.5677653866812681,0.4955361402715453,0.43052954127937026,0.43606892052169166,0.45102288122555223,0.4742436877833302,0.4670996469786032,0.48629599570841187,0.3971184703377246,0.4599477118270276,0.5070002968983336,0.4971988375553998,0.4527188210231384,0.43977672236870713,0.4602129042286761,0.4581882850273756,0.463052057600085,0.49387787593782595,0.508014798264851,0.5247173433152147,0.5087029483990123,0.5584818875304568,0.5676499151428746,0.5053457259583786,0.5084364082259015,0.5140012620401417
0.4860766116562021,0.48076396698635276,0.44830904075407996,0.5116529877880177,0.49019340098459246,0.5091283107701107,0.5566382973524078,0.47926264176501976,0.4631361751727442,0.43331238203778244,0.4562683929463629,0.46119025082319104,0.45027040893003295,0.4956394060165789,0.3929375763524512,0.4574832550858521,0.49843827726069273,0.47203005619173843,0.4686611219120302,0.4275514745084533,0.4624040552513031,0.44456937387043827,0.46642062253405936,0.49151448406160325,0.48692240829227057,0.4724210812550361,0.471850225536972,0.5515453938281483,0.5256506648270544,0.4856468069837815,0.4988070221814066,0.48478815159391336
0.47759614386843036,0.4789964545546134,0.45253727438377606,0.512678952745071,0.4573582968685933,0.5052074152759106,0.5662992673046918,0.49718871192577085,0.4698093601824728,0.4258868195055102,0.45244869900734824,0.47004238217643085,0.45247765609355667,0.4919152518182239,0.4017350930696644,0.4684246927792719,0.48946426014740946,0.45979996846872667,0.43601884524257023,0.4297545761657628,0.4434414596138658,0.42694092641251635,0.4486365665806736,0.4831625766922257,0.46724793062852377,0.4619857689210037,0.45062550422701764,0.5503503344896326,0.49315297702985095,0.4614074372183211,0.4487117983980881,0.4860101091580237
0.477760500465281,0.4953185051559202,0.44797339177726336,0.5067208250529791,0.4614887181290679,0.510141973044654,0.5540509433020152,0.501662894760956,0.4534302394380618,0.4040686279736747,0.43824055771133813,0.4664587298062781,0.46732087812565853,0.4779668222354453,0.34997559862103506,0.44611230178763567,0.44574435515426997,0.4225160243124615,0.406761284569611,0.4113407157639557,0.4272029465676206,0.4339842847427476,0.44301505055973667,0.5010727173944328,0.4261876763051626,0.4630547369955755,0.4301387986856116,0.534152159717614,0.4716178346002766,0.4399780936151844,0.457080964682778,0.47763997445376855
0.5085379820483259,0.5009654200549006,0.46298673113221783,0.4945894446600943,0.4958842884714561,0.5154768858402723,0.5675086888841437,0.4841385226330361,0.4683521012072626,0.3717009285049568,0.3927983016065421,0.4158973934815703,0.4650532237080672,0.47636301027900957,0.3374720610596832,0.4547050136838727,0.4601720223476393,0.4537978418848069,0.44039638317256175,0.4315079251868253,0.45799106352306523,0.46571297813385737,0.47396216779790645,0.5512025939367624,0.45365709056821646,0.4877128883400147,0.4471289898005103,0.5536564491433716,0.4904583209415569,0.48011986388813516,0.4638863910246688,0.4825684581972692
0.5144060688911463,0.49957206312528457,0.47460982835404397,0.49276946815570316,0.5069705229121912,0.5386967590372549,0.5788129647509234,0.5358193051528557,0.5106564762689703,0.389622559763931,0.42703226408868117,0.46122283532465674,0.5343017368709094,0.5221991083555478,0.3335600334899786,0.4949507565819828,0.504883231675394,0.5046157385925548,0.48684983691613626,0.46090973476494523,0.5051721895130202,0.5215246853216771,0.5262836418113994,0.5647996874601593,0.47048555085402777,0.5150967328777696,0.4937894366134227,0.5602417248021259,0.5015433121104591,0.4998414938395932,0.494793909667889,0.5322168137473082
0.5049129382491823,0.5059356384717989,0.4792271003095458,0.5056871597049852,0.49546469344400873,0.5546118186657677,0.6050048558772696,0.5650142284606419,0.5216053995249139,0.42732149702140276,0.4638006851211277,0.5038975300168886,0.5452208807096611,0.535859407288853,0.3399762734948186,0.4904736682858122,0.4985399365106699,0.5043201766076452,0.5074936756605135,0.4841564729206045,0.5289317141165463,0.5281273119069256,0.543325341462011,0.5855922508787725,0.4925672394937724,0.5099795058379315,0.49116630867569633,0.5372256484902105,0.4920044910292496,0.5003657862458402,0.504676181394852,0.5176220663624052
0.501485309690463,0.4921064257417442,0.48579277142121735,0.48791770155945147,0.49943090052649575,0.5786405000642987,0.600793251923821,0.546386729026823,0.5301478404282705,0.4282181544916161,0.42763032369545945,0.4539804070810753,0.5746842301757589,0.5274828335160487,0.3564815016322969,0.505026072999444,0.522752431663979,0.535670256597064,0.5351981031782271,0.547007575160992,0.5586900267868768,0.550017867573638,0.5589398598426644,0.5986457351304723,0.5077971926088289,0.48012366527235406,0.4986789803441375,0.5577780558882227,0.49142969341841125,0.5197358951908715,0.5168318949078288,0.5273791709543122
0.5044380792704495,0.5061751956047166,0.4704904687147476,0.5003353713224885,0.5117557999598861,0.5571247436383494,0.5637251662487573,0.5397990764838536,0.5523403214321466,0.46503280807461567,0.44988604969085116,0.4637310759247898,0.5426763125537661,0.51263029720681,0.3527360814762387,0.48440304675016743,0.4893858490577582,0.4926544418734997,0.4928152898336022,0.4974401337513141,0.539411187875215,0.5323511551877488,0.544319122559949,0.6025528162349488,0.50542645908822,0.5030543890385799,0.49205313574684867,0.549901252919649,0.5085904096304112,0.5182399302052182,0.5451297789497606,0.5392836920040462
0.5134379029567209,0.5241566153237363,0.4967949883768048,0.5096019737996363,0.527749999051153,0.541899458663474,0.5542013103528604,0.5434393979991161,0.5443596420794005,0.46426440839477034,0.44257640224010697,0.4274199368624896,0.5383574131313563,0.4707351238718579,0.3593110295169245,0.47276741455940063,0.46621787755083977,0.491685312678679,0.5134972791087953,0.48246428343852676,0.5398245209836887,0.5301559608186134,0.5451710923399996,0.5946000429285764,0.49351383550173833,0.5298060274885092,0.4897425687119457,0.5442542201654764,0.5047605628234115,0.493099561106821,0.5461092224283333,0.5363544912698482
0.5049982185481278,0.5394059173197776,0.49862127523258065,0.5128340443553691,0.4923017345024264,0.5533062378029104,0.5852831430187162,0.5292532303839125,0.51063093866852,0.44585805617756036,0.40835163365558835,0.4106919740416934,0.5180865015540344,0.4477915214652147,0.41250724225182916,0.45647873903983743,0.44704436968216066,0.4757161170111268,0.5121753793277521,0.4633245691660638,0.5248004322505677,0.5383453883928092,0.5648355218716994,0.6043204471501044,0.5152834782704229,0.5457524130647061,0.5029571851841147,0.5320177694854071,0.4991178045032512,0.4839223314365373,0.5479721852811932,0.5298381006981997
0.5041366356151941,0.5441326005986251,0.4633285684832712,0.5250217986397788,0.513146677543111,0.5659920050746986,0.5841349928366177,0.5566487488155464,0.5112278837410625,0.4535823895641393,0.4291710547701127,0.41034359151828353,0.5113364421811556,0.443037358270585,0.4220465089067563,0.46149719816793544,0.4607354383567874,0.469563612895172,0.5008056005877368,0.44206273586758776,0.5280311255003306,0.5220412851295813,0.591626781333474,0.600103429916874,0.5312822376787543,0.5475850006779579,0.5353617330862424,0.5279954744429772,0.5331593920924643,0.5070057231523221,0.5404300058976954,0.5391125571362293
0.5177934311316368,0.5483218268993059,0.45187703754420844,0.5352212675571154,0.5402928901962137,0.5594632489232747,0.5768240735245233,0.5624410210127447,0.5262593258456743,0.4756837268898525,0.4119381965494683,0.39412568964199113,0.5184755654492083,0.43596358300574445,0.40939247895283176,0.47422673898823503,0.4357201726802338,0.4704083538787537,0.504056029074641,0.44125732308890225,0.5097389202514564,0.5460587649180647,0.5925907048403153,0.6025538921843329,0.5515234420622852,0.55219685595067,0.5425281742691227,0.5255079121741951,0.5357028667185103,0.504672495833982,0.5464018003332777,0.5399209715390294
0.5223359711281099,0.5707767718595425,0.47592754723032543,0.5368756091635493,0.5352716232642462,0.558399621675031,0.5918172276066037,0.5331048621244163,0.541053030938599,0.4921826637390652,0.4185465371580065,0.4139565735997483,0.5222787020242521,0.4482530665445237,0.4227667910588883,0.461595902481161,0.4439586780118722,0.47633430536807286,0.5077011040649413,0.45487843498386465,0.5169571292933001,0.551644171490129,0.5847480007552596,0.6061358035703156,0.5643796931575765,0.5461827247430936,0.5342871104449887,0.5282900942173213,0.5349529643889741,0.5051758912238716,0.551172976701525,0.5109047658656719
0.5143754163423389,0.5588950199587354,0.4644311677165297,0.5680862557395252,0.5110315333724013,0.5428569016731093,0.5968711165722053,0.553056557105945,0.5388451270159209,0.5222098810804768,0.4158341182792129,0.46503688167443913,0.5246226361132208,0.4166282829583075,0.41690505081780577,0.45614243164174173,0.4386045507231966,0.45880384854889783,0.4806626448916007,0.43943754155308434,0.49940696654077893,0.5346328574449136,0.5794650024282846,0.5898074508091876,0.5427727850954345,0.538224597954105,0.49982293992448085,0.5288478791866396,0.535280750986041,0.5141823746023793,0.5545531605490315,0.5299325224414928
0.5006144552585186,0.5569342014193542,0.4485560116745947,0.5499466906633975,0.49119172764843183,0.5407727001339427,0.5961946119689707,0.5652164344412719,0.5462305072603643,0.5284962268895916,0.44036797978922454,0.4899382419383574,0.5204650788949117,0.43156540160872575,0.46037216146139587,0.4583141732016653,0.4552599804710413,0.46565474585139616,0.4841507720472801,0.4918840329209768,0.5046607439446839,0.5459230792806118,0.5737585605063169,0.5886223877789617,0.5544993880012441,0.537499701938945,0.504310942744797,0.5225627506956112,0.5471456023585538,0.5282855814783648,0.5271665592977565,0.5260738556924476
0.5143452584449452,0.5749899095627421,0.464901056688912,0.5398472026129998,0.490020825014629,0.544803411417466,0.6042983754520062,0.5467410861520863,0.5469891654767223,0.5256328096657708,0.45197196939653217,0.48297908596110123,0.5404768859031214,0.4231468013986712,0.4821545425915819,0.49396041893553905,0.4918030301060848,0.5119805949269624,0.49578604589325337,0.5147499009556996,0.5288705951475362,0.5396882777168202,0.5536998915966523,0.5606744091802446,0.5485105332002352,0.4859854847661833,0.47452128876547034,0.5590820987966713,0.5542205091042125,0.5681742692134945,0.532864966788407,0.5391201330503322
0.5195338357029675,0.5728095633588305,0.469526019775836,0.5542961924723321,0.491257601631526,0.5539329733137789,0.5962343445829238,0.5617806366204868,0.5350826014115506,0.5185614783949568,0.44312949783407585,0.4788594317034983,0.5262699461934642,0.4203506165590545,0.4622179247006139,0.49803799675894034,0.47859380031260473,0.5121690650965387,0.49663627141091443,0.5176464156510794,0.5323118165974653,0.5268592577438942,0.5532114395672896,0.5485659517488378,0.5276394176275137,0.5161931015573289,0.47804751276198215,0.5503848036681454,0.5562847306643324,0.5528496927080021,0.5200754748433408,0.5119918046561732
0.5075884906341539,0.5750869446245864,0.45979723367189546,0.5524169140433367,0.4907385473175661,0.578244607768916,0.6076146250080886,0.5751868470830547,0.5459154472533545,0.5110931209493119,0.40972394727745715,0.48264377499135486,0.5528365150178313,0.42115532385125154,0.48556134467393314,0.5149820627746116,0.5119555673890389,0.537559909993719,0.5037750657693238,0.5009390136327542,0.526171193440651,0.5284606201556271,0.5603348503091105,0.5347388831800182,0.5123909775946278,0.527688873563104,0.4796759238882431,0.5601888055629668,0.5616902548619875,0.561959175361595,0.5218754599525757,0.5068039163307192
0.4934338810541215,0.5823709853152339,0.4644557942895455,0.5254983534027405,0.4922337666500007,0.5396688739768754,0.606316726536395,0.566207115530529,0.5350866821197984,0.522737056817535,0.42383672095914443,0.4914975324988099,0.5362815437593393,0.44732951316137703,0.4990679956215546,0.5400666633657548,0.5140468487209394,0.5343406429772277,0.4974699614703369,0.5191504971014459,0.5182736685734826,0.5160270410635415,0.5551213983475833,0.5312839734340884,0.5270700294887247,0.51991877089126,0.4703832079179719,0.5651486511102867,0.5518047807677073,0.5669336173412876,0.49259884667641113,0.506702851091718
0.5000023907981411,0.5778473843221691,0.4786705757507793,0.5080842866272759,0.48866405196313817,0.5470487014386328,0.5782910972598225,0.559376353000722,0.5419669302447365,0.5284443503175851,0.4795996975977586,0.5283759123605554,0.541735043810576,0.4749589836670135,0.5244202330531262,0.5472879963033457,0.508701672419513,0.5375072971812193,0.5006399711091717,0.5192239934648225,0.5322203968144497,0.5207900041719316,0.5578644126585134,0.5399252454462647,0.52122589838378,0.5173496099236071,0.4904978536647738,0.5763897382058962,0.5596510693932562,0.5721233256191754,0.5293955200336256,0.5258629198110581
0.4731901384048663,0.5781457878654387,0.48262300595204666,0.5019163520785167,0.50200654820209,0.500906272260047,0.541368418353258,0.5504165250422667,0.5476074678585189,0.5424850323800785,0.49647219081521876,0.5352223903017319,0.5210238811188705,0.49397834077443586,0.5355233357044106,0.5601649633784702,0.5117391741641636,0.5205521442158799,0.49087670769327796,0.5235845835618202,0.5137957682036618,0.5038708018926211,0.5284370162683124,0.5196775985936677,0.48731674203148534,0.5152197620644333,0.4938833356084985,0.5696085474642929,0.5560139666107099,0.5408394195696424,0.5209277610129611,0.506195201578846
0.4630896434023764,0.5641169208162142,0.4857665889109932,0.48583560159151024,0.5098629103210282,0.5344043685889266,0.5271265787201138,0.5475782668634588,0.5213164628338077,0.5208219269229436,0.4994940577564408,0.5077592806680822,0.5089324009362083,0.4954535053712355,0.5012408217884857,0.5318683787412881,0.5175926735171873,0.515303152877804,0.4934674982550576,0.5145124427281845,0.5066666347601525,0.5011683250706314,0.5272431822800164,0.5129279116836921,0.4709461170734055,0.5067592884917512,0.49792740523512563,0.5557181358490786,0.5576109559491048,0.5487165830644011,0.5089743427682677,0.47674464517938
0.48059104844705686,0.5312458103503327,0.492286713771672,0.46381305288825336,0.5055796398920334,0.5245283897466061,0.5238146138983969,0.5605713541810913,0.5141130727920352,0.5201349753463317,0.5215562261110777,0.5020547062884211,0.5289902490579321,0.508342692633165,0.5126780478832298,0.5055221223073797,0.5413137840609613,0.5439347823732695,0.5238917217701913,0.5440086730889347,0.5320661727696647,0.49636649269621663,0.5126638595777417,0.5183884229499404,0.4714555870872965,0.49722049168085447,0.5124826249736201,0.5547947389155258,0.5647851280966943,0.5515755119275768,0.4941658785248153,0.5124761296079781
0.47872439990881693,0.5495143400987057,0.4931426289020413,0.4705155071507675,0.4754328212605584,0.5556920940160798,0.5102614733398494,0.5561846583627765,0.5035780735291443,0.5300025503873783,0.5390929913683458,0.5305635366146473,0.5266026500479317,0.552738274480409,0.5514389650864938,0.5225420408146226,0.5339061075905944,0.5651355811590205,0.5415527677540216,0.5578671830107578,0.5478059719448333,0.49507383726027315,0.5263819601807193,0.5435658066557725,0.5234746443317676,0.4785337681928612,0.5279319930769741,0.5299192825815704,0.5654820671583949,0.5487452644003102,0.5001622859979917,0.5039958640540042
0.5207532976345758,0.5231957562013433,0.5213782353794382,0.5055749553707826,0.5006455141418431,0.5288406759378451,0.4853955130133196,0.5270682986805043,0.5079370278000848,0.5201743986175519,0.5463173083594054,0.5342130939105912,0.5201054966953873,0.5415004988050921,0.5651679722843534,0.5290841054270283,0.5249619402422826,0.5502350663418911,0.5382269739536585,0.5552975616603869,0.5447452625491823,0.4882280176657789,0.5268553478185077,0.5322376762011507,0.5148582602451913,0.49490917503704845,0.5112653291704589,0.566941326462739,0.561815214345246,0.5416895716672707,0.509614079331524,0.5219481446957497
0.5207317527936162,0.5202397051620732,0.5388404985483402,0.5049259016388025,0.5120851689218808,0.5074795145400044,0.4851048272130624,0.5137927935878982,0.5307042803081237,0.5239538102958422,0.5470898178772895,0.5357050752083963,0.5414780881093291,0.5499908753402666,0.5572755107147157,0.5419208082940873,0.5167312764141605,0.5379919803066815,0.5312164385232033,0.5364985965538318,0.5414764241722477,0.47219534030163646,0.515766955623825,0.5039976322689611,0.5147553560538521,0.49076111116504656,0.5045354944949704,0.5686044559183837,0.569843678118679,0.5478159711707266,0.5190701250879243,0.5545432906013605
0.5104833191971612,0.5192674001451173,0.5212658657071455,0.4847666390207201,0.5195852933487846,0.4981161988744368,0.506597846296806,0.4995301857631334,0.5285297755249798,0.5433757381860542,0.5491175237429649,0.5083240589842883,0.5467256093006194,0.5565775312134914,0.5617753568611102,0.5354642024554797,0.5324647988694717,0.5598070108062606,0.5405628409486855,0.5158009612997534,0.5278107017749714,0.49133644303706153,0.5219288966253218,0.5064230748100794,0.5160611392184936,0.4787607221126569,0.5066341329614606,0.5400943161904026,0.5708257122649975,0.5415893600404986,0.516109651912596,0.5559524390184521
0.5271238020216601,0.5112062619739741,0.5259386620554753,0.45930683807605666,0.5302256137825853,0.4874428083443409,0.49867981422656676,0.48877167703662283,0.5170484192042597,0.5402882124300518,0.5499529587077364,0.509777954733547,0.5571301918076771,0.5544263626931972,0.5590236201164634,0.5427377501480709,0.5547688958734455,0.5695966268484006,0.5387109414629205,0.5299377757575889,0.5417599891884309,0.5159949894939188,0.5420107682001768,0.5212273995257739,0.510593173741699,0.46140284847313645,0.5371011471348187,0.5501871795103043,0.5576388515419669,0.5643855143469988,0.5152935704169407,0.5646128638154786
0.5496021096452971,0.5300594408082497,0.5536085809395312,0.47814752654503767,0.5014797613477531,0.5022396940614298,0.47812275368423973,0.46865863913040295,0.5080615067262253,0.5283553724883814,0.5262830474597018,0.5160054914628327,0.5478860971821772,0.5360379186929418,0.5307449576037044,0.5259968263419514,0.5224436208397912,0.5511074681182726,0.5259643211879539,0.503127168197183,0.5235211067797544,0.47862644764797907,0.5305210118172702,0.5223492672995306,0.5024621030439688,0.46668919815623283,0.50973725976972,0.5010187276579017,0.5445556341426838,0.5309669088517139,0.500871555286701,0.5679524040490594
0.5499397895855183,0.5468048711645399,0.5392474732525134,0.5143591963473018,0.5113117595570279,0.493019933836782,0.4759202416005201,0.47176869498877083,0.5174999119312421,0.5074684602424858,0.517524006633271,0.5054720530942508,0.5388540099943439,0.5215205014226706,0.5271968584371153,0.5178772685000599,0.5332514033974857,0.5428593737157175,0.5355236336075422,0.5109510864096531,0.5250228848611531,0.47827911466550715,0.5349436543489531,0.5218754599525757,0.5044343223814126,0.45249271359392756,0.5223497400140916,0.5082730265547132,0.5424204839812928,0.5261021831296714,0.5053148835850753,0.5398334959688286
0.5547127248479774,0.5556202221314688,0.5464156407983234,0.5315755218902369,0.509610925772723,0.5234287959193161,0.48178612129395304,0.45930695898123997,0.5086970309632879,0.5050665703782204,0.5001025877783943,0.5054728043063759,0.5439128120061244,0.4948520106502424,0.5338784640663041,0.5181916475682021,0.544705903145646,0.5528678994060983,0.560783250211347,0.5329164311171213,0.5551920893968005,0.5089547158301789,0.5570774886622032,0.5589074009774025,0.5423242908253616,0.4596698659370878,0.5377500840189106,0.517752251839619,0.5508017321701544,0.5381821251897588,0.5051842786385559,0.5618054100057905
0.5458591920274515,0.5458174128353525,0.5184169737684892,0.5254783841117383,0.49265363024786696,0.5216404809821121,0.4592726332214825,0.46092335834773185,0.5150273106196908,0.5142470718363275,0.5202370401212428,0.5310327928694293,0.5531976146780371,0.5218051567347683,0.5557936548702909,0.5273832386887911,0.5564086802155099,0.558566800112389,0.5645347071388159,0.5405827257549627,0.5666601375819275,0.5094168007804861,0.5586889179089229,0.5725915406779755,0.5452585635848975,0.46293360686615903,0.5563962421967508,0.5075544399527092,0.5200330547061858,0.5313982481057815,0.5135257071694308,0.557930649160864
0.5465437063680699,0.5404943790189032,0.4833987006126849,0.5229091853321328,0.4836680754338768,0.5144597888802103,0.4699553562134557,0.44280449569818625,0.525172001343505,0.4981337558833065,0.5129655624893352,0.5224226708324452,0.5444097399388206,0.49423570342054285,0.5447664057431619,0.5247820361071853,0.5310043499806181,0.5469674666108695,0.5501007749823792,0.5244803509312342,0.5644650718564684,0.519929189506484,0.5457081394516102,0.5561421705482439,0.5460417144794995,0.4904317707417652,0.5746318808507118,0.5044162977227304,0.5048645331208328,0.5312035603067489,0.5272806834105261,0.5453289275687079
0.5365505150044265,0.5439196549245137,0.49864953284584046,0.5211018863233757,0.5261403644816137,0.5134206945905423,0.4720034077146469,0.44883452252317524,0.5199313911385539,0.4831790504043,0.5331338570149942,0.5236893555895968,0.5197332016571032,0.4933786560075893,0.5422616529661242,0.5377172076582893,0.5439937687347972,0.5488601207694457,0.5513561539580056,0.528201579609602,0.5305223525128816,0.5311331606542207,0.5354333676058339,0.5550017333821468,0.5392853093989544,0.4814141552298884,0.5725069359917994,0.5073424234436615,0.521105794023762,0.5380203967830004,0.5315220464908462,0.5494868309400919
0.5370671011513073,0.5462338505677121,0.486252140341558,0.5111986884970476,0.5380585158881304,0.5215170584195593,0.47518737265592326,0.46383540097006126,0.5339846897299385,0.46303258296998756,0.5138013844173984,0.5128733578525324,0.5107830424889718,0.4983708701380853,0.5416222228874102,0.5289746654634495,0.5360839181778901,0.5428676313785535,0.5610077183599509,0.5157253116471794,0.5181200858184014,0.5409115104487662,0.538660979932184,0.5606413706132035,0.539161954075222,0.49212741215143035,0.5718180965692714,0.48807164905904576,0.5260520710972821,0.5533499766322167,0.5338671697735372,0.5501943219295311
0.5047503462616023,0.5227508787120337,0.48920727058436697,0.46668015327528123,0.5226453570168774,0.5087054957642041,0.4982866715646722,0.4530265193071035,0.5391218061648414,0.4634813756508891,0.5269874354954953,0.5254888088938688,0.5262229575942541,0.5054679290906815,0.550643387507191,0.5163448605489834,0.5341873337437528,0.5286532311583096,0.557686516372541,0.5073402527717952,0.4890996752190506,0.5337721406885824,0.5420703033558459,0.5592173743406271,0.5257758699800432,0.4686043523055263,0.5593469707295029,0.505252261587273,0.5013945573207829,0.534126988392735,0.49815079576442195,0.5310566345331198
0.5041705653196357,0.5389600861158558,0.49390352779448227,0.5074737566644303,0.5130011141091302,0.49245588968439197,0.5344905755272825,0.46296854859157344,0.5267618836007271,0.4591980760926447,0.5423431901298678,0.5208804015863062,0.4936629594311659,0.5096379751703346,0.5514128509575823,0.5299111802655232,0.5317800769496906,0.5073573934609751,0.552678806734265,0.5283612828604531,0.4891614345171243,0.5384425740469542,0.5174839060511761,0.5655163913796158,0.5223944709797876,0.49271476983011253,0.5673602603309004,0.49118624844960374,0.507236197895592,0.5418916492875712,0.50564182327944,0.4873998877617905
0.5016255588745002,0.5428679586474638,0.5018993371407049,0.48703781498730864,0.5163854901041836,0.4952130498534357,0.5481576946135249,0.476992723189846,0.5128469258613236,0.4512695379433449,0.5377078844602345,0.5063967287488675,0.4876532225898466,0.5104926049473499,0.5509789311529696,0.540920945956998,0.5376585288980861,0.5192337166576758,0.5208007688228102,0.5331482661413071,0.500786582306517,0.5348658780580621,0.5342060724100544,0.5886871602353692,0.5255495465059621,0.49642153370279546,0.5446503189620677,0.48436767747344583,0.49905110019152593,0.5239861511781182,0.5065863333850754,0.4940335498531668
0.5029093463419564,0.48688379035176876,0.48786180224312164,0.4853817733052195,0.5435394708707846,0.5089728017109845,0.5618090039972813,0.49729815346328227,0.5320687785697484,0.423295587582375,0.545335724247985,0.5056146889252298,0.5067875690314455,0.5063910266981249,0.5393746440535099,0.5509280934352682,0.5392486121672758,0.5346729076963999,0.5254244231871433,0.5621670600483467,0.5275248971963964,0.5455395581957605,0.5276868813828051,0.5858537225115723,0.49842620886095235,0.5094009849789386,0.5488725294565855,0.5152023667176598,0.4986440142076124,0.5250074333764145,0.5274319530234194,0.46586722837530303
0.5214385201991623,0.4866535748308787,0.48336703689769955,0.488755342879966,0.5536164675349062,0.5184699005096998,0.5668769242905319,0.5102423633236755,0.5301562932149768,0.436749063086883,0.5663954749208014,0.501962327569103,0.507596535269815,0.5339288923896615,0.549502683213284,0.550268152480543,0.5688009284393514,0.527261882554411,0.5331918560069111,0.5543561005525176,0.5361106012704602,0.5179160561049222,0.5260930958967791,0.5812089221319439,0.4673405118262518,0.5051525202632907,0.5270175551799439,0.5177336722174337,0.5047626026886073,0.5429394704002954,0.5264861390383233,0.49113166194622615
0.5194639099660624,0.49293097531029656,0.47301553525681367,0.4872046599279485,0.543960152730412,0.5008673202158928,0.5644982421335988,0.5111606461737476,0.5291747624341872,0.44284442924637946,0.5522887935661123,0.48436691434590917,0.5020969372932076,0.5234862957066116,0.3969912673916704,0.5223518801546209,0.5213945751152249,0.4831207688252866,0.47893419538462995,0.516469323919786,0.48487911703069053,0.47734969456960125,0.5382569651273209,0.5828076376162217,0.4519229192145476,0.5125971034143727,0.4987970479003835,0.5157884131081197,0.4891929414733448,0.5408655390924115,0.4860840186210368,0.49611136160091224
0.5178172379544796,0.47825360996964533,0.4906165368834938,0.4885853356799056,0.5270514786541493,0.5091773875801319,0.5861513415613884,0.5206537127022532,0.5538360145954614,0.43412398922983914,0.5431012416669948,0.4690994505873345,0.4859673266196211,0.5273059303668501,0.3852898933990198,0.5449998035785842,0.5291878900145774,0.48436444270693657,0.4692585652599463,0.525266307920785,0.4816983906542205,0.4967144867376264,0.5287609588107677,0.5888095334065857,0.48423858321485974,0.5092725637367861,0.5086479772753801,0.5243842863256534,0.5138101765432089,0.5311398573201729,0.45811034979935694,0.5073188989567807
0.5198807806001668,0.48568072146208313,0.5005260858370715,0.5176832991311403,0.5291592695902207,0.5175069505198847,0.5740903652059561,0.5149386288065669,0.5359315448970671,0.4434855443757983,0.5452366844410976,0.4781408108194562,0.501403455297304,0.5392091083661019,0.3996935659565336,0.5556359471821962,0.5459950618640103,0.5203713918492457,0.4696889824341828,0.5353857272971354,0.5048286638366516,0.5154394620016359,0.5437575425039631,0.5800300011758965,0.5088330075056728,0.5208980776224416,0.5060727051847663,0.5254575699777084,0.5140141477906177,0.5332809432959418,0.4725808919930438,0.5044579543698968
0.5215435875056796,0.49562852910036703,0.4922801564429964,0.521735866929462,0.5287236332502078,0.5012649028593767,0.5789343218973746,0.5214887014784189,0.5314770492920728,0.46844311968946006,0.5414721610951552,0.5186976806697847,0.5252892100827502,0.5523367147590802,0.3891789275214815,0.5463442355517489,0.5457283677663058,0.5263233161418295,0.497015125794439,0.5266618154075328,0.5170786503935406,0.5385710665707145,0.5394619417464421,0.5938957486758135,0.5209611131764753,0.5328816337163933,0.510308360079299,0.5296921520629367,0.5010035681305319,0.5135531235972123,0.4669775692173428,0.5030038739654041
0.5573095215589845,0.5247911229410741,0.5147210204055328,0.556955395493492,0.5198702787037666,0.555024675136452,0.627124295119579,0.5377404821459607,0.5288741030416199,0.49841741047698057,0.5402743141791465,0.5152238715598848,0.5371655130289986,0.5261506316408759,0.3831638671527,0.5371911992221117,0.5450813491915274,0.5134537461722601,0.494188632132534,0.5374756464511512,0.5225264319848938,0.5283416824838424,0.5348041742465628,0.5950692159828943,0.5435360434120909,0.5415524484306298,0.517610167604897,0.5346936955330519,0.5056531658933,0.5297554874633504,0.44908100299611403,0.4980705275787384
0.5764655118604627,0.5415250454444004,0.5349742588410364,0.5589058127547302,0.4849361585318108,0.5432588984265481,0.6398473687589803,0.5167533233992658,0.5290172604621485,0.5093444163113249,0.5483963782258406,0.548912732189012,0.5192085561791461,0.5345357308885852,0.3753834377389845,0.5418088658095906,0.5601813988102302,0.5304183115939457,0.5061982532743776,0.5265284257606577,0.5263837676788153,0.4793125398689888,0.5422834544973585,0.5908511609624449,0.5552692633218862,0.5201948766713185,0.5031485395668822,0.5281788375137063,0.5446269525546025,0.5485556445425543,0.5095329032175405,0.47012742481813863
0.5636994175555222,0.5389965007326869,0.53008158802631,0.551783202314655,0.49923434540879325,0.5510116286669452,0.6222978869057407,0.5134388357196937,0.5021380838013969,0.5136613558667815,0.5266066821667825,0.5200238640627679,0.5197448368699116,0.5230510023149196,0.35880823594201944,0.5454114520213729,0.5614913967308727,0.5412466913783709,0.4927122322208066,0.5331038734961133,0.5282961425232305,0.44276755019707675,0.5232481437645479,0.5818266897883477,0.565446708246216,0.5209044759185807,0.5047183291590346,0.5486546789570943,0.5788051968803192,0.5556875929527632,0.5380293738450825,0.5001182799934332
0.5482421175491164,0.5384613120659121,0.542689225792788,0.5531319073244928,0.4928547384447543,0.5565358470994908,0.6178934190562714,0.4849045672057485,0.5346116696575535,0.5142792307613643,0.5229857736064555,0.5080593702731006,0.5171041493958402,0.5154077614773748,0.2969135809712631,0.5432992131472341,0.5548741953628402,0.5215017367420409,0.49765128748205,0.5438619836253759,0.5293114217962984,0.44533653221463754,0.5267486724178412,0.5822394599334032,0.558156288770969,0.51336182736714,0.508162506346507,0.5626942921625101,0.5794725554633644,0.5665844572515161,0.528023607790805,0.5136923242480668
0.5547565529917173,0.55403985863538,0.544008589066069,0.5416624792728939,0.5103452719914617,0.5619687715141439,0.616992730468296,0.4796909228008223,0.525720608954021,0.5216154437793732,0.5486541107046778,0.5189036141329563,0.5102686979818448,0.5324338839609367,0.31477478219813176,0.5130690946070816,0.5357140622527031,0.5313446139123609,0.4823296939753489,0.5434908903205263,0.5027965826989693,0.45571767199825897,0.5201812013595752,0.5833094266954086,0.5543903456172055,0.4995504255563499,0.4921745071398901,0.5591118826589501,0.5705777461725473,0.5649491339107853,0.5160795382852739,0.5375663021150902
0.5357862251024387,0.5457387222258713,0.5035460500143427,0.5228486372672536,0.4981910768860365,0.528388879571037,0.592557795166292,0.4829635009497237,0.5362921443324159,0.4947002806164762,0.5331794249122713,0.4907171518590671,0.5352369953920276,0.5114969149077804,0.30887663744258537,0.5220780110949246,0.538543972659522,0.5448747339988171,0.5056005909292755,0.5392605968652135,0.513307014617376,0.4840248360694042,0.5176444280517118,0.5926084710897717,0.5368254801614368,0.4936012425771811,0.5232228506809401,0.514605704293366,0.5594822676735246,0.5533146972533819,0.5241357091978109,0.557352082263963
0.5113933419091883,0.5266310366906775,0.5010286346511966,0.528279360836393,0.5025803718201713,0.5331781457774496,0.5764063058484138,0.49852370196392864,0.5141974959395069,0.5181137979222685,0.5144974802443624,0.5031116638055744,0.554888439349875,0.5088157972743534,0.41021356247982477,0.501375904928006,0.5089629157272704,0.5186499188735195,0.4967350466667365,0.5179750618663899,0.5229687907443218,0.5060150312056412,0.5349679290875903,0.5283220937276896,0.5112732012603148,0.5206766375320041,0.5030825238437568,0.4848095883288052,0.502264491463957,0.5128979332816197,0.5216351703908345,0.5605545102990107
0.47808203908485136,0.5084180559650541,0.49050153512890726,0.4932325130207069,0.5083944147001905,0.5311341319380153,0.549455960044897,0.5069698031332619,0.5476938316555301,0.5224359219981334,0.5294537532670717,0.5100223815452867,0.544276254119801,0.5016897207738653,0.40287229581294887,0.4870652910847946,0.489589935215949,0.48105346543232047,0.4523076827136653,0.4876367844331272,0.48896402545114354,0.4796304016341757,0.5076940408385255,0.4866142849229916,0.4538577834663491,0.4995675422328781,0.4537684610098316,0.45479171977018956,0.4693873999889588,0.49047681770924734,0.5023712864127683,0.5283873672647875
0.48402789751361,0.5101121025084623,0.5087839253065444,0.49386514851103513,0.49460725331768607,0.523760118066745,0.5126445147442624,0.5195264894145729,0.5293212828000325,0.5056792878052213,0.5350826014115506,0.4790249548370689,0.5353392938041128,0.4947583693484083,0.3896066599624008,0.4888268460102446,0.47552784168496687,0.46226944672174325,0.44083340071119315,0.4936440504644586,0.48163020829309156,0.4882656257414226,0.49024876607723133,0.4939424449170906,0.46117124360684064,0.4747018301050436,0.43194784239779266,0.4639971598138153,0.4664804312384186,0.47561936803137117,0.4974002259655922,0.48255898332492225
0.48452162872328364,0.5036164731904017,0.4882442587051498,0.5115122797783217,0.49318768969185,0.5346091871693595,0.5292453328848832,0.5191498241156023,0.5204519721677219,0.49735379844956706,0.526303673934268,0.4370648397690927,0.5318447207197593,0.4698632600745855,0.3709648145655147,0.485532478214651,0.477283952613861,0.4547738637946899,0.4492618563872222,0.49230066092151703,0.47347567229392024,0.47115750722754873,0.4627882743491634,0.4881792622311857,0.4175704108990856,0.4725440624854408,0.4168993845847793,0.4401835023137699,0.4603691396942298,0.46927954538128214,0.5057330865803371,0.4834499389718873
0.4697631771947234,0.49092758041019596,0.48052299143676624,0.5093441997688903,0.4980837250403846,0.534010268121315,0.5475910794992565,0.5029771793909288,0.5009919590464699,0.4542736954391956,0.48487822212253695,0.4541726583736294,0.5262076565567738,0.48454897035990013,0.34438923383513415,0.4575423460919278,0.47551117315116553,0.4249941879162096,0.42674723463940123,0.48654878546451885,0.46700062398596603,0.4752768966231723,0.48579238808438835,0.4917282340995101,0.4654519948504617,0.47053873608876057,0.4285179956811305,0.4372082456616989,0.4841039060199951,0.49256687404148014,0.5170956912423078,0.4877869444125108
0.48401957327912726,0.49030310607448313,0.48128543090185255,0.4986480305427562,0.5284481384833551,0.5180558433292455,0.5447889427817695,0.5204087066872437,0.49195090340828124,0.44342301168399345,0.492614894770874,0.4354656618418342,0.5050949490570057,0.47859534586107727,0.342097538757688,0.4589813237793064,0.47885980526414573,0.4380167380202381,0.4239837034261244,0.4663172803453126,0.4356152039297687,0.43076851921369735,0.4508964512714799,0.46434885792026176,0.41637802265334933,0.4462597985013991,0.41239363218528774,0.40248620964440673,0.4629346640567334,0.46916139497826903,0.5131399525919478,0.4871121331971967
0.4878142372673623,0.47759803697690034,0.4744270719933887,0.4959716342869394,0.5265619687259148,0.4896212597788311,0.5272458119933143,0.5096346829874582,0.49583054172623203,0.4352537811809968,0.4972129825887795,0.45822822125360463,0.5029006106627482,0.4752203697773674,0.3707225542965819,0.4496538939354551,0.4612508381361409,0.43313704531148534,0.4225338897536079,0.45783639537755516,0.3994243806124666,0.4376486457564652,0.43627146800771754,0.453159583989301,0.4093267650225502,0.4070222557289352,0.4006692952444952,0.3951460671992698,0.45565215158279704,0.4578758771196149,0.5064417006860782,0.4891244562518894
0.4979222189300828,0.4946072736562203,0.5017820042329695,0.4995175798150923,0.5486756027013614,0.4726774882179687,0.5288822278449298,0.4942564728234761,0.5187982462804751,0.41646425719844693,0.4886397907916258,0.4484772949977079,0.5079803434705822,0.4594694085956848,0.44270387241115206,0.4409909620221569,0.4254289370503909,0.42509911555738866,0.40504414409437045,0.43700510871127657,0.4005873547061854,0.4196460857298797,0.43550222816004625,0.435374214310358,0.4148025640517353,0.4291227415483027,0.39107528089281035,0.41915907988137724,0.464784939207142,0.48724219708132427,0.49217097156166106,0.47944133572129344
0.4922675685383079,0.4893705972652566,0.4876414989001137,0.4912120608744911,0.5436649751829102,0.483117449653172,0.49896221795068124,0.48819767663424063,0.48533734809100343,0.4465045398123136,0.4935670663598048,0.455250837982671,0.4755671848215021,0.4577519445545927,0.4408726652190968,0.44701759346689796,0.427701888212537,0.41268129611595816,0.39661833977688954,0.41828959987149195,0.396697793971099,0.4206541717452793,0.4346702780370211,0.4354855978949725,0.4229848274187731,0.44287018173133547,0.40624489604536995,0.4007282571458951,0.4737360567597142,0.48290864039251763,0.49210631296352664,0.4535803707087981
0.46243360285307644,0.48010808117362413,0.46858216489835797,0.4971837155436158,0.5379091133958915,0.49179639594945446,0.5343403115243921,0.5020660980601014,0.4952951498724028,0.46737732322306436,0.5064591712830866,0.48210090443663045,0.49847297572930294,0.48197392877299894,0.4284886195390813,0.4388015283757561,0.415830673172283,0.41365784605185324,0.3996726868492483,0.42678005156253096,0.3692306133977553,0.41817132301075477,0.4154128341197134,0.40980493068206314,0.3904701823800879,0.44489885622314096,0.3851324805787449,0.36589634473807126,0.45836523186478695,0.4677037749467906,0.46376769979432436,0.4468269361236629
0.4812808906895444,0.4997693575175806,0.4662266981498555,0.5176257395518932,0.5301695822130326,0.482818340759451,0.5238756932046597,0.5319245253993754,0.5167891151627896,0.4279235432058731,0.5107367506767037,0.4798627776084839,0.5069164431853967,0.4899021930051522,0.4212238419110577,0.44368219414533394,0.44925397898169,0.4271591821642021,0.4313018125842493,0.45150196192276754,0.392508345180756,0.4376909392222649,0.44209958588934173,0.43288166183931653,0.40760293842039125,0.46150721321722943,0.39628203400215495,0.39051300538673145,0.4698673058865168,0.47864096896245856,0.47357785846799,0.438983591401456
0.4842268840199478,0.49737268778238686,0.45463276053728174,0.5318736830672098,0.49200847366977296,0.46790587307473686,0.5192648283446929,0.5074300347648525,0.5231342238956603,0.4040502321616437,0.4999840100872997,0.47025714680318403,0.502880475434555,0.47252017961920223,0.4172779066478563,0.44448205422847453,0.48266584243815364,0.47338963699546643,0.5226650855288788,0.490379241834099,0.43227502191291584,0.5152922628263469,0.5165438604379274,0.47641538008128625,0.4714906183673138,0.5518972206408397,0.4718719615656024,0.41852691914987156,0.5110611672837443,0.5148891163119352,0.4797138081564566,0.49284007569878735
0.48642714138253973,0.5000477505941122,0.44435058827138035,0.5237355613259466,0.4851308129497142,0.4605089563977716,0.5046151561021094,0.4651719239206562,0.5503791710045545,0.362322023822498,0.48097266061630956,0.46914212700469055,0.535082031333088,0.48057108874389065,0.4383417201635589,0.4731568971476916,0.5055617940908916,0.5137475594026466,0.5672193312077816,0.5355505407933794,0.49349302662952504,0.5217178476355632,0.5321927686386834,0.4910203773797876,0.49979395890777567,0.5231575212525592,0.4805028875667705,0.42747626820951595,0.5132338127684739,0.506062679061438,0.4718973699484585,0.47382816887887286
0.47746600668250555,0.49191009797885166,0.4497634702615472,0.4961521101848356,0.4841134130856816,0.4738273079088883,0.5115531889438858,0.45084151244621673,0.5564149739079304,0.3589211630173066,0.4815793851039013,0.4771033202727006,0.5450515173008318,0.4941847556761416,0.4188580434207715,0.4763109758016622,0.5209554845324609,0.5073466475772456,0.5467815609211327,0.5381261383662831,0.491980058849953,0.5127082725806074,0.5362716286609105,0.4837347122057893,0.5124609471067215,0.5118146891798803,0.4822552236819588,0.4191710186303532,0.5141151004163895,0.5053181354151588,0.4706899710708938,0.47241286777973235
0.4591108948457211,0.44492292543032086,0.455187246503451,0.4465015568432667,0.4764308938588139,0.4763255308030197,0.5132126157989572,0.44047865593130997,0.5672103431766289,0.39298335290575975,0.4751054355660744,0.4928450322365117,0.5286557917895078,0.4830988191101234,0.41415548348990877,0.47973803991992053,0.5175891267718904,0.4914946800813986,0.532284055781674,0.5469484827346571,0.5099312784077893,0.5383998865006564,0.5396167010407776,0.5067797205219267,0.5066933864810801,0.5060821371535728,0.45057110688159474,0.45514694842980863,0.5062453110685412,0.5046248297638555,0.46057432876685006,0.5081330981537092
0.45868292181244713,0.40598760145826096,0.44104643417286693,0.4233760346746946,0.47690654130186166,0.4905145610215934,0.5034068683785451,0.4349634361736266,0.5590980555914737,0.384937637983837,0.4877797989491136,0.48399018522135057,0.5535320205463268,0.48304402321989337,0.4632642125670516,0.4903233261034601,0.5086420708385185,0.48908728961107484,0.5173797806603817,0.535262540735035,0.520834156002428,0.5579946227561912,0.5739769730035504,0.5237612897658421,0.5398494374453199,0.49811815145488325,0.4431429243700433,0.5318861976305527,0.49177670596965506,0.5360483185315096,0.46653671438336786,0.48076949117229484
0.46251701149667424,0.40263756079079277,0.4346223304373222,0.4026094662788128,0.475845904869964,0.5005508769219772,0.5067254513328394,0.4489261628743106,0.5598139058162095,0.42079017521668666,0.4314598877983265,0.4601176330323312,0.5649336636536435,0.47204245163916025,0.43845125505135885,0.49884145903244154,0.5175285264767512,0.5039175448410269,0.5426396267511983,0.5439698679997447,0.5553392311681624,0.5694646064478169,0.5641740840888273,0.5419307701616339,0.5466241093016718,0.4983118274969185,0.4788020189509014,0.5422084394625304,0.5080988260617341,0.5416537210738781,0.48533749188200725,0.4720220873717517
0.4613877551742019,0.38502361164619575,0.42210933517534066,0.41062836938903857,0.4963953589369619,0.4936893415230035,0.5306763869980626,0.45372251338471536,0.5430568953703526,0.4399787540654728,0.45834669317380733,0.47166803329165685,0.5434640598865004,0.47134008116533727,0.46646186726245537,0.47907286015461314,0.5264988577201593,0.5281214553438116,0.5204944698059265,0.5449385072505987,0.5260021624650404,0.555389814650635,0.5643186967251357,0.5428366171640421,0.5528233450910236,0.5215275243491703,0.48339617988759825,0.5281460202942558,0.506758924383437,0.5297410707585264,0.5044837172407064,0.47339126018729466
0.4531614007272038,0.3778656530189909,0.42990446542394956,0.41500853356958484,0.488002115329577,0.46728481548270245,0.53279571847576,0.4384832438038041,0.5459692879509068,0.42034491305262583,0.4422309062975105,0.47566141500100934,0.5563882434445562,0.48560333393363364,0.4467467670814684,0.49579171275880707,0.5381358144779201,0.5619823234590571,0.528655623992012,0.5481412331185416,0.511129528949913,0.5397273964971782,0.5458738392000047,0.514981298865449,0.5187401559410896,0.48189974487592524,0.44467326641244903,0.5205857814040213,0.49468205586272446,0.4977286485744271,0.49330780944528074,0.47309043768683057
0.4707104414451819,0.39823812712542617,0.445911991869337,0.4201680012482166,0.4873636288904171,0.48182812688218074,0.5216184341509108,0.4028484472169927,0.5279399700750658,0.4137869314456566,0.4097962498329605,0.47953191495435493,0.5570015998820943,0.4540670369829229,0.42410958093741197,0.4999094898537062,0.556401923644624,0.5653910534126397,0.5403057909274602,0.5553904799697735,0.5345274823574028,0.5455350713837915,0.5522440128948836,0.5545040151055084,0.532772432540178,0.4874782597689995,0.47178838001970047,0.5579750512509455,0.5128359220901397,0.5264177185258269,0.5053245335956668,0.47355832680039145
0.4657443031463842,0.4116138908449977,0.43707471820898214,0.4273159410562727,0.48320836139294887,0.46671805162643776,0.5187287971524297,0.42733718292683265,0.5396434666753722,0.3992579089313698,0.41637654992088885,0.5038932533693679,0.5616300375626898,0.4647324818159768,0.43157779888910097,0.45296479563135483,0.5446140913684598,0.563083817263873,0.5418482136918756,0.5564783587812584,0.5399925167512832,0.5386712259204396,0.554052491250094,0.5654384274065056,0.5485331911794562,0.47874114394526324,0.4652703234852442,0.5641183647563225,0.5204283039768226,0.5425984092989731,0.48940428606082403,0.45700509527195143
0.5081929198118864,0.45828526700760597,0.46345706371513756,0.4662067664370448,0.5346885223907349,0.505739430263863,0.545481277000518,0.4661907961736114,0.5243491017090695,0.44227070721171835,0.464819900608049,0.5382211702973713,0.5530251430399689,0.5295615348234606,0.44193072905862085,0.4843361877879268,0.545983500510342,0.5371112769971805,0.5215909980362287,0.5731070259625238,0.5248118657407306,0.5061174004731354,0.5369367677696764,0.5457556454495823,0.5478729073662594,0.5055061569448326,0.46322028749664645,0.5289689693175187,0.5404345034643075,0.5487882974973914,0.5500288024421057,0.45789090544801414
0.4837278090440887,0.44161674623003,0.4811984962089587,0.4834379912397701,0.5514833819262928,0.5478507588012286,0.6065478179142431,0.517377455016789,0.5349388807123608,0.5121124303927274,0.49589165626141624,0.5509633157978546,0.5154508174550683,0.5515708399069997,0.45187218681820973,0.4879343578659868,0.5559137615651228,0.5218266581477865,0.5053867397920675,0.5578110098928887,0.4863778114865969,0.523618034650955,0.5515658153494747,0.5431864509965411,0.5364325901207193,0.5073349354790591,0.45824973401925045,0.5231392511248049,0.5393670495196741,0.534877011911099,0.5528052456577515,0.5092509893641225
0.48556003646632584,0.4821913189698835,0.45196983193717116,0.4900369515641204,0.5641434618161628,0.5320412193429156,0.6000098381969201,0.44878439631814765,0.5448414797462329,0.4927991958710667,0.49141996096359414,0.5337713361586348,0.5037708471624913,0.5386682268456543,0.4985092990546267,0.4940185054496094,0.5451788090556431,0.5211931192007436,0.5333068077116239,0.568058531975441,0.5107412498206149,0.5404021425255311,0.5547597702889367,0.5420473975659433,0.5539016833720067,0.5089167708838275,0.4938056205929018,0.5303543841846573,0.5583627153342332,0.5251580080926052,0.5180720322867578,0.5440116935692451
0.4795033006491349,0.4871714328681009,0.46792567435704413,0.4971027340889594,0.550753300540092,0.5452302490554805,0.5763871114277316,0.43594428211567027,0.5480837916623512,0.48801391391490345,0.4820560014512837,0.5364197040264899,0.5212901872450005,0.5268784215668035,0.4991429150254224,0.4966541236639283,0.5304461182868742,0.5231774449063049,0.5538245090023046,0.5674600789617339,0.5245244681241525,0.535808288679372,0.5712294796874066,0.548410314319332,0.561344455428016,0.5250955801031929,0.5189101527836192,0.5233245058737065,0.5504513797074535,0.5192900032016452,0.5131152641480652,0.5589738157749656
0.48438945124169025,0.4802108283730064,0.44562955234475143,0.48409946313092805,0.5111203171817256,0.5261788555126287,0.5646972087816009,0.4390817189071494,0.5509711591266183,0.5025849043309403,0.47035330477098347,0.5240471849576807,0.4990390301850494,0.5077508070362742,0.4929994074668661,0.4857380978782856,0.5216553804479667,0.5264872467039787,0.5586845845286446,0.5607991788361166,0.5363646462186088,0.5284343571375899,0.5682602425517638,0.5363520283235559,0.5532225855523599,0.5185733105568165,0.5040002268675627,0.5025519412145574,0.5466373108424321,0.5148720225884877,0.47310369487790865,0.5721716930284584
0.5132525495440871,0.5058114174410187,0.49360722309848193,0.5385055868612825,0.5073525173109639,0.5703510135531394,0.5698893754502856,0.415118136408058,0.5272769393918944,0.5164646282936718,0.49357099883851285,0.5280620332114768,0.5000922010051155,0.4989977896663611,0.5294328243903395,0.5010739973143924,0.530242080930745,0.5481702843021604,0.5586565552479624,0.5517736529756073,0.5678140418554237,0.5543788029367323,0.5952067330381253,0.5635097572110183,0.5652855408983717,0.5202478414838666,0.5087087728485025,0.5427595623328323,0.5809710609060164,0.544690384698219,0.5030900015063966,0.5729871237031471
0.5289480614245334,0.5176067038961221,0.5045696140661627,0.5470557009179794,0.4932892112439221,0.5554688134263572,0.5526413265624807,0.39494616280894257,0.539398378603759,0.5186427901871867,0.47782796143394046,0.5235186762127001,0.50071667298325,0.5047938903315553,0.5112149055460316,0.4907704728940644,0.537677888612832,0.5549709114952996,0.5496707702115283,0.5691557131111157,0.5648673572640237,0.5390916038721133,0.6066516131448612,0.5651083300112211,0.5555494809437044,0.5391177937160365,0.5091118989218248,0.5392411812846273,0.5802644924356862,0.532400640783927,0.48634076796242215,0.5604501107383687
0.5169770683629962,0.520458816132102,0.4941909779338676,0.5659215239840795,0.497024980105066,0.545633306836666,0.5482639433909776,0.42649707367807715,0.5600361530125091,0.5443712093154696,0.5104430749428795,0.544344936792691,0.483371747469766,0.5044676802331243,0.5229019433110295,0.47296033678515226,0.5182944154176364,0.5033967552045975,0.525201586293106,0.5069192220737292,0.5420363247372793,0.47897439528648,0.5369682337734619,0.5511574775399556,0.5252347803923239,0.5217418576330406,0.5040539528097554,0.5440610419592409,0.5523937262122621,0.5167174967448395,0.4847220434580779,0.5310985650565463
0.48854132690894336,0.5028455315420144,0.4748855221900303,0.5757304318568531,0.520023599596216,0.5574999722972466,0.5975733700036479,0.423324043386308,0.5479552647069579,0.5271047676768653,0.48701685232086395,0.5488221102269494,0.47313704774483867,0.5167407814976829,0.4965492269307592,0.4586777253655992,0.5140257428648274,0.46100166599254083,0.49447220920994434,0.4945046334497382,0.5039536615724522,0.4644145574823285,0.5171552620999195,0.5194214075992152,0.5055869621928406,0.5050893136826335,0.49063321834556567,0.517791161422414,0.5290651355611186,0.485089099142065,0.4738117760185095,0.5172926306476797
0.4597721893013958,0.4587414586445758,0.43021285030297146,0.5493570625815682,0.5427039473946457,0.5445749147156479,0.5656066291583967,0.42267058001278723,0.5470031184407592,0.5063959376744025,0.42463184295225487,0.5117573490779721,0.46714576397373864,0.4676148553418359,0.4708345062643956,0.48042305906359073,0.4936470406922776,0.4585937147046871,0.48451323851342204,0.4462871026284195,0.5042995206350189,0.4534986863469591,0.49537135611185285,0.5176244228590589,0.4766508938140148,0.48402491923559093,0.45880443901511225,0.5146727594948516,0.47872915007204864,0.4571189915935308,0.45193410008082274,0.4960336778265083
0.4841749837125557,0.451972966796882,0.4379057886619702,0.5243582706609161,0.5132816217258608,0.546984041029522,0.5695716223810607,0.4077106359144462,0.5157159827137918,0.5118700492404678,0.4293951317547721,0.49280466291685676,0.4601693971429777,0.4648059855629692,0.46207075497880334,0.49297796652534687,0.5121393811229138,0.470473223055727,0.4951813043073495,0.43807874317018497,0.5015313172824384,0.4671971764108968,0.48314187952776577,0.5390572153436768,0.45197199599033144,0.44201588569224226,0.42486665360264564,0.5104674575730501,0.45543810815466795,0.4513723051581406,0.4404887021855751,0.48926654367745614
0.4853435537286034,0.43946860514122255,0.45385992900004524,0.5191725305622615,0.46779658073237934,0.5263263769964895,0.5262743108138513,0.39340704603555904,0.520306271646525,0.4972996060913299,0.4628813269973637,0.5330069391485477,0.4951308702928123,0.4760597452397595,0.45529975648314347,0.486093180323964,0.48720802972202637,0.460852084280555,0.4865163887365856,0.46877055894371855,0.5034192176347199,0.4791574983801641,0.45745250483814603,0.5116045850774565,0.45825004306974804,0.443333293196558,0.4391580418432922,0.4830593267264052,0.4717701862101437,0.4433647802380025,0.3846074034353112,0.48972161249006574
0.517634565000182,0.4617769655301288,0.45876313433267507,0.5245687190267777,0.47296106879124505,0.5106648391366548,0.4842683693939581,0.4008652408095662,0.5297935264728018,0.44517244532555034,0.4643101773559973,0.5250826923978995,0.5376778344764335,0.4715518365786094,0.48482199173726204,0.5006600606265404,0.4986108707516729,0.46244062184574664,0.49885796953395134,0.45787930968556956,0.4949519902157746,0.4803700889779045,0.47556427508881444,0.4828550576789185,0.43881218923479304,0.4358703417701638,0.4532335633558955,0.48665526283817767,0.480610382720433,0.45088682599399466,0.4110104498254779,0.4642368831512588
0.5053107291191113,0.4495348181533663,0.47132699773660675,0.4939142481864876,0.4639601842477855,0.5218365802817215,0.5112929602901688,0.4154387900804359,0.536947681619024,0.44598490705909627,0.45693942977276036,0.5102663619769561,0.5054636806246052,0.4883610852710087,0.48693313160339063,0.48581055994357364,0.4897970336192633,0.45573928537508746,0.49077511721328115,0.4287348029562732,0.4658984920664447,0.4693462994651732,0.47182468692060314,0.4824841436300783,0.43918931427232255,0.4480587931651311,0.4279411408275459,0.490760157999094,0.47334850093622327,0.4379003838613182,0.3776499809980605,0.4655430754834802
0.5115935255123063,0.44451704365122946,0.4629058244088423,0.4699847383313203,0.47686098838681623,0.4950245700413246,0.5225981599912578,0.42477497409656206,0.5608371425050155,0.44343966538158097,0.4585539582881334,0.4975415839204268,0.5048339940977239,0.48248750081951364,0.482321287536273,0.49454329872369474,0.4965623688991642,0.453059932055569,0.4917110235464219,0.42367396480937775,0.41006810818012535,0.45643974043413177,0.46621818282635175,0.48423789605982165,0.45951620931621634,0.48210990912267476,0.45752995615031516,0.48088792152187754,0.47735501370439076,0.4528140534351184,0.4250948540869377,0.4786542022217445
0.4923635609262553,0.47647223082951556,0.4820993455075943,0.48245658184369555,0.5040967075582877,0.49188904455925375,0.5254902971702375,0.44198517968578194,0.5425715529141316,0.431799154523588,0.4569136699442064,0.5006300551767755,0.48678684213199724,0.49284426544250426,0.49865668066598634,0.5006345518627178,0.4995568043049884,0.43502972616444224,0.4913327128125168,0.4475346280797224,0.42607877785409126,0.43293719150929066,0.48457824307355396,0.49194759811417865,0.4743850215095036,0.490817867224018,0.4748079944362748,0.46427713121875264,0.4807893857558708,0.4491935329124199,0.4320219425576095,0.4650334926465213
0.4594490919992597,0.4650119383484944,0.4716224351031852,0.4515020708393724,0.4943034774242413,0.49993301420859076,0.5228080541862733,0.43873821166936877,0.5142298474665599,0.4337360509290941,0.44314360273189457,0.49254100747094937,0.47029669596559853,0.48592930025623793,0.47701833434682905,0.482289710818858,0.49219565195763815,0.437465304092687,0.47647325582735156,0.4392629576163775,0.40324796279142605,0.39477619747649195,0.4469961803946299,0.4777328760510763,0.4509385987925778,0.48876660368676755,0.4686834970408127,0.4700473269450586,0.4710120891888969,0.44044688089626527,0.45763268866858775,0.46543626370795743
0.4553926498019747,0.4416797183817324,0.4689346820568306,0.437653668261473,0.4848216078606922,0.4822638476664356,0.5141137759703102,0.45256924028342305,0.4818047018125277,0.42055409145732897,0.45844532807022725,0.4766386396893122,0.47433913712067566,0.4799566187930329,0.480053965099237,0.4948134957495907,0.4948085682568033,0.44788157546157703,0.46928171022244364,0.46725026522735924,0.43040043377759823,0.4067714440222199,0.43808706036883904,0.4760724979301761,0.4549545165843865,0.5147138922481002,0.46081790841281256,0.4806919973353409,0.47131458031726564,0.4428179740336091,0.4548983886578863,0.486972218150989
0.46112371403360225,0.46294226127304416,0.4586583944309663,0.4470737001062563,0.483562117812255,0.49576987186283616,0.4865516878203794,0.4337896067050883,0.4978775961559606,0.4310296077819576,0.45549668952426625,0.4820962924752591,0.44719717956877986,0.47259259805722265,0.4858087551446909,0.4794563600983456,0.49358315074236453,0.4480479906243057,0.4603887980466866,0.46252457021792304,0.4264005623956765,0.40369205799827873,0.4142706503887605,0.4741273464295976,0.4381440723311858,0.5201947985866266,0.4733496536338622,0.47802863887617053,0.4412286759537507,0.4138079703023217,0.47958172722788206,0.5030327812118738
0.449871181512012,0.46088184542253596,0.44406167522475365,0.45174912161794273,0.4613778039421114,0.46969124778080384,0.5124484362236748,0.43925957620501027,0.48360864519165675,0.45902682295857633,0.4794305247763771,0.4925941806196154,0.43310485785740926,0.4861916660306025,0.4836691574838898,0.49408440200522036,0.488466968793403,0.440513628263686,0.4469734193005368,0.4459745537901197,0.418442654152429,0.39584395282408696,0.4022794632379773,0.46930586411799363,0.4329943245470491,0.4832909080421785,0.443884876947487,0.43592129854201006,0.4352228830230395,0.40316361111988513,0.475822050192657,0.48273575302123967
0.43967408981100126,0.4435786820503619,0.4459547790444466,0.46480229765881725,0.4902106889214714,0.4636887683870611,0.4840130471924714,0.4774470698243549,0.4747860391259506,0.46073615720448885,0.47635925987535055,0.4970436108627129,0.45102873499380014,0.4824970989055378,0.4808235626586753,0.47878287871938546,0.4611578513335579,0.44393775031981597,0.4606896288934931,0.4495827394235223,0.4342855466436564,0.41707343610897185,0.4157065349672614,0.4947632457558614,0.4403283139029129,0.4850379461618732,0.44602018336340166,0.44721805692373956,0.4218726088631367,0.3782363349792046,0.4871191007764609,0.45560270269191167
0.43085394638690466,0.4464650176371676,0.44258950185331336,0.45871110381112407,0.5067569728035758,0.4673832820298333,0.5202993788332808,0.5081321261381977,0.4666731264757704,0.5084447536241281,0.4835426521300625,0.492062043392651,0.4606455558385156,0.4994558710917174,0.5137060866313448,0.5169340252760846,0.4946865765451334,0.48673714252285016,0.49418741961346374,0.46437034492211776,0.44445619825221133,0.41734208788439836,0.43917562884758554,0.4958842884714561,0.4356627845526081,0.4731860930350055,0.44211199296957304,0.4778669248132394,0.431037412826539,0.39687696328920397,0.4619226088879689,0.4436631762941382
0.41653490457379466,0.44576716929050975,0.45222030718722694,0.4464406770739336,0.5031114502930728,0.5058499265164494,0.5472127305734695,0.5088494580929307,0.46254464670898154,0.5499287659356553,0.478673544379181,0.4872519008700435,0.46975277691662454,0.4921586716516104,0.46215777627459026,0.5017703249444357,0.4843309296861121,0.5001266696475049,0.46880623815452827,0.4484317146572806,0.4585432939483304,0.4356685779233074,0.4859927756543958,0.5205557237082372,0.4708154043004613,0.5056545774783491,0.4557958292144555,0.4947354326759065,0.44313951496091103,0.42239941519612,0.4709052196702749,0.47518239882673774
0.41552969090391617,0.45531901823934695,0.46976924009474935,0.4685045903050361,0.5217513658133406,0.4769940918550079,0.5411343355834739,0.5348616633809549,0.45883627043591046,0.5538991819804387,0.4942165560663357,0.5009597189581114,0.45956007363191337,0.5051019279354301,0.47435215388995333,0.5168311433590195,0.5136110829848098,0.5101456645373449,0.4974426352591564,0.47612247442848005,0.49776446155374093,0.4706436028428628,0.47859242008651504,0.5103319794267055,0.4547953573201918,0.5035863687218728,0.46582825783525494,0.49614964921364924,0.4613818037697552,0.4487584014415717,0.47445043382056085,0.48698516939382974
0.4285605914796433,0.4767123505819402,0.47549996054984806,0.48656334528475387,0.507030552797439,0.4872057493691939,0.5351898726111244,0.535807406920814,0.4739479629784017,0.5510504250764997,0.5105313005233671,0.5043659345909143,0.47079099641820915,0.47763716389674665,0.47056728593111785,0.5266922744602478,0.508127436356939,0.5147118678374675,0.4838235362278504,0.49384499792372794,0.5023178695288786,0.4694466813059699,0.4728559905769107,0.49241164476708577,0.4739850545449205,0.5185496771702385,0.46666311540341193,0.49312406363932026,0.47560263560792043,0.4508688718830081,0.46851517497149625,0.4817796863766736
0.3974202368930708,0.455491777880522,0.48351474874721884,0.46153873405334583,0.5013092382677932,0.5007752879124893,0.5488396482708682,0.5213363882302591,0.5102933495093558,0.5475112923168057,0.49811771306496794,0.5001027096114136,0.5029729943924084,0.4569882611336652,0.4908524262747257,0.5330741763591039,0.4910820135405157,0.5226813121201662,0.4908499736055924,0.4826559156032164,0.5023664969636851,0.4867263539576343,0.48633373059695345,0.49876805765946297,0.4717083535381676,0.5102206401955287,0.4488478441002171,0.4996976545238961,0.47825132541911153,0.4528084231617956,0.44971352589302727,0.4935191865571064
0.404104008129421,0.45173359422030296,0.49379132926416536,0.4918535873574594,0.4882662628862436,0.5281178702902908,0.5429201456969671,0.5340747019815386,0.5239502829510637,0.5567381903407437,0.4739246242137998,0.4894100784683845,0.47413112879959285,0.4555757918737858,0.49160419908439273,0.5230177775209217,0.5103362073852441,0.5119919453605293,0.47616711071326207,0.4855882255499227,0.5017702322892537,0.4815888035809651,0.518604150244413,0.5050527157602682,0.4723613811734497,0.5080663670142094,0.458605115589248,0.5111961542463616,0.47524086992370485,0.43985157831156074,0.40671554244962876,0.46083526115885604
0.4330948482581092,0.4707044001223462,0.49109218244363695,0.524970617662323,0.516957293112395,0.5519415331654846,0.5828342012639613,0.5446686019758857,0.5433718115530585,0.5655610015481645,0.45864104444142717,0.5176584142857611,0.48821112898465213,0.4801500621460227,0.5262788963211155,0.5198404948622061,0.5180311415287713,0.5335302307427746,0.5211356549862493,0.5126278319582194,0.5102123418123022,0.49925415473736123,0.5320263055574778,0.5262569933792709,0.48931187457310066,0.5047000303393079,0.49655718417153133,0.5162579788066951,0.5026288565618121,0.46229277942814745,0.415374206394411,0.4661271916667994
0.4319381508779722,0.4746081432188096,0.508016146674116,0.5413223935319434,0.5357686619479692,0.5529607846623161,0.5925992178527821,0.5537927638305815,0.5485066907336791,0.5780400552614811,0.4673694630245551,0.5437436339856373,0.5218087768373826,0.4856429016289621,0.5243487955773272,0.5322991838577487,0.5277481722693046,0.5569140443794454,0.5307476690984164,0.5057798024110192,0.5175578780889608,0.506610695153975,0.516835969464378,0.5428328478610427,0.5100607437947213,0.4890146819429473,0.5008626127171556,0.49576913638367714,0.5264385206559657,0.482113073673953,0.41873865384323444,0.4454176279590688
0.4084194542789951,0.487154250838514,0.5018000531601531,0.5345265356711245,0.5388837548055142,0.58166926865028,0.5804615155084383,0.5595117855779422,0.5467895032427712,0.5681527387282019,0.46364181161448825,0.5500134562432423,0.5319260022693905,0.5145182196996045,0.5359680666889375,0.5094797285426357,0.5267738715750763,0.5594668121437132,0.5470956783983867,0.5156333253340939,0.5193943489470679,0.506858970787077,0.5135948235332726,0.5417801471580107,0.5065480702523159,0.4845229405701889,0.49402178190906737,0.47676749793255413,0.5241284866917848,0.4940788661205207,0.42402884892014026,0.4579217084648316
0.39536864785715475,0.4792491961779576,0.45328128089360026,0.5130756099126572,0.5218276508066769,0.5806157061798997,0.6053824267924985,0.5750290964380608,0.5356973279411166,0.5578431232907527,0.4707963847222018,0.5460625953130147,0.5450130497385991,0.5222279975489375,0.5395089180282642,0.5475283396061265,0.5650551846430957,0.5519665731112774,0.5207083767385384,0.5142633573567325,0.47176087834860725,0.511626314931632,0.52665843662709,0.5584263527768265,0.5144553918165694,0.49323009804240664,0.5012410123911456,0.4800631562334689,0.5009832447930987,0.4777107135296656,0.43387559578507645,0.4618229775351874
0.4243583129887201,0.47227305470166625,0.4291001124708687,0.5027067009143581,0.49980299809355005,0.5711281325179558,0.5907113332446838,0.5797300609816567,0.5658105995323595,0.5153000912642351,0.4530523012967943,0.5316271245089865,0.519480031344632,0.49968497343049884,0.5074399454399381,0.5292183107510517,0.5581633548551078,0.5276445205760206,0.48299254611922504,0.48397165635253536,0.4810467484103794,0.5052569113201525,0.541609970292366,0.5489076144068802,0.5103980906256605,0.4851510763760506,0.5103273676520453,0.47912564707330346,0.49696435595540844,0.48108351921627895,0.45830066469839553,0.45109743222762805
0.40002996864608137,0.47037982590202204,0.42673931868974135,0.489778894795687,0.4999437991627172,0.5840196235037526,0.5712967947388493,0.5675565958383713,0.5859385369640059,0.5137090959575475,0.4981955923598881,0.547431182343705,0.5245460227748927,0.5308382193052451,0.5206705534280277,0.5356461587576956,0.5705963960926675,0.5501277624082092,0.48637778681117527,0.4918212140972029,0.47387839790049124,0.49860168218027656,0.5232242434765482,0.5349866936224569,0.48929490865528535,0.46186921492324345,0.48013746744646596,0.48923954713795,0.45426047141765863,0.4639449604799401,0.45655657596493243,0.4755464230814545
0.4451668506736433,0.5071270703725034,0.44998347993485466,0.5188315032942176,0.514812963398547,0.5896432863853112,0.5508783239650485,0.5563303353278751,0.5817766850948495,0.49456121357641625,0.5099591215549378,0.5556840959312623,0.5404294026036497,0.5403332206216078,0.5152721995467623,0.5110770063716383,0.548685311978151,0.5338181284872453,0.5021132778132588,0.49984990382740574,0.4942467960242146,0.5129549395043825,0.5474765422566102,0.5503004757530534,0.5020809811087462,0.4754342089223756,0.5033371095085352,0.5057708531043665,0.47121434977225485,0.49121606614662416,0.46419883673551754,0.48166659114513594
0.4536429371070237,0.5099801442736421,0.45594901354015643,0.5206594655981172,0.5298536389346483,0.5768292552826924,0.5677765846316274,0.5552900991977906,0.5603501739216282,0.4937547937587968,0.5019260844748302,0.562038726259012,0.5241709055463614,0.5362570616577945,0.533005267476966,0.5077649877429038,0.5408257308835145,0.5386419867396655,0.4986467138130651,0.5106581756745077,0.48837429379773184,0.5159323655351326,0.5164348625305012,0.555918679788984,0.4656677696376431,0.4434312590531011,0.47768228856826567,0.4974051124380388,0.44450279957286465,0.47143432337630947,0.4821554296784978,0.47585536200220213
0.49052408268677783,0.5092734456732149,0.4747654389905197,0.5173313946885146,0.5033866946689923,0.5905170228112873,0.5880354133875905,0.5480626417043677,0.575225246368718,0.46927515987831203,0.4835919395534156,0.54496265914244,0.5262637136281667,0.5473188711293886,0.5143784815579848,0.5195851640759739,0.5464146990789791,0.5531119768085814,0.5003078122095533,0.5047710294080829,0.48285177172358457,0.5137287345505682,0.5289102358441585,0.5468192264138961,0.47189263899909956,0.44861134131829095,0.4770250413957262,0.4854430308998782,0.45736658655624124,0.4800662440022399,0.5082386044492114,0.4837669758081586
0.48090922311959233,0.5008039022625878,0.4750720638161942,0.49701059247130197,0.5125842524891936,0.5838754991396523,0.6046208329819518,0.5438591104593605,0.5527613429789404,0.48867262328640493,0.4840326878063953,0.5499902689648966,0.5469217528478988,0.5450510096413932,0.5051939693067277,0.535679748106693,0.5555000264985139,0.5583168644918128,0.5327751130961453,0.5401271655745777,0.48955436384687095,0.5354531935907209,0.5126974071856715,0.5312176925520881,0.48695814235934726,0.45607385924114835,0.45449294310462124,0.48151195075327463,0.4686667973377957,0.48030515689641523,0.5050008579767705,0.5060457454205278
0.4669031830779001,0.49072088289127497,0.5298446411081436,0.47937471676012,0.4936015879902901,0.5964778884996134,0.6210197992695529,0.5364339330769765,0.5246282330620732,0.4895281932005424,0.49185866721084964,0.5527098276646921,0.5282848451377592,0.5391946578719464,0.5046702120815865,0.5384056904998558,0.5450893806569699,0.5475294610911573,0.5384587217468841,0.5345570406790532,0.5021974425426523,0.5346136780841839,0.5139124123976622,0.5375830729355401,0.476221310446464,0.47708056253167086,0.4534428815082991,0.4744579795951158,0.4770444535276371,0.4986020315427685,0.5120639660936603,0.5337605950484866
0.45700916904477146,0.5053913369923205,0.5193617225247366,0.4717952353969294,0.49035687794540606,0.5768016900744023,0.628403257347091,0.5187937934151675,0.5175230117135123,0.49873641756601,0.48880494969871124,0.5468042248012225,0.5283136178711731,0.5247204120848069,0.4895942790107398,0.528529614405249,0.5440504043657177,0.5497068359823835,0.5320417155167537,0.5455337283972501,0.5170431022658327,0.5309489386190348,0.5070274952431287,0.5481656515183235,0.4674053816002035,0.4879739747444264,0.42965500751538505,0.45872583126456,0.4605654622962086,0.48487881901077956,0.5033980282019183,0.5463718053138932
0.4523609694002002,0.48815778964094636,0.5285252008653917,0.4705551099854611,0.490164431561887,0.5421340843450875,0.6200712002418793,0.5109517192204166,0.5226439237464833,0.49681601220209604,0.5207951052870389,0.5511371690798704,0.530818600353694,0.5398144966883186,0.5090046573231497,0.545414691118222,0.511484114200518,0.539145632043082,0.5365559203390344,0.5386187859028894,0.5192165446323761,0.5286778766222593,0.5259156327782865,0.5625593497836513,0.4903296628685877,0.5131517658271465,0.45794956788137586,0.47277535939083587,0.4787295327111949,0.5076159921239356,0.5222754878668339,0.5399882909952619
0.4835171912513043,0.49121377895110707,0.5419745552169882,0.48622751946420417,0.4963627391911362,0.5044750954071412,0.6077200154878692,0.5310300943616558,0.5351232178547515,0.49857008393156027,0.5344255391068642,0.5505139286926755,0.5404691249201204,0.545140882956364,0.49866993033614615,0.5500380851069676,0.5310657373977004,0.5437948912083675,0.5598217116757254,0.5402019379395457,0.5402522564439598,0.542318983688058,0.5311148964009152,0.551153114016689,0.5132361066407055,0.5182239312474357,0.4714613713095204,0.49534626478198873,0.50518219919448,0.5053609097205736,0.5169529924440711,0.5482752872670288
0.5013300034560642,0.4744579795951158,0.5500887412445196,0.48472599857540655,0.5095344680023709,0.5149156090175159,0.6203964417310561,0.5363003855185529,0.517155449549638,0.5320020266298043,0.5501436136140634,0.5477813302884199,0.5154690815289451,0.5640398577355116,0.5058881415590892,0.5636817524256179,0.5317081512135782,0.5528166168926357,0.5675349744880801,0.5600930010201174,0.5430256626246676,0.5407303045537116,0.5387252554439108,0.5690850837108667,0.5304891786747687,0.5163401586415814,0.4840869454686857,0.5086890282431011,0.5006917392423565,0.5183559330856148,0.49588404376779166,0.5454564345880104
0.498969241823579,0.48403779448549,0.5187609262478214,0.4916738384903553,0.5259830546311934,0.528907766384402,0.6171419746355522,0.5240420582093136,0.4869691634040322,0.5313657883915232,0.5421358866085163,0.5521608013202781,0.5126202884047367,0.5369691776847687,0.5041174834278084,0.566234395040941,0.5474464371899253,0.5298071205931507,0.5507077601535886,0.5570591021587044,0.5317452611864655,0.544151301724692,0.5444503514151509,0.5750126903573943,0.5379690370456696,0.5130462303678367,0.5117917140739585,0.5138683939053392,0.499286736348282,0.5299794351284474,0.4987879845755805,0.5234737167403062
0.494558057435953,0.4688879117346492,0.5264683136614887,0.4745548037625037,0.5204970445807411,0.5442274108972524,0.6070002616852201,0.5201219830091958,0.48677138662626607,0.5197814886751478,0.5340379910582846,0.5422079218691431,0.5340584111057021,0.5410800321237931,0.5131874870057771,0.5509947427765751,0.5629523189120346,0.5498547293310254,0.5397033467736346,0.5604444028150389,0.5475726453656017,0.46717111809659084,0.5357622647998669,0.5945320530416505,0.547123181379939,0.5163626087276642,0.5122419732668352,0.5052140164844198,0.49308183994142,0.5299783948046652,0.4816198749207638,0.504757427383376
0.5319478573636882,0.4896399121851995,0.5118183908309354,0.5000708381089489,0.5560838331878161,0.5652098865883494,0.6023270438739572,0.5251913244991159,0.4925076722362208,0.5302047801826981,0.5335694115557388,0.49486117098345134,0.5336998781805166,0.536939079264393,0.537492699173847,0.566525272743796,0.5743080038184505,0.5479615080270707,0.5324908372587386,0.559954736520168,0.5435864891997777,0.4968863389523602,0.5518076799289315,0.597552059878924,0.5820702933117446,0.5491583024776011,0.5416306430105526,0.5561089054635927,0.5409814948339814,0.5813932396824486,0.5012329328795174,0.5155695419655856
0.5343452884283942,0.4888467170472155,0.5036068579206322,0.4914705417358493,0.541159348092846,0.5765626363579573,0.600929684348217,0.5491177103632426,0.47820256715927373,0.5425935208565758,0.5358428283941424,0.5081248370656,0.5247350241496328,0.5406451182573938,0.5357600139060769,0.5513067272550816,0.5616801844998335,0.5398853332462856,0.5381901680276097,0.5598536849271477,0.5462083459642829,0.4615013625036528,0.555793503497281,0.5973873351868049,0.5737160810051767,0.5525924167803262,0.5611333156686021,0.5793102714840371,0.5681376356401864,0.6019150053157915,0.5100422962332029,0.5177397631366912
0.5379994916770184,0.48727085127052916,0.49974163519736203,0.49889521064225545,0.5487323598307812,0.5720332727921228,0.6096140679466403,0.5400263958680521,0.47642691028899986,0.5366979018653145,0.5295369219435392,0.5134991756489113,0.5252296008227753,0.5413828611276947,0.5038518859604428,0.5585257545990615,0.5555721107716135,0.5562971826455734,0.5456556125578892,0.5679102341445234,0.5804588202949689,0.47206283798809606,0.5841999258978081,0.6038166012410895,0.5618594505324651,0.5408779688323926,0.5523126423113008,0.5591630549878859,0.5768081884757955,0.5753115783411402,0.5098926932827655,0.5161996290757923
