Fp1,AF3,F7,F3,FC1,FC5,T7,C3,CP1,CP5,P7,P3,Pz,PO3,O1,Oz,O2,PO4,P4,P8,CP6,CP2,C4,T8,FC6,FC2,F4,F8,AF4,Fp2,Fz,Cz
0.6098187717722411,0.606068195676174,0.5844492131725686,0.605926430244112,0.6057300231510663,0.6272715190376511,0.6526935551818812,0.597860050008092,0.5840720717392748,0.5701714442427654,0.5687361481681813,0.5993048548714692,0.5864122114372714,0.5927397879084108,0.586027409225203,0.5807926572947094,0.5811538006159508,0.5932571473813917,0.5785547072176634,0.5985763318140057,0.5848905084695106,0.5739742731132538,0.5705076094689111,0.5859807284124487,0.5880379150449014,0.5960575819926679,0.5937161009143491,0.6179046237568793,0.6296875590472444,0.6004193435446666,0.5973810939470372,0.5904499412531006
0.6116545110143333,0.6035183634881937,0.5859793058427948,0.6088995055680837,0.6017270059459462,0.6350502998485733,0.6535503247175151,0.6078426117424199,0.5839639558848979,0.5798308635941997,0.5695931578732468,0.5995995952962285,0.5856102093697604,0.599310499706809,0.5930090696508663,0.5848816475377672,0.5813361111719682,0.5994543025458625,0.5780234896858174,0.5992787393593718,0.5846441297034087,0.5840014022718605,0.5754479075693597,0.5957724709462089,0.5924300213109944,0.5933246676428897,0.5934260648262651,0.6246136952158706,0.6262844999335702,0.6029470136399765,0.5925115139418893,0.5948356464705428
0.6159576012392619,0.6155699522977068,0.595477305167717,0.6208894700430506,0.6047195996944837,0.6376666511432643,0.6511403461198301,0.6244727495749106,0.5864950913922031,0.5736180804555729,0.5649916902377957,0.5996728775455934,0.595768721613294,0.599532837123403,0.5927397879084108,0.5772590267211142,0.5751978640383163,0.6045930993777281,0.5843120546833757,0.5970410517733344,0.5809871283804883,0.5906825176566675,0.579286175978665,0.5913947331850145,0.5950503632445479,0.5994018000971629,0.5906929890970474,0.6186378818682903,0.6296293215624879,0.6123857320052202,0.5966846566382201,0.5912352859386163
0.6155438734248688,0.6092211818655147,0.5878876925415856,0.6187840359764227,0.6113251351330378,0.6318122495305419,0.6454764599117174,0.6171408093434743,0.5784552785019994,0.5697031664305556,0.5607292866440822,0.5963883923527689,0.5958600220036478,0.5961570759657139,0.5776971059069672,0.5753543598922075,0.5653622726693059,0.5963408072228363,0.5874714973185122,0.5779243232497215,0.571374854255505,0.5871911557709958,0.5751438359413403,0.5870610076204859,0.5832130035703589,0.6055389512378276,0.5840720550781309,0.6129112988371759,0.6271370696583364,0.6033660458374871,0.6028714034428131,0.5846922580041477
0.6159418755096541,0.6094749784107746,0.5895998918571314,0.6150899719832345,0.6037117945414346,0.630488903646252,0.6446942358101557,0.6128062242017802,0.5601876969137606,0.5621837697816061,0.553417154264138,0.5826444897775191,0.5862551954719275,0.5767794499822928,0.579352322345197,0.5669497403685583,0.5670535560464931,0.592283851236379,0.5776245148885837,0.5755505262189151,0.5716007105433502,0.5901376858312779,0.5791455631374888,0.5935186327480674,0.5863557274764221,0.5949453400675483,0.5817893731433975,0.6161317439834288,0.6303407287019172,0.6063333104073289,0.6024895206398895,0.5722208170168904
0.6120985815722978,0.6128794259522041,0.5995995952962285,0.6102836846147297,0.5940731766003199,0.6274410160966413,0.6390342231349622,0.6136075709708738,0.5604191576561713,0.5696078923755198,0.5608975528149037,0.5831378524409694,0.5811324160980403,0.5758549966015521,0.5764192552163814,0.5745269128516955,0.5747469657303561,0.5961002238654062,0.5833494566120963,0.574731290025946,0.5899299825940177,0.5955686055580709,0.5886350152746668,0.5933905801229854,0.5860617347544389,0.5974760531614732,0.5791486100758583,0.6161509430816139,0.6321553952811535,0.5963883923527689,0.595279833067913,0.5738646565344844
0.6065931363899564,0.6067092089679306,0.6003280431543127,0.6017655874610872,0.5895988383107338,0.6244406674055799,0.6437088436467392,0.626816120258353,0.557562950668627,0.5724913276063228,0.5576530359969779,0.5714844708342743,0.5760795301745103,0.572220041927412,0.5803188801478522,0.5781660504986978,0.5815212596556544,0.5828373130250379,0.5768636969381663,0.5789419772074833,0.5772614017723992,0.5925470526894691,0.5797365803133857,0.5997116122240742,0.5906306213000879,0.5897225808984896,0.5764192552163814,0.6026615004724376,0.6188389021658969,0.5934097622461298,0.5874956706469997,0.5765689670658627
0.6000528575210137,0.6065851981160364,0.6132174852936008,0.6048071189592488,0.5836973603716911,0.6220989541454885,0.6530473157908893,0.6398319557313886,0.5648977629791185,0.586675702167711,0.572220041927412,0.5727002171968578,0.5800996611760576,0.5791272715923325,0.5805872472920158,0.5839160459552305,0.5852595505583675,0.5858528627878571,0.5757038100328742,0.5745220510003685,0.5766390195869806,0.6033428003017028,0.5928248825116509,0.6111531568004013,0.5904915948195053,0.5906492125150963,0.5739113253045993,0.5922877944735736,0.6055168538625988,0.5933908531577294,0.5906505908845712,0.5817452077936762
0.6029280361903385,0.6091533021133434,0.6128649783276983,0.6020813991724552,0.5877820024093843,0.6253676339452214,0.6476456367746146,0.6403496897989985,0.5686622102909998,0.5903286086684402,0.5821903247032589,0.5755304120837118,0.5869120684945249,0.578680061934526,0.5841442831262271,0.5736211395984663,0.5821903247032588,0.5755180608510606,0.5867708141534698,0.5794744721473493,0.5736942010505144,0.6003623587178933,0.5931345766128309,0.6057671607614681,0.5897528836192096,0.5809378758393705,0.5733803365043348,0.5896210212807605,0.5999273756900569,0.5896351290125155,0.5957885844486842,0.5828294134745844
0.6058534204691386,0.6064075536643341,0.6096800939559565,0.6083953827894188,0.5794401917134776,0.6307217751917946,0.6472772805397732,0.6421764359642843,0.5711476098294479,0.5935288331926762,0.5800523713759383,0.5726009441850922,0.5904396984629258,0.5780732608094735,0.5873096059725196,0.574625131034268,0.5837441212634874,0.5761122691699375,0.5832083068410822,0.5835503735812195,0.5774110725874434,0.6064229992566996,0.5991207779027472,0.60459339558906,0.5983372199325399,0.5908066335185823,0.5732403234026151,0.5985590350328475,0.6032646852291947,0.5925704674933714,0.5994668905156816,0.5889865422654749
0.6021147076306612,0.6159781334650186,0.6089425199555935,0.6071782142079631,0.5785612920404939,0.6299296036321744,0.6485594684102667,0.6344187658433754,0.5694095921695731,0.5870156383928972,0.5784708229089486,0.5702929404748398,0.5959851513636243,0.5848969344178546,0.5872099835257114,0.5789771561426402,0.580178231175225,0.5794837371729464,0.5935211896006446,0.5875005288096817,0.5804185025946604,0.6060289836556293,0.5994054589212451,0.6121319354599604,0.5949922816391803,0.5887693310941013,0.5696748601876453,0.5993048548714692,0.5963719469147235,0.5923984537446095,0.5999320088818568,0.5991651794514399
0.5975477265313274,0.6115777799298492,0.6022777727773333,0.5990353140735101,0.5745923797163199,0.625197322925056,0.6456508913307666,0.6322417826108043,0.5684626429634724,0.5831707319686332,0.5884313453483765,0.5762100161908038,0.6032814551824065,0.5814847069499668,0.5892996397668414,0.5895219128729581,0.5836499960280278,0.5757981579562523,0.5963327676259669,0.5908004507701494,0.5837441212634874,0.5999247784113889,0.5979314123140319,0.615339351504701,0.5976562795803362,0.5981434780448074,0.5795309129637943,0.594914743461656,0.5902204495769034,0.5913583213935459,0.5995140938970468,0.6055541632458514
0.5967733801996778,0.6043639394547953,0.5923984537446095,0.5896209779154618,0.5756717480180781,0.6198820795811398,0.6489590064722361,0.633546070531979,0.5658295350305499,0.5865466503135842,0.5929239697533522,0.5722413500556627,0.5969865975602041,0.5785301360615271,0.5868777335028034,0.5926715410419934,0.5863794677055346,0.5726519899839065,0.5957661785068685,0.5935660770311398,0.5885039710684995,0.5995472066697884,0.5966086635097303,0.6283376083686361,0.5946373170776126,0.6046640548804233,0.5802275797574982,0.5986577423319098,0.5852606415580794,0.5786423793087747,0.5959851513636243,0.6023569508791742
0.5934747766407861,0.5999897683125485,0.6017888762110984,0.5849197810946157,0.5685820577933195,0.6260621484881934,0.6574453325030847,0.6301762544348232,0.5630749300543799,0.5751013935191335,0.5965316613302442,0.5619371096018397,0.5968861796604538,0.5745923797163199,0.5943481543425576,0.5889770810475685,0.5966820798093239,0.583889638148575,0.5935651587504076,0.603066080558432,0.597944850379632,0.6049432066680057,0.610881455560956,0.6368001028731386,0.6045058858456595,0.6016133130246077,0.5835503735812195,0.6021384984868972,0.5977819073246015,0.5846640155012153,0.5894010272949238,0.6091207574653643
0.5970485658329768,0.5995188453382504,0.6017417966048513,0.587654626756363,0.569409592169573,0.6197116353252986,0.6487732430274546,0.6365708636479371,0.5766390195869806,0.5764192552163814,0.5971704828031492,0.5685138765677459,0.5935392520529913,0.5817206183449871,0.598978048551236,0.5958798848390382,0.5895474714122498,0.5796622971671062,0.5905933840571184,0.598064341261609,0.5910358892995103,0.5949251041366257,0.6117625205786335,0.6423178862476834,0.6135695088409754,0.6083623921257079,0.5900028669550849,0.5985722785026727,0.5950835820295342,0.5824011210494409,0.5894935191417476,0.6214720263927275
0.5969774800508079,0.600402459016926,0.6026103813510137,0.5888400892088826,0.5684724412145501,0.6210729545582916,0.6547467529334858,0.6366722686239182,0.5832260322201587,0.5770521627468216,0.5970188677285061,0.562087893956548,0.5904915948195053,0.5829828299101253,0.6013102028804977,0.5879743380066755,0.5837770007911512,0.5695817107109796,0.5825858992592309,0.5892451041444671,0.572878102360789,0.5878244562264247,0.6087130814346845,0.6332590557352539,0.613603109525284,0.6093933067469857,0.5901376858312779,0.5949366569123784,0.5916983215094537,0.586179402615657,0.589875364816072,0.6161317439834288
0.6002664367460683,0.607936470698977,0.5963754094987052,0.6017084881466453,0.5710437710662859,0.6268597219571586,0.6518996019478114,0.627746793255076,0.5987555182103036,0.5800869307848712,0.6058502530983851,0.5731189581078818,0.599521655017447,0.5862973041255748,0.6114152837749433,0.5853512149119382,0.5791863951682178,0.579755847595652,0.5930581540298071,0.5920982357407681,0.5815844517656783,0.6036125410936466,0.6153348342862418,0.627905514925964,0.6153100683877287,0.6181685018692596,0.6002437803581759,0.596817344609378,0.5966390612895274,0.5835505495193797,0.5903075826814638,0.612989532195945
0.5989438372449157,0.6108235654808878,0.5968716093127169,0.6050099690592688,0.5777583319095001,0.6266514122885758,0.651426118109945,0.6159157201835136,0.5932571473813917,0.5698478662256128,0.5968969081032597,0.5628293264014332,0.5935693786008434,0.5830824523569336,0.6058926324896833,0.5791455631374888,0.568662210291,0.5727640881970479,0.5895619607820475,0.5950973611731526,0.5777583319095001,0.5964825187073418,0.6025061916328972,0.6217433725712889,0.6193167394912178,0.6054717833365919,0.6121394722497456,0.6034559842124756,0.6032178001651985,0.5863166687931308,0.5934747766407861,0.6127357356506852
0.5965304220796069,0.6049378765281609,0.5935693786008434,0.6033786702438366,0.5789285745302863,0.628916044938203,0.6541839869455648,0.6161461433532347,0.593134111926462,0.5701438661985441,0.5901822719038786,0.5586687041583095,0.5940767876857143,0.5836022230611724,0.6021512532896565,0.5816650006599183,0.5682544397501363,0.576022835307438,0.5864847793305488,0.5925171429493106,0.581068190357257,0.5940716848947127,0.6062362714450298,0.627553520459631,0.628492578625629,0.6078360462988268,0.6118665183433335,0.6070695110918651,0.6024681266227293,0.5816116606368761,0.5834516755691603,0.611873014900867
0.5986686516116168,0.6118808065770921,0.6069365358428929,0.5998642533331158,0.5841870653931512,0.625206348957215,0.6538239703288522,0.6155168920679084,0.5963230575744853,0.5597607913568391,0.5805843715342807,0.5621871186096937,0.5930928902768869,0.5903783618443119,0.60274661050275,0.5842122520074544,0.5729740394715117,0.5800652412656345,0.5939382136921649,0.5925843906523106,0.584955563510248,0.5961284686449082,0.6069269990828133,0.6246363384559753,0.6149212060680072,0.599312704294038,0.6142254355295317,0.6121490507468579,0.5950442502263018,0.5815390640937423,0.574925215164116,0.6093120304677723
0.5941477951474252,0.6080273193012347,0.6037467823437574,0.6008523322669725,0.5927145695604299,0.6317392397555687,0.648443628935839,0.6206578514812804,0.5957506842324273,0.5669794955214903,0.5871097806501434,0.5541770795703699,0.5904915948195053,0.5725165356889617,0.5931999924880286,0.5766283271760076,0.5658036701042884,0.5734071527519344,0.5865952509669791,0.5839314494608547,0.5761018185457096,0.5972066291754956,0.6067569000131021,0.6185042490038404,0.6179175171716759,0.6018006249761154,0.6147203048049988,0.6123756758525591,0.5992060308031698,0.5816386865405506,0.5755304120837119,0.6027714504534858
0.5945812146554644,0.6092297704339102,0.6097070080640314,0.6036331402591455,0.5991292916849784,0.6317441034807447,0.645617460950213,0.6128506900939396,0.599064880346827,0.5698522407068514,0.576584241100524,0.5518216433369953,0.5872126079104565,0.5723016951357305,0.5832938389270274,0.5662979528867037,0.562843469311969,0.5723417046174749,0.5902273583397016,0.5821183070125858,0.5745923797163199,0.5944638983302817,0.6035712191572667,0.615407456142801,0.6156708177797151,0.5994779652208697,0.6155083216248093,0.6078360462988268,0.6063656909436852,0.5672525173148671,0.5772005896710133,0.6031035993768292
0.5920393877043192,0.6058502530983851,0.6156513271447855,0.6033683950884983,0.6032814551824065,0.632615424630169,0.6458233210301484,0.6065412541301759,0.6025370983798732,0.5700342496197747,0.5759404444306336,0.5479355985455356,0.5935392520529913,0.5716049504306987,0.5867929997225204,0.5695091520497979,0.5654614907614318,0.5717826738241746,0.5829320974550029,0.5780234896858174,0.5735261994668566,0.5952198821425467,0.5970709888301033,0.611964315291221,0.6126062233821518,0.5868359495741978,0.6104967591606547,0.6083355604259859,0.6032291073803645,0.5789584090249068,0.5840014022718605,0.5999320088818567
0.5956940403948764,0.6089754283236939,0.6188752762089453,0.6040732605657925,0.6031035993768292,0.626976994685436,0.6344405896895037,0.6025046722817246,0.6027714504534858,0.5772158637056747,0.5767560658398279,0.5548252052008914,0.5834894762858353,0.5684374886590339,0.5763597280402851,0.573971930364591,0.555076726100274,0.5633063907967907,0.5694464095031109,0.5690734104414996,0.5682530154938292,0.5824158224123098,0.5890667535559923,0.6046713327364972,0.6126258233526888,0.5845902283011435,0.6046983747470596,0.611958969942845,0.5971704828031492,0.5755227375087223,0.5837149532167919,0.6001999640446878
0.5956025860187,0.6130757496800671,0.6283908830462746,0.610854761083208,0.6051272781045236,0.6330004611387059,0.6369452939713764,0.5939382136921649,0.6026428370536445,0.583739283246644,0.5831378524409694,0.5622309069306817,0.5899935596322436,0.5755882776631253,0.5788459166884022,0.5761122691699375,0.5629035221277715,0.5703929108532151,0.57590303014436,0.5755180608510606,0.5685557924401381,0.5837149532167919,0.5810314643665876,0.5957918066970512,0.6026802354682153,0.5802801290968916,0.6040729177756027,0.6174714566534191,0.606907925200502,0.5834859219895765,0.5866860489913669,0.5896065468546482
0.592803599606397,0.612949241123835,0.6216023435284667,0.6105960954105544,0.604711516532931,0.636062366314915,0.6253588883081926,0.5871911557709959,0.5976165028328994,0.5768416387959544,0.5732403234026152,0.5620304981282689,0.5971846951622728,0.5755882776631253,0.574169996136747,0.5821963970722991,0.576429780561403,0.5836022230611724,0.5872062773601537,0.5887268730693253,0.5834387438307126,0.5936913925736611,0.5697814570141834,0.6001285774747873,0.5923765309312155,0.5672313963815011,0.6046983747470596,0.6084962397755566,0.6068411628092388,0.5858861914840708,0.5858037426563041,0.5868623738521319
0.5936252070588212,0.609458816806761,0.6272379763532274,0.604180392872961,0.6118808065770921,0.633757962067741,0.628492578625629,0.5970485658329768,0.5902273583397016,0.5696078923755198,0.5702230654965996,0.5618679040517834,0.5840154926327235,0.5686783428483777,0.5544108684284531,0.5902058576499406,0.5772614017723992,0.5760917042392502,0.5792981116736584,0.5844060840644331,0.5772018335618657,0.5872248774184747,0.5707164935747111,0.6002854278739249,0.5965316613302442,0.5602909269361238,0.6057294096172445,0.6040105204627272,0.6094024026556918,0.5971704828031492,0.5938669557601517,0.5864009315892675
0.5967155465731891,0.610037268554545,0.6280694929911412,0.6014264426229512,0.6121203148885932,0.6361989289776991,0.6223403766009918,0.6005522914507695,0.5865748928165166,0.5769913506454357,0.5697242565168739,0.5623277245609412,0.580415071572587,0.5596846189477062,0.5517967375317046,0.6024348181645233,0.5773128544048709,0.5865340556009128,0.596870574299334,0.5798658312829128,0.5766297791672486,0.5921856080940533,0.5684374886590339,0.6035569450033347,0.599568349563402,0.5609434539864121,0.5991395430789076,0.6099495176895567,0.6096227452678947,0.5969095095289739,0.5835505495193797,0.5806059944097492
0.590106792607437,0.6117291314411517,0.6251550006518829,0.597041790564142,0.6131173262244177,0.6304178287534897,0.6193083818629098,0.6060766747008008,0.5997227698562791,0.5870713535694013,0.5795116943562107,0.5737650340876761,0.5928589262931633,0.5782420055068289,0.5527443724770021,0.6128794259522041,0.5939854872953603,0.5866933772757122,0.6107041393081538,0.5920961156752917,0.5871097806501433,0.6050441647670964,0.5604244539679024,0.6068427362866765,0.5932710784204104,0.5623413176556874,0.5990732991893779,0.6009458022695779,0.6034570183688973,0.6053252641089377,0.590378361844312,0.5798964965682791
0.5841020073707204,0.6019350148085979,0.6159245614578065,0.5982657046559153,0.6172603453819996,0.6281863652348937,0.6218675155679287,0.5889461878237275,0.6002437803581758,0.6002437803581759,0.5859125019135064,0.5772614017723992,0.5929161829020049,0.5750475146138411,0.5492720372446357,0.6159692478285229,0.5967155465731891,0.5957005063066974,0.6144930759518558,0.5949366569123783,0.5840014022718605,0.605476004641369,0.5694463915953254,0.6154264177083746,0.6068793134715725,0.5722023935762819,0.6114113526171597,0.6000563379316991,0.6130163111622104,0.5983763892788131,0.5998203095077497,0.582120780207727
0.583889638148575,0.5960686257594068,0.6162366398887463,0.5957099657303253,0.6073178557660337,0.6210824304664074,0.6309811901686904,0.5830439031436699,0.5993484848226769,0.6001285774747873,0.5794744721473492,0.5872193972289127,0.6001383267137473,0.5862403015791642,0.5600570381197382,0.6249871573679812,0.6067950506754357,0.6061312873043446,0.6174377867610323,0.5992032830629195,0.5869342174636526,0.6052776386481677,0.5693896480463828,0.6187308141193718,0.605993639524949,0.5656250312646081,0.6084340991888146,0.5991438953670347,0.612970726342558,0.6014674865412956,0.603175605519458,0.5848196800271771
0.584044660679419,0.5957005063066974,0.6099338905012163,0.5911560246678847,0.6077845114482147,0.6280131770848261,0.6331988569217285,0.5889694553327189,0.6089668779799442,0.5966201115365513,0.5819913533256766,0.5935288331926762,0.6093379279850518,0.5837018455079807,0.559953703254715,0.6344406397433872,0.6162942401383348,0.605926430244112,0.6176537101176842,0.6078685909468059,0.5906048109590627,0.6087108824894188,0.573890428395218,0.6159452482632432,0.6030000423329673,0.5606999763425731,0.6017084881466453,0.5963230575744853,0.6066767098602653,0.6087947530984734,0.6027714504534857,0.581913969741707
0.5815426725927751,0.5961344713248702,0.6016706850398178,0.5927279574580675,0.5986256634033505,0.6302132911890949,0.6364831349614601,0.5899299825940177,0.6092292248689538,0.5963883923527689,0.5860179955220018,0.5978043952870141,0.601884051333136,0.5792989089608584,0.5633063907967907,0.6397735976605153,0.6130163111622104,0.6056335287958166,0.6209089223149471,0.610799484885976,0.5896442836977639,0.6062609545013501,0.5816455853468679,0.6113632437608315,0.6095492766062293,0.5759583347430193,0.6053824619336482,0.5969095095289738,0.6097313660883823,0.6048468959229879,0.5977356113540544,0.5849367492550192
0.5760050498299577,0.5943499277781352,0.5917082251227952,0.6009441446773278,0.6060741303825893,0.6380911086784051,0.6428686674433951,0.5938953192163292,0.6122232358503144,0.593225412316816,0.5860179955220018,0.5981578142790822,0.6042521208544319,0.5865748928165166,0.5671076999986331,0.6341089853179824,0.6221386193999477,0.6151768553497953,0.6208406503636271,0.6147778935522945,0.5889886458485037,0.6205955336727569,0.5897383942494121,0.6057586348799957,0.6059049728037352,0.5790895797143965,0.6116764366789083,0.593419216613907,0.6096114171929711,0.6075050405413079,0.6004769685074741,0.5857317890586519
0.5794744721473492,0.5958777716519988,0.5866974659883145,0.5956352062513676,0.6075042798994328,0.6401573297177827,0.645744187221356,0.5939003926921201,0.6083305281114618,0.5966820798093239,0.5811210977929147,0.5928212792645291,0.6025152062289765,0.5836444988166791,0.5701714442427654,0.6280373890535818,0.6156708177797152,0.6146000417486732,0.6212032093316989,0.6085489995566526,0.5928512410781945,0.6279792790010168,0.5907815826991711,0.6050021142218199,0.6035331541470987,0.5799177985838158,0.6082810534939239,0.5956748781165148,0.602381940893241,0.6092211818655147,0.6029179862390518,0.5828324750081946
0.5794553081797205,0.5933908531577294,0.5823610925024096,0.592408773817134,0.6085488162591072,0.6424735035972295,0.6574453325030848,0.6063333104073289,0.604216703722309,0.6097188103553522,0.591381498194867,0.5985531963805845,0.5964998741322335,0.590378361844312,0.5756717480180782,0.6330781889553817,0.6096639936765216,0.6085706746862162,0.6099177902217814,0.6064133765549259,0.586636882861226,0.6232104121247038,0.5939382136921648,0.6087525573880074,0.6131044866391994,0.5860520031267471,0.6061404787336143,0.5980068457204211,0.5996755884247184,0.6058940170781408,0.6000393635692464,0.578855111375465
0.5607033727564018,0.5865937205712322,0.570798918090644,0.5860732449405978,0.6025675540310185,0.6433291448719635,0.6539112051387534,0.5993307321802849,0.6016133130246077,0.6093379279850518,0.5888942914671481,0.5895282874348067,0.602610381351014,0.5871709760162095,0.578255060768577,0.6253289778700656,0.605170027786084,0.6104521521945955,0.6126343415252127,0.6065031034678423,0.5938531137946506,0.6200023196350422,0.5940295140825188,0.6120532602712279,0.6131044866391994,0.5828428102363864,0.5990550023341722,0.6023577526138653,0.5968871035871582,0.598499092289459,0.5883230856845788,0.5877473606353482
0.5673248855145923,0.5872625357148716,0.5585838478275813,0.5825965589350389,0.5994872639264001,0.6415916291042221,0.6540438777421093,0.5965235619893667,0.6046337579869785,0.6153440114594821,0.5964464739581364,0.5961329592779571,0.6061404787336143,0.5964403609398904,0.5864619165333014,0.6193949728499869,0.6111402065192044,0.6047843184262223,0.6002379491605556,0.614854708984343,0.589847638977545,0.6252806549494235,0.5940295140825188,0.6099099957462115,0.5971622892204571,0.5867781110559951,0.5866528194543408,0.6019799960004778,0.6035331541470987,0.5977819073246015,0.5977891556283101,0.5969199464005005
0.572672787806694,0.5804624861993503,0.5642837382919039,0.5874158002556369,0.5924173233776422,0.6457208846364118,0.6564095661333778,0.6000954951410487,0.5945460166872587,0.6097313660883823,0.5903997370248467,0.585920202836735,0.5962190442384865,0.5902273583397016,0.5967958031968044,0.6098030731514891,0.5938536156938228,0.6090950162198997,0.5969095095289738,0.6096471032922454,0.5834894762858353,0.6160741437338405,0.5906306213000879,0.6095797308803849,0.5964403609398902,0.5894442061753533,0.5836396607998359,0.605138288090162,0.6066767098602653,0.5875932901377492,0.5917082251227954,0.5868665615839084
0.5723997092132347,0.5803188801478522,0.5648517782484181,0.5865798913163075,0.5859209344085171,0.6471836830793124,0.6560276873401288,0.6034046705668552,0.5891469778977544,0.6003280431543127,0.5938040188259752,0.5876409906366931,0.5901822719038786,0.5789393741716018,0.5936252070588212,0.59917801803819,0.5928990515915555,0.5936545102889262,0.5870156383928972,0.5999130177540002,0.5802778536220333,0.6098765418131544,0.5772158637056747,0.6001953008123156,0.5859774719583021,0.5840396438491723,0.5792771157337449,0.59897941651759,0.6000328046574097,0.5923984537446095,0.5925843906523106,0.5825718088983678
0.5778400717481704,0.587100366946942,0.5710675338275828,0.5925583868772316,0.5927253662476277,0.651059099420336,0.651594199824951,0.6124437272272458,0.586677765058914,0.5900385618147073,0.5837008628559288,0.5795651159288212,0.5761496834562112,0.5695167830363936,0.5904915948195053,0.5964068941760249,0.5898639734136952,0.5969297454598965,0.5827431877895782,0.6063789430219432,0.5772205403633364,0.6095271543968342,0.5695886257413617,0.5970485658329768,0.585038335500917,0.5843252282906697,0.5789865295295786,0.6059964845479642,0.6068793134715725,0.6001953008123156,0.5908053293113824,0.576984024098001
0.5778400717481704,0.5870815391922265,0.5698371745560911,0.593154449840923,0.590106792607437,0.6387618211973843,0.6484288715961034,0.6120485780873578,0.5751328086501722,0.5925171652276564,0.5865466503135842,0.5719163649072371,0.5665807235774415,0.5681634062670046,0.6035712191572667,0.5926402345595447,0.5824426483736467,0.5967985936368432,0.5801589638929587,0.6029893813096349,0.57995274892913,0.6123613876188005,0.5691671926075313,0.6032035260112665,0.58736255842328,0.5922943844731452,0.579286175978665,0.6125844925169429,0.603632581555388,0.6035183634881937,0.5904939013162367,0.5803354711255333
0.5769619725941727,0.5868623738521319,0.5753790386375477,0.5872691023249427,0.599799060975754,0.6359219041814512,0.6430895216354323,0.6078904493739151,0.5699909536974707,0.5968384450695425,0.5863166687931308,0.5763805230291676,0.5671076999986331,0.5742920522100026,0.6005522914507695,0.5849705617810866,0.5864757007610344,0.6025046722817246,0.585949175866434,0.6064764125410188,0.5771036153792933,0.6158193370330015,0.5695192087483425,0.6065698658591053,0.5879507738604723,0.5875662682856159,0.5825905959885076,0.616107744418149,0.6069269990828133,0.6064764125410188,0.5956501711486324,0.5905560419135539
0.5772614017723992,0.5825363773235582,0.5754773142935541,0.5771457104239738,0.5937472908550027,0.6302073415303354,0.6461368815733491,0.6012747230161846,0.5736764167871659,0.5960575819926679,0.5820605530864782,0.574837031697411,0.562356243241279,0.5672740923902696,0.5999480631788924,0.5861842399146174,0.5776578511040085,0.6001003415978796,0.584955563510248,0.6062644895855085,0.5799996227425435,0.605442234528467,0.5583212217844713,0.6066194874889451,0.5916961420069397,0.58640279773407,0.5789771561426402,0.6131332224974639,0.6035712191572667,0.6064175732034657,0.5891469778977544,0.5976431110670509
0.5766390195869806,0.5821903247032589,0.5654652757647416,0.582531935592263,0.5906095279329874,0.628299384298921,0.6427509331728823,0.6103173182419421,0.5805028915600945,0.587402367300587,0.5812310369868403,0.576330349989022,0.5626764549239318,0.5672571259804257,0.5972014685092139,0.5965304220796069,0.5886350152746668,0.603381381816844,0.5898425561276334,0.6157473374136073,0.5824158224123098,0.6095797308803849,0.5610462699292041,0.6157324484526129,0.5894822283727672,0.5834144138008605,0.5739252112264857,0.6037515403351039,0.6031000294948181,0.5971467949460159,0.588851416856624,0.6005563450304665
0.5781335622752991,0.5845405598050365,0.5789393741716017,0.5859815805870271,0.5971101681188601,0.6300500959069242,0.64567574671293,0.605266374046407,0.5869495481241724,0.5818897852873275,0.5805028915600945,0.5771036153792933,0.5695817107109796,0.5660897975906632,0.5972617831935031,0.5904985055186258,0.5887268730693253,0.6092733578515743,0.5969095095289738,0.6186911343339043,0.592457003081062,0.6154888309898796,0.580423851195199,0.6190569363988628,0.5929793293237858,0.5905670741159469,0.5839160459552305,0.6057069983799183,0.6062225876946984,0.5996568232485578,0.5932206501847129,0.6145176759090009
0.5920982357407681,0.587402367300587,0.5916705526129976,0.5961227719227304,0.5995539249926708,0.6270339108482937,0.6427074755093493,0.6041591349029125,0.592283851236379,0.5852527240249183,0.5834248030851449,0.5837018455079807,0.5650846330818674,0.5793093721830017,0.609778693240552,0.5970188677285061,0.5918974692073082,0.6062798492361801,0.5937103016620613,0.6185819382535682,0.5862403015791642,0.6088770160100883,0.5827985391173179,0.6223741253298269,0.5879197202287297,0.5930955152339197,0.5886291563641866,0.6023615351933825,0.6088911655275572,0.6026174445182658,0.5971136307028415,0.6083305281114617
0.5867753246145193,0.5863236452231165,0.5928059734232506,0.6003862236494778,0.600441999932559,0.6288031475225971,0.6453119797911239,0.6119349588517592,0.5950808702901762,0.5786578978383394,0.5843377408335918,0.5805843715342807,0.5681565828484254,0.5754529467384264,0.6096561992009517,0.5939916930824741,0.5957021397357538,0.6094406338991555,0.5969297454598965,0.6087130814346845,0.5900290859098323,0.5964796927431227,0.5820605530864782,0.6156568408780957,0.5935595004686655,0.5971846951622728,0.5944840910695599,0.5985260201556134,0.6001858054271166,0.5995567020549875,0.602610381351014,0.6023291090952339
0.5895451803819495,0.5945812146554642,0.5954754985991283,0.6031464266968245,0.5995282155419318,0.632554276844715,0.6367271159930952,0.6141278706965371,0.5959565715508325,0.5834203740207575,0.5836420273809273,0.5872463149195926,0.5700224104789682,0.5736782792368282,0.6034469684176106,0.5973672959429805,0.6024603991310761,0.6092680016773739,0.590781582699171,0.6088856017007309,0.5889886458485037,0.5967733801996778,0.5883868666285405,0.6219832438433353,0.5958727728230185,0.5999627635272566,0.5950442502263018,0.602742423052561,0.6092680016773739,0.6084097192778776,0.6054762266058066,0.6034570183688973
0.58640279773407,0.5975269392389653,0.591613734013501,0.6059011115143104,0.5982657046559153,0.6369355448078212,0.636481908080363,0.6204751073819783,0.5931032701303822,0.5833465697263758,0.5717821707437213,0.5739113253045993,0.5700736440832417,0.5722251236945208,0.6066671731001858,0.593225412316816,0.6039807649565256,0.6127186043213495,0.593709469854958,0.6114183562599966,0.5928248825116509,0.598932041064853,0.5897400522091883,0.6182844628762223,0.5922187198719179,0.5934192166139068,0.5863363434452945,0.5985655550412001,0.6056918724887326,0.5980521776544535,0.5996378321207012,0.6128506900939396
0.5853605332214865,0.5975778359099527,0.5912151856151389,0.6059324796462656,0.5894254097732705,0.6309578878940029,0.6353142748893823,0.6127720815356617,0.5939949416631375,0.5891197754957995,0.5777889311260015,0.5803751325087031,0.5733706521096779,0.5789770907972365,0.6097643567520933,0.5967155465731891,0.6072365794868204,0.6096992092131482,0.5969629097030709,0.6048739379335502,0.5968384450695425,0.594645185531316,0.5891626692001816,0.6221048706711128,0.5852448173351057,0.5931999924880286,0.5862704280076225,0.5995995952962285,0.593434284221659,0.584003654062291,0.5917902718922541,0.6064229133150054
0.590034104985115,0.6020011861237486,0.5971114748626437,0.6116662869480949,0.5922242547795047,0.6370536566117159,0.6416979105768356,0.60317457386608,0.5937945644581981,0.5931947648536239,0.575271388951137,0.5803751325087031,0.571524420368625,0.5831889368699037,0.6032291073803645,0.5885140085217409,0.6024336818119714,0.6061692027114397,0.5935392520529913,0.6057985896568249,0.590781582699171,0.585119240475017,0.5852606415580793,0.6279006727218366,0.577247773015161,0.5834387438307126,0.5813962769839264,0.5966820798093239,0.5930086681703248,0.577737625318725,0.5982982693717,0.5988830356545229
0.5941390675713972,0.6049226701197422,0.6026009093665523,0.6084873541071107,0.5803139961884058,0.6305372536178065,0.6422511998183292,0.5965976746444033,0.5939444141850044,0.5887956194283128,0.5704842371925322,0.5739742731132538,0.5722413500556627,0.5867956655701363,0.5965316613302442,0.5837984021350202,0.5974697084377315,0.5999588132794688,0.5865844017773572,0.6000290074167863,0.5867404527595982,0.5829254928042271,0.5715504174419958,0.6150940445878134,0.5752935477908216,0.5758671706662919,0.5828324750081946,0.5963408072228363,0.583677378344343,0.5759341153956247,0.5959103918846664,0.5782204633538829
0.6044946098198146,0.6098710338163519,0.6029753354777927,0.611503790793189,0.5776665579324423,0.6396263415072755,0.6354821675682354,0.6110535717596417,0.580506371962941,0.5882063021994627,0.5710262758606894,0.5806839939810888,0.5730760695627154,0.5861207069258573,0.5965632594362436,0.5902241887088949,0.5981025194703627,0.5932941929675444,0.5869685629090112,0.600295870993631,0.587382078608158,0.5787575202851476,0.5715556843843966,0.617522270343017,0.5706171254456933,0.5854312496427204,0.5854573725869976,0.5978452195851921,0.5906825176566675,0.5827715678693217,0.6087392002784898,0.5716979079475845
0.6130842789704154,0.6154763192877107,0.6154264177083746,0.6122232358503144,0.5872534901081444,0.6393290837159455,0.637029371837596,0.6089698644968679,0.580724984375457,0.5912673500419212,0.5728208026305812,0.580724984375457,0.5735335733452653,0.5928595762856096,0.6000954951410487,0.5839314494608547,0.5926814223321611,0.5872625357148716,0.5806153677966878,0.5937963752339435,0.5872193972289127,0.5781641932983994,0.5799964781737303,0.615012545184468,0.5739953645081864,0.5892790936792164,0.5960575819926679,0.6032755926813088,0.5971894325561253,0.5983080440496216,0.6074207777451711,0.5777106977672324
0.6088972965628491,0.6143879316844376,0.6154264177083746,0.6116669256417004,0.5787180963394144,0.636062366314915,0.6370197865153068,0.6053004869494988,0.5807156109885185,0.5975700339518931,0.5794553081797205,0.5806153677966878,0.5735802421153803,0.5997678904423067,0.6068236624043651,0.5897383942494121,0.5966820798093239,0.5824158224123098,0.5802275797574982,0.5967072932464892,0.5839187854171762,0.5717821707437213,0.5658913243558634,0.6071537738880018,0.5718849130838111,0.5857869619885278,0.5867776400718491,0.6000430760756056,0.5934620012575725,0.6010171544523011,0.6049470224628101,0.5716700725305798
0.6160778290200117,0.6142485516718442,0.6182551319333351,0.6055133642162082,0.5740132548205723,0.634813567037597,0.6402082395155995,0.6053331516578803,0.5655841266792191,0.5998675128891148,0.5800183407319206,0.5796622971671062,0.573202627218024,0.5918078475696035,0.6066194874889451,0.5847164135356628,0.5962140723130844,0.5892362190686923,0.5829828299101253,0.59711016811886,0.5836444988166791,0.5723704184679357,0.55888888666954,0.6055580251201389,0.5695211575176322,0.5799926601078761,0.5871778019345888,0.5969142469228264,0.5940295140825188,0.5992104295610634,0.6072859635196787,0.5661124900940419
0.6218748890844168,0.6181000613608338,0.6253676339452214,0.6034559842124756,0.5785486402810118,0.627778899996654,0.6343675799145303,0.5994617428405514,0.5623277245609412,0.6016793963092865,0.5833016836452409,0.5772018335618657,0.570061827663996,0.5900385618147073,0.6098652137382308,0.5834190011076282,0.5902273583397016,0.589330990035796,0.5834144138008605,0.6030958420446292,0.5899913490667164,0.576420540141671,0.5691415916670731,0.614641172736956,0.5771036153792933,0.5734665944320199,0.5908004507701494,0.5956371882945688,0.5939916930824741,0.6067907898779391,0.5916207690339892,0.5627365717490908
0.61445467701677,0.6154264177083746,0.6157620653029006,0.5953475713816185,0.5716986201964707,0.6229599285104986,0.6336662288323912,0.599532837123403,0.5596297267909109,0.5925843906523106,0.579764701849703,0.5735335733452653,0.5632048052324906,0.5871252549716665,0.6064175732034658,0.5803963244548537,0.5832500101034481,0.5824487019399737,0.5767934801261015,0.5962806465243697,0.5829077674251507,0.5695192087483425,0.5689619802508099,0.6018412240131406,0.5771304158765932,0.5728208026305812,0.5840775402070827,0.5885922788355002,0.5766544579125886,0.5950808702901762,0.5866974659883145,0.5633532073457282
0.614849142184015,0.6096561992009517,0.6204866688557669,0.5921984280923333,0.5674523491796147,0.6198467938563057,0.6306314440068704,0.5999958726942405,0.5726089482388121,0.5921964940832197,0.5852664497498353,0.5869685629090112,0.5770521627468216,0.6003862236494778,0.5997538217834874,0.5964322615990127,0.5767527335685951,0.5896537596026389,0.5831426461460764,0.6017655874610872,0.5883519380941215,0.5697823657286113,0.5703696262255651,0.6093689487226349,0.5841198118088085,0.5759264142868248,0.5839450382326107,0.601299221261646,0.576124424646605,0.602610381351014,0.5835512980159686,0.5558802054525314
0.6124486856275325,0.6063789430219432,0.6183661144164041,0.5910189471194125,0.5713602902446016,0.6264687386249447,0.6327458076301254,0.6093259343351249,0.5765468082261781,0.5953777790324933,0.5824862768124226,0.5906048109590627,0.5872907782178041,0.6094775695431224,0.6002710583275394,0.5895643708977342,0.5696146399381045,0.5897528836192096,0.5766297791672486,0.5946499185033267,0.585886191484071,0.5696078923755198,0.5724392314123748,0.6060599575628579,0.5872625357148716,0.5790927836434954,0.5939916930824741,0.5991546247809805,0.57995274892913,0.604074224113225,0.5871213075201025,0.555492206437912
0.6065088735938197,0.5995282155419318,0.6149250340584851,0.5857398865046418,0.572861614991948,0.6272649152501697,0.6311158987466001,0.6162702405730549,0.5782109361690712,0.5909569368870741,0.5851641614554114,0.5930787852396957,0.5864162912399391,0.6132079067964885,0.6066671731001858,0.5930849539419667,0.5787896643275513,0.5928343368794281,0.5801367421761254,0.5914382261658395,0.585949175866434,0.5735714065918343,0.5753636003119396,0.6056335287958166,0.5906825176566675,0.5829077674251507,0.5961651753065914,0.5959388866797855,0.582682290494194,0.6075472942869428,0.5798615565428265,0.5594537971920596
0.5940578785973138,0.5895451803819495,0.6096435040030481,0.5904596680474091,0.5788175268866392,0.6411510707658117,0.6333263599112889,0.6310191383596909,0.581387290243228,0.5914777482961135,0.5855960391513657,0.5880472223677428,0.5901376858312779,0.6094454126678884,0.6055423623823973,0.5951108321038417,0.581621920332928,0.5961333881085805,0.5823604223282741,0.6013169133688716,0.5948229335248979,0.5697074598471269,0.578134791415842,0.6085495451216092,0.5875005288096818,0.5789486618040106,0.5970055473131802,0.5865918544264297,0.5890667535559923,0.5998845301684875,0.5710738934191532,0.5670073772014655
0.5872463149195927,0.5905340528442814,0.6050381149714821,0.5949108917775021,0.5821963970722991,0.6393795144039094,0.6409119440222729,0.6191542433363119,0.5914237858686012,0.5925988309495488,0.5860103712325001,0.5852569633231142,0.593463587451764,0.6124486856275325,0.6060289836556293,0.592831157396707,0.5856833920901556,0.5983944478848693,0.5854978139646916,0.6013550691545773,0.5909180611434881,0.5728668305371377,0.5861555730251193,0.6145327203173024,0.5826621579351715,0.5692927068330977,0.5895643708977342,0.5797279718445595,0.5821481625240422,0.5894628367654766,0.5693532600264452,0.5727619274500354
0.5866860489913669,0.5972380953363697,0.6118294217966064,0.5953996924832158,0.5784099770491409,0.6382730108454904,0.6351482223284247,0.6189465321313287,0.5815539067107682,0.5894300550782995,0.5827433637277383,0.5824862768124226,0.5902200087469944,0.603175605519458,0.5969629097030709,0.5894086798977647,0.5824731691036112,0.5946265886348067,0.5888422621713755,0.602242468274927,0.5788065425281619,0.5621194705002901,0.5780064995769497,0.6076553351136847,0.5847460776492085,0.5730276577175281,0.5865709674235539,0.5813365382570373,0.5786330059218362,0.5793901191303281,0.5731372742962973,0.5642823315494447
0.5806968638707851,0.5969882084936137,0.6092211818655147,0.5917357479863188,0.5722045543232943,0.6231147946766769,0.6300620480553525,0.617934269606823,0.5860617347544389,0.5798308635941997,0.5719092225806933,0.5846263572048184,0.5932567204590011,0.599521655017447,0.5862526575916011,0.5895973921693997,0.5761356533124022,0.5932666432485887,0.584892030521488,0.5922187198719179,0.5780233994649331,0.5592223364496487,0.5757767434717805,0.6058982121036333,0.5822918927416082,0.5700553397060929,0.5872907782178041,0.5932849002537657,0.5865340556009128,0.5801060947524997,0.5740302752979008,0.5656054361167985
0.5670612294147028,0.6001285774747873,0.6001003415978795,0.5853053791965436,0.5793709063994832,0.6240046485247611,0.6332686700696417,0.613603109525284,0.5955945464218305,0.5764719927741426,0.5700553397060929,0.5817206183449871,0.5894442061753533,0.5968861796604538,0.5790643504010425,0.5830955766854626,0.5687016274760279,0.5888400892088828,0.5824721864515596,0.5831378524409694,0.5770521627468216,0.5604244862540952,0.5851258946048842,0.5998465450526197,0.5872248774184747,0.5725906006180885,0.5873096059725196,0.5951553645949413,0.5796522095131985,0.5868923938423612,0.5664355394882338,0.5667925901937524
0.5668297686722921,0.5998772943345231,0.5936545102889262,0.5837403485561908,0.5726247771558549,0.6307570907385214,0.6419257576503059,0.61888423739847,0.5954808230343501,0.5695560260818802,0.5662708015660117,0.5824158224123098,0.592834336879428,0.5964796927431227,0.5730930106392546,0.5862214738244487,0.5723704184679358,0.586321096271257,0.5775184974742857,0.5794460613821314,0.5737246332444053,0.5626745072920617,0.5789302874885894,0.5931148925905142,0.580209277754827,0.5804244449595255,0.5935211896006446,0.583127718992309,0.5791490256844845,0.5796929761985239,0.5800745930927715,0.5802778536220332
0.5669144343573937,0.592801030848855,0.6032714052311199,0.5837277475028134,0.5791863951682178,0.6366672525681765,0.6440203678218256,0.604778508316858,0.5999415042670558,0.57995274892913,0.5660009409346327,0.5847879770566848,0.5964322615990129,0.5988925061792663,0.5727548560228598,0.5868345950168444,0.5754806465647868,0.5896398459864401,0.5813699636670534,0.5834894762858351,0.5773876884449786,0.5604244862540954,0.5828701925527017,0.6035759771486132,0.5799935156144554,0.5733803365043347,0.5929045923967574,0.5843377408335918,0.579286175978665,0.5797710682622229,0.5797928223543749,0.5804624861993503
0.5701438661985441,0.5959773253690528,0.5876967697044234,0.5817291915319169,0.5824731691036112,0.6343226190706936,0.6366120996555128,0.5989297508060738,0.5965235619893667,0.5798964965682791,0.5655824321422958,0.5779517758044751,0.5900290859098323,0.5918610366678031,0.5803307059317626,0.5803188801478522,0.5775828351054607,0.5843145403018785,0.5809705503009026,0.5835505495193797,0.5774251027312522,0.5686798079763925,0.5892177570606026,0.6034570183688973,0.5769619725941727,0.5772018335618658,0.5955424253202334,0.5764452188870111,0.583677378344343,0.5824426483736468,0.5827433637277383,0.5872099835257113
0.5725906006180885,0.5979899748098028,0.5855305090946324,0.5859125019135065,0.5857041202094958,0.6293984473515889,0.6395976265596401,0.5849367492550189,0.5937458106792801,0.5738646565344844,0.569353260026445,0.5712528338039098,0.5837008628559288,0.578933858479786,0.5738926581360592,0.583889638148575,0.5845227873064462,0.5863399240259725,0.5799597805802122,0.5867956655701363,0.5737650340876761,0.5705143438512301,0.5869685629090112,0.6031756055194581,0.5735005429695618,0.5736810231706035,0.5864775716400635,0.5727307924024537,0.579655300407709,0.578770469358035,0.5786702878742406,0.5896844419789097
0.5769364713983962,0.6025061916328973,0.5866552302196907,0.5837196499460686,0.5901166598443016,0.6247368811866834,0.6310053027500516,0.5844159741923609,0.5899299825940177,0.5739206587191316,0.5664169515898604,0.5694147909765181,0.5839892605953831,0.5789302874885894,0.5668679587444667,0.5871778019345888,0.5748789408388318,0.5832083068410822,0.5812338279485342,0.5832498341652881,0.5768636969381663,0.5620304981282689,0.587319019675721,0.5937963752339435,0.5730708540175256,0.5704047272724607,0.582185737396491,0.5809382104501107,0.5820096978250794,0.5812150659938135,0.5802603199961438,0.5837392832466441
0.5872193972289127,0.6120532602712279,0.5841010247186686,0.5842006471654769,0.5967155465731891,0.6159157201835136,0.6314569679259471,0.5692313170325473,0.5937756553697978,0.5667471090699915,0.5630985606470371,0.5710262758606894,0.5806312453476942,0.5786142588041028,0.5737020862790218,0.5803188801478522,0.5717452889665856,0.5797928223543749,0.5862144992816529,0.5765140878188231,0.5702438770894178,0.5659510431788873,0.5938531137946506,0.6035331541470987,0.5826249533882957,0.5771457104239738,0.5854546754787326,0.5937962828665411,0.5895474714122498,0.5879190913340205,0.5935651587504077,0.5872193972289127
0.5827950372695311,0.6057586348799957,0.5840023849239121,0.5740302752979008,0.5935211896006446,0.6060562159374775,0.6189618052824587,0.5741109744314786,0.5890688798681599,0.5606834182373697,0.5628988851030401,0.5717821707437212,0.5769211768510156,0.5824909735416993,0.5773128544048709,0.5761122691699375,0.5687155979152915,0.5773549494495513,0.5826616319183412,0.5730442622569483,0.5694982757967505,0.5632048052324906,0.5837392832466441,0.5933793246556273,0.5841198118088085,0.5772158637056747,0.5888259381118289,0.5930086681703248,0.5871466924727845,0.5861485838439808,0.585526056467624,0.5767934801261015
0.5769619725941727,0.6025152062289765,0.5795802844091613,0.5766323997703768,0.5899158697702748,0.6152727628277616,0.6281319823055793,0.5803876630277512,0.59197459015363,0.5619231923969734,0.5663076829756549,0.5743128583880842,0.5869865884072984,0.586825181313643,0.5739206587191316,0.5801589638929587,0.5720893622402246,0.5806839939810888,0.5791739327314177,0.5718371338492964,0.5718371338492964,0.5737930356892508,0.5839507113821194,0.605993639524949,0.5838145756636002,0.5774110725874434,0.5888259381118289,0.5893542575447873,0.590757996953109,0.5828373130250378,0.5824909735416993,0.5832938389270274
0.5937103016620613,0.5993959635360462,0.5831942164802191,0.580506371962941,0.6064938977256825,0.6274706217160962,0.6341340834304666,0.5854308866478242,0.5986279860024192,0.5682474835363037,0.5652323145883829,0.5707357096064144,0.5829254928042271,0.5800745930927715,0.5737246332444053,0.5772158637056747,0.5752567536394186,0.5731956968759999,0.5830430236992681,0.5727640881970479,0.5710262758606894,0.5765702109567151,0.5874009063628736,0.6126258233526888,0.5870156383928972,0.5802532471737727,0.5925042819785316,0.5791870669243093,0.5907249756814436,0.5747105632223172,0.5824426483736468,0.5900364355025394
0.6030041719685401,0.60264368980922,0.5954991864562618,0.5804747549555113,0.6001999640446878,0.6275118582339361,0.6369463945263806,0.5842806537656533,0.6009894696827471,0.5647339863412207,0.5678254996592063,0.5761211109634444,0.5833391213839044,0.5830430236992681,0.5688500582958194,0.5839779177602745,0.5824721864515596,0.5816086366206685,0.5892576763931543,0.5829320974550029,0.5812139719692774,0.5765140878188232,0.5901822719038786,0.6186927355860687,0.5934620012575725,0.5774251027312522,0.58963984598644,0.5878197392525,0.5940578785973138,0.5735040087182935,0.5786671961348234,0.6036754088753833
0.5933624886429344,0.5931156675244306,0.5883845755982401,0.5829828299101254,0.6062474360702089,0.6220844913402882,0.6279792790010168,0.5839432436667692,0.6091847597955503,0.5680160227938927,0.5603875811124293,0.5800371197293173,0.5802275797574982,0.5797365803133857,0.5700059433768645,0.5769925945362883,0.5755040307072516,0.5755040307072518,0.5826444897775191,0.582644489777519,0.5734339587151005,0.5789486618040106,0.5829123547319185,0.6233256263905814,0.5937534913478423,0.5733044104118447,0.585059993805555,0.5965971534884896,0.5936913925736611,0.5775559944610594,0.5790613535933733,0.5931995910074871
0.6045726482369225,0.6064554124226708,0.5810314643665876,0.5926324796630822,0.6117105187459613,0.615339351504701,0.6342703391270506,0.5857639282085623,0.6061656016672916,0.5579926724437385,0.5612601775240748,0.5802275797574982,0.5837900157017667,0.5803963244548537,0.5732047879650364,0.580506371962941,0.5755040307072518,0.5761244432346773,0.583208306841082,0.5954094969993173,0.5724859871386829,0.5889461878237277,0.5766297791672486,0.6218682690883028,0.5936606789911972,0.5867753246145193,0.5926925090109412,0.6095726681452168,0.6001953008123156,0.5917073834715237,0.5926686534484473,0.6003280431543127
0.5976724178562097,0.6003767282642788,0.5810525457363958,0.5927949758179881,0.6120985815722978,0.6176794313020102,0.6370978123460218,0.5927993661768266,0.6055276618799982,0.5530748171204029,0.5646727807146292,0.5799177985838158,0.5842006471654769,0.5797928223543749,0.5792399104662121,0.5771304158765932,0.5734339587151005,0.5763375692006004,0.5862144992816529,0.5839297380898102,0.5640960461098419,0.5865246418977115,0.5770521627468216,0.6188174441834473,0.5899299825940177,0.5823610925024096,0.5869188578129811,0.6115423248745014,0.5932941929675444,0.5860999771184806,0.5869920162891695,0.5963408072228363
0.6004604875041883,0.6032714052311199,0.593484542256544,0.5970485658329768,0.6069562927170672,0.6218570391898329,0.6339874095632717,0.5978887780751183,0.6028900914899028,0.5503246505954721,0.5616588323104915,0.5796714458154146,0.5805843715342807,0.5794837371729463,0.5801619467834189,0.5737930356892508,0.5748041108994693,0.576330349989022,0.5978425391851262,0.5926329745904867,0.5779063449325449,0.5931575249345834,0.5873122303572647,0.627259784522764,0.5999480631788924,0.5823616185192401,0.5966820798093239,0.6217819406755988,0.5993572739369123,0.5953111825329006,0.5886948939056617,0.6024533359638241
0.6017846196063659,0.6035759771486132,0.5944992495317235,0.6005333003229129,0.6044222872133808,0.628492578625629,0.6340611006340152,0.5993927863769113,0.6107206492788013,0.5517018067971167,0.5614132286575448,0.5860179955220017,0.5906048109590627,0.5794214445957441,0.5763033706232287,0.5699127939001988,0.5788459166884022,0.5865952509669791,0.6025562830311525,0.5947940907247533,0.5844060840644331,0.5997037787284226,0.5872691023249427,0.630829947034948,0.6001343764659596,0.5867014710051991,0.6029244663083274,0.6157809380979158,0.5956703525377431,0.5957506842324273,0.5851614846182487,0.6127024821727922
0.5946976744169756,0.5906048109590627,0.5984886546334589,0.6030000423329673,0.5999609878173728,0.6282832254393218,0.6425725751542289,0.6089998686436553,0.6170136777573675,0.5740525921086564,0.5773415636808993,0.5990458892189704,0.5928689092988094,0.5888400892088828,0.5729712315707173,0.573811702857791,0.5868777335028034,0.5934549892568546,0.5966684652420796,0.6018462942810052,0.5897344344611296,0.5993572739369123,0.5869120684945249,0.6310191383596908,0.5925456325994874,0.586824715555735,0.5989363396830018,0.612821953134807,0.5867404527595982,0.592945464551414,0.5738036617737257,0.6121490507468579
0.5958656724799145,0.5938385912453567,0.6057427739443985,0.6065088735938197,0.6172230526313162,0.6394705339993445,0.6509249677755644,0.6073788046565999,0.6209089223149471,0.5877441922258466,0.579540032492661,0.5994617428405514,0.5956227570149175,0.5875932901377492,0.5705211546281185,0.5772005896710133,0.5963327676259669,0.6037325081898254,0.6005521575802775,0.6075467255723099,0.5944224887836767,0.6029708635103338,0.5900548962508575,0.6398655171159303,0.5930494820095907,0.5854772081567964,0.6002958709936311,0.6279055149259641,0.5897318576322332,0.6096561992009517,0.5824224136481945,0.6145857805471008
0.5957506842324273,0.5906048109590627,0.6017064229291162,0.6026466233408994,0.6136862841033222,0.6341478962723622,0.6455029376328782,0.5988643574456087,0.6184753857133843,0.5852606415580794,0.5777797364389388,0.5969572654426228,0.5868777335028034,0.584014503251913,0.5737806456174118,0.573450041297101,0.5966109940271548,0.6000233092722107,0.5998132664148226,0.609131936296591,0.5940731766003199,0.5965206175635054,0.5892576763931543,0.6359087547030344,0.5903761512787846,0.5821963970722991,0.5967958031968044,0.6277311756628463,0.5831378524409694,0.6092680016773738,0.5823227912013862,0.6090950162198997
0.5781501200794364,0.5864956285201708,0.589373448060572,0.593256720459001,0.6055447931115652,0.6399436880251498,0.6369160460938177,0.5882643641596522,0.6092680016773739,0.5752814264533013,0.5754058125246793,0.5973720333368331,0.5806153677966878,0.5810694242511218,0.5700553397060929,0.5736592803226785,0.5935392520529913,0.5969297454598965,0.5971242875458586,0.6079453871148922,0.5908191942140487,0.5870781794877805,0.5788177187862227,0.6231579092110229,0.580724984375457,0.5724180254016501,0.5934549892568546,0.6178372587183777,0.5700757981032596,0.6031464266968245,0.5838191629703681,0.6061520086488931
0.5756865533191317,0.5823439503615876,0.5837591763109063,0.5937197560298385,0.6047892187631271,0.6365828506171821,0.6275240894289695,0.5868866175840333,0.6035331541470987,0.5725488479911442,0.568402089770125,0.5903997370248468,0.5799304860410079,0.5758702911489327,0.5671076999986331,0.5702951106936913,0.5837770007911512,0.5820730072408716,0.5879197202287297,0.5990256822911081,0.5802603199961438,0.5868923938423612,0.5751553632572327,0.6212226616035953,0.5799935156144554,0.5748016187418975,0.5960054608910708,0.6110535717596418,0.5664160258807724,0.5952148833135663,0.5938040188259752,0.5958475862894315
0.5819224597488596,0.5890688798681599,0.5912727124154814,0.5902200087469944,0.6046068216400022,0.6398215423270862,0.6238727353924752,0.5846838255091371,0.6035802337533459,0.5730496480068006,0.5723050798130271,0.5870532966892941,0.5797558475956521,0.5712917897959383,0.5587033333408948,0.5668567256487609,0.5805216287689248,0.5859860876890751,0.584003654062291,0.5961782409947723,0.5767040442066474,0.5769925945362883,0.5856528858876581,0.6208366054818022,0.5839507113821194,0.5756000014258241,0.5968952971698502,0.6076821668134067,0.5686261659734209,0.5950305004091576,0.5905670741159469,0.5965069428174303
0.5695167830363937,0.5872070246128394,0.5935091305876469,0.5824188464285174,0.600019737625825,0.6394363332040172,0.6183887891477639,0.5876996971486893,0.6130454106415826,0.5754945710072967,0.5759451210882954,0.5806968638707851,0.5729486195102297,0.5650391071818589,0.5491710046682134,0.5666056697585405,0.5738646565344844,0.5859256060703972,0.5847314826421987,0.5840160217454445,0.5704388861367059,0.5661101867129995,0.5796148205304753,0.6244817784854674,0.5803188801478522,0.566636498002056,0.5999247784113889,0.5995567020549876,0.5656901065144688,0.585348387233478,0.5797647018497031,0.5989780485512362
0.5806968638707851,0.5970835900717033,0.6035687304626091,0.5853981915178834,0.5996568232485578,0.6403496897989984,0.6232044843856,0.5877441922258466,0.6121947105546268,0.5834894762858353,0.5759264142868248,0.57995274892913,0.5734009205227536,0.5642087698602056,0.5402501248685062,0.5719581508905556,0.578933858479786,0.5865089920171873,0.5772248343156431,0.5915063566702303,0.578342320372383,0.5659989687092646,0.5751013935191335,0.6305032941932616,0.5890162250828556,0.562356243241279,0.5988643574456086,0.6090142051321141,0.5787327381819056,0.5924062366988622,0.586825181313643,0.5990024548516993
0.5738646565344844,0.591159248003172,0.5985722785026727,0.5780064995769497,0.6092536651889151,0.6403643463088745,0.6195522712343413,0.5815539067107683,0.6143778732358494,0.5836022230611724,0.5754479075693597,0.5802058325470096,0.5728900285544392,0.5658371813294372,0.5529214075000373,0.5821218742322631,0.5767934801261015,0.5868400752064065,0.5731694597803427,0.5910242627779767,0.5799304860410079,0.5513885053732326,0.564804769802584,0.6244643051499563,0.5862286109368885,0.5697031664305556,0.5915470783757114,0.5997420761489806,0.5822918927416081,0.584381532965391,0.5899158697702748,0.5893379007349167
0.5805281191734297,0.5940210554987225,0.604180392872961,0.5832659452044127,0.6192974979172844,0.6342071201839617,0.6242760411218349,0.5803094343379281,0.6111976226925605,0.5867929997225204,0.5785017664675983,0.5697074598471269,0.5619941341896928,0.5611905988270918,0.5536602970260881,0.5852231599840022,0.5799177985838158,0.5803963244548537,0.5661405358037808,0.5985045134513836,0.5726089482388121,0.5511395657297192,0.5637252293246302,0.6216313904836848,0.5915326619363046,0.5679967888910455,0.5883290719603255,0.6063789430219432,0.5910625846778486,0.5925456325994876,0.592879264207624,0.5878876925415856
0.5932472660912239,0.608553136623647,0.610016126948509,0.5911028976172873,0.6248737882980182,0.6308013310661044,0.6194801742772446,0.5724137933488719,0.6007935361312959,0.5700757981032596,0.5621296321756226,0.5560713147914708,0.5555799850643564,0.5513147537706313,0.5525801618295263,0.5827441122243273,0.5701155599556338,0.5704466431448529,0.5629351987606439,0.5898639734136953,0.5620304981282689,0.5462369396706538,0.569626399615163,0.6217037073168297,0.6026802354682154,0.5766544579125886,0.5950808702901762,0.6095492766062293,0.5965069428174303,0.5954991864562617,0.6064764125410188,0.593466178662204
0.5927397879084108,0.6114642588230387,0.6011266286968044,0.5873315881377388,0.6063943026726146,0.6244923650315921,0.6135033904679396,0.5801836108301762,0.5922784062363514,0.5592611157543196,0.5577833254666927,0.5599074291807582,0.5559604875506822,0.5453406357591032,0.5515544209654589,0.5797771857426394,0.5582909395256225,0.5591204642299806,0.5598255773773274,0.5868623738521319,0.569812783009325,0.545865656076919,0.5829828299101253,0.6278824187965888,0.6099608046092913,0.5772205403633364,0.5993903562706508,0.5938385912453567,0.5932571473813917,0.5799177985838158,0.6065813368266114,0.6021138548750857
0.5893379007349164,0.6065755397397419,0.5947838945886504,0.5844482561380012,0.6128698474550919,0.6187408460290018,0.6243300088825011,0.5800933617703065,0.6043234678208872,0.5664169515898604,0.5723417046174749,0.5734495624281927,0.5661682645186562,0.5526634357122033,0.5579363184007851,0.579474472147349,0.561642546253867,0.5671169937802348,0.5562811410049961,0.5901492506322131,0.5690668657414094,0.5524823651601015,0.5864162912399391,0.6192974979172844,0.605934515894522,0.5733281971334594,0.5994973143591027,0.5968349824855611,0.5932571473813917,0.580121466906185,0.6028244791464767,0.6063981791822497
0.6049655424708547,0.6210006377251467,0.5986387512040531,0.5982108954199675,0.6158684444823225,0.6150806498225679,0.6357392723525039,0.593709469854958,0.6019967467378899,0.5633759694937736,0.5758131459798197,0.5617626734472819,0.5691712106010234,0.5561489706359236,0.5632048052324906,0.576022835307438,0.5616588323104915,0.5699618572856207,0.5547340861898932,0.5903431300071192,0.5680424798308302,0.5686038273165042,0.5970055473131802,0.628355862293884,0.621935272548602,0.5865937205712322,0.6060641542113977,0.6126782518208138,0.6001999640446878,0.5872625357148716,0.6096561992009517,0.6031797351550308
0.5916104324437977,0.6173415751728828,0.5899158697702748,0.5970691615684801,0.6159157201835136,0.6217914165837145,0.6386190501164922,0.5834190011076282,0.6105588905442607,0.563330021389448,0.5828505967372974,0.5626674243606292,0.5729486195102297,0.563330021389448,0.5704466431448529,0.576289554245865,0.5680666320996673,0.5772158637056747,0.5547340861898932,0.5968952971698502,0.5752333694969539,0.5692532491355713,0.5896844419789097,0.6219457489266979,0.6128725823037315,0.5831378524409694,0.6059392621766438,0.6092292248689538,0.6001858054271166,0.5868804307322391,0.6057301363347772,0.5968952971698502
0.5840130258225479,0.6104788680585815,0.5854231377129854,0.5938605803146292,0.6158436983881416,0.6220844913402882,0.6475661855395964,0.5866933772757122,0.6004842783604242,0.5671076999986331,0.5866860489913669,0.5595943467019648,0.576161857520951,0.573389319278218,0.580121466906185,0.580121466906185,0.578723727172153,0.5732890361139809,0.5547700732946476,0.5936252070588212,0.5784642997941547,0.5661682645186562,0.586675702167711,0.6126881939390336,0.6066480992178745,0.5796990833266121,0.5999627635272567,0.6059392621766438,0.5935288331926762,0.5803682029185363,0.6056633234503344,0.5964464739581364
0.5874453827075815,0.6029179862390518,0.5829123547319185,0.5982108954199675,0.6181685018692596,0.6223741253298269,0.6530837488307552,0.5821904341257679,0.5882266273165364,0.5598704079356083,0.5806968638707851,0.5585376055108267,0.5823635461769918,0.5734962362919315,0.5799961190150873,0.5729019507401147,0.5821183070125859,0.5697307444747769,0.5481595935321075,0.5897318576322332,0.5820211577609188,0.5691671926075313,0.5904915948195053,0.6121947105546267,0.6066655996227481,0.5775793135639204,0.5935010626364837,0.6061148253631347,0.592718467918314,0.5802275797574982,0.6051094438634294,0.5939854872953603
0.582123482562498,0.5951886615635065,0.5786414377915516,0.5993048548714692,0.6179368811651859,0.6161406296199246,0.6508463524450815,0.5757451901890238,0.5929239697533519,0.5518402344515468,0.5738926581360592,0.5565906266815037,0.5765468268142503,0.5718141894562762,0.5784099770491409,0.5612601775240748,0.5691415916670731,0.5625978656590224,0.5410631287804631,0.5970008099193278,0.5837195405235598,0.5704466431448529,0.5905670741159469,0.6127281828184618,0.6066519757275095,0.5897318576322332,0.5994668905156817,0.6013102028804977,0.5953111825329006,0.586520868788597,0.6005963584226869,0.5962317571841315
0.5867270877578762,0.6012695920690213,0.5828981615641262,0.6096561992009517,0.6179046237568793,0.6132079067964885,0.6538815935054553,0.5803751325087031,0.592923969753352,0.5522926519050484,0.5800025290046337,0.5608275203112314,0.5797209333817883,0.5767527335685951,0.5736942010505144,0.5519875451964759,0.5659487181064606,0.5572310739761629,0.5375420790206344,0.5925988309495489,0.5798715361926838,0.5734071527519344,0.6000233092722107,0.6185438262218101,0.6065336457814398,0.5849683837063709,0.6021527726408291,0.6077228659986728,0.5940812161971892,0.5903286086684402,0.5957460384917238,0.6002664367460683
0.5749252151641161,0.5984738325581908,0.5764987932714426,0.6067092089679306,0.612459938648696,0.6155699522977068,0.648516159637389,0.5754945710072967,0.5956227570149175,0.5492766353025423,0.5774251027312522,0.5611290135573145,0.5803963244548537,0.5772005896710133,0.5730276577175281,0.5523757614404106,0.5666484123322713,0.5557490825611321,0.5375786364459518,0.5860857101358833,0.5806687423344679,0.580627741620238,0.5994018000971629,0.6157809380979159,0.6063333104073289,0.5847433615497097,0.6096992092131482,0.6044222872133808,0.5882717137523594,0.5837018455079807,0.5966055039608928,0.5965982432077842
0.5740129007993033,0.5948930622556863,0.5758809870436558,0.5993885566273378,0.60016681429926,0.6241568288311797,0.6542119405362087,0.5798715361926838,0.5920677522191142,0.5562488164891228,0.5839507113821194,0.5672040567423847,0.5837149532167919,0.5765468082261781,0.5765689670658627,0.5563290985872735,0.5706261144500173,0.5617887074886022,0.5405510946253794,0.5888422621713755,0.5832083068410822,0.5839507113821194,0.5968952971698502,0.6099482269896751,0.5952391041649164,0.5771405700831607,0.5961586868991233,0.5953287711262139,0.5966109940271548,0.5890796961177299,0.588348622534459,0.5931148925905142
0.5824224136481946,0.5961582927207041,0.583677378344343,0.6096227452678947,0.6127863317593807,0.6243730047596023,0.6628303618208989,0.5762205415358255,0.6036808313043172,0.5628293264014332,0.5841020073707204,0.5751585354568461,0.5902487756257636,0.590781582699171,0.583677378344343,0.563584668088139,0.5735005429695618,0.5636009338647034,0.5521628462016063,0.591790271892254,0.5831707319686331,0.5835512980159686,0.5807156109885185,0.6064764125410188,0.5917546570747191,0.5776985660768051,0.5885238371952003,0.5954758511089481,0.6037515403351039,0.5893565485750877,0.5942227634606804,0.5936621909574884
0.5986642178199496,0.605983932880037,0.5937756553697978,0.6160309406372283,0.6160782163384195,0.6297354583147167,0.6597064247252453,0.5760770380169385,0.5960892122388461,0.5594555178596015,0.5735714065918343,0.5716799308751499,0.5829320974550029,0.5864847793305489,0.5800933617703065,0.5667925901937523,0.5731979137263569,0.5622848193455546,0.5559356180860812,0.5975477265313272,0.5827431877895782,0.5756000014258242,0.5728668305371377,0.6151235726675429,0.592334064176565,0.5857988850332327,0.5875342891219523,0.6017533727157658,0.6100181532973531,0.595293419924772,0.6109060659872694,0.5940295140825188
0.5932838538036238,0.5999530142882966,0.5934721052217037,0.6153244677575345,0.6185042490038404,0.6245319677959338,0.6536440818611957,0.572861614991948,0.5902343144795698,0.5701155599556338,0.5704792428043343,0.5730086185894222,0.5823735466568031,0.5815381107422974,0.5752935477908216,0.5630419347054881,0.570185414682029,0.5592163854643065,0.5557803595993321,0.594962285102561,0.5824909735416993,0.5700224104789682,0.5699127939001988,0.6156568408780957,0.5851702861666608,0.5847164135356628,0.5807626769213072,0.5992787393593718,0.610037268554545,0.59523747073586,0.6032436191740818,0.5968871035871582
0.6004609910604157,0.5999130177540002,0.5999530142882966,0.6173103933457547,0.6184753857133843,0.6125732394957792,0.653301959554196,0.5793891428902983,0.5862816818494295,0.5799084251968774,0.5668855330378241,0.5777172172446591,0.5797365803133858,0.5721099513157494,0.5626426605139667,0.5593536314757127,0.5656054361167985,0.5525618544604995,0.5596297267909109,0.5935193788248991,0.5778609033100272,0.5695192087483425,0.5688874059540182,0.6309414588339628,0.5964085737418795,0.585307422780139,0.5719348640597446,0.6087569568785032,0.609778693240552,0.5983387144308887,0.6026802354682154,0.5991292916849784
0.6098765418131544,0.6030422369787078,0.6093054446616515,0.6260374281508445,0.6147778935522944,0.6097070080640314,0.6381779297193184,0.5753646022828103,0.5852145579680701,0.5767821116198582,0.5629960666387498,0.5763087973779886,0.5796991861712997,0.5696146399381045,0.5575531458303526,0.5665833511681747,0.564475226611975,0.5516038217444059,0.5629351987606439,0.5997724999924017,0.5781641932983994,0.573625010797597,0.5786106866616834,0.6430504610496405,0.5985919667633347,0.5846678442904394,0.5761373421121414,0.6158684444823224,0.6093379279850518,0.6080141033860218,0.6023752304048673,0.5899227804693954
0.6153300345578626,0.5961712883248376,0.6155168920679084,0.6166088830206123,0.6078360462988268,0.6130262532804303,0.6323555493704862,0.5660329545635473,0.5940811944541284,0.5719510053915262,0.5651304075722127,0.5796588448787326,0.5791396522975459,0.5785643551611391,0.5651207778113593,0.569516264229506,0.5690551060643508,0.5580614603130989,0.5703370265660835,0.6059798914152609,0.5819224597488596,0.5807308677945023,0.5844327780190207,0.6371318899704849,0.6018254898475718,0.580167600579557,0.5865643502101454,0.6218734096230586,0.6173488794684422,0.6145327203173024,0.607890449373915,0.5906048109590627
0.606763711081266,0.5923934678151483,0.6065151572152452,0.6058822700333737,0.6106796041246835,0.6129591986630647,0.6354917425977126,0.5686798079763925,0.5881820412439358,0.5794744721473492,0.5658312038196996,0.5787719673474041,0.5854425294907242,0.5830439031436699,0.5617887074886022,0.5760496091945696,0.5730951713862671,0.5609572442213112,0.573892658136059,0.6001383267137473,0.586148583843981,0.5733075303051262,0.5856281615949591,0.6397973523033719,0.5951721706805301,0.5788642600237732,0.588762175685686,0.6100785213384852,0.6051281443812453,0.6025061916328973,0.6056335287958166,0.5836444988166791
0.6046777464200289,0.5849601021421479,0.6037708075553369,0.5963894448339842,0.6029675643274349,0.6124486856275324,0.6316657993654254,0.5816455853468679,0.5909039316982674,0.5799875011650114,0.5614645209170539,0.5909047104394746,0.5821716470356281,0.5890216671201692,0.5691712106010234,0.5898639734136953,0.5894271419058544,0.5582145114465692,0.570516497871248,0.603951416402151,0.5925456325994874,0.5703696262255651,0.5929045923967575,0.6426683037815998,0.5926925090109412,0.589373448060572,0.5841650623385151,0.6064764125410188,0.5979765329000593,0.598029431027268,0.60477150477094,0.590590659862009
0.6048955156228341,0.5864956285201708,0.5994058534084961,0.5905773964291642,0.6009800873997886,0.6042467240268901,0.6349408618881404,0.584756557259418,0.594639557828357,0.5849916992415913,0.5578951725052246,0.5864002993508542,0.5924173233776423,0.5862144992816528,0.5663890689043036,0.5830955766854626,0.5827985391173179,0.5641546490483306,0.5739369360599198,0.6040628887452492,0.5924415568259201,0.5597037904781619,0.5855150973840016,0.6394895042218107,0.5825905959885076,0.5968952971698502,0.574849005371564,0.5968969081032597,0.5919447481047779,0.5906472427858941,0.6059264302441119,0.5972807329464792
0.5928343368794281,0.5725165356889617,0.5859793058427948,0.5796097231508571,0.6025631003916664,0.5952198821425467,0.6310433969535866,0.5881101529078818,0.5944514755758431,0.5839314494608547,0.5517967375317046,0.5876582289693668,0.5944224887836767,0.5799087383388953,0.5598256346418033,0.5792081518310296,0.5871709760162095,0.5707001753124864,0.5767934801261015,0.6078153373678864,0.5961651753065914,0.5626674243606292,0.5885922788355002,0.6455861003776374,0.5904138881219005,0.6005522914507695,0.576161857520951,0.5972380953363698,0.58116887075977,0.5795679467170618,0.5968056077129058,0.6005048127374002
0.5959773253690528,0.5678254996592063,0.5834516755691603,0.5809705503009026,0.6031857891010312,0.5895643708977342,0.6299581721282945,0.5869920162891695,0.5908066335185823,0.5786671961348234,0.5526072221828215,0.5741904682275533,0.5943564018304882,0.5685701913976231,0.555492206437912,0.5769913506454357,0.5932571473813917,0.572390201119282,0.573711419693554,0.6067405524328701,0.5855550883787292,0.5664080057728225,0.5885922788355002,0.6488560896003825,0.5896351290125155,0.6035331541470987,0.5835505495193797,0.6099482269896751,0.5821152829963784,0.5888779570309977,0.5969865975602041,0.5940578785973138
0.5853565857699224,0.5576690884115797,0.5868923938423612,0.5707357096064144,0.6035778406184539,0.5896537596026389,0.6281319823055794,0.590378361844312,0.5948642262833346,0.5812310369868403,0.5492030631286673,0.5645602477694234,0.5975129089667547,0.5697406753587921,0.5559125299684046,0.5840503338289277,0.5905906598620089,0.5788283313866538,0.5728668305371377,0.5941724948444823,0.5890216671201692,0.5698522407068514,0.5964684964619081,0.651426118109945,0.5964998741322334,0.5964998741322334,0.5803874702008025,0.6021147076306612,0.5709815044295068,0.5799996227425436,0.5802058325470094,0.6030041719685401
0.5800158112199729,0.5581782489580764,0.5907249756814436,0.5697312368338185,0.6005853201102579,0.5913119550728841,0.624942228806444,0.5902273583397016,0.6078345447652596,0.5803876630277512,0.5561489706359236,0.5722485583341612,0.6024348181645233,0.5705211546281185,0.5629130480089519,0.5836022230611724,0.5963358083938559,0.5845354310341582,0.5771457104239738,0.5949325619187646,0.5929936535516129,0.5621852796365179,0.5996093445351885,0.6543371780098168,0.5970008099193278,0.5917745303028112,0.583889638148575,0.6083305281114617,0.5728114692160491,0.5864027977340701,0.5797932899790561,0.6030512515747872
0.5942201017174756,0.5625978656590224,0.5872463149195927,0.5739252112264857,0.6105936081792431,0.607040555513204,0.6249194947220037,0.6032755926813088,0.6106941012302158,0.583843621219961,0.5600848019021978,0.5789989033531289,0.6054380759434728,0.587368724771751,0.5733243343196878,0.5863363434452945,0.5991207779027472,0.5904313045912315,0.5785301360615271,0.5979340772538826,0.5935193788248991,0.5658295350305499,0.5999958726942404,0.6490573804137704,0.5926608704967979,0.5986791289033673,0.5939444141850045,0.6049627249036713,0.5865937205712322,0.5889886458485037,0.585949175866434,0.6126258233526888
0.5916725699332332,0.5701833238960704,0.5904915948195053,0.5665392807711004,0.6084466549218446,0.6104683841990645,0.6369999546043577,0.6095658270130322,0.6204195257896751,0.5894010272949238,0.562703738018233,0.5856901814086118,0.6017064229291162,0.5894360269816292,0.5862704280076225,0.5865798913163077,0.6029708635103338,0.5954900689468652,0.5892362190686923,0.5995995952962285,0.6001383267137473,0.5786333190638543,0.5969095095289738,0.6489590064722361,0.5968349824855611,0.6004604875041883,0.5940767876857143,0.6102628319452275,0.5936913925736611,0.5868906163550643,0.5823218731150104,0.6254159512130865
0.5919972629265566,0.5832507586000372,0.5939382136921648,0.5723303816909312,0.6185676339237238,0.6071183801444363,0.6398319557313886,0.6191061384719224,0.6208366054818021,0.6060795138620692,0.5656998360357922,0.5963327676259669,0.5997037787284225,0.5872463149195927,0.5864951261542047,0.5969629097030709,0.6092297704339102,0.602667480665456,0.5962806465243697,0.5992693184285439,0.6131044866391994,0.5796522095131985,0.5963754094987052,0.6601770387998508,0.5965632594362436,0.6128198328646695,0.584177162653891,0.6068914269989923,0.587319019675721,0.5838145756636002,0.5767934801261015,0.6254941845718556
0.5956575710368118,0.5925354814160718,0.6004609910604157,0.5819778959629045,0.6123955243677658,0.6087074822609653,0.6307217751917946,0.6255038476486766,0.6270983308875836,0.612515755665908,0.5787271097295928,0.60016681429926,0.5993769724081894,0.5937458106792801,0.5925197901846893,0.5968384450695425,0.6125732394957792,0.6092375649094803,0.6032035260112667,0.6010940288825306,0.6099494765343677,0.5899158697702748,0.5965206175635054,0.6541691152157174,0.5961570759657139,0.6136714003561555,0.5839027624771039,0.6102311007578202,0.5907957337962249,0.5899913490667164,0.5895219128729581,0.6307217751917946
0.6013883084394547,0.6017720361345589,0.6099530057584082,0.5956025860187,0.6091963165008534,0.6096944304444152,0.6333320655102271,0.6148207659125897,0.627086733219485,0.6093259343351249,0.5732466317253274,0.5835512980159686,0.6088469290845331,0.5817217123695233,0.5823610925024096,0.590106792607437,0.6034998456888926,0.6151235726675428,0.6035759771486132,0.5919698445823364,0.5972759955526268,0.5894791712016271,0.5835505495193797,0.6459012902512525,0.5964085737418795,0.6050784095676945,0.5840014022718605,0.612580768128294,0.5904396984629258,0.5900364355025394,0.5884840538755836,0.6240905697778367
0.6118377813842011,0.6041136152614879,0.6250486580766292,0.6048627596666732,0.6124434186880505,0.6127281828184618,0.6342063146796527,0.6113251351330378,0.621935272548602,0.6033242825024019,0.5738799439821917,0.5838191629703681,0.6056144549135053,0.5822960195191074,0.5821963970722991,0.5904915948195053,0.603357590960608,0.6028244791464767,0.6066767098602653,0.5889442139607427,0.6064096349295457,0.5994617428405514,0.5923133591413695,0.6567711337691465,0.602381940893241,0.602610381351014,0.5937103016620613,0.6192314402147033,0.5968952971698502,0.5997294881791615,0.5855421377491004,0.6245202736113459
0.6153100683877287,0.6078360462988268,0.6275196223758216,0.6078954982204543,0.6234954582770805,0.6181267076606763,0.6252453815489676,0.6055423623823972,0.6278171403762486,0.6030422369787078,0.5786672863557077,0.590378361844312,0.6089425199555935,0.5890162250828556,0.5868461530568528,0.5983160571140891,0.6061923056288931,0.602742423052561,0.6098652137382308,0.5831376171662326,0.6096471032922454,0.6025109496242438,0.5962190442384865,0.659591001947957,0.6065336457814398,0.5957661785068685,0.5902058576499406,0.6227800559214494,0.6062798492361801,0.6099942585423482,0.5892177570606026,0.6213668375985875
0.6058940170781407,0.605138288090162,0.6304982312688077,0.5992147930841601,0.6200637655075152,0.6158241367613808,0.6220844913402882,0.6021105779950886,0.6188887955074854,0.6009552529605027,0.5806099737538596,0.5950808702901762,0.6048399452793657,0.5994303546270932,0.5935693786008434,0.6064096349295457,0.6003280431543127,0.5996093445351887,0.60274661050275,0.5767229569256477,0.6097070080640314,0.5957082527540001,0.5950442502263018,0.6530107351405956,0.603042236978708,0.5954754985991283,0.5904138881219005,0.6196152019617237,0.6146411727369558,0.5997592724005641,0.5791957685551562,0.6171868297534397
0.6026615004724376,0.6086685874528585,0.6217674778703984,0.6061558383842858,0.610799484885976,0.6243860504593869,0.6237224125426326,0.5997854246308821,0.6117055066929191,0.5976674392368292,0.5852188629218252,0.5969641606680561,0.5977769920211546,0.5996679720102103,0.6062474360702089,0.6067934717640673,0.6069269990828133,0.5927253662476277,0.6064096349295457,0.5827027730564854,0.6097809509420941,0.5966201115365513,0.595768721613294,0.6515300987402819,0.60264368980922,0.5948845358107812,0.5937472908550027,0.6210140010748472,0.6147778935522944,0.6026466233408994,0.585881104245774,0.601134639694007
0.599523875342455,0.6043267143208626,0.6249414351106626,0.6001203078071403,0.6056474150177208,0.6304990613782168,0.6209042043615718,0.608456305326809,0.6028905173719413,0.5954097372521812,0.5821555115594618,0.5950808702901762,0.5951108321038419,0.6024672738671537,0.6080390668614281,0.6095797308803849,0.6035331541470987,0.5896516332904712,0.6028138181231442,0.5831090644292225,0.60631218063068,0.60264368980922,0.5884313453483766,0.645744187221356,0.5965235619893667,0.5849591205192838,0.5904396984629258,0.6113027026741104,0.6118041477569887,0.593463587451764,0.5864619165333014,0.5955347625152254
0.5896442836977639,0.5955724006561326,0.6181685018692595,0.58907969611773,0.599570170410734,0.622103775018182,0.6113304729975227,0.600956161224541,0.5941548410515499,0.5960054608910708,0.5821183070125859,0.5958727728230185,0.5882404225112143,0.602242468274927,0.6079747121700518,0.6067609726564022,0.6034998456888926,0.5854772081567964,0.5963883923527689,0.5859794704756666,0.6033242825024019,0.6029708635103338,0.5833079292878903,0.6486355139436595,0.595202119534418,0.5873822561475743,0.5837196499460686,0.6085706746862162,0.6020010530340627,0.5835503735812195,0.5834387438307127,0.590309979080797
0.5869865884072983,0.5931995910074871,0.6126151841640604,0.5966820798093239,0.5986993844274601,0.6252163908114791,0.6146671553941795,0.5933090145324238,0.5861842399146174,0.5902200087469944,0.5768724753756107,0.58963984598644,0.5900290859098323,0.5988749476139508,0.5978713121586323,0.599843535196701,0.5964684964619081,0.5821051689402771,0.5893542575447873,0.5835146851453404,0.599877294334523,0.5933908531577294,0.5752006305015267,0.6369563620626227,0.5899299825940177,0.579333222026641,0.5793933230594268,0.6020319519448805,0.5967022944175089,0.5770521627468216,0.5793901191303281,0.5905013584937198
0.5737688969014478,0.5795993581559057,0.6022777727773333,0.5937756553697978,0.5885359502321631,0.62539662468271,0.6105316856140182,0.5903321498862314,0.5790552866567216,0.5728612290094841,0.5785547725630672,0.5730930106392546,0.593144030980608,0.5925704674933715,0.5993048548714692,0.5921964940832197,0.5939233251460122,0.581514687323369,0.5827441122243273,0.5759151856210274,0.580121466906185,0.5834144138008605,0.5729367024181777,0.6250388652262859,0.5801060947524997,0.5688168882343831,0.5793558260726531,0.5921856080940533,0.5931797780300565,0.5669144343573939,0.5731189581078818,0.5811633735484214
0.5670891121002597,0.5644380367958551,0.5970130175906359,0.5874158002556369,0.5888259381118289,0.6310927019677052,0.6175710791002272,0.5923958907223257,0.580886606592009,0.558754102966249,0.5787271097295928,0.5730020410730864,0.5866705898703621,0.585690181408612,0.5994018000971629,0.5925843906523106,0.5926809954097706,0.5679967888910454,0.566142905096478,0.570369626225565,0.5679476170909736,0.5766297791672486,0.5607676720377178,0.6186911343339043,0.5689012745868423,0.5617981797040069,0.5681565828484254,0.5845809788044669,0.5835512980159686,0.5562182555544415,0.554920280514792,0.5703001041221043
0.5669980834198638,0.548645776786656,0.5903784195892227,0.5733019287774725,0.591640801666473,0.639210863843408,0.6106796041246835,0.5953845507185941,0.5802851314745978,0.5652566329007412,0.5828701925527017,0.5758281961042523,0.586825181313643,0.5914498788293109,0.601884051333136,0.5876556961759126,0.5953749855153335,0.5659297242448316,0.5686932374368223,0.5667201520935227,0.5684525828213568,0.576842923721244,0.5590688961806011,0.621935272548602,0.5733044104118447,0.5695615504267224,0.5715398821024896,0.5881101529078818,0.5898119441179228,0.5562488164891228,0.5441099865715839,0.5688711702117336
0.5558856316226045,0.5355605593511619,0.5755040307072516,0.5628191647261007,0.5884227172569698,0.6400081602712359,0.609881077181131,0.5939475778273814,0.5783013435925799,0.5711738781854349,0.5924162286367867,0.5793089522592396,0.5771784494194009,0.5927397879084108,0.5983430189237121,0.6025958872669951,0.5967958031968043,0.5704284049863485,0.5612575372563491,0.5656598636134526,0.564804769802584,0.5737806456174118,0.5598241288961929,0.6247145718147444,0.5733753454461674,0.5719780820074848,0.5662280981603086,0.5842804393885354,0.5865918544264298,0.5484507766684819,0.5474557093404779,0.5672525173148671
0.5534798083594304,0.5348449318247539,0.5754806465647868,0.561555587373476,0.5786423793087747,0.6399641854823918,0.6183942400807942,0.6020328153013546,0.5750279513481877,0.5724847283831945,0.600498060519329,0.5723838610476375,0.5768416387959544,0.586636882861226,0.6085843246567216,0.6024180314614176,0.5965235619893667,0.5672637536689908,0.5679329041215138,0.5753211730581343,0.5692228318548577,0.5700385430363459,0.5561922844282308,0.6154594649623768,0.5669144343573939,0.5763375692006004,0.57073758959876,0.586927165280287,0.5837195405235598,0.5476654216302728,0.5541337657780627,0.5691851810402867
0.5617626734472819,0.5367218652435465,0.5761665341786127,0.5690645631199303,0.5824721864515595,0.6574453325030848,0.6197306550742558,0.6155995691479946,0.5861950891042393,0.5819913533256766,0.6072991030296722,0.5698502919375615,0.5738342498231745,0.5840775402070827,0.6060478786766129,0.5962806465243696,0.5963103446288404,0.5716270677013364,0.5712407023404679,0.5747861917787662,0.5721081482231558,0.5763375692006004,0.5588251775045364,0.6160061945430475,0.5721452726454953,0.5861103239421365,0.5768310271134126,0.5852927913268393,0.5725165356889617,0.5532314786830188,0.55945687677002,0.5896209779154618
0.5689970225327875,0.5371377293456928,0.5790084128433081,0.5688430965094806,0.5953111825329006,0.6459162992570803,0.6205969137626731,0.6222439432374169,0.5949446965092478,0.5757981579562523,0.6005521575802775,0.5619274424018755,0.5839187854171762,0.5771784494194009,0.5899849436470243,0.5900364355025394,0.595877771651999,0.5632558216657584,0.5606559469965062,0.5729537095561141,0.5699127939001988,0.5767560472517557,0.5558608174745036,0.6129419904842934,0.5689970225327875,0.5955424253202334,0.5828273562609309,0.5831889368699037,0.5766812317997202,0.5494359294016509,0.5548157100645286,0.5970008099193278
0.5736554175089068,0.5420859729267339,0.5725305318027288,0.5661622870089188,0.6009133339045455,0.6306932066956745,0.6143500122190403,0.6092112172648326,0.5924646022751118,0.5820730072408715,0.6052833905681749,0.5560704402645893,0.5831426461460762,0.570516497871248,0.5793620867404489,0.5836022230611724,0.6022063777067505,0.5630419347054881,0.5662637496622203,0.5743245821507832,0.5697823657286113,0.5742935925589654,0.5579456644642415,0.6063275402813516,0.5716620014382056,0.5989780485512362,0.5844060840644331,0.580209277754827,0.5799961190150873,0.5546484485578816,0.5608466758065678,0.6005048127374002
0.5627875881823586,0.538420527076657,0.5754806279767146,0.5697242565168739,0.6077897627572789,0.6340311572588329,0.6222866368031797,0.6073702263158154,0.5952391041649164,0.5729579529247617,0.6031167857611917,0.5526625169188558,0.5951082211021533,0.5595850922181235,0.5837034440415394,0.588762175685686,0.6025046722817246,0.5633759694937736,0.5733075303051262,0.5727274633926002,0.5756457575759746,0.570061827663996,0.5629733444900796,0.6003755272311785,0.5665890463563059,0.5925496968783519,0.5777072375948019,0.5701155599556338,0.5737020862790218,0.5530432512245367,0.5541410086789268,0.6023569508791742
0.5662579631670868,0.5413772492339918,0.5804747549555113,0.5629351987606439,0.6122518230537725,0.6215349571201099,0.6185810363402275,0.6093570432422438,0.599073299189378,0.5737020862790218,0.6023615351933825,0.5595388181441668,0.6020010530340626,0.5628293264014332,0.5897318576322332,0.5959690720423528,0.6120957394020831,0.5772614017723992,0.5832260322201587,0.5722293753419442,0.5826118153159869,0.5692930634400291,0.5656998360357922,0.6003280431543127,0.5717489118649779,0.5993145530181421,0.5903027549879954,0.5658574177161068,0.5801060947524997,0.5626576942716779,0.5531894223462109,0.6003623587178932
0.5699574828043821,0.5474557093404779,0.5833494566120964,0.563330021389448,0.609650089809169,0.6234831509115182,0.6233856012106764,0.6175011025033629,0.5956227570149175,0.575867798991361,0.6095370920245949,0.5667823472233988,0.5983763892788131,0.5666670002306448,0.5932206501847129,0.5991292916849784,0.6019756901031657,0.5773876884449786,0.5837496184748361,0.5820211577609188,0.588762175685686,0.5767527335685951,0.5632558216657584,0.596351637387277,0.5766390195869806,0.5971704828031492,0.5889886458485037,0.5695211575176322,0.5772614017723992,0.5662979528867037,0.5564569899908541,0.6123382829261793
0.5767560472517557,0.559177785654606,0.5828168836167206,0.5630985606470371,0.6129320483660737,0.6136100448653212,0.6177701619386354,0.6146377893666767,0.5946976744169756,0.5811091603826126,0.5927145695604299,0.5556575025879751,0.601099159829694,0.5629079156663427,0.5891626692001816,0.5959438586051875,0.6018563887583898,0.5835186235544365,0.5903997370248467,0.5798799672341518,0.5953777790324933,0.5772005896710133,0.5669144343573937,0.5953777790324933,0.580121466906185,0.6035802337533459,0.5985453935534673,0.5750549307139811,0.5838510889353111,0.5812197375876711,0.5658820252916956,0.6216447538333851
0.5763033706232287,0.5660626645621106,0.5800025290046339,0.5685883920996195,0.6093120304677723,0.5944514755758429,0.6171006974040236,0.6138040046152755,0.5949251041366257,0.5857906577498649,0.5929793293237857,0.5588537254130572,0.5993959635360462,0.5593149359487866,0.5909804202176269,0.5964322615990127,0.5998675128891148,0.586824715555735,0.5904396984629258,0.5798665797795017,0.5969095095289738,0.5795993581559057,0.5734071527519344,0.5904915948195053,0.5794396125734405,0.5972617831935031,0.5892790936792164,0.5695022937902424,0.5803089002016352,0.5851258946048842,0.5711747604264404,0.6223344600753676
0.5839507113821194,0.5805157453498795,0.5857988850332326,0.5800098482734416,0.6021105779950886,0.6018279687006154,0.6228320523512632,0.617318476231668,0.598675470079285,0.5859297840886952,0.5858687480316227,0.5621194705002901,0.6087477786192743,0.5635985793288507,0.6079188075613963,0.5866031342744336,0.6063656909436852,0.5961002238654062,0.5899227804693954,0.5883868666285405,0.5971467949460159,0.5725906006180885,0.5771036153792933,0.5834894762858353,0.5835512980159686,0.5972617831935031,0.590590659862009,0.576022835307438,0.5841198118088085,0.5899913490667164,0.5669163753565903,0.6161317439834288
0.583650171966188,0.5765468082261781,0.587311967492355,0.5726533346981233,0.6018254898475719,0.5944638983302816,0.6193983579765534,0.6145857805471009,0.5923340641765649,0.5813306594336485,0.5761268939935991,0.5544234385835652,0.59967529114291,0.5666056697585405,0.5902494177730911,0.5794553081797205,0.5994872639264001,0.5928010308488549,0.5800992451893519,0.5791863298228141,0.587382078608158,0.5737806456174118,0.5791209051798126,0.5872248774184747,0.5791204651031925,0.5939854872953603,0.5935548878421181,0.5700224104789682,0.5799177985838158,0.5838510889353111,0.5652705679242697,0.6131044866391994
0.5772158637056747,0.5759264142868248,0.5805380485873711,0.5693848027771591,0.6026615004724376,0.5752361763862105,0.6269688235629155,0.6140283734338619,0.5864108633580679,0.5764987932714426,0.5728242481457544,0.5531096345193773,0.6000290074167863,0.5626720613853605,0.5872298631062158,0.5832938389270274,0.6028756883882965,0.5909607502977637,0.5805216287689248,0.5731228683352774,0.5836509204627769,0.5704466431448529,0.57590303014436,0.5807683647812761,0.5683251191563344,0.5836499960280278,0.5887138741723938,0.5691851810402867,0.5832130035703589,0.5838191629703681,0.5684525828213568,0.5970188677285061
0.5663416474554104,0.5724847283831945,0.5788949794166052,0.5614714451016357,0.5900338028837567,0.5751013935191335,0.6291814650662092,0.606389285779564,0.5829320974550029,0.5932710784204104,0.588801812753892,0.5666096322155254,0.5905340528442814,0.5766812317997203,0.6013550691545773,0.5925421029785763,0.6060766747008008,0.6044453119845287,0.5934537890332884,0.5862286109368885,0.5874103200660749,0.5630985606470371,0.5784077896981339,0.5837018455079807,0.5721137570133936,0.572861614991948,0.5848007764044292,0.5736180804555729,0.5795959571523476,0.5792200875500008,0.5661124900940419,0.5968969081032597
0.563603216353582,0.569353260026445,0.588301075745044,0.5617323061755523,0.5797834489674366,0.586179402615657,0.6365561447364334,0.6112115620484443,0.5876363055447438,0.587509942512883,0.5826159666475974,0.5676534552304813,0.5861932313215161,0.5829124641544274,0.6084097192778777,0.6075042798994328,0.6115356820339573,0.6162138371669424,0.6001285774747873,0.5929819617480927,0.5937756553697978,0.5579358272285031,0.5795491875472243,0.5938858648485521,0.5731979137263569,0.573711419693554,0.5826118153159869,0.5691153263138918,0.5755040307072516,0.577050877821532,0.5563180816644208,0.5896537596026389
0.5769211768510156,0.5815138078789671,0.5982165452272056,0.5680888069972507,0.5829077674251507,0.5748016187418975,0.6366147583853251,0.6082469368996528,0.5931238157098052,0.5840014022718605,0.5807243906111305,0.572697658327432,0.5760795301745103,0.589958327795051,0.6052996661029596,0.6021983755443956,0.6080484222478036,0.6156616551987731,0.5933484477717456,0.5936252070588212,0.5829254928042271,0.5619371096018397,0.579139526514167,0.5999348355870548,0.5722548892242646,0.5662645924373605,0.584202573238351,0.5789865295295787,0.5796991861712997,0.5826621579351715,0.5524689681815524,0.5815426725927751
0.5695817107109796,0.5752935477908216,0.595476581815418,0.5785266367387796,0.5832500101034481,0.5858685163760697,0.6387021947574035,0.6097628672744205,0.5883729640810978,0.5870216850732942,0.5887349732837313,0.5708646543935755,0.5734962362919315,0.5924824289805767,0.6098291200708051,0.6025049147764396,0.6013086719525708,0.6092709772796724,0.5873161778088287,0.5971136307028415,0.5799527077578414,0.5641890392863765,0.5695022937902424,0.6031904826509964,0.5699640275044723,0.5633671185864398,0.5795282853338919,0.5828936770642876,0.5826444897775191,0.5833391213839044,0.555763787458963,0.5766323997703768
0.5692768091863006,0.5823870306885778,0.599124815534706,0.5892252193278779,0.5871629132680634,0.5682639873107329,0.6423351823011222,0.6006854229160129,0.5923133591413694,0.5939444141850045,0.5822131505201051,0.5755882776631253,0.5701155599556338,0.5959438586051875,0.6063518068628307,0.6027097745930637,0.6104388201646956,0.6094385563408102,0.5931797780300564,0.5993307321802849,0.5861207069258573,0.5682727441272851,0.5726615167848788,0.6109860616357937,0.5789112260776149,0.5664412699022187,0.5852112369392974,0.5929239697533522,0.5862551954719275,0.5852527240249182,0.5598704079356084,0.5765126096488064
0.5685189751066003,0.5856855482731435,0.6056568748157489,0.5910016968961311,0.587100366946942,0.5784535107200124,0.648313921405365,0.6009133339045455,0.5797365803133858,0.590590659862009,0.5942461414419038,0.5869094441097799,0.5734071527519344,0.5971467949460159,0.6086853580696826,0.6105966806642965,0.6125755207255558,0.6160654944174817,0.5988012057889123,0.6027714504534857,0.5860999771184806,0.579764701849703,0.5758549966015521,0.6137783661529731,0.5819461247627993,0.5579678861810748,0.5767372880856497,0.5978425391851262,0.5934549892568546,0.5794744721473492,0.5513534098535956,0.5700553397060929
0.5651672534242864,0.5892177570606026,0.6132832385450883,0.588274928868785,0.5934549892568546,0.5944638983302816,0.6564848821168712,0.598204515151993,0.577006624680097,0.5872193972289127,0.6019756901031658,0.5836022230611724,0.5692835567488853,0.6037325081898255,0.6104683841990645,0.6073681969355025,0.6096580382648926,0.6103002248716072,0.6035331541470987,0.603632581555388,0.5971894325561253,0.5891087169296794,0.5752707837832275,0.6266514122885759,0.5826118153159869,0.5658301017980234,0.5841706979290595,0.5931353419645565,0.593225412316816,0.5795303241782682,0.5655582689412763,0.5794837371729463
0.5732797026994487,0.5881936060448708,0.6203614078327939,0.5848905084695107,0.6056384260419883,0.5984873216824309,0.656465074886107,0.6081803026435549,0.5800992451893519,0.584044660679419,0.5988794391476815,0.5872463149195927,0.5772018335618658,0.6067950506754358,0.6041242265474049,0.6106117183635437,0.6067543556948904,0.5963860663417222,0.5993959635360462,0.5934537890332884,0.5868063535589275,0.5900548962508575,0.5639193045826322,0.6228857734013648,0.5783239388808646,0.5591037186991595,0.5795491875472243,0.5904520244553773,0.5936545102889262,0.5789770907972365,0.5760374351298299,0.5925456325994874
0.5836022230611724,0.5929884168474007,0.6213860273300745,0.5964512113519889,0.6091449620728171,0.610354213780565,0.6526013701185759,0.6116940800702078,0.5763033706232287,0.583739283246644,0.5986642178199496,0.5864212463417888,0.5836444988166791,0.6033428003017028,0.5995638485531315,0.6072859635196787,0.605601108966632,0.5920334282539271,0.6026615004724376,0.5968384450695425,0.5898425561276334,0.5832083068410822,0.5607393693388243,0.6206578514812804,0.5827617803819798,0.5617887074886022,0.5767981567837633,0.5990256822911081,0.593800770245312,0.5832500101034481,0.5728208026305811,0.5965304220796069
0.5864122114372714,0.596326641568128,0.6245319677959339,0.5939003926921201,0.608474851014845,0.6226044249233804,0.6525995908697795,0.6058024193922178,0.5756585599657834,0.5794491494917897,0.5925354814160718,0.5851435234124495,0.5836022230611724,0.5997538217834874,0.5960534869990542,0.6057301363347772,0.6014076006923066,0.5923086138872261,0.6033660458374871,0.5999958726942404,0.5933784557636812,0.5832374748877777,0.5645848431907444,0.6287373976996061,0.5964403609398902,0.5615799688948615,0.5730276577175281,0.5968799520532605,0.5871097806501433,0.5795303241782682,0.5711672326571342,0.6026888179866399
0.5964322615990127,0.6108021512865337,0.6338525498124942,0.6098765418131544,0.6212994511902307,0.6331262825891278,0.6530546222912771,0.6097404619970884,0.5831511361532289,0.5696078923755198,0.5822918927416081,0.5779468643443026,0.5868623738521319,0.5918409851028236,0.5849023389164126,0.595477305167717,0.5994830356491365,0.5842825016012325,0.5964403609398904,0.5896301326007102,0.5905670741159469,0.5869248037604512,0.5623422404796775,0.6263555646090802,0.6022894180615764,0.5700385430363459,0.5764719927741427,0.5940812161971892,0.5901822719038786,0.5819602604655343,0.5887693310941013,0.6021384984868972
0.6064764125410188,0.6157535375325255,0.6431625314104057,0.6194045934510597,0.6303138237719544,0.6322047062467202,0.6608940788856332,0.6068411628092388,0.5758131459798196,0.5681543707319635,0.5831008329221482,0.5815661605094942,0.5899935596322436,0.5909569368870741,0.5805816267868171,0.5840052537552364,0.586352353740723,0.5723677320523437,0.5837195405235598,0.5824426483736468,0.5841151150795317,0.590224725720919,0.5608458611267912,0.6206670073592915,0.6009161730769532,0.5697823657286113,0.5798308635941997,0.5985169070404116,0.5922100960835093,0.5838811489021126,0.592408773817134,0.5986577423319098
0.5999480631788924,0.6088916432286898,0.6312618343323078,0.6064175732034657,0.6186667451587463,0.6345273026347487,0.6633147601284551,0.6127883195075948,0.5653915093051337,0.5699127939001988,0.588762175685686,0.5823915151884164,0.5903006719823432,0.582110444979535,0.5813380377021102,0.5759404444306336,0.5839450382326107,0.5765689670658627,0.5903075826814638,0.58574179658363,0.5885039710684995,0.5906825176566675,0.5650799554358829,0.6106190091074867,0.6059717504152082,0.5860161293771993,0.5784769263996694,0.5980798681865089,0.5866031342744336,0.5816339898112739,0.5992098419747561,0.6077260422572253
0.5966820798093239,0.6121509372138966,0.623733324424342,0.6065984765014962,0.6210922344336163,0.645128502455497,0.6625591710130405,0.6096944304444152,0.5751585354568461,0.5630985606470371,0.5795285725568216,0.5834516755691603,0.5861084975412333,0.5752371903737653,0.5668707205672509,0.5668612138761071,0.5767527335685951,0.5690108911656115,0.5838192723928769,0.5823439503615875,0.5832374748877777,0.5841010247186686,0.5684724412145501,0.608190267244237,0.6013274065798309,0.5830439031436699,0.5685525937122307,0.5924996856772118,0.576330349989022,0.574601728303731,0.5969142469228264,0.618136328261749
0.5968861796604538,0.6065498335987219,0.6077852703161681,0.6000528575210137,0.6216651392125199,0.6586927478312603,0.6464794780647286,0.6114177710062546,0.5750662214153116,0.5559125299684046,0.5611068292197431,0.5769913506454357,0.5898425561276334,0.5661478485248448,0.5525122161703662,0.5485443909701375,0.5658520118901602,0.5606962144993671,0.5664160258807726,0.5746873198479298,0.5726148429211402,0.5768943763537157,0.5651523176643497,0.6030512515747872,0.5964321076131902,0.5792866436033464,0.5649776500074413,0.5871132352808177,0.5731843110296085,0.5723016951357305,0.593434284221659,0.6154888309898796
0.6003755272311785,0.604502534355849,0.6000954951410487,0.5992060308031699,0.6189187374064327,0.6506585447180745,0.6502688977653951,0.6114131290964406,0.5769381083496902,0.5619139236455597,0.5567105355037472,0.5733803365043347,0.5868952880169446,0.567541684631694,0.5484507766684819,0.5403544050877211,0.5599922520992499,0.5516124043114177,0.559472329735751,0.5618990499738048,0.5748016187418975,0.5669516128359334,0.569514110209488,0.6000528575210137,0.5970188677285061,0.5778731908008172,0.5647024643741423,0.5828936770642876,0.5699640275044723,0.5754773142935541,0.599929384969978,0.6189799403383532
0.5966895435981381,0.594378261375972,0.5966109940271548,0.5947889748073296,0.6159836471983288,0.644829900047081,0.6417287119104778,0.6067155919050699,0.5727900587667023,0.5554092710043222,0.5504191525429397,0.5691479259733732,0.5841442831262271,0.5630460324206031,0.5486451104350858,0.5409165513819421,0.5628104739630773,0.5615191010167555,0.5475264509791294,0.5678254996592063,0.5621453843879706,0.562327724560941,0.5606559469965062,0.5902487756257636,0.5894360269816292,0.5694464095031109,0.558746332652262,0.588723914717611,0.5625790132206664,0.5689619802508099,0.5893309900357959,0.6096471032922454
0.5920055712460575,0.5912796610273442,0.5868804307322391,0.5977834850499584,0.6119636947100238,0.6388843492090226,0.6296835180807783,0.5958475862894316,0.5683146599996772,0.5554323591219988,0.548007829036935,0.5546648012713753,0.5736942010505144,0.5552874268406808,0.5412142580362462,0.5332786951669526,0.558913715016443,0.5695886257413616,0.5482668234947571,0.568141358025331,0.5658295350305499,0.5735802421153803,0.5653629703362999,0.5872625357148716,0.5865918544264297,0.5732610355309086,0.5639952143782835,0.5861103239421364,0.5582515589500924,0.5658301017980234,0.5872298631062156,0.5997037787284225
0.5795309129637943,0.5856807677054106,0.5857460112158912,0.5925893765817717,0.6002949232591239,0.6332686700696417,0.640204554784749,0.5895619607820475,0.5747620158547888,0.5633671185864398,0.5473894837439521,0.5552551023248075,0.5772158637056747,0.5549188158040893,0.552431056176445,0.5327311823078351,0.5553243675001054,0.5687155979152914,0.5480676185702538,0.5678254996592063,0.5691898377971571,0.5700804548601299,0.5597222425123042,0.5937472908550027,0.5869059760057357,0.5691153263138917,0.5607445016814334,0.5735895755299124,0.5524853780191799,0.5664811011306333,0.5795094982437522,0.593247266091224
0.5761211109634444,0.5821152829963783,0.5882738400645271,0.5895643708977342,0.6064133765549259,0.628355862293884,0.6370291880451361,0.5895619607820475,0.5714185481337312,0.5633063907967907,0.546263439657211,0.5528509761966931,0.5732403234026151,0.5555115944159398,0.5487923041756727,0.5338093839943141,0.5548449292227252,0.5685557924401381,0.548904104892908,0.5676795743346504,0.5761496834562112,0.5664448332698355,0.5590518767287419,0.5784535107200124,0.5808246068222653,0.5658760056144801,0.5528509761966931,0.57051434385123,0.5489762573493976,0.5628988851030401,0.5719859890330812,0.589958327795051
0.5723050798130271,0.5719921357332942,0.5649999281368843,0.5824214955618185,0.5935392520529914,0.6127100861488256,0.6263908583418257,0.5837008628559289,0.5648034364625463,0.5701134489178303,0.5482668234947571,0.5605351916907146,0.5718371338492964,0.558640704597225,0.5513330030672351,0.5380219175015621,0.5440349877164772,0.5645612439376058,0.5445127987280156,0.5721317334768934,0.5724847283831948,0.5658295350305499,0.5574355329852063,0.5724180254016501,0.5737806456174118,0.5585989539894668,0.5412046531656121,0.5736810231706035,0.5517119184008752,0.5652705679242697,0.5604426773602293,0.5831889368699037
0.5578381363019259,0.5695464891031319,0.5504877081591786,0.5732586395910305,0.5893542575447873,0.6122110742422637,0.6150246047616286,0.5746017468918033,0.5683278720802646,0.5667480347790795,0.5492582429085607,0.5524443391578228,0.5680666320996672,0.5632048052324906,0.550331219590169,0.5380493942445055,0.5449823731638508,0.5652044319028261,0.5445148966716065,0.5725519002061095,0.5715504174419958,0.5614132286575448,0.558412783689264,0.5717383391880345,0.5737688969014478,0.5560271264722821,0.5374446366058355,0.5767934801261015,0.5470214148093916,0.5663416474554104,0.5583886850255472,0.5834190011076282
0.5514530323004038,0.5703955969502638,0.5546799306746976,0.5761356533124024,0.5866552302196908,0.6064133765549259,0.6014073105386818,0.5694464095031109,0.5734495624281928,0.5699640275044723,0.5452972738667533,0.5438416028826459,0.5683472596591587,0.5597515709545525,0.5464393990614145,0.5400486920933263,0.5487233105644179,0.5628849738623284,0.546505826415613,0.5685189751066002,0.5742920522100027,0.5606550869203926,0.55584964451785,0.5738409444687852,0.5703370265660835,0.5487200736842734,0.5365709969616508,0.5632048052324906,0.5544293384293111,0.5560020496161728,0.5545645625731784,0.5735714065918343
0.5487050272656805,0.5718006502876744,0.5582140207906324,0.5664412699022187,0.5785169874707078,0.5935105170042608,0.5922970102235287,0.576756065839828,0.5664448332698355,0.5825163442007891,0.5481196297541703,0.5411730438540584,0.5645980763499345,0.5633759694937736,0.5540396981436515,0.547982394859962,0.5559356180860812,0.5631402948687604,0.5467820768727448,0.5661845651383617,0.5749252151641162,0.5658504012545067,0.5624396821829429,0.5786702878742406,0.5736101595483312,0.5525415915485618,0.5481381940905962,0.5655824321422959,0.5486756061425617,0.5660506656256956,0.5554492400904132,0.5705211546281185
0.5477360448305872,0.5789393741716017,0.5757981579562523,0.5628849738623284,0.5857075846428789,0.5864009315892675,0.600577359582265,0.5805157453498795,0.5653891842327071,0.5859709252643537,0.559177785654606,0.5520448761656919,0.5655912794575773,0.5667480347790795,0.5646448980290724,0.5667471090699916,0.5595850922181236,0.5626066965709802,0.5592354997302861,0.5771784494194009,0.5781330813468053,0.5716986201964707,0.5650007072928906,0.5799652777915609,0.577050877821532,0.5669775753232361,0.5595832537984439,0.5819913533256766,0.5649084640860161,0.5716232666191141,0.5627208938727358,0.5767233268444006
0.559835497464904,0.5887693778103084,0.5874103200660747,0.5659215672568797,0.5898119441179228,0.5898026367950815,0.5884590992407825,0.5826359997703664,0.5653891842327071,0.5781266726881445,0.5628617879060482,0.5521555016108677,0.566251918610123,0.5660626645621105,0.5677183087923857,0.5675031052844463,0.5621129228833556,0.5663076829756549,0.5509385006160505,0.5901376858312779,0.5653179806494452,0.5635263752336824,0.5593999793698201,0.5849197810946157,0.5694982757967505,0.5704466431448529,0.5708865871658128,0.5856036775664267,0.567944173109466,0.5811324160980403,0.5674523491796147,0.5733243343196878
0.5774385197304542,0.599022070603685,0.587368724771751,0.5796714458154146,0.5937458106792801,0.5930873030096354,0.59826707478894,0.5897528836192096,0.5658371813294372,0.5850187978319477,0.566107466356891,0.5596759684383474,0.5729486195102297,0.5597314969961454,0.5624448145255522,0.5694026800187983,0.560855814595829,0.5633759694937736,0.5633717556111713,0.5901492506322131,0.5735494910848496,0.5677551261259236,0.5660626645621106,0.5853605332214865,0.5765468082261781,0.5798838990356862,0.5822533474164512,0.5867956655701362,0.5767320082741499,0.5845652242012549,0.5711280338624227,0.5795959571523475
0.5717742287317595,0.5925470526894691,0.5873538361052255,0.5728900285544392,0.5863166687931308,0.5893542575447873,0.6098911867310494,0.5906095279329874,0.575600451727865,0.5803513497399367,0.5693532600264452,0.5698919823073807,0.5726965745283089,0.5692532491355713,0.5621107797372666,0.5679328632520608,0.560461780836119,0.5564029851686376,0.5694982757967505,0.5898425561276334,0.5753806938964053,0.5641893383729102,0.5667471090699915,0.5913949192632791,0.5795679467170618,0.5800183407319206,0.5851722551848983,0.5864399133436667,0.578014101168449,0.5841949814724847,0.5648605469408338,0.5786142588041028
0.5750279513481877,0.5963408072228363,0.5836444988166791,0.5744283907578331,0.5832260322201587,0.5815138078789671,0.6009894696827471,0.5907957337962249,0.5728179398230421,0.5761665341786127,0.5750475146138411,0.573253501282526,0.5798964965682791,0.5729740394715117,0.5626674243606292,0.5725588305481335,0.5627402950921093,0.5598241288961929,0.5737688969014478,0.5867781110559951,0.5749731796018724,0.5781605497591137,0.5765468268142503,0.5865883763540093,0.5759404444306336,0.5755882776631253,0.5779517758044751,0.5896301326007102,0.5750279513481877,0.5824731691036112,0.5632812942313703,0.576912197791169
0.5714643515532654,0.5999530142882966,0.579449565100416,0.5785169874707077,0.5702393842168905,0.5803963244548537,0.5982108954199675,0.5906095279329874,0.5721137570133936,0.5801589638929587,0.5771068530470456,0.5705562597236222,0.5840023849239121,0.5697242565168739,0.5654614907614318,0.5709217506146905,0.5636888713885884,0.5595943467019648,0.572861614991948,0.5789989033531289,0.5608837001418713,0.5810314643665876,0.5767821116198582,0.5912095343623959,0.5663054148128369,0.5795802844091613,0.5843076411104106,0.5994004027914194,0.5852595505583675,0.5862497152823655,0.5560882492846797,0.5786423793087747
0.5757767434717805,0.6026935759779863,0.5891771585699792,0.5674545111346214,0.5726965745283089,0.589448923149278,0.6093216064485967,0.5965069428174303,0.5712246011951775,0.5761478273771422,0.5880472223677427,0.5766297791672486,0.5896537596026389,0.580352869620581,0.5666727306446295,0.5752233739964016,0.57590303014436,0.5703929108532151,0.5818549721435303,0.576420540141671,0.5743245821507831,0.5811425107300354,0.5772005896710133,0.5997833307529923,0.5702438770894178,0.5834387438307126,0.5896209779154618,0.6016815829783806,0.5869248037604512,0.5831426461460762,0.5544072443174535,0.5821716470356281
0.5865937205712322,0.5986672377171087,0.5863928378597807,0.5766561454242841,0.5757767434717805,0.585790657749865,0.6072991030296722,0.5958777716519988,0.5745220510003685,0.5753543598922075,0.5874453827075816,0.583677378344343,0.6031797351550306,0.5764987932714426,0.5592421915755922,0.5797928223543749,0.5702782936697159,0.5732797026994487,0.5927253662476277,0.5833016836452409,0.5820211577609188,0.5833521589668672,0.5764987932714426,0.6055276618799982,0.5694044936307187,0.593474776640786,0.5986328967031977,0.6055239122170472,0.6060562159374776,0.5868623738521319,0.5568285177705885,0.5868906163550643
0.5997227698562793,0.6085877763650727,0.5831707319686332,0.5874141550274002,0.5877489811377187,0.5956025860187,0.617655314461531,0.6021138548750857,0.5784494726364877,0.5765140878188232,0.5991053139925646,0.5930955152339196,0.5997227698562791,0.5795398141602858,0.566856725648761,0.5865058141429961,0.5689954858029806,0.5730020410730864,0.5868461530568528,0.5830430236992681,0.5832130035703589,0.5883290719603255,0.581596414938825,0.6088777049998209,0.5759583347430193,0.6021996672183766,0.6080484222478036,0.6213958845538056,0.6155168920679084,0.6020813991724552,0.5622897050799935,0.5938531137946506
0.6081803026435548,0.6157473374136073,0.5889770810475685,0.5954747071258063,0.6017417966048513,0.6029244663083274,0.6240326314673189,0.6075314737709084,0.5863166687931308,0.5802152059339479,0.6000328046574098,0.6062644895855085,0.6092297704339102,0.5782438591071993,0.5663054148128369,0.5895219128729581,0.5754806279767146,0.5761356533124022,0.5962317571841315,0.5925843906523106,0.5896351290125155,0.5888887732805679,0.5767027519643357,0.6125271791318633,0.576429780561403,0.5971302486472184,0.6023291090952339,0.6269721524813084,0.6332591057891374,0.6020813991724552,0.5740996674207954,0.5919104224607543
0.6090385850430511,0.6183990407653912,0.5849226205680707,0.5983651766399433,0.6024681266227293,0.6128270360410392,0.6238616717363921,0.6071901398483074,0.5988643574456087,0.580209277754827,0.6001999640446878,0.600204570603277,0.6017720361345589,0.5799177985838158,0.566682973614983,0.5931621714879838,0.5732411618955687,0.5783672807479783,0.5984132130610296,0.5929819617480927,0.5990458892189704,0.5826621579351715,0.5921431413394028,0.6164128125822255,0.5798055553365683,0.596076521782334,0.6000393635692465,0.6176938005842185,0.6361160625170302,0.5976749918568933,0.5794491494917897,0.5884571183340744
0.5968952971698502,0.6079040993444205,0.5755304120837119,0.5866528194543408,0.6019243537852654,0.6188214304689837,0.6338525498124942,0.6075825872839408,0.6041591349029125,0.5724913276063228,0.5934620012575725,0.5938858648485521,0.6045236585270088,0.5795116943562107,0.5690668657414094,0.5931999924880285,0.580493035965154,0.588730992637588,0.606389285779564,0.5837008628559288,0.6092536651889151,0.5952391041649164,0.5991292916849784,0.6230216799522765,0.5963754094987052,0.607869533112305,0.6035802337533459,0.6173969843328316,0.6392948829206182,0.5962190442384865,0.5769619725941727,0.5932419469053497
0.5900364355025396,0.613937034317401,0.5820457472096076,0.5830161285103371,0.5959773253690528,0.6221657098786477,0.6311642745088057,0.6027097745930637,0.6087569568785031,0.5729400314280313,0.5869800531790473,0.5940767876857143,0.6117910385135293,0.5840268295929956,0.5712396178586325,0.599929384969978,0.5784327277958918,0.5835447231006345,0.6077845114482147,0.5872691023249427,0.6120532602712279,0.588681951343924,0.5988017500017261,0.6234522044216633,0.5978043952870141,0.6013102028804977,0.6034469684176106,0.6204002421117812,0.6399388025867708,0.6025152062289765,0.5773876884449786,0.5947390839635807
0.5870713535694013,0.6103815757815573,0.5862286109368885,0.5796305354106026,0.5955724006561326,0.6309506978512651,0.6314181403905041,0.6021983755443956,0.5961002238654062,0.5792988187399741,0.5936305524433453,0.5837441212634874,0.6115166073304792,0.5817435895618984,0.5781224275307933,0.6060122719516171,0.584415974192361,0.5917780301316053,0.608338034101357,0.5902273583397016,0.6108138704057602,0.5820252892165533,0.5976695706949688,0.6164933293034714,0.5968609690914438,0.6000673762441282,0.6121828443684346,0.6240843393256236,0.6478923288461883,0.5998903613661078,0.5805157453498795,0.5996834269058893
0.5864009315892676,0.6165120425298519,0.5873122303572648,0.5804026908673735,0.6055790606541975,0.6373123407775905,0.637229387410081,0.6028298483115221,0.5959438586051875,0.5787797420019809,0.5864951261542047,0.5867365053080341,0.5963719469147236,0.5878466190130748,0.5719919128497521,0.6031672371152121,0.5780103410949978,0.5915428531418025,0.6032814551824065,0.5906048109590627,0.6026466233408992,0.5734665944320199,0.5872070246128394,0.6118021600087746,0.5947838945886506,0.6026009093665523,0.6160741437338404,0.620908922314947,0.650555972955387,0.5993104997068089,0.5867776400718491,0.6021555591869685
0.6030958420446292,0.6290234812855794,0.5902200087469944,0.5873122303572648,0.6063789430219432,0.6402277814638544,0.6428739797159144,0.6072365794868204,0.598488419454899,0.5823610925024096,0.5889770810475686,0.5940578785973138,0.5951108321038417,0.5923765309312155,0.5750279513481877,0.603632581555388,0.5752493644385052,0.5942266463013289,0.6030279628247759,0.5961712883248375,0.6089698644968679,0.5806896067003753,0.5889770810475685,0.614686646029109,0.6029280361903385,0.606399400033893,0.6162702405730549,0.6116285423586235,0.644927515438616,0.5994682727985433,0.5959851513636243,0.6113740582033502
0.5968871035871581,0.6205275343455411,0.5966343238956748,0.5905670741159469,0.6129611478454458,0.6395096186748577,0.6395096186748577,0.6100115809134483,0.5978459484847948,0.5795928575144742,0.5756717480180782,0.5837900157017667,0.5918877430900353,0.5794808491503181,0.5731228683352774,0.5992918063909566,0.5730442622569484,0.5910977947916283,0.5933624886429345,0.592624267438798,0.5994617428405514,0.5858550336091878,0.5894064693322374,0.6098765418131544,0.5965964236794179,0.6062347027953736,0.6163086395081406,0.6148399650107748,0.6415370973628793,0.608625284579674,0.609010753423763,0.6115327263677782
0.5991017867748905,0.6293138529429718,0.6063275402813516,0.5930787852396959,0.6068236624043651,0.6417590762201527,0.6421249431261776,0.612762463381385,0.5945362121711573,0.5863794677055346,0.5760374351298299,0.5837441212634874,0.578014101168449,0.5856079621960706,0.590411736856015,0.5991551689937942,0.5804244449595255,0.5972830181897787,0.5798240595560529,0.5827433637277383,0.588440500033625,0.5826822904941938,0.5821555115594618,0.603381381816844,0.5902273583397016,0.5896408826306507,0.6034998456888926,0.6150899719832345,0.6263908583418257,0.6063503312930137,0.6091395102017259,0.6116891279555775
0.5986102636185406,0.6310086625498676,0.6124437272272458,0.5839779177602745,0.6029708635103338,0.6449915928258558,0.6450308527806955,0.6008139064962564,0.6029280361903385,0.5828168836167206,0.5688298712509311,0.5772158637056747,0.588762175685686,0.5902294846518693,0.5936208099982109,0.601327406579831,0.5906825176566675,0.6055679083934484,0.589373448060572,0.5838689756975824,0.5919542878068048,0.5769364713983962,0.5761211109634444,0.6020350019704487,0.5906095279329874,0.5791500735813223,0.5972049310931954,0.6096800939559565,0.6208368906830523,0.6035802337533459,0.6085843246567216,0.608190267244237
0.6002664367460683,0.6264809294407545,0.6187408460290018,0.580724984375457,0.6058982121036333,0.6359746122336313,0.6476453109129204,0.5928059734232506,0.5939665782069601,0.566690340156211,0.5660888784585176,0.5669144343573937,0.5813892112806578,0.5863395066811431,0.5903028607883116,0.5880829172273649,0.5773549494495513,0.6007761964887711,0.5828701925527017,0.5943924737350956,0.5893542575447873,0.5799087383388953,0.5790893107766377,0.6064554124226705,0.5935193788248991,0.5852153314288674,0.5996755884247184,0.6069365358428929,0.61220457768473,0.5999627635272566,0.6018563887583898,0.6052625443110142
0.6122464331755462,0.6303867560004054,0.6186667451587463,0.5937963752339435,0.6001383267137473,0.6299841777884286,0.6504820271794902,0.5969095095289738,0.5874158002556369,0.5702951106936913,0.5687016274760279,0.559760791356839,0.5867647556640311,0.5864212463417888,0.5971999094327777,0.581158535531578,0.576584241100524,0.6017798616150193,0.583312626017167,0.5894300550782995,0.5865918544264298,0.5896516332904711,0.5732869972663538,0.6144251489370407,0.5935288331926762,0.571840175339481,0.5868804307322391,0.6068793134715725,0.6004704864456146,0.6001003415978795,0.5935392520529913,0.5991395430789077
0.6142682963875342,0.6283280050611936,0.6241776021146798,0.6005048127374002,0.599022070603685,0.6262793915551029,0.6505411844004362,0.5897318576322333,0.5801619467834189,0.5731923121987031,0.571295243480168,0.5659510431788873,0.5843163054722574,0.5871466924727845,0.6022063777067503,0.5845405598050364,0.5694464095031109,0.5856807677054106,0.577006624680097,0.594455955547542,0.5831942164802191,0.5841151150795317,0.5772205403633364,0.6078153373678864,0.5823915151884164,0.5615799688948615,0.5829077674251507,0.6161317439834288,0.5966217224699608,0.5971467949460159,0.5958727728230185,0.5950835820295342
0.6079689540223775,0.6213958845538056,0.6146411727369558,0.5973530835838571,0.5952687202277146,0.6213961697550556,0.6570882108369596,0.593709469854958,0.5834387438307127,0.5693281057220066,0.5791490256844845,0.5585006779154831,0.5755452150943376,0.5861516255735553,0.6050609155045086,0.5862497152823654,0.5690668657414094,0.5866860489913669,0.5734071527519344,0.5892576763931545,0.5766297791672486,0.584044660679419,0.5737806456174118,0.6045236585270088,0.5748016187418975,0.5622082214405321,0.5754806465647868,0.6091963165008534,0.5964240680163209,0.5901822719038786,0.5994617428405514,0.5907541803464286
0.6079450592673727,0.6212994511902307,0.6074903760320802,0.6035712191572667,0.597944850379632,0.6154888309898796,0.6501615087300587,0.5969095095289738,0.6001999640446878,0.5686562023455535,0.5811210977929147,0.5736592803226785,0.579333222026641,0.5930374341656615,0.6087525573880074,0.5892576763931543,0.5697307444747769,0.5861932313215161,0.5738273194811505,0.5865748928165166,0.5767794499822928,0.5939949416631374,0.5765140878188231,0.6073833658258091,0.5740891830077692,0.5635263752336825,0.5678249808523186,0.6096561992009517,0.583739283246644,0.5900364355025394,0.5961712883248375,0.5888329548485343
0.6113411121861512,0.6210140010748472,0.6083164094919612,0.6092645499690227,0.6013169618544831,0.6123857320052202,0.6459277655890552,0.6003755272311785,0.603632581555388,0.5657423953113909,0.5784708229089485,0.5729094562224354,0.5849591205192838,0.583677378344343,0.611480155096085,0.58963984598644,0.5732869972663538,0.5880992516635153,0.5838510889353111,0.5971846951622728,0.5824721864515596,0.6028756883882965,0.5796991861712997,0.6175011025033629,0.5743582907007816,0.5656901065144688,0.5684626429634724,0.6217951762642895,0.5883230856845788,0.5914312103011837,0.5961712883248375,0.5859991677672862
0.5954094969993172,0.6047852255740157,0.6108344778813479,0.599521655017447,0.6028370636589283,0.6184556284040251,0.6414846611571186,0.5938040188259752,0.6097643567520933,0.562327724560941,0.5822358379076267,0.5759130490584519,0.5922942941153149,0.5830385819679729,0.6084962397755566,0.5883845755982401,0.5749683788206735,0.5886749767127457,0.583325654666967,0.5964512113519889,0.5758809870436556,0.5896301326007102,0.5760374351298299,0.6157041343169952,0.5676581119873516,0.5592632635127458,0.5612601775240748,0.6250451490195443,0.595202119534418,0.5866933772757122,0.5926238659582566,0.5729367024181777
0.5992630156299433,0.6113632437608315,0.6165038549633464,0.6065336457814398,0.6001383267137473,0.6190400386412277,0.6479513516211167,0.5871709760162095,0.6033813818168439,0.5606834182373697,0.5896516332904711,0.5731923121987031,0.5977585140673919,0.5829828299101254,0.6094385563408102,0.5855960391513656,0.5797842765888779,0.5878197392525,0.5937301748901535,0.6023396430424857,0.5870713535694013,0.6004704864456146,0.5831435255904781,0.6280373890535818,0.5752707837832275,0.5596759684383474,0.5660045205120553,0.6184753857133845,0.6021996672183766,0.5795959571523475,0.5799935156144554,0.5732403234026151
0.6013122418345818,0.6134110852906486,0.6200784893093012,0.6028138181231442,0.6030512515747872,0.6185688712219833,0.6475518135591474,0.5904396984629259,0.6090950162198997,0.55541618220808,0.5925470526894691,0.5652530434899998,0.6043341839485936,0.5813032591878936,0.6003598957474091,0.5810083510175775,0.5689012745868421,0.5827950372695311,0.600441999932559,0.6153440114594821,0.5905670741159469,0.6002710583275394,0.5862403015791642,0.6274022773258885,0.5896209779154616,0.5766544579125886,0.5740233829970628,0.6176152239949968,0.6077228659986728,0.5822358379076268,0.584044660679419,0.5795963163109907
0.5970691615684802,0.6049813573303394,0.6149939617144126,0.6065984765014962,0.5927838094012952,0.6213958845538056,0.643507274253885,0.5968871035871582,0.5968861796604538,0.5626623187933909,0.5927599538388012,0.5685701913976231,0.5979512763366203,0.5855489636674797,0.6031310054475428,0.5798776917592936,0.5649084640860162,0.5800839883833679,0.5932941929675444,0.6098477919440268,0.58626416777776,0.6031904826509964,0.590106792607437,0.6247658719241719,0.5900149348127786,0.5837900157017667,0.5828373130250379,0.6148207659125897,0.6078602509062794,0.5813032591878936,0.5769913506454357,0.5887693778103084
0.5858936885228075,0.5950124630282909,0.608440532153063,0.6026615004724376,0.5764192552163814,0.6278280358672744,0.6377344133231333,0.5996093445351885,0.6060641542113976,0.5716913734338206,0.5927397879084108,0.5648575359184781,0.5994397852130308,0.5870815391922265,0.6041330253959136,0.5869094441097799,0.5730442622569484,0.5851308798612768,0.5932283570028236,0.5954793992740495,0.5869685629090112,0.6048468959229879,0.5834387438307127,0.6227517615867021,0.5831184616916969,0.5871778019345888,0.5832374748877777,0.620908922314947,0.6147482767020067,0.5800352189325313,0.5870815391922265,0.5936252070588212
