Fp1,AF3,F7,F3,FC1,FC5,T7,C3,CP1,CP5,P7,P3,Pz,PO3,O1,Oz,O2,PO4,P4,P8,CP6,CP2,C4,T8,FC6,FC2,F4,F8,AF4,Fp2,Fz,Cz
1.6736183759638679,1.664264947339993,1.646220538754712,1.6557139367545708,1.6407183888642252,1.4765575457446416,1.421129666479256,1.5412372593366015,1.6582592080270353,1.6222186402179677,1.5948071946008522,1.6019921452880466,1.6765852183034218,1.6074856595288902,1.6147566212031634,1.6515151785853077,1.6551109398314063,1.6462646869912423,1.6442069369839933,1.6557194588142,1.6075898498998324,1.6521696271900788,1.6298287193029344,1.5788268795978486,1.6068298979689908,1.6421010057911842,1.661436779395877,1.6321512513095047,1.648813970339016,1.6595573352701427,1.664154375117116,1.6559020496188002
1.6618046592051432,1.6503447697805567,1.6150450716725315,1.6523813164401335,1.6288164029394498,1.4214613743917572,1.4151456092110488,1.5339585294988591,1.59044550271686,1.656810517821477,1.6934922644423498,1.6579856376895212,1.645325158243155,1.642116816124606,1.6570398875480425,1.6819058268225004,1.6901394852559732,1.6784918384954313,1.7058705593553354,1.704475574166579,1.708441222268424,1.6715521618756626,1.7004982837793425,1.6631545961338499,1.6428332638484873,1.6955505653540859,1.6857332993598109,1.6841312156192116,1.6984484156235582,1.6872289214942398,1.6660895554688142,1.7034845857547316
1.678652559037359,1.656860873617416,1.7256717322281083,1.7443068853575316,1.627655927924686,1.6034430917823903,1.54491535721762,1.7222625209193583,1.6274336900355884,1.7372113929406734,1.7226271806408053,1.6631888830180979,1.6259294797563217,1.6625915312391888,1.669234099604414,1.664285762131948,1.683956585153937,1.6460519372505156,1.6693703950238519,1.7017990136024759,1.6655586146157717,1.695590206202024,1.6656719437820682,1.5729149501271782,1.5968080067604866,1.653945107024221,1.6732097354160322,1.6568014071174062,1.6909294909399752,1.6790663339101397,1.6566185380856866,1.7039375976628872
1.6407721609002754,1.6653710767142227,1.6076733686038065,1.688055429632813,1.627293210633712,1.568840147606554,1.5199664425080581,1.6831567615948848,1.691165595077144,1.7056194460516034,1.7613048083183267,1.691080461092403,1.689638916710142,1.7340850179145988,1.7571634827550444,1.7769295977773825,1.8054342227704863,1.7711265993096375,1.72584425921067,1.8021244496479951,1.7402623582912362,1.7353868097689924,1.695101393356734,1.6129431268484982,1.5806661653530587,1.6533661056977813,1.6308956567277317,1.6558895447005293,1.642541214567344,1.6311759220360524,1.628490838050083,1.6538217035027976
1.6164006744767336,1.6179244960324706,1.6128394489946163,1.5961565814034748,1.5773079408394177,1.4729094066314636,1.5467849776210318,1.6130367197488509,1.6674741536096793,1.7342305999216618,1.77001348260025,1.7140567415306955,1.664068589747238,1.732162694672883,1.7653534413675294,1.7759262299099106,1.7869885688341758,1.767571539944122,1.7095731613374696,1.779946659944089,1.697635903757307,1.6856898961554667,1.6681508251697839,1.6102683687653718,1.5858537364433845,1.6789462378056146,1.6188171253792825,1.6206784840526176,1.58604678964051,1.5725822955218245,1.5886907280879812,1.592567226698031
1.6703063807311131,1.6678970761740202,1.6773953554601315,1.6456884855837863,1.6173626226589257,1.4889580992133056,1.5103571006874323,1.6066281416819188,1.5995663578264017,1.6833523959674874,1.6393254641292463,1.62950349852085,1.6671331967910141,1.640017352288192,1.648969401302601,1.6939875049758712,1.7105332796513764,1.7218132995145767,1.731106270712507,1.7041881553988687,1.6811534202597873,1.7153651612297744,1.6961816903838625,1.6265686100133638,1.6661385877735861,1.6717554707124969,1.6596099525755532,1.6682071523965265,1.6602520810445023,1.6527724103827797,1.6444523316017823,1.5515788237976487
1.642405477243544,1.6452406160551565,1.6285663471359997,1.633574199331937,1.6261917262191867,1.484185889414773,1.553852829815212,1.5366408250390242,1.5626693443615607,1.6573578331971426,1.6773919313051615,1.622028273219073,1.623203851534111,1.640636165312843,1.6808019976194393,1.6924193501618556,1.66387153797489,1.6687884932000092,1.6035814822337415,1.63434788040605,1.5626073499388056,1.6031168947378136,1.5906584389960265,1.480463342808916,1.524666744748427,1.553019662786726,1.563582027611213,1.5456120967630214,1.5849953712529157,1.5919989942632848,1.6185008932242613,1.5056574360251862
1.6214554804382189,1.626005047207662,1.6446822765317828,1.6083848147305533,1.5857664642613867,1.4844188591658185,1.5361400141417092,1.5646237666216933,1.6122204403933542,1.6346350232519409,1.6557943376198152,1.577777157994139,1.5310277055217627,1.5855545338391583,1.6161702051733489,1.5744209481621108,1.5564124342255892,1.5839667277090557,1.5215552311554206,1.5296763372107856,1.514827551453081,1.5619069399661893,1.550047068556365,1.4812809897318637,1.4748830477718669,1.560790236525625,1.5623601122829027,1.5377320718663672,1.5799730574374344,1.5756450109713522,1.5975679069820645,1.5557557068093961
1.5707466657040388,1.5716839841410062,1.577340794669138,1.5722013640855899,1.5979109210073374,1.4067197355819416,1.364066871030397,1.5522388430608438,1.634892686604842,1.5882418588695661,1.5658872926411354,1.5769422813664382,1.5927285809275225,1.58516235320831,1.5579417822117507,1.5345959544403323,1.557612413275515,1.595560198135262,1.575113429409661,1.5413516608503683,1.5390165480411129,1.5964146104634218,1.5987521673442033,1.5104836060441544,1.5350661141546424,1.611000241472013,1.5896055359013055,1.5992248751384552,1.5651319885184531,1.5600037807936302,1.6294728372697558,1.550037212283713
1.6251026430252336,1.6030771988921253,1.626485762606452,1.5680503041196672,1.585882466548731,1.2831643132125705,1.3502135964206232,1.475481432465644,1.5926019041150288,1.585831281590438,1.5398122549439122,1.5751135761960013,1.621030782494421,1.6080437497028537,1.5888765592485412,1.604281016528599,1.6127833011772137,1.6387637175759073,1.6676077087520595,1.6287912224626122,1.624820119584623,1.6383218439096168,1.656788924485797,1.5636914192920444,1.6134733990269419,1.6505686059865798,1.6079877154160829,1.638800092475318,1.5843511529494891,1.5918703368304303,1.6111942401656452,1.581020201845568
1.719004987550215,1.7150524107631304,1.737402557425127,1.6773472461057877,1.6333013330901875,1.5459344284404828,1.5456581694384066,1.6433382479060492,1.665296692279131,1.712428131486424,1.709554645770822,1.7437785943530721,1.7210963110707702,1.7050245571338436,1.7148281885318133,1.7007697446283656,1.6427085948046063,1.6381511047408712,1.660591903520849,1.6474205423257378,1.5773288897648392,1.6401087443014477,1.5763399774655735,1.5225225454161142,1.6327904121829286,1.6206276409092106,1.6274949636642775,1.6867518136138344,1.651721179538071,1.6795994482751155,1.649211369185587,1.5511666306604897
1.661890579583053,1.6558592814659443,1.6910252285743317,1.6472055846725548,1.5963985711151158,1.5886825632804558,1.5700995692460105,1.6084081871596976,1.6244753968351249,1.6999094861696127,1.7170415733438869,1.7457393672448154,1.6818886804897004,1.7371988761985944,1.7430550381820946,1.699717719391885,1.6768810351941625,1.642086267286247,1.6640783665861176,1.6857735028626468,1.6627921680445794,1.6401346945536233,1.643041640202268,1.5663844432562086,1.61065824188453,1.58961728313581,1.5848880355512347,1.664900683319259,1.6027963508744307,1.6418879430221303,1.5949832936725898,1.496023301380431
1.6356137987420831,1.588419513693009,1.655544344780991,1.5536190812588926,1.6086721937126076,1.5600569576235437,1.6892805435540512,1.6557182099509906,1.691588040643046,1.7601206185978484,1.774358837499307,1.7603758904240197,1.656840811664643,1.7734590335176006,1.792486995899709,1.7597960907123567,1.7594098615683156,1.6628579242027723,1.6966807623545728,1.728128727822561,1.685042175303644,1.6751784397342289,1.659885990889404,1.6095690535581524,1.6155484250282455,1.6503461563969974,1.6397456922782283,1.645550005857687,1.654502700260165,1.661979044175333,1.6446071648881901,1.601793015638719
1.7098790427029649,1.666478785820659,1.7387495794064718,1.6567874004916905,1.635731948531901,1.653057594290089,1.6188684569599943,1.6466138680789475,1.7568949870277173,1.781575493515927,1.8070549922670756,1.7694143009189134,1.6889691199272112,1.7587305746927493,1.7724224088964555,1.7411827696260516,1.737224736325151,1.667787256303602,1.7066903317603934,1.7192426562898968,1.669688566412263,1.6791437885743032,1.6309011371711242,1.6407124382011384,1.6471367074193992,1.6658263521101047,1.6877310573237527,1.7164063087358288,1.6947938431259961,1.6932724149196887,1.680601267482475,1.6074999400048877
1.6618711091777503,1.6228420205712437,1.615127153947494,1.6583580446445776,1.6007070483827297,1.5622761560573994,1.506339670092618,1.61172856398856,1.669800045980125,1.652154651366101,1.687083855831978,1.6611606848272744,1.6702793024504259,1.6930650825706297,1.6944809642742062,1.6698932008229468,1.675687005005368,1.6848927046091469,1.6819804293742395,1.6827156267788344,1.638959786693072,1.6565671355180613,1.6165078722331512,1.5798712533861061,1.6105034812761878,1.606265245208961,1.6248279588063115,1.6315871086607283,1.6141314795185122,1.617432826405703,1.603955770096848,1.5428586059962077
1.657342659222197,1.6340019841254976,1.5678348548024303,1.6082387046249738,1.6523202642421722,1.5252774833323404,1.5120949684489922,1.6261073271056836,1.6148771831883353,1.6166149662039426,1.6583735437543357,1.623792032086072,1.6410360983229826,1.640564475958537,1.6383766516052898,1.635825511223246,1.6351709084361905,1.6250443265221732,1.658522653027565,1.6695219012867166,1.6545008224963829,1.6581753000668655,1.6661028732055145,1.5981414344420946,1.6425989287226583,1.666055734098529,1.6741189214823033,1.67107809493477,1.6622879918292237,1.6591292633870758,1.6525457878056726,1.6850126876237481
1.596798979951316,1.5524910537355006,1.514747191832125,1.554159004124973,1.5918257700276737,1.3980091091556206,1.4753787585389055,1.4949389208208268,1.606692041985536,1.6340991711051678,1.6315013224414951,1.6128563088114183,1.605451668693604,1.6173445455125623,1.6097170713027678,1.6064181168381517,1.5943262984707096,1.5522591423013643,1.6412049424219128,1.63491011161716,1.6183687415616361,1.6477866044152276,1.638922488792762,1.555985118434512,1.5593070276079553,1.6335879971241747,1.6290396265859548,1.6458224489926225,1.644250016478753,1.6232497016380463,1.623752348343575,1.697406925514404
1.5921186458595697,1.5712903223950596,1.5167629166518648,1.5684986227173332,1.6163839244868523,1.3755480391633146,1.3616881872448718,1.5568904217796395,1.6554367958222116,1.7335809159400961,1.7157296370986084,1.750484207771965,1.5898750402679747,1.7013815852024836,1.6512303159482804,1.6342002133208533,1.6394818025267437,1.5704856198344117,1.5898138808749327,1.6179233965179747,1.5862261393601773,1.5994470786722061,1.6442212417466318,1.5660819660985854,1.5934720244021772,1.6725512527407986,1.6582169878879656,1.6336805222601631,1.645834732220789,1.6418553953541766,1.6708636250356612,1.7177174462602605
1.630142082610137,1.5982348794141923,1.5563925362173034,1.5779284983906534,1.6235150329142385,1.4049838111466084,1.3641114123482776,1.5863987790411622,1.643597077468196,1.7128847788803596,1.7374446150679146,1.7429905562485128,1.6419205415506195,1.7065707368889214,1.6643891171399485,1.6417678556044712,1.65907738466973,1.6136886907887342,1.6362737424276703,1.6392899777524996,1.5927571714374464,1.617152895168798,1.6125380345434512,1.541182751958454,1.6107431980381177,1.6449690151515122,1.6583394787779697,1.6429940511628565,1.6255026987835977,1.6384210710129843,1.6390700040501922,1.6525686914220818
1.5500078843770786,1.5223392895998353,1.4966514608970116,1.4958204225884288,1.5292377231372023,1.3252149012561873,1.443402607864158,1.5197822882870855,1.6259091817067919,1.6269685028693348,1.6805203138846783,1.6831159615464089,1.6398615599018944,1.6924660198678556,1.6605442093568232,1.641632738237467,1.6514060682427922,1.6405992545251074,1.6736153529728481,1.6452797927345766,1.5992968621179529,1.651005205023668,1.5726766072527605,1.5075865415119118,1.558751851831944,1.5581484070120715,1.5703739615472205,1.6079538883414706,1.5467638598579367,1.5724745700932807,1.5670047969082972,1.617375240902873
1.620738930267558,1.5872201301077176,1.5745748367618084,1.5524951123362485,1.611790370487458,1.374122713134266,1.5505577193563589,1.572517752430948,1.6977233740657496,1.678882977841416,1.7073944098294715,1.7222253102861889,1.7135028916573978,1.713146603463241,1.7009518000262005,1.6769446636104954,1.6771340077637236,1.6636578064897793,1.688611250876929,1.6740044620311099,1.6004395824560123,1.6657251065252507,1.5676512598604067,1.5709932634030306,1.522797900818516,1.572842243106878,1.5874039585533477,1.6717658377571307,1.6073067337497906,1.6182709115754639,1.6199693359604905,1.6679082127370706
1.6411183958224467,1.630431537669529,1.6955520190401547,1.6049245180271872,1.6355891895965209,1.4734971781684845,1.5787234144109858,1.5632707443761231,1.6624345275546104,1.751202550712557,1.7542465231381672,1.7175479260304851,1.6679725304132862,1.7101288557378773,1.70653082837873,1.6678954758430706,1.6773972317061105,1.6812505187212667,1.667591137171357,1.6470999144302896,1.5788836059286337,1.6168409175591536,1.5192722760069224,1.4846139224052404,1.4799319648905622,1.5626238417162126,1.5721490027672482,1.6623148128808856,1.5967232324379301,1.6366711095734283,1.6410737348330826,1.619225789704251
1.5828493880118357,1.6261422403364274,1.6750039708317535,1.6054894424770434,1.6404803890143163,1.4632175422754514,1.4859066988028566,1.5129655063885468,1.5897477717891642,1.6905662015784262,1.6917309066188306,1.6311923325126496,1.5827550048253298,1.6008355208007878,1.6171893460517153,1.596194963675724,1.5977323573307358,1.6109532879895865,1.600757999776629,1.5833778727929515,1.5361269486042284,1.578536052841389,1.5867030533365518,1.4244865499910755,1.5150182115115416,1.6432529408558956,1.5809153835263803,1.5836514521657268,1.56980498112011,1.5648730051932989,1.6390881855536492,1.5786331370145574
1.574833706854104,1.5989376668610005,1.5162112505430538,1.5421145717846372,1.6175635948854608,1.3816250027658517,1.4737164686172122,1.6251592460187252,1.5673083786932795,1.614428665147951,1.6053207846932083,1.6105564509226207,1.5905331298446,1.5836973750808616,1.623113906304685,1.6454789159120464,1.6561357426002843,1.6873583556018015,1.7151570298785355,1.6803626305974875,1.6155849293131148,1.6763780812303417,1.6497643304784948,1.470599409929815,1.5391364692637801,1.7091115212632795,1.61342078253924,1.6170918720605334,1.6253748263247263,1.6187293380815972,1.6415363759613977,1.7386146072396496
1.6764288103639928,1.6712175339678463,1.6254661723797672,1.634492473066163,1.6696259960711755,1.4901775212014923,1.5466066682898074,1.6206851311908061,1.606552283907917,1.6647652105497286,1.7019563673357707,1.6834862549267862,1.6143992136257717,1.6866029489714411,1.6720704656598504,1.6618931122693872,1.6577266082305702,1.676158591664243,1.6538204035037722,1.6719912562369896,1.60140825766899,1.6445981072625024,1.6437577166954005,1.5227194588924895,1.621088329466182,1.7416210836210448,1.6787105541616076,1.678245656664249,1.7068031674200712,1.7045010475972715,1.6930901053278489,1.7538147083666373
1.629144877481843,1.6461295823823174,1.6463601412234041,1.6430771464167238,1.6162024281957794,1.576989839617059,1.5974403359956675,1.6557710802699441,1.6191696869903023,1.7580667991137453,1.7765875256932058,1.7357613076556482,1.6464920998930503,1.7291293527279263,1.7393990660238592,1.7334978289190994,1.735350341829183,1.712169463023169,1.7041529787455743,1.7531269502371418,1.701205719063178,1.6517201466133211,1.6643871503003205,1.602998268127129,1.672670335667223,1.6523483203948923,1.6508814988647174,1.6968094000430818,1.6456111648761333,1.638359596500768,1.6277653304926194,1.6658704800290234
1.6778494726607398,1.6890031078832002,1.6877543738412357,1.7112163589994074,1.6718088915791858,1.6171487848800254,1.5658917901215177,1.6936807829045775,1.692759883304513,1.7863461545944692,1.7454275111651132,1.7546439941440806,1.7037728613612177,1.7093195583674168,1.6989059970129836,1.6972579253792361,1.691327407951885,1.6754626864358095,1.707602139227081,1.693489892702656,1.6658583932343713,1.730102236768356,1.6441023927011575,1.540589668013809,1.6244047028890194,1.7106832524369915,1.6943441146942098,1.6508454413471407,1.6797931581000707,1.6586372757407326,1.6993445936565241,1.7068864121703764
1.6466555091302775,1.6588566983677806,1.603820724538659,1.6570384077751859,1.6563915413807642,1.5332891856904376,1.479098010829206,1.598980857763969,1.6981851240078332,1.686245636089528,1.675568356672396,1.7132664547008942,1.7402604372601183,1.6823392296962127,1.6953117302943852,1.7217244938647163,1.7209717031847296,1.718422907268572,1.7629966221829898,1.7340689770239766,1.725046253230904,1.7790019029375008,1.6966247132845633,1.6006844253951449,1.6331688682796004,1.6460233335361254,1.6436856309699548,1.667106713377536,1.6388884656078007,1.6521261855584566,1.6519655152294408,1.6526757331184976
1.630581927999,1.626375724405216,1.6058192390694916,1.5921767479761668,1.6021473520231921,1.516101597693682,1.532900556818887,1.608859623265269,1.6066274428406289,1.6423409904512618,1.6974337730829319,1.631306656852101,1.6834814669472709,1.67663281068175,1.6984635883507373,1.7231716068098155,1.7262852393662511,1.755690782957151,1.731573414616298,1.74112176916989,1.7402127625484347,1.7149397444487244,1.7251923494303971,1.6366741591117684,1.684359351678819,1.6534027626501833,1.66786941415788,1.7102087946401139,1.661434091915061,1.6870148167587282,1.6357164990562116,1.634679814022093
1.637870183641597,1.6049495528188884,1.5911965169969793,1.6471294004354933,1.5725076077975202,1.440758688419106,1.5244661782793658,1.6008136647196851,1.6518461010715684,1.6547761597120734,1.6696739372966503,1.6775133712713206,1.6845313160795061,1.6976691990750599,1.6988533554068976,1.7336913348512428,1.7079570782801208,1.7426665578335665,1.7439427264093021,1.6870225607850189,1.6673537999663117,1.6815271329434365,1.6842103283496561,1.4691784374730406,1.6561848951065088,1.6725065934392018,1.6811566769739692,1.6480935457361308,1.6500233985094674,1.65341064928009,1.6336765380075153,1.6220956333587075
1.6377194314417032,1.5977821675765533,1.7038540491712941,1.568884586154217,1.5384645791863454,1.5547678062015993,1.5358550500780699,1.6269989048277373,1.649890837384576,1.716756548581687,1.7328201789082605,1.7148191661316523,1.7183082172224688,1.7022329865069021,1.7171680560807792,1.7101238227905384,1.6828524187544411,1.7125847319095868,1.7452490900961186,1.688068552090301,1.7076365475389756,1.7478402436829,1.7083493332721846,1.5330732464009156,1.6560012571550913,1.6695889312008947,1.6401683968404435,1.691000761624587,1.6263373379631052,1.6216768859564015,1.600621375177992,1.6226083690603232
1.6495884526334597,1.6302644361019636,1.6699620823196546,1.6221909645408807,1.607127129186757,1.5584883391107271,1.501499388295644,1.622954942816074,1.617457846478621,1.641983670882775,1.6942827419783513,1.6517446503121453,1.712828835933034,1.6665508112207454,1.6803372478457137,1.6957824942291067,1.7067149975972224,1.7552880154585104,1.7284891033117618,1.7221686137739318,1.6833723843461885,1.7125370686752663,1.6408178452497753,1.56947051638243,1.6409607820777228,1.604111608160694,1.652736122230402,1.6990133497474276,1.62655740866801,1.6494940758224976,1.6192100342532691,1.6048783388605647
1.61502314958185,1.6108434983186883,1.671583707253709,1.6404980233574649,1.619432545217348,1.5796194074683598,1.4832768286228148,1.6198712675413425,1.588125231148435,1.674635153404272,1.731325116299335,1.683866618942574,1.6768796616815997,1.7007028934943242,1.7069456522806832,1.7141011735874039,1.7195067035563683,1.724075260299253,1.7425197825006529,1.7776811888084363,1.707663290367832,1.734280571420148,1.6569095660321258,1.5934073295830107,1.6457887931892172,1.608296762955704,1.5990770820960585,1.6551212114976843,1.6216290709648524,1.6436006108698586,1.6073635311612164,1.6084737105545235
1.6101182125612838,1.5828387691618166,1.5952905474356411,1.57528535840929,1.6142709522561798,1.4667780403752841,1.427365679655092,1.567891116810526,1.646982677410087,1.6978030035582112,1.7250860311804797,1.7166837385561944,1.7288720268877238,1.7351230349981026,1.7223387152356646,1.7058596696713624,1.6979452366126295,1.6855023507069855,1.7358346175855728,1.7192231355921916,1.7326966626022644,1.7388582112423947,1.7058884733786686,1.6546304157303002,1.6320238943454028,1.6720843637289247,1.6244639195897967,1.6240786129035096,1.6319144015733,1.6195281897949771,1.6247913808352732,1.6584327359205642
1.6427254308596337,1.6392318603275147,1.579860713264258,1.6578388101293378,1.6443040293941449,1.5008177421878672,1.5896602413748069,1.589378252454827,1.6646764858520195,1.736621709315786,1.7352865392379175,1.6968724473465564,1.7158288393211434,1.7069839178117587,1.6967627315478768,1.7035015207956332,1.6934545668560013,1.6900644975852228,1.7288711328972433,1.691035809445369,1.7321736377179262,1.7312072165882435,1.7246332757035665,1.6935560650001806,1.667227774462415,1.699296307352857,1.6731380986040472,1.6650919948669305,1.6576294397940294,1.653509055801228,1.6611397869364444,1.6443234785673386
1.7050292949807961,1.7139921928678175,1.6826194842861024,1.7272018429791418,1.753525004222102,1.6329632879975915,1.6645855254313886,1.6994290590101147,1.7470918610603683,1.7727558255938782,1.7175599629635203,1.7479272534207133,1.7294225302062116,1.6975815152324394,1.6963224116086177,1.7197649876547243,1.7054877614031325,1.6957238115896298,1.6961433616149717,1.7103864135101585,1.7084104524473402,1.7363064692052628,1.7327000619311668,1.69713392540492,1.7267477760269319,1.7061883726325782,1.7205409577534463,1.7287399787639581,1.7311303567227618,1.735257317813447,1.759383893077998,1.6442832028279837
1.7089662081750165,1.7369024808620688,1.6290968131571413,1.7425201872785883,1.745394691651535,1.5037193646747282,1.5008243823702034,1.6606095681125637,1.7110665793403903,1.6719621879187487,1.622000185165435,1.7417971564125079,1.7317042413715917,1.6791752929624362,1.6522332602145564,1.6648736418543593,1.661966974729142,1.6687656468406251,1.7233421748127316,1.7044712122099102,1.698319619569394,1.750992489269274,1.709447814334921,1.6630977505227886,1.642721235620671,1.7093482028787794,1.688592622076089,1.6770026669444051,1.7155539169617338,1.7083681983066843,1.7690077890134104,1.6842558601298976
1.6230008833277905,1.5937566034996222,1.603831065453764,1.6046463901774501,1.65567081617518,1.4867419427576616,1.5561683619777265,1.6661047724327833,1.6904311833216898,1.760169997605226,1.778432601110481,1.7704709438604382,1.747528336149198,1.7721948885932577,1.8063232079330933,1.7880166386273426,1.7553884974604503,1.6776394439233315,1.7448171837071043,1.7483080879845443,1.7068324299572224,1.6727089320492905,1.6371479805805835,1.6279679253036337,1.5956273493320903,1.6295370998657603,1.6585143735928014,1.6554030872230299,1.6304072359792519,1.6556504789202018,1.6410810492781758,1.6317260277412013
1.5438925768106329,1.5355548023592787,1.5794975832450737,1.5954407094093297,1.5982209224757542,1.490469482469618,1.5346247095537242,1.6398040727783993,1.6854502356273526,1.7514054083774437,1.7733857866347933,1.763777145220367,1.7235676423220396,1.7546424083972345,1.7800823979047513,1.7417149532911471,1.6806309192558155,1.653441200825788,1.702867314435048,1.6848144074780298,1.6710732208066676,1.680668422425614,1.6216052159402898,1.6177631933460785,1.6007083193265037,1.6005698053263666,1.6152514496164492,1.625517748199249,1.6019826730424573,1.608882560214806,1.5710243002811115,1.610566262384206
1.6383611811655274,1.621720931683243,1.6639087061336466,1.6002105560123014,1.5043863359909504,1.51738898936429,1.5588938149463736,1.6312226064256323,1.6549198872843018,1.693256313606989,1.736129135499406,1.7110227260107294,1.7599198298460166,1.7548033455814651,1.749011962348154,1.742503719305444,1.7164703911649661,1.7213928238296388,1.7402279789971264,1.6783380479768608,1.6332865152573302,1.6959307765611238,1.6086154305099458,1.6608171842148396,1.6158137743966943,1.6071531731347852,1.614929144017591,1.6386039988671537,1.6051993563462055,1.5953111828764972,1.5917263451832786,1.5574142531184836
1.6826250640677756,1.6878341666315415,1.7190745512083212,1.6530058827250744,1.5947820090847813,1.5521088035949173,1.53798916167637,1.626850100510107,1.6503776327414883,1.6697063025233256,1.721837759486543,1.7050306448898782,1.7399645825663115,1.7445793756431176,1.7352680538148628,1.74008531210844,1.741186869560743,1.723106812269982,1.7358376688446806,1.730232333374967,1.683247248992532,1.6926961615558185,1.6431607888155106,1.6635789891990127,1.690559527851106,1.6147610540042754,1.6620514661567887,1.694224639331007,1.625774789117918,1.654922779589918,1.6445955049420855,1.609207292307706
1.5746923475668777,1.5667443106680656,1.6467916619634684,1.5572186333383202,1.5472097469165882,1.4816259436960473,1.4977863530599196,1.6343631878122153,1.6088844296555267,1.6641590244623272,1.703192530015715,1.6715456988615185,1.6639361868808966,1.6962014071205807,1.698048948038979,1.7111308065700044,1.7196245473475835,1.6770648638960772,1.713229990693759,1.7413082618203348,1.6843307454013383,1.6803078902642743,1.641851428116023,1.5625605804007694,1.5340116908547252,1.6099180059615752,1.612801807715441,1.5947709764130982,1.5659299636847634,1.5934368626875755,1.6047181012865188,1.6359339828353172
1.5811066812397965,1.5838355504451394,1.6062624293655516,1.5742099638339762,1.5228673717723928,1.489535831415852,1.4997275727218866,1.6738398630719837,1.5474556270029556,1.6025875096067295,1.6051028917512764,1.5581144882877724,1.60889701807261,1.5946223329132387,1.6120908536845842,1.6156647534597486,1.6208255757689725,1.6071321941200816,1.6567290228874647,1.6629264517008013,1.5955219865556693,1.6422645514719372,1.5800394966376234,1.5584840448352477,1.5627468823741448,1.563115904925472,1.5611296667435843,1.5975715693046721,1.5434869395451698,1.5655504752418214,1.5460389350472024,1.607254008493894
1.553382160353655,1.5693713916649032,1.6295265735112268,1.513260770337496,1.57329983295648,1.486045009448315,1.5162344535436771,1.5826005038331779,1.5935346688023218,1.6163852616864967,1.6053979979296815,1.620950270326921,1.6087005701035588,1.627691652311949,1.6309772295788043,1.6152429193642457,1.6120965664323268,1.6072695425082266,1.6652814050985578,1.6549069691980933,1.6399806191759536,1.6340665395183567,1.5978273574401285,1.620837533397934,1.599532616547576,1.5927536854569861,1.5838641246848195,1.5865545140089483,1.5328827112256214,1.5454000412544195,1.5835468267528234,1.6079449299736641
1.548067092583827,1.536231424295328,1.6107379901323005,1.556051692850972,1.5805591834549737,1.4710635755354733,1.515318367959637,1.609312745780769,1.6530367979800114,1.6695520317431614,1.6531126666366387,1.700606805136902,1.6564499805633195,1.6701837639076338,1.652063627453078,1.6415280076977063,1.6455855589297388,1.6423785024412623,1.6630981568332694,1.623966838081464,1.6206759932512436,1.6412223966491701,1.5992601799377273,1.5562247862538088,1.5995733612938094,1.5871031935176125,1.5980515313115766,1.598896865961361,1.5563008488180539,1.5721999670786826,1.5833122243812798,1.5951726244012807
1.5533261540163845,1.5582479415440693,1.6205096402024446,1.581088730597052,1.623665935508739,1.4716008673763727,1.5368195323197062,1.6625777449046915,1.6214176572281418,1.7045038058571158,1.6900978944553047,1.6662175639709407,1.6388722778454872,1.6725473394517736,1.6743058056626279,1.6697369229239152,1.6576272806587993,1.6293195835300605,1.6653110018070052,1.642789149533214,1.576204319215177,1.631872589413159,1.5547996627332057,1.5038968892185147,1.5280697892466444,1.5468971215197567,1.5363456462172516,1.5874780414710916,1.5313875391740612,1.5655725278358077,1.570958472536751,1.5570597032863756
1.586121576842443,1.5790170700658583,1.6093134138280643,1.5870494979775074,1.6004303352575813,1.5148125678799744,1.541014300532237,1.6573284898696394,1.574197193269305,1.6892198848111668,1.6889111816816837,1.6590467582715773,1.6193738188373217,1.6500926440369625,1.6470187401735799,1.608665277226369,1.6128986356028479,1.6278242557612759,1.6540156667166088,1.6609803937853975,1.6077926567402459,1.6372683656183216,1.6184633880219275,1.5969869163296848,1.5667256207476903,1.5475402320390674,1.5466981639107127,1.610847637777517,1.5380618585183123,1.5588794138237596,1.5499323369208216,1.6499984193038273
1.663201673955661,1.6665021577141352,1.699700787795904,1.6584634596066385,1.6012014378570183,1.596677306955845,1.6548264989016601,1.7033829223731525,1.6325665867101593,1.737771896253932,1.745618881734592,1.6834846201952631,1.611840734867644,1.6890447954869774,1.693323202447813,1.6923341345641232,1.6950517445415214,1.6685474506780582,1.6848770883932185,1.736131353360368,1.7092532391769315,1.644276682551449,1.697329998961771,1.649109490345562,1.6633177844587186,1.6465951813307078,1.6477977933857066,1.6707091205124294,1.6466928547349722,1.6546048184396507,1.6320527722236406,1.7031403280447297
1.7153457717576073,1.7056778444222322,1.7424478348576862,1.705439325634937,1.64648755013226,1.6481993285990875,1.6263507474420373,1.6631512293317745,1.6640325241507898,1.7361857489124746,1.7338414530672352,1.6878547360302325,1.641057539471871,1.7131871685193876,1.7260084430775904,1.7027009507947477,1.6888263917989206,1.6538502103348414,1.6527891193042272,1.7178740610770513,1.672273730395918,1.6537825124926488,1.6767878503131457,1.613638604527845,1.7015846151326455,1.6725848534441985,1.6982253704268004,1.7062799896532421,1.703499056933029,1.7168571304315066,1.6841007011652087,1.7162290297483895
1.733153262819329,1.6939054768534971,1.688222333118635,1.6890343459597987,1.70830215760996,1.550941479903863,1.5634905267711574,1.6512515435524924,1.7184602359704648,1.6952360376144844,1.7196623865263427,1.6890070031803848,1.6864503868759642,1.7000306181948448,1.7133190274256156,1.7132984077995634,1.6899920716569772,1.6956101685103264,1.660992366836147,1.6625511712831735,1.634639342439081,1.6855422775800564,1.679344220058815,1.5960096229462133,1.699434152182316,1.762917521964414,1.747350917129569,1.7108307232598605,1.7236977901959838,1.7401147493673972,1.7672464618619779,1.6775011866841192
1.6522761770689771,1.5937918072508996,1.5982159051455394,1.5752053688819376,1.625689682485252,1.4194376857568114,1.520201164813109,1.5987918247229345,1.6411053050522013,1.6156925212993445,1.6691233382799964,1.632170452020777,1.6885617560146136,1.653609521810377,1.6869837629242626,1.7525729546181124,1.7676818878100233,1.7827131238816973,1.7725982429075173,1.7908246966822765,1.7649448670795858,1.7473760042195627,1.7602119237418297,1.671494657411275,1.7282954368697554,1.7314727381081632,1.724734177241167,1.6869658447562779,1.6838564710461936,1.6719258320610224,1.6799520608232308,1.6246985499722342
1.542181370651477,1.6110500799265155,1.642112016532371,1.5780335712642655,1.6121094154859197,1.4504166997891585,1.528135177232258,1.5893905994073696,1.6784699161866994,1.7159451771635843,1.7268988712826072,1.6965337695083276,1.6398033730534503,1.6926253544864858,1.6728000352292443,1.6617766351836174,1.6775505689438097,1.688809333894626,1.711238536807111,1.7213075681268342,1.6816276646595112,1.625291578484787,1.6339140258005325,1.632357680071166,1.6319403767844345,1.5705253838280664,1.6033758017401698,1.6884986373759516,1.5708189938684107,1.6000332297917608,1.5807487884131093,1.6171874893777436
1.820296937244576,1.806747543645675,1.7953625337605874,1.7884335045956306,1.7710877681091453,1.6776191356793781,1.6928981056023813,1.7350603701344811,1.6922030130443295,1.7770833240874504,1.8050743962191578,1.7294606669656631,1.6365525814057458,1.7228918312226889,1.7644285377469386,1.7779151615117852,1.7558774597712388,1.731812107824373,1.705029143790569,1.7902153701116716,1.7124142089215204,1.7196338767339188,1.7207580279224313,1.7819423028349486,1.8129464378070286,1.7207256699651843,1.7796282841220952,1.8542870612110562,1.8180056875151605,1.856718140043259,1.8106587060690165,1.6851435291138304
1.8378220819411424,1.8135120053933682,1.8124251381291472,1.8041935468587902,1.7733736613768114,1.7229050278982045,1.7244578003493343,1.787070258953501,1.6638260916003598,1.8180333304360534,1.8019631381732095,1.723196567543177,1.6343586101014498,1.7496491916408006,1.7873811216546482,1.7976966632897102,1.7943683778207424,1.747625707993384,1.6742249583725646,1.7851959444232046,1.7009582349782424,1.6708204515517722,1.695623445034314,1.755892014574743,1.7964874626035476,1.787126596475942,1.7881858329522486,1.8417906688065857,1.8149622632049045,1.8442138613771926,1.8141786713733832,1.7204116830383565
1.6685761023040517,1.6637378868310237,1.6476810157923192,1.6470811747818763,1.647979821722813,1.5724453301818704,1.6081578832589891,1.7183543708886748,1.685530035600857,1.7099553205923097,1.7246871458382245,1.6789363563276516,1.7543510286807857,1.751793634806328,1.7697776668527754,1.7843865092125655,1.7869819385429628,1.7617308208329667,1.7448186065107458,1.7455419788925954,1.7098092185367437,1.7362854678094528,1.6683928520248135,1.6696103477375523,1.6787965347881146,1.6803281514640762,1.6560723526792402,1.6749065075194645,1.662268918880088,1.674232605317273,1.6487844576256423,1.6915186267165947
1.7527675971108763,1.7554503226839808,1.6985315750966081,1.725086727692977,1.6898100027359775,1.603221282247407,1.5913910288823847,1.6462996807965309,1.6451454852522363,1.701432758777727,1.7421616720087465,1.6813859817649897,1.721816141917967,1.7427648979454815,1.7691182881733705,1.7842753575302628,1.769550311049901,1.7550494685721816,1.7504653489378006,1.7440194404221492,1.6950410293213314,1.6918770970065273,1.651961749879654,1.6908828290708797,1.7274373698197556,1.6895217407960965,1.733952389810866,1.7466237775905913,1.7601135922119284,1.7571861454147941,1.7445680306759603,1.6046941668388235
1.7511958024729628,1.731302139045126,1.7283670924623509,1.7434743887718318,1.6631417285011665,1.658435855420163,1.5938001972367875,1.6613873354744058,1.635770340824174,1.6974220743770785,1.733050540664481,1.6762749791738845,1.6338656748831313,1.6773067029778537,1.7040983458601295,1.7306021030007155,1.7179239634936634,1.721694717942689,1.6786880414011531,1.7245851737012736,1.6806640185217026,1.654692729511134,1.6713429968591722,1.670308404752257,1.7321418445842671,1.6866702695851603,1.7429898853093948,1.7585326261106267,1.7384014854942778,1.7581600659647676,1.7261783588301913,1.5718968918710547
1.6571353305140613,1.6471319257773143,1.712917091234476,1.6837558465507643,1.6323664971081413,1.6434136055274584,1.5592647075485278,1.6695114669707531,1.6705977536982208,1.7209714878457163,1.7626646504340164,1.7114565870873466,1.6471121234486836,1.710398513757872,1.72686658791473,1.7137418281191061,1.6771212885477251,1.6434738672043723,1.6152098011805829,1.6944074645876612,1.633303738975726,1.6180194927531326,1.638610135143311,1.665310988915529,1.6688021402326032,1.6419048510133474,1.6526173918804599,1.6783670744909254,1.6425362322462627,1.6499377548752687,1.6230998433757775,1.5938274527260232
1.6219046422329932,1.6073232826665282,1.6832679771631107,1.611536324580228,1.6108327701815899,1.5279426943873344,1.5878559963777144,1.608952020000834,1.6296694699376024,1.692952440522868,1.7040308426712096,1.6476123656443098,1.646993154290129,1.6732924890787526,1.706223943856027,1.6854149351745549,1.672295744906808,1.6486689955322962,1.6292615333426568,1.6230126208983053,1.5750205394197607,1.611509996020574,1.5541537566312003,1.5527312436748983,1.6220818359385294,1.621311968483144,1.6175482902628915,1.631132366825005,1.60963431775465,1.625530888119255,1.5845777595104749,1.5866548760190085
1.6888503520015288,1.665065460483892,1.6620836633959943,1.6522976051854246,1.7027355252740495,1.56628530178412,1.6189236973959762,1.6293389954583886,1.7033579541139159,1.7119952208747262,1.7771288666023504,1.756224047970937,1.717906780262059,1.7828826252051957,1.793829461690389,1.8020635110404626,1.806932087759554,1.7735279436214353,1.726167667668902,1.7486387487355262,1.7055670406913526,1.6773177606088896,1.6957008545653576,1.673064649666284,1.7483947347566822,1.777541432147123,1.771029109648062,1.7561464549619163,1.7368374363012042,1.7531163685812248,1.7075479834121796,1.667319012247705
1.6817438907323539,1.6702938121748072,1.654180776775368,1.6838670411840175,1.7379971967383538,1.6002460866785926,1.5724580961404884,1.6426988267721463,1.715468124255315,1.715647096120418,1.7688464427210178,1.7256881424203916,1.7578422683128436,1.77679922025055,1.804928433603944,1.831177278906113,1.8411318289882939,1.8195593388731321,1.7890145631146535,1.812690135768246,1.76410297893802,1.7708860482018718,1.7631188089587977,1.6861797960521874,1.6993547343813158,1.7660138757548898,1.7215520046020223,1.709201981039512,1.706996838613147,1.704506652882039,1.7174686400481034,1.7312186232696232
1.5911981480645616,1.6256468689419101,1.665279766720746,1.6592809831344357,1.6996329157628143,1.6185403934804048,1.5277013706593425,1.7280740147396327,1.7049247357186383,1.7289053246844488,1.7569721156606475,1.727353271664268,1.7713639724117292,1.7324574677581177,1.738936658578653,1.7581583890063257,1.7630865707671555,1.7481319123016024,1.7632039269877298,1.739139838928743,1.706526640361079,1.766081700729955,1.7060760373052886,1.5354873217395562,1.5525227744346475,1.6342666099341892,1.5951707204447372,1.5773885060801576,1.578053091679637,1.5735499444573404,1.6318432850076088,1.6804420431646658
1.648909829552472,1.6660764147221574,1.6811124604018766,1.6623871067817586,1.6877005438527035,1.5801905525049227,1.5715233973640221,1.6993606639226324,1.6576120882613692,1.6766567208596788,1.685266018187551,1.6702144582099367,1.6898051484528693,1.6840482619362733,1.6836903101521836,1.6722865435046308,1.680355794974119,1.700174470894339,1.6661220611120355,1.6588719990064977,1.595326211794873,1.661612007530882,1.6014888562057852,1.4933396883618788,1.5700910967084243,1.637119192873616,1.6034906982045163,1.606479101191083,1.6182718024247682,1.6256396633533938,1.6391280679627047,1.6345320225584588
1.6948222076921187,1.6807565964904692,1.6736981934854833,1.6813572704187516,1.7139286344568083,1.5535075554707614,1.612755425559581,1.6487961380512997,1.6842376472218954,1.7141377308484715,1.7414069238100511,1.7543631510784399,1.7388724182524864,1.751840111204601,1.7441477583425886,1.7368545677026874,1.7269705398097128,1.7507536143350708,1.6922165274430017,1.6889035099046434,1.6669730142551356,1.6948113581364173,1.6569630552474115,1.6053464964664133,1.6565381341366785,1.7025559368812477,1.6639303352815071,1.6665696976107374,1.665404604584042,1.6708503494396096,1.69697771675131,1.6406607497598336
1.71258689003055,1.6842207489156644,1.6649534830568846,1.667448205971257,1.6988514189152213,1.5604089640232615,1.5800908637197693,1.675950713896418,1.6975174672046234,1.6552537249444421,1.7044494197280218,1.683882986906473,1.7190191394990106,1.6958694293298786,1.6984647796756487,1.7066949849973159,1.6997302518460682,1.6899824985478267,1.6837338178700054,1.7286850882490254,1.7126428372644722,1.685086736286016,1.6951023637051854,1.678623803403385,1.7064827306446437,1.7255495701460324,1.7212466290628816,1.691251175368797,1.6837945497448796,1.6921499376721287,1.7168059735088226,1.6841246409195367
1.624136567225279,1.6195303851508636,1.6265389099526222,1.6402323227319195,1.6557844513121813,1.494333329275378,1.4928159985311555,1.6569981749330673,1.7201337251855564,1.6955286652538084,1.7130922245370488,1.7255054977005324,1.7483020587936846,1.7401249656845392,1.7372274483048482,1.7438909889435397,1.7571787044551492,1.7335859930518078,1.7176687344480241,1.7456239228464359,1.698651720255954,1.710851320315513,1.6838853067259762,1.658524507039172,1.6706988897198454,1.6775707622625295,1.6610028580312661,1.6739952450413635,1.6279611203214532,1.6367158280519125,1.632991877870401,1.6794390877488097
1.613806855885667,1.5955584240300547,1.6748546722889799,1.6184113858245652,1.6547473296087682,1.4756592012819385,1.6186085938314967,1.5474633529413142,1.6806281112719643,1.7655904101180961,1.7654252806636292,1.738925780219539,1.72874490533152,1.7384658437136467,1.7429565708446004,1.7467348094180282,1.7751225851375063,1.7390425477211422,1.7140605935258866,1.7380904159044321,1.686829717476571,1.6868121721787128,1.6453074552294773,1.6545397045481145,1.6602022855834087,1.6686471192378725,1.6967564557143093,1.6898010989188876,1.6877687085125224,1.6725510136597952,1.657009630458826,1.6351770145369167
1.61591110740446,1.5991141843438539,1.6864620101099004,1.6319315630691178,1.5827550738822866,1.5348452258107212,1.658891035532437,1.5424914707334456,1.6209806623398089,1.760586695427478,1.7676892601303613,1.6773277434883453,1.6559818221300926,1.6918809418872998,1.7052440368820851,1.6946416128629491,1.7141622500746432,1.7063129013256009,1.6771256207418637,1.7165664323497407,1.6551891941292771,1.6363596079644867,1.628086389579482,1.5730302709118316,1.6369644630515687,1.6261252169214218,1.6306616920455792,1.656468710622687,1.6132727572727308,1.6006379514364981,1.6099739943466749,1.6016387113612023
1.6848058676687099,1.6905689021914934,1.7122584813064219,1.691102020575646,1.6939481841204185,1.5513117856782428,1.635483316214212,1.6217089409875025,1.6561464462104218,1.6797514164255196,1.7184542828933256,1.713683772621988,1.7086426065270854,1.704771051167621,1.7004947541100164,1.698687580705892,1.7085940872032408,1.6951881534513151,1.7067706569278296,1.7347157098460522,1.7082133230157526,1.695239215116541,1.678671979064252,1.6420891315278914,1.705155578641624,1.69811901645656,1.7103125017013365,1.7045832385125288,1.7028524958485332,1.694304082689856,1.709414616673805,1.6292950741585965
1.661297366046317,1.6784984027297165,1.673967747440196,1.683207796302365,1.6597015385488276,1.5416823328325933,1.5956588343866667,1.6071731376977956,1.6743629705458611,1.695705064321695,1.7162760813481874,1.7320392020880522,1.7366922386129242,1.7113227579280146,1.6854565745476764,1.6839277413587157,1.6846579614522108,1.674307889106476,1.705553448441126,1.696316401466384,1.6718813660696688,1.6992992828021303,1.643415207411455,1.5916794029340453,1.6867632687286118,1.6713776388116566,1.6680913140511435,1.6805416412596745,1.6670451374332615,1.6745259332652902,1.6536315373667967,1.6281439738839147
1.7073769781962074,1.6966078039488413,1.716115125281253,1.6799139263242868,1.6532244459597236,1.598763318644154,1.629196412642609,1.6285026241807035,1.5819967896241511,1.722816804159096,1.7270635537278345,1.6898470919922945,1.676918854760346,1.7107873579367794,1.7215484520152955,1.714240579860578,1.717912763044336,1.6918501734818348,1.656316008439083,1.6853359629511808,1.6486389180184935,1.6478470047692675,1.6522164946214848,1.6096446470272376,1.6980029956188012,1.734211395701792,1.6966458527631356,1.7312345806808331,1.7113207665995693,1.722304753458695,1.6760927060541153,1.6427198565455343
1.715079327281328,1.7404974331615335,1.750904148871514,1.7477660559143575,1.7148798594765793,1.6522167118375688,1.6141023829407517,1.6570879284436226,1.6548821326145702,1.7185809149362106,1.7174364947583403,1.706277891944727,1.715892478516442,1.7152222328292452,1.7209775058829742,1.7363444172256244,1.724998154291863,1.7353564887885378,1.6969832591576512,1.7273746560972554,1.6988817696095442,1.6323078884272748,1.6835157495389712,1.6886884121288173,1.7080213682817835,1.7135285950071855,1.7360969110033784,1.7369854386158874,1.7324485340675526,1.7384808768264475,1.7360269649264457,1.5571049351724906
1.6526484781023034,1.673201746933063,1.6825824901213007,1.6655414326962272,1.6602765909296473,1.5073801076587376,1.496798874373271,1.5169382490716874,1.6316495256134544,1.6653752351691855,1.6972378783299022,1.6453016395753923,1.6792724344477483,1.671674834734884,1.672421187500842,1.715270514404739,1.7317243707672447,1.7389635643728927,1.7259399502683492,1.7646209670517647,1.6868594580364213,1.6174802777252675,1.6681553866649392,1.6212224658463092,1.6632685324142396,1.6970098634541355,1.720490350736735,1.665252694376804,1.702052969848449,1.7019401490250974,1.7250120619824283,1.606774672657196
1.6421992983824203,1.6067892575603495,1.6699481105676752,1.5997712821857881,1.6120965648907382,1.4192099223447237,1.3956697432266305,1.5111542147041805,1.601452710367728,1.6017741802045153,1.6244540758874464,1.630281133862322,1.6263234425087338,1.6289003640129733,1.5907834751408783,1.5546355670816006,1.5657560877794283,1.6353023125806654,1.6454662477441693,1.6369000226677781,1.5888573295952664,1.6164489264698259,1.6434559224537124,1.5995375274472399,1.6853838130209464,1.697957671013078,1.7159628942188772,1.704922571164325,1.7107656039841919,1.694754522664034,1.6572562053445417,1.591496133546788
1.637123397501075,1.6108176990324048,1.6961772749662933,1.5736102995023247,1.5926950167744507,1.4747522836970972,1.4090912705682082,1.5178759609366321,1.5582891126655358,1.6128436462096212,1.6188464810641396,1.6326002777644733,1.6000900610542794,1.6284874099331266,1.5755947648721904,1.535618759965178,1.5560451238293023,1.594581914476975,1.6443305412002363,1.5864807771502183,1.5699537442619889,1.5782335619506946,1.6256082600137003,1.6047973938153783,1.6636785819774258,1.6492481738659568,1.660056843886433,1.6917674210149956,1.664559765624743,1.6625128766538932,1.6109027585109446,1.5284393786365233
1.6240234489257739,1.6369546752622035,1.638748874526422,1.5903059142106666,1.6431602646492034,1.4261259465944023,1.4152920251893721,1.5413503749789657,1.5446911353986381,1.6161012535822077,1.6079303547924277,1.6318268702829124,1.6203274745909886,1.6420601931070422,1.6077309734674337,1.5911067058172454,1.6126241365450424,1.614556968534111,1.6597134957650495,1.5967800689749299,1.6185074039003826,1.6193405221858654,1.620627130177565,1.5387871067282282,1.6255522495109533,1.6002501252341197,1.6411055764311495,1.6654833096176085,1.6379006041439577,1.6690545960807661,1.6297608457589627,1.5775860088572273
1.6563119240768647,1.6161901549628712,1.6026066225266313,1.6026547284985395,1.6545588883132376,1.4175538485713544,1.4903379735035462,1.527545074929957,1.5768176921228216,1.6154815835975396,1.6553920404396991,1.6595427642392468,1.6320038576896372,1.6668844555441187,1.6446507262490315,1.654192623451813,1.6657918645942695,1.627540743171466,1.647093346217073,1.660155009834025,1.6470122348993443,1.624304779065481,1.6417912106051087,1.6099557566876495,1.7007858720975322,1.6522744537646898,1.6988050509470038,1.7150170844035222,1.6821264791434967,1.6926374861022377,1.6850104263290937,1.606875005241673
1.669005024092555,1.6089203242057497,1.6647052789938939,1.5854438129340658,1.5519884592631121,1.5176381853006327,1.6263996235887557,1.6359865900441541,1.6497012647234355,1.7362186976043839,1.7482842999643666,1.7162977332943699,1.6888996527993778,1.7187900776052258,1.7121173673697487,1.6993349095763564,1.7020620166675964,1.6562120945671364,1.7089123520851668,1.7619561184609005,1.729061479137657,1.689043501428224,1.6963843796583715,1.7692471227847033,1.7733392685629417,1.6600953292725358,1.7442057947521894,1.7934788023206416,1.732449239415853,1.723265776470722,1.6344662584295098,1.5624161840524646
1.6436464521639087,1.6346356891920202,1.658564401417325,1.612653457681349,1.574627266225358,1.436609046958649,1.5835059241221,1.6138694776282119,1.7356644190352248,1.7417388693500153,1.7473718382913077,1.7378747807419186,1.742991714624057,1.7325449845843295,1.7217548038980197,1.718202530981886,1.7118723442645976,1.6815244237687663,1.685855364811996,1.745833331913575,1.6817874622727451,1.6887789614458135,1.6224676010045562,1.713911839278759,1.7052371246992666,1.5757522407708142,1.6849724769941057,1.7233199243276394,1.6755476892938124,1.6726156920159383,1.6049001696774787,1.5423028438875919
1.6564793152973403,1.6485833608466032,1.646385589228583,1.6471854008835691,1.6279997611145591,1.4256245153412432,1.453722020708333,1.5665922854410583,1.6743876902204797,1.6901076478720045,1.6890107639426701,1.7195223042657033,1.6200873528883737,1.6667425994535932,1.6496949797507552,1.6477651147234311,1.6439881362195283,1.6057237100839474,1.6265566232730422,1.6826247434453394,1.610912207969347,1.5916568576119345,1.6227769710860416,1.568480658351834,1.6865580500232038,1.6526224897039004,1.6906454812720602,1.673725578880083,1.641688918475228,1.6630094585218085,1.6412649337564356,1.575723142012309
1.760584693899426,1.7741857101800227,1.7715764981127642,1.739715382718615,1.6821799441171057,1.5795185992884524,1.5974662727933873,1.6333766060174284,1.7004130134157631,1.7636863092045256,1.7187039974441018,1.8070174600715603,1.6583443852374724,1.7457039316023006,1.713376775794251,1.704634044976273,1.7148187434300501,1.694109917793199,1.7661142874929479,1.7543437282364156,1.7815651198119102,1.7503752511715511,1.7763283220350115,1.7447200900697584,1.752873362253363,1.7264393038943162,1.757059734590225,1.761834300291337,1.7304688413993392,1.7637890642065666,1.701073146997511,1.6881103831481306
1.7388405326575451,1.7354842803594297,1.7480592643499426,1.665284924260814,1.667415735716514,1.557706112469364,1.61016726915785,1.6680906504455855,1.7340440380758013,1.7866231127600911,1.7656701249009183,1.8027318338060923,1.7071606155908141,1.7529638456075936,1.7252547039364121,1.73314327220485,1.7275672569458007,1.7138357440093566,1.7522329355435011,1.7547559539666453,1.7620208131382131,1.7402936220539982,1.752928598336818,1.761908086152063,1.7643777647230838,1.7357951807305596,1.7527143402250198,1.7666017867993753,1.7478171808622716,1.7700344065280942,1.695772616740361,1.6983609478053643
1.7751197242931005,1.7433811392806071,1.8091218573579608,1.740909903888182,1.7081502102688213,1.6834179370481759,1.7444511300817922,1.7408713833671776,1.743349340678253,1.8026884500475022,1.8530146168615549,1.7938820482517501,1.7392229164124375,1.8016169430261553,1.8165525159947127,1.812851650054757,1.8146303149647753,1.7771788860366495,1.751753100141228,1.7963190108466278,1.77304361623025,1.7388163766923768,1.7606376476130774,1.8142937289879006,1.7794203763756702,1.7158742619816625,1.7525409364583626,1.7984544575894337,1.7584072167966227,1.7663720941441137,1.679700661989809,1.7103490249081144
1.7476838721777719,1.7409981932627583,1.7870206449561583,1.7342587876291067,1.7183141153385668,1.6685086174695034,1.6983751573351586,1.715853541178261,1.7578691293678277,1.771589791403257,1.7883170778159847,1.7984006777957875,1.76618527045112,1.815925487210699,1.8057527127090687,1.7884377636228992,1.7902843610080208,1.759036507794325,1.749625649355967,1.796807791368601,1.7865792789093364,1.76935842871323,1.7375236168000097,1.7799834119876732,1.7363478701769135,1.6886470464250303,1.722214409908328,1.7997579708454599,1.716533076681762,1.7002157620319456,1.6975314565825774,1.718847489691267
1.6884944340006038,1.7159491011678272,1.7949649622589183,1.7137018571198162,1.6554236321590938,1.5787289664160833,1.6579750072991088,1.69607037370736,1.7430510685446714,1.834248754566053,1.8434566233981091,1.8385004319023468,1.7477241898209614,1.8529182011178558,1.841378193688125,1.7998600975108776,1.8024930720083125,1.7564031034965308,1.723191679216732,1.780295545714368,1.6987309369984005,1.7055939972514607,1.630671892271646,1.6311883562649505,1.591884635715413,1.660720632910223,1.6440752558716643,1.6226733571355836,1.5904225840640092,1.5815862272231036,1.6818178867719316,1.6329972993602202
1.696393503007394,1.6844028081197284,1.7622592413413978,1.675632520261045,1.6007271726372074,1.4743966082526314,1.5467427373849874,1.649180632394624,1.6066539745796422,1.7349826090086056,1.7498108570217503,1.672902656650492,1.600702476317353,1.691437373403305,1.7050912700451686,1.682421366309763,1.691916696574226,1.6479909473391263,1.6643495968611874,1.7134861485473947,1.6878727639153346,1.6443680642404213,1.6854215407614668,1.6143115668249615,1.65653471897047,1.6670960136863202,1.6406360597092458,1.6480206892988325,1.6195704090118501,1.6773798571409417,1.6363634611073112,1.6689346410066017
1.646132883336038,1.6310675825696443,1.7748624458896305,1.6560914333352386,1.5531067715016837,1.5151244163710849,1.4880990876732247,1.6392360238146986,1.626578976557149,1.6885576587834417,1.7125261295517724,1.6825052442457522,1.593321265871633,1.664499139660747,1.674059816763213,1.6768542057339975,1.6590870891072595,1.6337804720859366,1.6347994511604766,1.6567239834573353,1.620398724619839,1.6264141594292676,1.646066811838155,1.5017153347677985,1.602486853695357,1.6195329096310225,1.5798419148739056,1.6160235329582497,1.5396772578922457,1.5989811772305875,1.5577287187560205,1.6374947508896955
1.6075739249532577,1.5885993150471471,1.7393677768187297,1.5816584507423295,1.5424521244225504,1.553828572117909,1.4781017812864485,1.5257088758364385,1.595108426740023,1.6478401215581782,1.734684859668888,1.6643473765514045,1.6470671495500409,1.6831745339125486,1.6865575203544125,1.6912056969066824,1.6890776184959875,1.6744527343521451,1.6899536603377825,1.6836668542710704,1.6441443676677014,1.6407053803097618,1.591490163824597,1.4960723237810654,1.6015781943253515,1.592510318993484,1.541583595910154,1.6469991817818843,1.5410829645390147,1.5734518007881648,1.473716985475139,1.6064164383094652
1.5597505055093148,1.5487503478244158,1.6493378789485704,1.626920129984961,1.5487935772084167,1.5600778466811174,1.532543022451218,1.5896141226234517,1.6111302290678255,1.6714353876220205,1.7046218722022903,1.6560351663859207,1.6877854261789758,1.7050130866645625,1.6945327440414875,1.6916549148939461,1.6887428372910918,1.7143445137908806,1.7164050806200468,1.70775886170481,1.6743007927506277,1.660069816770903,1.6083550640440691,1.5672515149251427,1.5712459905082945,1.5820034785172878,1.5500876901782932,1.623691445222987,1.5290309432113833,1.5292267604274956,1.5257820425173063,1.5380385893360344
1.5379890964584002,1.5497074197704608,1.6350076306036296,1.5551127426539562,1.5581413340208288,1.5166644123853947,1.5616116483483153,1.60524737698872,1.5867581464736034,1.7364740599522415,1.7271136543107628,1.6785302432938434,1.633195858529527,1.7069601433141197,1.717074104629904,1.6964739575170427,1.7030432695912103,1.683523685916943,1.65921941739768,1.7354801861954805,1.652533111447221,1.6066456282888446,1.594334152444283,1.5661676114697392,1.576365313146379,1.5791703815534444,1.5491654908810786,1.6155919106959467,1.5452856421567058,1.5568472990589008,1.5575505104371326,1.4791861440109195
1.593245431350746,1.5842349572028032,1.6153254239362758,1.5720437867682557,1.5737437396653429,1.463598069009563,1.499152426243428,1.493886838089032,1.6509865107286883,1.6342182257052327,1.7128452111279753,1.68603582286431,1.641343326653134,1.7146082927937332,1.7347536360682028,1.722258416589581,1.7278862674628144,1.7155452220326548,1.705742836461035,1.6971198908626135,1.6593657944821405,1.6401059037088344,1.6449502662347018,1.6188718010965284,1.640597411566009,1.6166038882187985,1.6460958739092169,1.6731392396030405,1.645976325102762,1.6383763239691544,1.63330917248962,1.5119088522815174
1.6865964743586725,1.7026370732924332,1.6752822666475389,1.6760073451289277,1.637477792106733,1.5637019365259257,1.5832130793261148,1.6125528638064641,1.7040976556762413,1.6663883700229107,1.7069813922364685,1.723291641259481,1.6674651672414267,1.7122689906694988,1.6861330586845904,1.6832876557412135,1.6890234556509875,1.6760862195264083,1.6954660484837984,1.6651630124882764,1.6423861967224385,1.6402541956838845,1.613450421283969,1.6230027634427764,1.623504841850403,1.6151180046854368,1.673541846669934,1.6624480583116057,1.6862492790474175,1.6734569372331498,1.7020926760036785,1.5583890586125313
1.6952847726971445,1.729779957520573,1.7011672420276103,1.7356436518813203,1.7286593140952822,1.5598812384908922,1.5852756496102178,1.6412102436277076,1.6785716607242334,1.7078571226078534,1.7100394120108844,1.7101822841638255,1.6411735538843226,1.681182858382407,1.632631509036238,1.6289205322731364,1.6514701172691124,1.6368552873340227,1.663355277252702,1.6781019654334428,1.6604888423005688,1.6290781659779723,1.632985618549196,1.619938899963783,1.666470040208395,1.6344437247672856,1.6727000836823496,1.690996969701239,1.680066085956505,1.6687348281217207,1.7274590607900147,1.5650613191045626
1.6195820341313547,1.6171445658642027,1.756715275613037,1.6228367833141604,1.6332126857531775,1.6589765099656937,1.6333861031380201,1.7033286741054359,1.613237179964418,1.8105757294839753,1.7487673531673968,1.7030064932370685,1.5796014748340772,1.676344910002974,1.6789544591031194,1.6412198324612997,1.644659191416278,1.6283066824797656,1.6124922119774185,1.6776882334070844,1.613606652877896,1.5790468450305057,1.624093888229386,1.586285565996607,1.6430660465659328,1.6338695917636796,1.641100224056609,1.6747342427589853,1.6384985300512576,1.6441023700637565,1.665237037914657,1.5506469172356279
1.5684271804428964,1.5786083451430892,1.7125901724806691,1.5885074501953511,1.5260613307740714,1.6279684561356793,1.5650435227078099,1.6117116582427347,1.5296320158901902,1.6598155775460133,1.58952481499944,1.5925780964008145,1.5363197177855465,1.594781120642153,1.6166040927232626,1.5900956266090582,1.5917736900410298,1.5731805190523356,1.5795261781986045,1.6017645924945487,1.5265499691027227,1.5531246380108552,1.5610144401448107,1.5206079726509436,1.5215009911202617,1.5333672570407755,1.5485533122225321,1.5499223540123463,1.5438115518312296,1.5393519646815705,1.5412561815181514,1.578699910602062
1.656729724939741,1.6517782394010068,1.7118016993344114,1.6595277089125755,1.6270673964709454,1.5969277541734304,1.645401437351752,1.6478462914025696,1.6278615704799562,1.6779948381621503,1.6743039380997762,1.6510289504687738,1.6251993208263757,1.640050475780852,1.657735582779794,1.6647422011939006,1.6862420821774238,1.6200942999165457,1.6457798342892187,1.667352388613671,1.6465817897383697,1.6618694783824377,1.6684363486544989,1.6456060866299542,1.6583653286983415,1.6454562615532804,1.61311323966415,1.6686427141813764,1.603240115449789,1.603678452302598,1.6103666195732362,1.7040815943245673
1.6976976459484687,1.6863244563985318,1.7083795947000546,1.681493723137935,1.7017709125750224,1.5927172114662127,1.6389276913524489,1.6794786488118822,1.7125617436795508,1.7594255622657675,1.7206602208573376,1.724597145533185,1.6520624600203162,1.7165378482288596,1.7313482887588838,1.7121742298213898,1.734521456386877,1.6821331305381808,1.701126315913576,1.7253208834181861,1.7073510569922508,1.6978083329934148,1.7163862015450837,1.700172308635201,1.7223853763235482,1.7578170580590264,1.7088342508269487,1.7168517595440382,1.683817472940561,1.6964376694512686,1.731502378526756,1.6580551265936492
1.7162774071829294,1.707283508976926,1.6713486330105334,1.6709843363766497,1.7081464352674733,1.540307407599975,1.633314295111109,1.6595501636803227,1.6570998196059685,1.7132332485463082,1.7159344268557708,1.6964270096306455,1.6983100027015365,1.7138382155723666,1.7285053876572039,1.733076781944344,1.7591821750693377,1.7383508646556485,1.7378667749002323,1.7542452630206873,1.7364988995175556,1.7242450130789329,1.7163411143751253,1.743548939621451,1.7301606711253128,1.7202312539351587,1.7426797549019566,1.7817701621050674,1.7531195048702557,1.7498911112552196,1.757187719531228,1.6808941125658254
1.6454740774932937,1.647515987569967,1.6443875676210493,1.6248747415429228,1.6495115371886764,1.5296471797015203,1.6385851277987762,1.6579894605511327,1.6606155243452672,1.7312499954020673,1.7642987294513701,1.73095576406119,1.670243240149143,1.7382154618415266,1.730982084960451,1.7048378076654152,1.7305963004351501,1.6850948126578116,1.7075698024826136,1.7126738591747297,1.6883266635882532,1.685486234611785,1.6994498218028837,1.6586673820317475,1.6867693076542514,1.71084396959322,1.7117622879561103,1.729000345040026,1.6708090694511588,1.6995769084102461,1.6838963548379382,1.6719237669940683
1.62428024455594,1.6292762212763239,1.6850269462888035,1.6640366921359415,1.5821033865224756,1.6297505998746769,1.6444885321392304,1.6933470403271016,1.6509814020551987,1.774370636762926,1.7832727384659726,1.6622901930175895,1.6734753977972983,1.6920031294672866,1.6924675649958778,1.6684277622400683,1.7292952525191145,1.696706406185595,1.690477282985366,1.749568430204866,1.6914438929443194,1.6469915909817914,1.6669540268817757,1.6916635051878115,1.6896632626247003,1.6365722571437598,1.6467482149597479,1.6844646215120442,1.5973971709090358,1.6272175259403496,1.6189417561433574,1.573286726013507
1.6728036262295474,1.648655456485503,1.6891547430006049,1.7193333622640776,1.6522001262746437,1.56413151987662,1.5113541363245286,1.7149015768588927,1.636681726994511,1.6790460844474915,1.6801057318162333,1.6357608243449369,1.6792859919338194,1.623845892029348,1.6472764318704725,1.6701621677449905,1.7135184099607883,1.698095304215318,1.702722289961956,1.755677404943491,1.6901433589813837,1.652236540561006,1.6266266718291085,1.6322825115066164,1.6064675158423103,1.6757076361782397,1.658664232344582,1.6815997394858655,1.641722752470004,1.6336454568996261,1.6568710000652944,1.6544189289711906
1.6616102475150325,1.645637855659698,1.6626427751845503,1.6107545771304164,1.616567989344563,1.5094598471455105,1.5468863506079766,1.6437739582319477,1.5806885383901403,1.6370018950793637,1.6710219909644057,1.6368304241455243,1.6501653513565715,1.6656818632362342,1.6875302256348939,1.7005573748750538,1.678473078690448,1.6798069312313044,1.6862551261665824,1.6739113152011786,1.6631514206343387,1.6746227146861465,1.633404798131488,1.5996704462837266,1.6004895762784648,1.5906121176439536,1.5921769814115188,1.6862173683600499,1.6275192249973809,1.6391212292105382,1.6233233435000793,1.6128882543870722
1.6685391219048973,1.6808972938552367,1.7144059978870403,1.6549871029394607,1.6108202020283635,1.534909508495203,1.5300239156722848,1.6638349309201872,1.659868778329652,1.6499288934531824,1.6829790171809957,1.6654851211129809,1.7322745358676852,1.6988307160605958,1.6926498302354052,1.6891744613658286,1.6543242263321214,1.6916138821319777,1.7187889490755017,1.656242680945689,1.6886557321905844,1.7420791590195035,1.6725575504262913,1.6515102961728836,1.6202072200217055,1.6046845590834544,1.612231115151609,1.689433646461271,1.62337273634826,1.6407008880023024,1.6202965477079834,1.6441581474346132
1.7762695072191643,1.778432343083026,1.8123112789474123,1.761965562358285,1.6843242873802713,1.6741133319140153,1.6205930961663904,1.697360129716231,1.6925759748724374,1.7043201264980843,1.7203857621284948,1.7485290650558956,1.742967595735902,1.7451445489404747,1.7410969724077616,1.774020988120316,1.7577408737178202,1.7524490160925386,1.7850623139561062,1.7515710026623397,1.7560892615633232,1.7637742454925358,1.7379717864613684,1.658632906238809,1.6986492732570377,1.7171966523873228,1.7108141373687487,1.7169986650562226,1.737212408156341,1.74925274836211,1.746071352259123,1.6441908835263936
1.715950900840624,1.7238328774312073,1.7817505288056166,1.7301436756792987,1.6933907744928876,1.6612145319665268,1.6237678591942355,1.7126750030340607,1.7052944066785454,1.737576738255577,1.7585878121032192,1.7611616337120994,1.749472124650679,1.7725311552779641,1.760928823961015,1.7532884955326868,1.7295346159223297,1.7323289744005603,1.7388023294952362,1.725614461082237,1.7143645665538882,1.738874962164395,1.735796029691913,1.613224587309229,1.700399150323499,1.759540108525721,1.7222681120268302,1.6587247484771006,1.7027407047028222,1.70344925835893,1.734760209561084,1.6927025136254692
1.6366793499028265,1.646303110428239,1.71300368395136,1.6302783861727699,1.7095305917841306,1.6328465325514268,1.5722524371577418,1.6568952337222382,1.6161976829366556,1.7113513801313753,1.7584455354545614,1.6995470591574273,1.6735377225390553,1.7332468242493169,1.7477239463541783,1.7314223682236745,1.693375040466592,1.6664416469772683,1.6838673569748734,1.6844768916369892,1.6625457838856361,1.6942544648396631,1.675328361425506,1.589513475593341,1.660230014150666,1.769356799538653,1.710060418001764,1.6585997622069204,1.6608903486928042,1.658680881813952,1.7171469071350185,1.7293532364007425
1.6121594880704533,1.5966988925978485,1.6890462052889055,1.5744278963264375,1.6229784791738118,1.5995003657787712,1.540626948391814,1.5685038460888314,1.654645027094342,1.6642336666212203,1.6399486493642206,1.6209087289396538,1.6556792306721548,1.6170728603411704,1.6274607774531353,1.6572148146849888,1.6423018557092834,1.6518292381504005,1.6883543390086713,1.6649713104456958,1.638933302460723,1.6969771967824594,1.6124549723272525,1.5503164997422405,1.5710725422533518,1.6382416270016353,1.5895612310551919,1.5852580383766126,1.5794719029038473,1.5868362830578453,1.6303259210753458,1.7011519212155402
1.6657192907280893,1.6526934803683693,1.7190870703472652,1.6777769356458538,1.6429172227390834,1.6180726671375394,1.6467986755960378,1.680811391305407,1.6867305743305376,1.7274581806156626,1.7249486472564752,1.7207683883226668,1.7497412046759235,1.7076720536534697,1.7126108906547972,1.722785859141922,1.7085163731435238,1.7007791962839423,1.7516322929546018,1.7110320619800488,1.719163849267739,1.787928250404381,1.7063419994643705,1.6342759514617278,1.6805826806532997,1.6591904980865877,1.678917831806193,1.675986955494166,1.6589839353893518,1.6469526691438683,1.6575824641029262,1.6800197274841622
1.7381241755761672,1.720513126364753,1.745506685377644,1.7331941973840517,1.6987214388578127,1.6607014905462472,1.6761522563372515,1.7187118472035363,1.639974361719765,1.7600094310606138,1.7611469575863161,1.7202914151548547,1.6930121181461457,1.7173920707164119,1.726545586018972,1.7268883845227991,1.7304633193973549,1.7026420295473899,1.7467900604074482,1.7353393157453143,1.7731822727460962,1.7455426240242886,1.740498510266692,1.6659934967854897,1.7607614536496854,1.752504824476683,1.7755663522803604,1.7577536468492998,1.7286388974392088,1.7297276494430405,1.7331564704885314,1.6820836026414905
1.7579251395046585,1.755286295393229,1.7450081649885283,1.7368832279925999,1.7071653797167679,1.5837123952523724,1.60465345468559,1.7241097138925578,1.711646446749076,1.745287646163036,1.7707773338495145,1.7187355193312388,1.6827330338583917,1.705241941279553,1.70654146026702,1.6638053128365544,1.6799254465892344,1.6389200011595524,1.6744745988148233,1.7150011076813692,1.7114658953708368,1.6967846411991072,1.7152154618746591,1.6666433632630893,1.7759824657851635,1.7404495755842728,1.8074256980004506,1.7950616471860084,1.7694674206573198,1.7856803637596064,1.7513421131663072,1.6690982031572086
1.7718404789050726,1.7589164895158311,1.7294511498100056,1.736427344499095,1.7574023656114626,1.5933980722059393,1.6439298833021228,1.711709737589801,1.7267452239410401,1.772585680545161,1.8157533155209211,1.7701297716571796,1.7043441713549283,1.7679135871715546,1.7675225002797914,1.7405503489720966,1.7539606567499018,1.714280075423145,1.7259371994938817,1.7929405200065294,1.7381557826383045,1.7087872675555793,1.7301904291744774,1.7510627728005532,1.8024703407004148,1.8112152928681682,1.830303887162527,1.7737557865560818,1.7838728681414815,1.8016869648671603,1.7950479867657476,1.7140319013326921
1.6781619485713388,1.665351469386209,1.6465412239149655,1.6755485639967918,1.6632824467234166,1.5262120303654008,1.5841929499962524,1.68600019209151,1.6583493266674196,1.757267354079009,1.7811732441970847,1.7072512969264526,1.6484621650137052,1.7217784199872117,1.7246631884601145,1.7097399345217998,1.7188704205041658,1.7080666411816077,1.7044415508322863,1.7500541452616993,1.7021803300528093,1.6831513094921091,1.674368171747483,1.6981388259867791,1.683751907385363,1.679327373413721,1.7140498654776148,1.712311277326059,1.710239061081027,1.703156375231486,1.6820442854187259,1.6409811460232393
1.682784037542288,1.6566175027987395,1.6999958508790187,1.6654504143895095,1.6579368749983294,1.5556832741284448,1.5559529012530484,1.6649660098251304,1.7382344296837309,1.7506433459314765,1.7596319842463601,1.749947066452339,1.7634873955535455,1.7871880913292624,1.778560174990368,1.7819783985472835,1.7831923726183998,1.7672026950955937,1.7395310380295494,1.7530727249628406,1.6778488398045863,1.7136638061617187,1.6280629992490316,1.6925763925892379,1.696535620590635,1.6364193714204114,1.7450731069109655,1.7451491222576194,1.7415300102672073,1.7395049919555012,1.6812161729092925,1.6394957115591462
1.7392040553450068,1.7466079105706518,1.7514419298713957,1.7425890933318018,1.6907166880548545,1.6493902280928696,1.5393539681204214,1.6693619925250849,1.776683865657939,1.7086346333363573,1.721921789998601,1.7629037372877552,1.7881858050823094,1.7594662338752116,1.7656323143535262,1.7736699937491558,1.7737358082010521,1.7276923718928268,1.7276023046505151,1.7425618401056806,1.6413728733546251,1.7001224972018483,1.5978643549635096,1.6118980269029783,1.6632764696556315,1.6339268055252627,1.7526461947106866,1.727320571239571,1.7616139182376676,1.7784908137041882,1.7350267121986094,1.6026724325147832
1.7603440222690738,1.7619099838405925,1.750353570378639,1.7343730480822508,1.7170362761554299,1.6653640822275633,1.6239454247707372,1.726276884420972,1.7489026677524513,1.6855161577157955,1.687685739765871,1.6984941491446641,1.7683275212710163,1.6446076835929457,1.6815221833261282,1.712708523717974,1.7280018004712225,1.697788616815665,1.751721182145642,1.739468179640848,1.7497419407699606,1.7505467523594833,1.7288390252155441,1.7075101412082112,1.7533198988444219,1.75035919855106,1.760423798387612,1.751091698782517,1.7566319401522068,1.7798117758614385,1.792123958512913,1.6906201288803329
1.7046794009372126,1.724726217804537,1.7141828252584548,1.7427158861519896,1.691837251854786,1.6068230352022814,1.5685430920213324,1.723264113830651,1.7418893295211813,1.699494095920034,1.729805212037512,1.7466995735599886,1.7805566685989864,1.7456061505324905,1.7654343467245965,1.753602387244242,1.746009036968054,1.705183133337178,1.7596648312339014,1.729884072508556,1.7511110157467846,1.7626140402083195,1.7310298563275186,1.698902547818635,1.726236738527669,1.7140618931219636,1.7016443112735191,1.718031515354794,1.7005229694772013,1.7198239034135017,1.7066428476184718,1.7302060381490472
1.773418464655306,1.7912632767218792,1.7881624474455076,1.8000284820633177,1.7498145212660088,1.6726139888843572,1.6528239740912496,1.6891398875332004,1.7747019955858483,1.7594308570835397,1.758507176771522,1.8076862807816052,1.7221919709494635,1.7563304093688588,1.73612100618025,1.746277906912256,1.7325803426127704,1.7402015114642007,1.7388019439039917,1.731907425738595,1.6715354724254523,1.7476699571662162,1.672532125830985,1.650343640971136,1.7143173700560463,1.7210211184288595,1.7335623509304317,1.7017954455954465,1.7510117399567455,1.7700343050409377,1.7593613077355998,1.7227822604710206
1.7320035632365625,1.7275866938548219,1.7500374188691352,1.723003772032609,1.7435830503990113,1.6997721882982757,1.6733034762333026,1.6978308380611427,1.797036556165961,1.8085575208398212,1.8017922410390488,1.8008938119761169,1.8234776948288944,1.7820363791399807,1.789492325562991,1.7770283057182708,1.7884365681612076,1.8027830608941113,1.807460996160124,1.787064768657038,1.72887929440537,1.806748305078814,1.7198578078843394,1.692697014763806,1.714437324465299,1.7067620833253139,1.7049224277210033,1.720730790143177,1.725743259303768,1.7278670426007736,1.6948617596185844,1.7273815210653727
1.762922705289536,1.7564949113163038,1.7535380903753008,1.7651317391691472,1.7818866883509246,1.6631178267275275,1.669965364277079,1.7317266930750463,1.7409333574124028,1.794852671488017,1.788603698749003,1.7754000606269127,1.7259352742735625,1.7782199543924573,1.7850883158399853,1.766383310828421,1.7901434605506998,1.7431826118894511,1.7592162100621829,1.7767324266835631,1.7267065247947369,1.7225091575480325,1.7109686235370531,1.7231844364921327,1.7271859179484894,1.7610710694009986,1.7310848230517581,1.7282998421234161,1.7344842107211924,1.737220095393889,1.781692479667451,1.743960968573843
1.7126365587470582,1.6880421164804618,1.7010283624578657,1.7175791909801152,1.7344029653909352,1.5609502735099356,1.6500673261029586,1.6793353372676563,1.6673964928837508,1.7358430329659842,1.7463533104949718,1.7320012253305623,1.7174612688968296,1.7385801099340974,1.7346820719366274,1.7356948242382813,1.7564806298190268,1.747141987495251,1.765941736102585,1.7636614706162137,1.7396331606216417,1.7523214913746687,1.747850614232989,1.7413294532826233,1.7350252469136433,1.7647710879506437,1.753761540651526,1.725516214393127,1.7351915285571313,1.7270732545628473,1.7469065407641733,1.662811926945661
1.642575353468552,1.658563652084619,1.6573947859117406,1.6594044329596602,1.5963424807911075,1.5421235273795686,1.6576249895299349,1.6241490990013037,1.6979275558064264,1.788499696609997,1.7945050745878968,1.7874592387894679,1.669086645449473,1.7620752642917092,1.7508430128337715,1.722576253801007,1.709783861367686,1.7058084229450219,1.68915582995458,1.7105045572076152,1.655836738699184,1.675314100310023,1.6712082897974134,1.6392498723656004,1.6842107749972437,1.7035935090859977,1.6999110614642654,1.6882281903683947,1.685819021235185,1.6690726784616279,1.6565243262261935,1.5665062899956042
1.673388573160976,1.7046790334845932,1.6871532860291785,1.6749742623350754,1.6177443713282276,1.5139660855269814,1.5995560357212497,1.598859510698012,1.6858802853849142,1.710476222792118,1.746734190346417,1.738740799988574,1.7144945200730701,1.7445908476207548,1.7276274605332491,1.7399940781297227,1.7237751013769345,1.658757887358043,1.631480381598916,1.6806632568844877,1.5617088316438563,1.6420792791959968,1.5542303151374766,1.5295717249654373,1.6203504552057575,1.591206570362419,1.631591458305795,1.644203401881822,1.65445231970228,1.693101130078964,1.6673783920855072,1.5521035200403177
1.70081855905097,1.716279693274642,1.6856193413537388,1.7106741616993888,1.740876567538007,1.5670743983390962,1.6335876836378207,1.6800564858652776,1.7132732223387224,1.7146924569781796,1.735429081744246,1.7392917260164849,1.7275948387383275,1.710327150224853,1.7060019790679284,1.7008829594779584,1.708644781880159,1.7199373153504358,1.6741881287103497,1.7365581218806971,1.6456206634038462,1.6778807073654514,1.5915149783780467,1.6007630594867013,1.6985126805655932,1.6727989379935853,1.7154408643693462,1.7274850700967352,1.7023578531539176,1.7103958921911593,1.7236316221621593,1.6223242915998597
1.754954400515069,1.7794636948859373,1.7751652707770396,1.7573254167262946,1.6998179553928698,1.6843671734700199,1.6342858501575843,1.7347900173877069,1.7030742471559355,1.7081968766623676,1.7420681220757035,1.6939616967956552,1.7176583196888913,1.7008775639138647,1.7183599967486722,1.7215089405951227,1.7289100682083456,1.7261174558751113,1.7035707993771154,1.7463162548441733,1.6799944092201526,1.7014406819440584,1.6777971761257526,1.6474962569683371,1.7487907349874423,1.7110350937286036,1.75173739027816,1.7765778589471406,1.7641542278506321,1.7696076259493863,1.7580614168337998,1.6235407439703533
1.6573355294396452,1.6731811561048355,1.7096461918679566,1.6674220890986289,1.6217443054557303,1.6070355495376765,1.6042341394735398,1.6882035610656867,1.7010650433479573,1.703682130875172,1.7170660754338278,1.6704339386430558,1.6553982312738078,1.6851984123038724,1.6802964932799556,1.687324333702922,1.6598827977876431,1.652562880439253,1.6859207489501855,1.707767592931297,1.6981306116030725,1.6835692457814353,1.717583926155609,1.6339065497361374,1.7163297223228335,1.694228189624306,1.6896118390331547,1.7178890593217337,1.6840799483261488,1.7019136828971808,1.6779159544380013,1.6214073332892864
1.650009865973625,1.6428875915234928,1.6850226311611458,1.6386912205942725,1.6299529621723947,1.590853461153596,1.5902094930166921,1.6774646566292208,1.6217821908148973,1.7235887125652944,1.7704512873901614,1.6924288217325805,1.640109356003952,1.7369141967139137,1.7522209419494814,1.7739007975183056,1.794974078505122,1.7748179426796116,1.7811273582699447,1.8637094765844053,1.7959289455393466,1.726827319429229,1.7277392263016236,1.6960540672215965,1.70594541816998,1.6960756759754976,1.6664476173583993,1.681913177932969,1.651628198486866,1.6659287210937126,1.653601041740096,1.682000918947385
1.670834381393531,1.6728723126301528,1.7129760559955725,1.6703899684702692,1.6198012041713106,1.6048736942346349,1.6056457514267284,1.7060108837180246,1.6185012288012741,1.7483202984548112,1.7760627697352027,1.7278409346443884,1.6662577240443481,1.7428977826232404,1.7573990096341858,1.7693927582884157,1.78956895069455,1.765938143422962,1.764320821459397,1.8119025637765498,1.737544929938348,1.6948592777816607,1.675617350175446,1.6371448152043415,1.5948171819216514,1.6393925690700766,1.630223052458343,1.6447315212721556,1.6348201535842257,1.6379915736110857,1.6406683017030452,1.7086814669961101
1.7289599155043396,1.709604709589171,1.7623355560049614,1.7046872556197725,1.6754378792400189,1.6361006471374462,1.6401059243507323,1.759772002232173,1.687592676074545,1.7653385691955792,1.7853271065065117,1.748925695337479,1.7099137566277618,1.7584345102535233,1.7799987820166467,1.7791595928690798,1.7890410098688896,1.7559518689865143,1.7575829948397406,1.7625628933187643,1.7221200044273197,1.7649365015509393,1.7284153722550668,1.603366032260212,1.663768597505957,1.7282824740712193,1.7068467427717942,1.7045425546215127,1.7042800618912832,1.722201810673226,1.7036876509492207,1.7247423177589092
1.695212242786785,1.6608043535234391,1.7207431693823274,1.6693269431306836,1.7054627645623834,1.613547328329807,1.5353177749889235,1.6837459205686416,1.757426879209928,1.7628111757772627,1.7706268075855913,1.7929223944245856,1.7114707850681083,1.7609148710519384,1.7461081530715163,1.7289765866052507,1.7358428999445836,1.7097551382090677,1.7337510640029887,1.7222425778244423,1.7238337750747763,1.7208453587921686,1.7406431452167341,1.607968865630679,1.6863357670841743,1.751892197754132,1.7272293778202745,1.734043008213313,1.7104705181562068,1.7145033822079219,1.696720722918695,1.736551585657245
1.626676955591857,1.6159406953493907,1.6755306520503312,1.588156489144456,1.6147312773987648,1.5469426572624394,1.4344267238443278,1.6515501376674744,1.6999822733219612,1.7081129004993958,1.7037468070478423,1.716043938192596,1.7331045514562273,1.7376723259795335,1.727217285882194,1.7324495081777744,1.723042755120958,1.7052654921600512,1.7339797421137997,1.7049144985764484,1.7051800099858,1.6944259888667283,1.6588207978954432,1.5734715711040337,1.6175078741265725,1.7064215953226274,1.6396199398060258,1.7082339348630804,1.6184489247641978,1.6252904878967493,1.5952043262267974,1.7287653321887462
1.641732467650023,1.6401821003668666,1.638732250323989,1.6524145749264167,1.585760569214765,1.467329509547358,1.4843651169480339,1.613973970220234,1.6883969763575597,1.6932117918260234,1.7069740249224237,1.7056484180204983,1.7512887171185825,1.7244184756804377,1.7332961448732653,1.7375521845416217,1.7217169116250848,1.7303639960047619,1.7399000771862692,1.7151778546949499,1.699940156100318,1.7276263233526201,1.6431968045307497,1.5599566319663036,1.5901479227664184,1.6418805291988747,1.5927321893192194,1.6849472328700985,1.5878384711810443,1.616081892928478,1.5712412652657053,1.691379994108944
1.6542049884274483,1.6432155385018146,1.631451767171723,1.6439004205479022,1.6308780018957143,1.476965326289164,1.5050086222573822,1.5942705856495463,1.6692815471120608,1.650887973327589,1.6690186905239284,1.6993867233011486,1.7171695718721967,1.6683499020048038,1.6895868720892215,1.731068720419966,1.718646257099805,1.7534176143474627,1.7768743660478588,1.727483801440791,1.7219279946094415,1.7198693441368536,1.6718192421299782,1.5795873074355347,1.641811504597005,1.669563376818212,1.6263870816751544,1.660453577987411,1.5988259306172816,1.6100419429418116,1.6087820610854968,1.5534026032126649
1.7092980363850516,1.7212651812439286,1.7407833341484265,1.6930013484334296,1.670219357789157,1.5638315867129824,1.5603293237432152,1.6711892581518482,1.6894446544518424,1.6624424643045002,1.6787550964872984,1.6559942706249104,1.7170696096200064,1.6659845295999367,1.6995803139563077,1.7131369719643157,1.7154243813736032,1.7381550374595862,1.7050362696518644,1.6721941412450494,1.6270658842695762,1.718832586475686,1.6267729027851177,1.5530076625139637,1.673632334365708,1.6643584386088799,1.6868958585763847,1.6969286893297413,1.7155099223725878,1.721648045997946,1.6792664801370696,1.5940966636024219
1.6935427819891085,1.7323543028052688,1.775996505010255,1.7320336227306372,1.6891607810837905,1.650203031810357,1.5588260010049524,1.6279474415347261,1.7139006494229434,1.7114697692507113,1.7348109107790537,1.7172686320197004,1.731124350924143,1.7228351254858267,1.7272967793914096,1.7151474870967036,1.7226484249613652,1.6985529232081895,1.6956861553735094,1.6853887853616432,1.6536749236606298,1.7045745045274237,1.653526617642105,1.634731885954924,1.6469800763941622,1.661824530974016,1.670390263374966,1.6787476894550235,1.692335963665747,1.6955155647907865,1.7024121112707034,1.6671091894598133
1.681578561850729,1.702945198835045,1.737099635654543,1.7084699809762391,1.652350461926761,1.6008318091372165,1.555543569369771,1.5965223277380092,1.7108227734492683,1.673068265148321,1.67972845813208,1.738766918018707,1.7114230068230014,1.7280422923981171,1.701923618966379,1.7196136186197597,1.7066605780141233,1.7020160784362126,1.6927742978686293,1.6913671944785231,1.6670694650818203,1.7028222478726838,1.6521666843016434,1.5969922786403532,1.6354202715508122,1.670669722663073,1.646713524645434,1.6717913994281768,1.6577707016006453,1.6625035490428484,1.6857722835684914,1.6774138726693095
1.733938333579707,1.736466580791614,1.7496618845964298,1.7346934463333388,1.720458610561491,1.5990517144733016,1.6281392212012624,1.6895693371256097,1.7739072565184162,1.7522892392394833,1.758131596638775,1.7963489043478669,1.7553879648790418,1.7925283364480695,1.7662661904945458,1.7617733773842585,1.747403261739818,1.7557844570248864,1.7347863084304438,1.7537941930564231,1.7302992635199979,1.7251768736490107,1.7277099947924113,1.623076505210112,1.7231770167681533,1.7547136214752639,1.7396959549265882,1.6978259112034466,1.701220655061588,1.7314428150080934,1.7479961029166025,1.6743519437497827
1.720514190626875,1.7017529627310914,1.7325016238799922,1.7075400250124704,1.6568924894606718,1.5468480798647632,1.5809123504975937,1.632827708632083,1.7311081905033154,1.7092863015737914,1.7440114565261255,1.727422217492841,1.7506656364384523,1.733386456543782,1.7442262734407694,1.7600316165002567,1.7596980996541096,1.7561348054901842,1.7678269842779701,1.7751888993852543,1.7802364173141252,1.761215789549109,1.7711140576594544,1.6544241221206466,1.7424742220068157,1.7552352348473945,1.7367400106831279,1.7149616789442703,1.6941178390289173,1.7255204841144147,1.7142508767210425,1.6535714544222464
1.6652466091667333,1.6659986367246011,1.7362889860764805,1.6819002033576602,1.6613751305824351,1.5352349919976211,1.523901932003166,1.5938821951640674,1.7080797669344832,1.7252727627237863,1.7213220390463613,1.7177733290644877,1.727678132563268,1.7209040195824181,1.7289780467384925,1.7318041538210933,1.7380046971367284,1.7490344180787576,1.7493815030226347,1.7468075737970832,1.6988071587461209,1.7141081839722172,1.6309850077876589,1.6173603908234713,1.6323417079540354,1.635669810985372,1.611685837831973,1.662771057564038,1.5894352337016482,1.620664055071967,1.6665814549528188,1.5412475807699608
1.6681304986228493,1.6703135932109054,1.6832063713569205,1.6403625741160979,1.6548523251616034,1.4763640936718405,1.4862549480745433,1.5944829966499554,1.7329036050459685,1.7103388949415745,1.7395632640051053,1.7634250724816205,1.7705550136225245,1.7630074983007133,1.7353561732383658,1.7236759034993885,1.7270515401074993,1.756075602815148,1.7591184373378557,1.7172913122254494,1.6957766607003608,1.734461805591909,1.6590015774639264,1.6114610753494778,1.6788220293201366,1.661424370182714,1.6537181718041838,1.6900429853838341,1.639766135814861,1.6446614975654776,1.6619612275594855,1.6472520536975779
1.6995604359765,1.7193264554382919,1.7422574323583981,1.681366046324101,1.6497658741313033,1.6101966040167797,1.5652755867486612,1.6855180796057465,1.6655597836321963,1.7286586967098114,1.7686807099307484,1.737871780162803,1.7638524926167367,1.7881123389550053,1.784851230968334,1.7950133875594811,1.8081780490112547,1.8046196949652062,1.8073180760191914,1.7768189242186803,1.7412997805470793,1.763271123868169,1.693713109104559,1.639710713734929,1.7225904550943334,1.673515186604087,1.6823852341925205,1.7336795422264746,1.6880421897867504,1.701916112964912,1.674176260709089,1.6801714733906463
1.6751544702938397,1.706479034129378,1.7072395565483038,1.697112285756052,1.6710458868003695,1.6145936588365857,1.504224793551156,1.7118799336306818,1.669795688375417,1.7199576791146716,1.6775195922534882,1.7079751459544557,1.6924752172469257,1.7228723726406385,1.703895281678705,1.7069489621742502,1.6997869322905304,1.674685523453814,1.6710725435789329,1.6542092508318984,1.6540817029660788,1.6916236788573196,1.7038821537301911,1.5709674201612296,1.6715302248828456,1.701632615700142,1.710497918243339,1.6924636027339472,1.6831426670708751,1.6758647566095386,1.6868630634273514,1.6625182997688535
1.6457905091451719,1.6549937326015107,1.6710915743917547,1.6488014657622596,1.6879705730601502,1.5208405758501555,1.5646802913147988,1.6923000681412195,1.6541848018289897,1.7681829256447332,1.7230306347805338,1.7280342353403364,1.6485331325044685,1.72936184209838,1.701562618143555,1.699440451599287,1.6724240604521676,1.6440319500567595,1.602650873490052,1.5922737658181676,1.6072567856691495,1.661768015125868,1.6826439815264973,1.5335054383244597,1.6275411028734108,1.724346747415617,1.7052348636193784,1.639756518493231,1.6654759472747955,1.6773215569145719,1.7015388157042866,1.6763588471642075
1.6277339895652319,1.6070825368564943,1.6554260206547238,1.6109455575840075,1.6071529354218297,1.4735988777849567,1.515660426432984,1.6303207302947154,1.5505209005003406,1.7155165700502029,1.693688517803456,1.6879513774693296,1.6233420684426227,1.681684065289988,1.6648861762025178,1.688355460718486,1.6586641384972054,1.6531584271595754,1.5785233059330441,1.5748562330811597,1.496282275385515,1.5942690518957425,1.542944641097589,1.4413333676683207,1.539980828048089,1.6676981043729993,1.633240538325267,1.5964503954382903,1.6225031172791191,1.6009014789783191,1.6437248562724298,1.5528220581793992
1.685358242706412,1.630921546528861,1.7423672532688996,1.6050985507118674,1.6134174724052215,1.5936917584645938,1.5622850078870547,1.72106323952924,1.6372590091674284,1.7376907987614456,1.6059522819043033,1.6781933504824094,1.6814652852844691,1.6303981842361102,1.630810954596336,1.6790179892230939,1.6900227718982082,1.6731768075768467,1.6834204877727594,1.7240849525882131,1.7040712794429196,1.6803948279780314,1.683351039420171,1.6965031420778414,1.7252900817412293,1.7646051958233244,1.7901722743823363,1.791850614891672,1.781359262881413,1.7736697470937366,1.7505600246596726,1.6654054118526593
1.7490110343652419,1.714107095737465,1.7144634378624715,1.702691763185681,1.6946556844037792,1.5406652674991503,1.5560829651392245,1.665892499602316,1.6689248716590908,1.7290666415859666,1.6775820238927046,1.7371994686237622,1.7160804655337392,1.7032141979263558,1.7257657427863233,1.764887377589751,1.7686248333063959,1.7244837464001328,1.7652536975739557,1.8032665266444645,1.7758901166685719,1.7541506560897064,1.7791362426477333,1.766718007967705,1.7947425646566895,1.7932714230013844,1.8238770317403568,1.867159029336516,1.8171156524268892,1.8191959599583307,1.787634109845789,1.7270365408562796
1.7206272040097221,1.7165038588820174,1.719925356517419,1.7169404274281783,1.686423880948569,1.5508085060634123,1.6331664454630994,1.6586270818475493,1.7187645131348919,1.785297439404504,1.7555584268699866,1.7749626940118932,1.734907890410887,1.7365347116210434,1.7317765815462967,1.739322214172824,1.745141262666525,1.7184342369175605,1.7304554533755576,1.7368037260967768,1.6762289654024198,1.7262222734090555,1.6879282659101542,1.6230330858091937,1.6618626562934602,1.7006489056010328,1.6742988054606887,1.6690857154356225,1.6309369787290324,1.6623595013316024,1.7001248033230796,1.7591434220988351
1.701557583199723,1.6780428633488598,1.7299065188166927,1.7015658967168967,1.6823485215530347,1.6287850443798635,1.6849431404789135,1.6894791059986582,1.7545350321438928,1.8067672762968354,1.799228430983035,1.7899441226878823,1.731741386444691,1.7903342261762307,1.7660431746606235,1.7400850414277071,1.7186143871804813,1.703465215857643,1.6937479006390241,1.7298580145077171,1.6637342982085692,1.6639646967733328,1.6479911802940301,1.7175298663790644,1.7255070278810205,1.6942958221978257,1.6946869396634114,1.7010299583086312,1.6602484945263132,1.6794073115272483,1.6955132433435052,1.7387144045766754
1.6859388048442718,1.652919578857548,1.7431264846043153,1.6433707801247213,1.6303273381380832,1.6308253588548518,1.699935977211807,1.6254584019306004,1.7018957011911122,1.7559768135701257,1.7951121820457818,1.7553080109490533,1.6987739952695087,1.7846110766852084,1.7782747358533455,1.7341977830502804,1.7043239814337705,1.6884541107874942,1.6653048397991141,1.7381622965145096,1.6640421646498136,1.6321928545321847,1.6673300532154813,1.6830256443770357,1.7453796476267456,1.713677902545369,1.707886816545901,1.7611970799347985,1.70460147007794,1.7095507190829955,1.6630029110056794,1.616827348636167
1.659328553616966,1.6606595163785474,1.7136237856720933,1.6563728915695635,1.6400414622506665,1.5712824932309726,1.676240932366426,1.6367185792864276,1.6623434945428208,1.7143990958155577,1.7682173838785267,1.676594242019907,1.721282070491497,1.722671867751918,1.7230713532789577,1.7022045452203984,1.717175797423658,1.7304733486207258,1.719796616330912,1.7247033621663284,1.6955285697584452,1.7072610980186593,1.6716183574516137,1.6088275544202626,1.6857067795644325,1.6840524762175269,1.6656242687417533,1.6784734087856201,1.6505085657181846,1.6628529732136272,1.6649386413557943,1.6333682135023604
1.6769680526157906,1.669011543964666,1.7079870735380682,1.657657232023562,1.6445688490921655,1.576314006135339,1.6731095474687168,1.5911005024652154,1.5854831796764175,1.6854048225267289,1.7816994472730356,1.6758540458738274,1.625954358754188,1.6967933687279457,1.6978184176411888,1.6575855376583046,1.6719993023717177,1.6804963128942423,1.6461968600176224,1.706261553132969,1.6246702151712589,1.623976268000385,1.6201587636967907,1.6427241901906766,1.6715431338263036,1.6407876983702392,1.6454138958585909,1.6559089705336505,1.624340715247734,1.6380687897377144,1.6487037023611248,1.5905728631815366
1.7217609626870731,1.6236906863362461,1.7596722540732805,1.5684157148410556,1.6509725367712593,1.6526443646531366,1.7793986940353494,1.6400237185992093,1.633190302478699,1.7914200306960115,1.8229446674631038,1.725814172376241,1.7008391422933737,1.7698587377835124,1.7996256588944874,1.80011012383404,1.805450137143192,1.7699349042405295,1.7461890429247384,1.8251101641523355,1.7541874739903252,1.716135434499632,1.7236776861026026,1.7914367841075836,1.7879695053888178,1.733169617760174,1.71532805645194,1.7937452498381656,1.7048953358972254,1.7048238361332237,1.6769451418953196,1.6857588610969492
1.7475505032458771,1.6956870452416082,1.7647142868533308,1.6583365603751383,1.7347480944812272,1.685084023309694,1.7702719626522885,1.714645214201191,1.7182593252944018,1.808436791835452,1.834469204755493,1.7623027329034366,1.731314056969983,1.7954912336850626,1.815476812644253,1.8284561361724627,1.823967247012047,1.79354565853592,1.7919226010166107,1.8512873876969362,1.811599125840636,1.7716330472058601,1.802650269190649,1.8150758250698502,1.828266991110415,1.8062645757961573,1.7907183389413537,1.8222111563987584,1.7753084005731097,1.7765746683570391,1.7750975389027057,1.7481791745173327
1.7806264016004347,1.7544762239735656,1.7959240437505035,1.7282793877995222,1.761304713577955,1.7219779279384502,1.7647969415026428,1.7336950185052036,1.7880141226118667,1.824716859952587,1.8528208813923792,1.8266318241022668,1.788416894390738,1.810303714811563,1.8195890332665487,1.8333751385958261,1.8184048242857902,1.7863278745996312,1.7973637991092852,1.809103020238435,1.7771253684859307,1.788193790591157,1.742341737974961,1.7614098070429134,1.762602627108635,1.7444191967091396,1.7519657637607804,1.8105289643012143,1.7886165694325504,1.7994396132848884,1.7635199115027917,1.7573500872357135
1.7265198480746693,1.751751544989161,1.80142032957605,1.7343054473407378,1.749630495258763,1.691447805960347,1.7201774187092786,1.689350721476772,1.7726622833892502,1.8034906813862805,1.8490484188566876,1.8190630992102892,1.8040087655247814,1.8128071327773971,1.8308639780292626,1.8187718232995236,1.7945578885724058,1.7584420602352127,1.7672549292268835,1.7528518210759607,1.7190231438187853,1.7703613899072148,1.650839040455785,1.6509083579624533,1.6630472712110538,1.7175737524954846,1.7183983193368297,1.7064055288238265,1.7083313504230904,1.7277460029736922,1.7483909680084133,1.6421022117386157
1.6626238230039088,1.7178744079035655,1.7282965752091222,1.6981516204110942,1.6863615384582522,1.5812361475105627,1.5567736659820988,1.6605627654041997,1.660900357804832,1.71077048522062,1.7390681181657084,1.7413213285638518,1.6775786981069856,1.7377601242669192,1.7365058981576067,1.6974170743733172,1.700974200050118,1.7020461438858165,1.6643857428712396,1.641956913823778,1.6432852433102192,1.6546805975222207,1.6188819697388708,1.5567442623767265,1.6148542879655254,1.6596162674767063,1.7035762693535923,1.6123115108354937,1.6735813700376823,1.703981998007173,1.7490455545743921,1.5515796433724922
1.5843500918263405,1.6158328353513303,1.6829937090844194,1.6488577505085165,1.647698924888132,1.5741032655836196,1.5385758176312516,1.6912731256584839,1.6853851890446736,1.7010170669950582,1.6879676508650843,1.6752096672361299,1.6940381905602875,1.6994310243536737,1.7176920526630655,1.7243546724699421,1.7362588899198292,1.7527477629718822,1.71094675873181,1.6948767908271947,1.6702788127853407,1.6970133514008063,1.6641699192503527,1.565342621460409,1.6173573714413645,1.6476441796383616,1.6200374512048366,1.6006982332739126,1.6010061310506598,1.6384612253807715,1.6204339888641868,1.6241041256935285
1.5972432764947937,1.6247757931915008,1.6400398647005643,1.6286843736287393,1.6762547447531544,1.5147865346209233,1.5088898482785904,1.6585649015721209,1.6900091047783699,1.6912726570494407,1.6952602260618086,1.6763911188640137,1.704904925330011,1.6908240048429934,1.7056953284995127,1.7223571663256427,1.7164519229001691,1.7319358070240358,1.7408579023764654,1.7341808919383523,1.7057338951652363,1.7042324614744098,1.6986555072899654,1.5984686960446262,1.6813982400818792,1.691844570569288,1.6448632188444465,1.6461331344291628,1.599058518526081,1.6667795871505082,1.6409741268909346,1.6542687356040613
1.6489441369365117,1.673439822218918,1.6604198007436684,1.6650565910801778,1.704672986728536,1.4871309907871852,1.5566949048658965,1.5093035782917734,1.703525739923754,1.7058958970723945,1.7439388553342425,1.7440399041971153,1.7165834100867028,1.7457824283022978,1.740009252403957,1.7140905162550892,1.7067930076088331,1.6863808844229256,1.7062847856082217,1.6809432279816585,1.6406689708411575,1.6606826574358344,1.612548226230225,1.5493462008211376,1.6344109300187755,1.6693215073161172,1.6539088686351455,1.6093135323402743,1.6360873337161295,1.6911383830941797,1.7111788929695315,1.5642284000957443
1.6847556390479903,1.6925664635759141,1.746025215663672,1.691326842771485,1.6584884883726667,1.5932298780861465,1.5932241354972623,1.723510861121657,1.6880939915858026,1.7187787755487436,1.7276595938595427,1.6812184151059715,1.7504853905375566,1.7233907170271399,1.7314243667765739,1.7433374192293691,1.727710514791797,1.730355784626248,1.7632899754343399,1.741243856415072,1.7307583385872247,1.777560978911195,1.7065187512696298,1.6456283757347703,1.668243481051943,1.636907902049031,1.6648067326194849,1.6752482968740476,1.6581089430608353,1.7153993273074757,1.6693561747881962,1.6818302276623447
1.744568486788099,1.7181546418684415,1.7667050954029664,1.735199811171447,1.694551601940461,1.6365843280431374,1.6293119749654532,1.7238059375124024,1.716974173178347,1.7455314851660628,1.7652958809448491,1.6972847056620965,1.7593176235751133,1.7039870242349986,1.7016990812985426,1.7145102735990263,1.7319440569132787,1.7000700999836815,1.731270522248239,1.7504177170000612,1.7141369466959555,1.7622861892479034,1.6969136585682552,1.6294795181042498,1.652948892386115,1.6813643354605787,1.6936343775290983,1.705186996868246,1.7072935107638714,1.716758749069473,1.7108001048220662,1.6504625878571244
1.6780566342094612,1.6668356097800603,1.6958536519509975,1.676258901774412,1.6478947214248592,1.5682914421520466,1.5721678754806114,1.6709196135173878,1.725270748631768,1.7538211561383745,1.7452611335773998,1.6960779321455477,1.7592707935618412,1.6861867349248674,1.67554893157722,1.6837737979549767,1.716272771894328,1.6830979219877695,1.6851965393636579,1.709168992134506,1.6553428585771965,1.709906658392367,1.6558384644827364,1.524424912717574,1.6394575673323943,1.6853067510303648,1.653704780797176,1.6876867660340371,1.672714990427151,1.681638484328703,1.6707260212254276,1.579018172910844
1.6059673762520907,1.608451052256566,1.527150031349356,1.6279254969374128,1.6579245615390068,1.417025968936575,1.3532614793214304,1.6226798958929043,1.651178059046122,1.6075062534386175,1.5514746411447442,1.6147662780799505,1.6498846340961018,1.64272567199427,1.6111028858680234,1.5680974180550897,1.5793102043469822,1.542482298564941,1.6105057462651868,1.5516265576519157,1.5441600589416844,1.6011090087400368,1.6252550593985318,1.465858634718612,1.6005543028813396,1.6809981305193424,1.664080593167229,1.64645904803908,1.651247291870131,1.6344712927170795,1.6796321708452366,1.5392747409205472
1.6455007667272166,1.640857230254004,1.7026270279043068,1.6479308962272494,1.6404937993234965,1.6185588184522819,1.6023721255604289,1.7201208589783736,1.6208417767783112,1.703592075878946,1.6104168115352995,1.5690419049092366,1.6970586313524836,1.5511000763537155,1.557310978898218,1.5834264718540907,1.63395177448616,1.634897192965183,1.7494844749320237,1.6866447097341664,1.7336948913372285,1.7684450017180802,1.7592887087586544,1.5917460705046782,1.682709659150451,1.7218712560593974,1.696356144331337,1.6755256275765469,1.686621348262601,1.6420043188771394,1.6577250832906532,1.6610566554943555
1.6156635963521593,1.6311141418216424,1.7534503238143524,1.6841824896988196,1.5692865164616183,1.6883583869082361,1.6843675627203551,1.7612803477958494,1.611667609942628,1.743719085735613,1.675893058749573,1.6201531045430417,1.7374190599810349,1.6138212114993122,1.61375091498477,1.655423218813988,1.695728567895927,1.7276276342265007,1.7946461262157316,1.7588763698389032,1.7835137008450737,1.8153708699098416,1.797316929022759,1.7198771549478624,1.7327849752100606,1.7372426223858988,1.7085388716419685,1.6928276116209,1.6575072947681784,1.6570905417008035,1.592592066574921,1.702367463798553
1.5764722876433874,1.5686481752244417,1.6373444781177022,1.5955002923078871,1.6119667808509217,1.5196728377997688,1.4743650810165245,1.6042149784679482,1.6316980651586976,1.6763127266262956,1.6581419917017277,1.694435432214895,1.6793031632781306,1.6585393750796165,1.628089131779423,1.61954990485546,1.6140123223792944,1.6505075641335856,1.6934127835078918,1.6340161123922823,1.6240062968999234,1.7215936782479184,1.6413300916922755,1.5418731005696746,1.537381339897317,1.579949472916871,1.5560156683408726,1.5640679720599309,1.5368709900665443,1.5703883001813423,1.6170172654451789,1.6054708017815136
1.5778003578447048,1.5703033472644767,1.5878737819864073,1.5682134428292613,1.5542625819844027,1.5038283012269407,1.5104143828854384,1.6173217479402762,1.6143768093897262,1.6873524871729975,1.6820466428879022,1.6573292474223131,1.6398165546067494,1.6492361795535837,1.6604056832372673,1.6611707889084755,1.6626974392301381,1.659490122021842,1.6929566684889952,1.7314238574524636,1.7102505888502766,1.668641744278685,1.6650610073869128,1.7223240743348827,1.6848439113052613,1.6396102776413695,1.623610489157575,1.6964857721269506,1.6144031659732074,1.626630435318537,1.5969440500487875,1.624207428900801
1.6663083573461637,1.6787130155131988,1.6110813545073164,1.6505606443861096,1.6544102107284722,1.5472700239844623,1.5902634920574419,1.6364187257993885,1.6170340312554317,1.673994825835203,1.7135098669395725,1.631918118009059,1.6878288114814481,1.652425382603221,1.6816586096218495,1.7040101024558325,1.7245739333393202,1.7057477732410362,1.743008763736371,1.7891981716584937,1.7500182808829974,1.71887779314582,1.6723324105310913,1.7514944203294902,1.6916672764246206,1.6816925110933247,1.6417461661060915,1.6983410435681177,1.655595116830723,1.6605154980220937,1.6736563922409782,1.6570239444470496
1.666670025313941,1.6710054472611193,1.6415317702793772,1.6510621529377254,1.6573663847538824,1.5447529890169338,1.5694821102556424,1.6583349783263046,1.6321408111972755,1.6172061332075278,1.6357576529669586,1.5901870641506122,1.7002449218005766,1.6233198922830574,1.6232210671345924,1.6260195687514156,1.6246458996773423,1.5975370189644889,1.6894983503477696,1.6398876637224893,1.660128489795861,1.6578367278627688,1.6243504862814764,1.6326152012388186,1.6465923840428462,1.612641700426548,1.6619671132114473,1.698381567679547,1.6827547809264833,1.655559582690896,1.667915354213257,1.656668952024725
1.63610652835342,1.648471583490113,1.6499541187990954,1.6041919967522278,1.6031262947356681,1.51564739838855,1.563073918031228,1.6346714034180219,1.6388369247521348,1.687993299246283,1.739595155870415,1.6563424435384242,1.6328914913821735,1.6874703193344067,1.6986182627509983,1.647372191113595,1.6628727063016155,1.615287494962964,1.6120664157334261,1.6069037323032285,1.5676510300480329,1.6123125945890413,1.587874139119442,1.5079164124566935,1.5617785671398476,1.5934987646252932,1.5857910430946656,1.6371083246524827,1.5839581150124307,1.6039098585708051,1.6046218118293079,1.707356211944291
1.6218723437473754,1.6563024542314344,1.6520361504927172,1.6352093064097222,1.6553446017364004,1.512531969646696,1.4964779000055946,1.6002814834096226,1.6773982356495418,1.716856664713892,1.7216769940035874,1.7254458951354423,1.6351002382276698,1.694568538715074,1.6747979934669708,1.656040859546439,1.6526203395083852,1.6141338325052108,1.6479123972970147,1.6925993485036568,1.6563709277730292,1.6547142351665702,1.6816570857717692,1.6297669007331483,1.6528391583830924,1.6161372464407122,1.5967124985517023,1.6663344612938604,1.5710500616732488,1.5975180959158002,1.5765785812554902,1.673972749543625
1.6463682023562685,1.6368975968412447,1.6812832088065743,1.6227028580360214,1.6706609253345226,1.5596670711079483,1.5192835644396214,1.6409835606477312,1.6431076832227731,1.709933279554146,1.7037177567615152,1.6873104720457879,1.618850503762233,1.6571856213134457,1.643648210234352,1.655152264576027,1.6716275845877375,1.6276236384226968,1.6704355362719105,1.691831014917183,1.6754217699649094,1.646605329372913,1.6863585114040214,1.6347720410703466,1.6760647831321664,1.6867206649990647,1.653170676394148,1.6565289395121747,1.627422121303343,1.6419098230438227,1.6406263102181269,1.6508140311392394
1.697960899097954,1.674773079669867,1.7131725095832662,1.6555851425030692,1.6898262672206321,1.5777313664225903,1.6324276496474346,1.6353276103244525,1.6992638289464412,1.7193912875607062,1.7253319914423133,1.6837701992003817,1.6843264781285787,1.6381358731994067,1.6496176335681483,1.659400306505122,1.708586551319801,1.6876225266712421,1.7227119352590798,1.7256364699295812,1.717042589167185,1.7107735247169598,1.7300345744005585,1.6966646205752902,1.7347895656900745,1.7623976264922292,1.7406317136925544,1.716427938645865,1.7204282933824557,1.713106615059735,1.7144425115244752,1.6471081894593882
1.6824953809773158,1.640650368669775,1.6940790793048703,1.6327029127231028,1.6291330028887767,1.5241123454939622,1.5807018213603714,1.590784653670971,1.7050236270638437,1.6967921294043826,1.712733608816567,1.7426190053094315,1.7082892659984827,1.6717823145121915,1.674204138902392,1.659342685381749,1.6719597995380548,1.68569477185735,1.6985263536513076,1.6960136183625691,1.691523904620622,1.6953614578349294,1.7410563051660712,1.6893269295081879,1.7545691551682363,1.7628749337066612,1.7176181021936074,1.7540918725658736,1.7118365321417905,1.715244695261902,1.6955384971583793,1.6356644007792471
1.6540910818839747,1.643298426591571,1.6936937761664157,1.615215126390988,1.5936901242660002,1.5093486370102107,1.5540989551274862,1.6451032425666836,1.709792478943169,1.7426874260544012,1.714260054892304,1.7741723447259838,1.7849798069681848,1.7557729246902534,1.7622150675225863,1.7680995384901896,1.7473267244601034,1.7743872105140568,1.7568823116098928,1.751350596456608,1.7172231069042878,1.7196800962946965,1.6749978098732718,1.619155635219432,1.6850034990462777,1.7089960050448487,1.6767700376222727,1.6768589390304096,1.6737639921213934,1.6709614224700085,1.6472267746904576,1.6891227665738164
1.6472156769505706,1.6277111628646708,1.7005553971804255,1.6098048774839955,1.603930057481947,1.485532149314911,1.5618549173502638,1.5497697645538615,1.6743444555105162,1.7173951719729077,1.745016108106818,1.7592864647373556,1.7686367994627572,1.7773191557708594,1.7739439482257484,1.7696026860231773,1.7619777892192994,1.7682251492405456,1.743430018379875,1.7714378262041395,1.7129538659922334,1.715193476470249,1.674995009384892,1.6290608781273412,1.6532142222410604,1.6767701833950737,1.6671964614738175,1.6548850970084452,1.6626961000249674,1.6860543786309088,1.6356140524942082,1.6692331891023997
1.6268202877254185,1.6169326703778824,1.6668972982489745,1.6144260375144002,1.6254840373660429,1.5810250995086947,1.6339421529159965,1.658056198530957,1.672176769847146,1.7571695511209284,1.7905338493377847,1.7681678030849668,1.6797298202922393,1.7660529681012482,1.7651069135042612,1.753971898395118,1.7625244748428242,1.6896538877548288,1.6708095225540633,1.7130279891639262,1.6287062644560928,1.6496896534386813,1.5960744579302084,1.5634055978185255,1.582479245774438,1.6521998207983613,1.634819054975659,1.5742045880410651,1.627700979128606,1.6600197421804994,1.6285774477276056,1.6426338492688048
1.5881095647167758,1.6029945749814971,1.6478492804295508,1.6379280529431839,1.6395811953187578,1.5986085853792376,1.6138503710977976,1.682173346399745,1.7107331380398711,1.7770836175144784,1.794048610754652,1.7895228195490511,1.723740229334057,1.7958447044795902,1.8039953281375338,1.7786166968263486,1.7614155088989973,1.7179801735617946,1.721005936097862,1.7227769213238726,1.6465574176873006,1.6763884569334282,1.5822415110083032,1.5459098740848862,1.5771572615188059,1.626891333307238,1.5767999497579417,1.5606615024671977,1.5594047131002848,1.5769123892595587,1.6069003556813557,1.6717955574116643
1.629837144305261,1.654794548313751,1.6720786763263769,1.6433771016544998,1.624735700431851,1.5554209871981683,1.4777424560510783,1.590584184906926,1.661593265989645,1.6959689616608322,1.737009264094454,1.7360315543232376,1.7519305187967196,1.7635169063467233,1.774104427336894,1.74318412542128,1.726880159047228,1.6783018066804627,1.6929275280728557,1.6814727661185966,1.6017281430429822,1.6774277975589236,1.589457434514882,1.5477651922862037,1.6168026410436318,1.6129214247359946,1.6147435965599994,1.5861390200098964,1.6000534454619812,1.5995096616318534,1.6271145282580823,1.6293841605081931
1.7064749591877273,1.7258792556587312,1.7519465979004392,1.7160011915188886,1.7121681427749886,1.6347649042629506,1.5457842928758174,1.6594205481902282,1.75749222751397,1.761560699281605,1.7862403244750302,1.8101934596173352,1.81801862694415,1.8018866466215948,1.788814783173744,1.7651273784895272,1.7677103134671364,1.733686795207851,1.746970723186702,1.7665422768508805,1.705656783349171,1.7640277032637608,1.7038116911561048,1.6329562380338052,1.699640703455701,1.7175892549376117,1.6725386266820448,1.6876478805547035,1.6299654022901338,1.6667510148488378,1.6918528013730343,1.6519389668926536
1.6661674877649448,1.6981000822152874,1.703269557767432,1.7120344939750305,1.7358218102253729,1.5956330985780334,1.6093365710749228,1.6535724653756083,1.7699365048290572,1.8172379232922256,1.8385412357697024,1.819595272343307,1.784367583296466,1.808683079673402,1.8062829504764304,1.778827278964161,1.7767186916033748,1.7245820431569867,1.7649722130903764,1.799248380776286,1.7201418381849476,1.7611388314940606,1.6810779530724411,1.673556655545798,1.729952381008764,1.7744788248920795,1.7065486732116593,1.7416112446986622,1.665887707180447,1.6940730749912059,1.7243656244592678,1.6607326159093063
1.7040283389042041,1.730370545321351,1.7263438357745586,1.7242287588819638,1.723773339076125,1.5803062844837552,1.573406061049637,1.5509320149635621,1.710257973623919,1.7198569109017918,1.7631050880042012,1.6769657812076582,1.7069230089933105,1.7043801884514014,1.6855844008490362,1.6599164890794378,1.6718655417901576,1.6499607565238097,1.6487119890954276,1.7007557922625556,1.586229914031348,1.6058829792086804,1.5406537098095823,1.5819214237035468,1.6463200830217521,1.700243820672186,1.6806987892174483,1.7055066424520968,1.670303139651384,1.705044557949874,1.7380154336713063,1.543174875575981
1.69008334632831,1.757301851775465,1.7561827882041576,1.6940801289602148,1.7031955626525062,1.6117493597905643,1.589966864561047,1.6501112831321572,1.6747144930626943,1.7288421458905732,1.712891840895765,1.6953659746798582,1.6470266778941367,1.7036083616126647,1.6533566567866667,1.6176357910732746,1.6319160549820464,1.6234852321132984,1.5813953739775306,1.655631136105172,1.5707893535544173,1.5374569566599854,1.5030866632484279,1.6014089364350195,1.5722000549741875,1.5821721225567957,1.5866436870067886,1.6105366463636335,1.5752561065636925,1.6273055228219169,1.7002679028949046,1.64786315194408
1.72801174676256,1.7579081741686,1.7316824645418691,1.6894448470263226,1.7523794732066855,1.5695724349271452,1.583612593271362,1.622348327818874,1.6953486395189594,1.721427775812725,1.7101309522942931,1.7617397374452994,1.6796645305270808,1.727942667056613,1.6982504021915141,1.6885431503689985,1.6970830703955295,1.672813377794215,1.7167229277540206,1.7202212576667226,1.7202287846142261,1.6890978478477168,1.7098259901030977,1.6234883916026293,1.691914247762007,1.7205627119177185,1.7095070029540949,1.6911063055911553,1.6741450866202852,1.663386019863908,1.747793751779398,1.6857141511180886
1.7071690750504902,1.724922104431377,1.7465288781408053,1.742929246265205,1.7167447104094427,1.6165308007103056,1.661864003394878,1.6749103527148335,1.74855714720011,1.7542294519916368,1.767862788610312,1.7876825440282302,1.7713558617198106,1.7926390790703166,1.7995850332789263,1.80102890851683,1.795990900707304,1.7761856986727242,1.8082227422637545,1.8266456653403929,1.7989358830080326,1.7525391064399378,1.73777800765151,1.7257542462223832,1.7065780170663627,1.7243380083933095,1.6883499308953902,1.7260493079331154,1.6967961640334297,1.6970756616525307,1.7493615703922496,1.6848071829789726
1.7451458544402967,1.7529457312469399,1.8137319300881427,1.7603372293998654,1.7159077905017222,1.65575345343035,1.6633558730424716,1.638423859572189,1.67085482235415,1.7855475131586902,1.8424694971633369,1.7505290673081617,1.6820262308743381,1.7846571350240243,1.819247838889695,1.8149096286993234,1.765807452928327,1.7334771029975604,1.7467144382844024,1.7815273746176528,1.7292730390818647,1.6794350277048584,1.6675034708587508,1.7233297453994292,1.6805414751480834,1.6907343726156845,1.6650579949603348,1.7119107378441547,1.714464626713766,1.7271464631545521,1.7413198678707118,1.6534211401400605
1.6051903189635899,1.6018294437095728,1.696170448590972,1.6125570873172537,1.6098936418180898,1.5179589757757335,1.5534660044618012,1.6029222920232284,1.5836856331189588,1.7412150193017153,1.667502864858189,1.675020854059984,1.6023512849613726,1.6628787340050049,1.66586421034721,1.6599631214128439,1.6519133638204802,1.6185376876123174,1.6683864459227344,1.6567104980078804,1.6716813016464078,1.6453281158359245,1.6266752733329455,1.6225137395972884,1.6232956212871872,1.6581081819415957,1.636991189945643,1.6451914787892474,1.642006718450589,1.6225391844596242,1.6305508964854494,1.6129344160266912
1.625536246561351,1.6009029657402105,1.7364001666516387,1.6430194172516128,1.6110367762287832,1.6195777391088362,1.5557972211766549,1.6409911328381277,1.5677775388958015,1.718321835992805,1.6675785013903626,1.6720631390496774,1.6452064936727373,1.6992024532155585,1.7066708647337372,1.6935295374293318,1.7087970763198392,1.6858032589021525,1.7137473183318046,1.6921903432087317,1.7116102617669033,1.6821251168300757,1.6681789837662826,1.6675862898412415,1.709454382249324,1.6702083236039247,1.6741248887858144,1.7348477445048938,1.6737166746275092,1.6953977948042431,1.6600047757374097,1.6307473470234413
1.6455436953133953,1.6245138604465494,1.7267747542355962,1.6519095678390037,1.638575314371081,1.5989442991263356,1.510000818527477,1.5586741986693669,1.6076459396618108,1.6450051847715925,1.6841902835206553,1.692885208101012,1.6898012475604638,1.6927880094644765,1.672142738136997,1.6069618228853837,1.640273544439277,1.654658876313106,1.7172787973911683,1.7035535014295875,1.6900495561796929,1.6710257885508855,1.6144675464587666,1.587381707318882,1.6565895334689662,1.662903250707129,1.688823797336314,1.718006695232395,1.6704684404686634,1.6978237235139855,1.705529070330312,1.5967556736711195
1.6270709341171807,1.589609560837556,1.7066176800798427,1.635401335814784,1.6065217442666289,1.6085984946583582,1.5805706893434806,1.6497772073852237,1.7489846650022702,1.6958691063472358,1.7856434544743358,1.7561557929702882,1.802735606452983,1.7690595875755792,1.760562598933282,1.7287024626267093,1.719318433854684,1.7254031732663206,1.7679639014226436,1.7250141417088536,1.734932477541704,1.7655832999115124,1.6679004539006235,1.664292124474108,1.6915205229541608,1.685326547469528,1.672206719479976,1.6844930410401175,1.6378113446747793,1.6298955090337834,1.65302051086907,1.6709384065798683
1.6020315924922501,1.5978017789388392,1.6542764252763047,1.6218980181168654,1.578829119885093,1.5686759329321598,1.5671716404064244,1.7085163911166814,1.6698694053778058,1.673668814846941,1.7313224866940768,1.693590094151099,1.7275810439068338,1.7293361103155922,1.7253843401049014,1.7085859175504337,1.6942457542904794,1.6870034575849124,1.7026278219388624,1.6809069988075587,1.6880982979755579,1.7316438897952933,1.6958580824075342,1.6797425274398456,1.7179692420783637,1.66889881597985,1.653251421251143,1.6872613757669732,1.6300861938943645,1.6355257415511617,1.6442365515085982,1.7061090143871638
1.6911706724399571,1.6963526826750448,1.7057618662745644,1.6844413856386742,1.6734201801868895,1.563948840854926,1.5485345311642715,1.657210699281908,1.6454844113045086,1.643506398195658,1.6680822520257925,1.690546421641006,1.6829599213048099,1.6789753310448223,1.6824152331172781,1.6651526824271712,1.6756552462920669,1.670383195566973,1.674785971638874,1.68255883806315,1.6989577846703583,1.670552670477649,1.6650380376419065,1.6434376716323256,1.6752834373956742,1.650665910236948,1.6575436533360728,1.6459695253843316,1.6178913863623752,1.6649532809806795,1.6947152338759466,1.6668515053732469
1.7564168551982282,1.7685107324749896,1.791866047573797,1.7561206964383014,1.7230552487366595,1.6547241754643258,1.6158090517233488,1.6426885934068223,1.6869966057891095,1.7156243874491028,1.7003266391352765,1.7242901389596745,1.7168850373905935,1.7111350783691348,1.7070038041320985,1.7132443363452579,1.7158243005753546,1.7251212040787434,1.7442982019666737,1.7306520517210076,1.7254321827870895,1.7102094320664099,1.6720251589662953,1.6541893205717433,1.6576197810298752,1.6878660083032888,1.6637435537047605,1.6453433710437184,1.6541510399607373,1.6883975009158925,1.7154474172692036,1.6629043084729715
1.7130777339235561,1.6963968163287144,1.7185504537571388,1.7056803152765385,1.6870986682421751,1.5580821509987453,1.5882527912969584,1.7104343065987353,1.726859266621001,1.748924727749616,1.7463665259173795,1.7591262424815897,1.7196400612902325,1.7552717727081066,1.7376782500799617,1.7213083513200504,1.711351927183113,1.7310554719031337,1.7312954230334339,1.7226210190860405,1.6994507082568395,1.7268009782603113,1.70437719522756,1.6302719381729187,1.6825922345933444,1.702924019628492,1.6740865404388843,1.6780718491065811,1.6709353765747452,1.692092869110081,1.6927671029054028,1.6985449381712219
1.6975267902119693,1.6863629092781274,1.7059643895151841,1.6895243363933523,1.6574775714032242,1.5704727410485608,1.5458280512497338,1.6968841318744676,1.6788881849228863,1.7349264497865808,1.7284923682030588,1.7181110240702235,1.633130059653499,1.7180486174968186,1.7256361832611904,1.692943548045218,1.685553152604164,1.7039508281779872,1.6468830746346175,1.6773153307267739,1.6268607878852648,1.6482558854064826,1.6300822261087613,1.5521829572142303,1.6511984283802776,1.6585735470036802,1.649346944574973,1.6614253539333015,1.6659919124862526,1.7044993295376072,1.6874278242781047,1.7331221455921901
1.6388779318609505,1.6378089925704467,1.6960726214276913,1.6347984086516318,1.6124000227028683,1.598329249570551,1.5473765081865962,1.616574583829698,1.6333332281312902,1.6686435852201824,1.6382885016473812,1.652666640786875,1.6434057207477146,1.654867597045449,1.634892217712354,1.6571648975626074,1.679718359844386,1.6880872108869185,1.673080922469898,1.6827429649178611,1.6491233466523119,1.6701952974304384,1.6524878134822423,1.5930870676863085,1.635276404106587,1.6004362163375414,1.6168975911966903,1.6529277504816282,1.6301490212851064,1.6452504113449136,1.6265984119111632,1.6830058690090708
1.662080958072416,1.6718091093702636,1.703969972568759,1.650916965347757,1.646310190686677,1.5573004879615864,1.545138798379932,1.6042096175009763,1.601881986421481,1.6969567081118275,1.7277997492596189,1.731060034773996,1.6949741989545013,1.7133273828681765,1.7061397193864765,1.7280166212412909,1.7369806357425623,1.7590877558517823,1.760570539729064,1.771510210763733,1.7291587629698155,1.7055532112249674,1.6922833599175728,1.6542132309447652,1.689638360710646,1.6784389620128206,1.6712658621501888,1.6938294384432742,1.6683974459184918,1.6827650291841316,1.657527164508376,1.5891019539570068
1.763541860925158,1.77695765360428,1.7845571763400774,1.7523759659777374,1.7306133310819962,1.66733849923897,1.679948723352021,1.7195620848058022,1.7521890955360717,1.7786567981380328,1.820719421235654,1.7773174806314693,1.7858722453204914,1.7762778716467682,1.7883363744925798,1.7749116392598794,1.7748344543755619,1.761555200846918,1.7433893128144253,1.7877049882924443,1.7168659381645985,1.7444238083392827,1.7147081184192272,1.7027658850802339,1.731365727552834,1.7448278932605348,1.7411999241775762,1.7829906590198406,1.7601009355363584,1.761925357667055,1.7514927669200164,1.7017524431575402
1.787591724379149,1.782775890938673,1.7748018613774748,1.766124055788422,1.7823004837218903,1.6820191378571538,1.674444397132307,1.726340114464842,1.7781695321434021,1.7483270093139707,1.772882170386235,1.7788392730383662,1.7758522379241066,1.7460162642319135,1.7470567243178812,1.742793156151955,1.7423292658908993,1.708775354678514,1.6949491221516577,1.7311176016263585,1.677705838782222,1.708020659688223,1.7316713285717376,1.7436628891793604,1.7815600884472846,1.7991141033881992,1.802644160081911,1.7842910382365824,1.804636776939607,1.8009129629742344,1.8033348754759084,1.7717725548449295
1.74743533037508,1.7434519929662562,1.7549464659168437,1.7388935663840752,1.7625719613948367,1.662484431170408,1.6347757681541197,1.755556889108414,1.7654352101400417,1.8000749099379612,1.7862648756470836,1.8199143530400947,1.7662058019697906,1.8067922018620728,1.7909798062674336,1.7768247685006058,1.7886355053552347,1.774856715828691,1.7778776710850308,1.7917533047310719,1.7536129877621691,1.7584054462718646,1.745480707061426,1.7181044785345723,1.7371457267398025,1.7719096014384053,1.7381183389944657,1.725556812735861,1.736674470793329,1.7385437319347967,1.762049981173524,1.7784186274517444
