Fp1,AF3,F7,F3,FC1,FC5,T7,C3,CP1,CP5,P7,P3,Pz,PO3,O1,Oz,O2,PO4,P4,P8,CP6,CP2,C4,T8,FC6,FC2,F4,F8,AF4,Fp2,Fz,Cz
1.1040904777557736,1.12004934199383,1.1407282726972434,1.1321263748381143,1.1226628435184773,1.2126574921142894,1.244490884353292,1.168793526711657,1.1479037625781479,1.1178924347905672,1.1417345196395947,1.1406627460802954,1.1262925574125613,1.1361586632533038,1.137287794940502,1.1109325047299257,1.12240121436427,1.1278276062132404,1.1350963566548928,1.117064335554863,1.152391675453806,1.1500068459007184,1.1522989197478377,1.1741101418972482,1.172866756183644,1.133307150537549,1.113806698490148,1.1191630163177873,1.1158009186692948,1.1052498228021932,1.1071348000952888,1.1662654415690825
1.1079399130137013,1.1125383660167545,1.1368304638270288,1.1244333946217886,1.115028071012178,1.2357315362492225,1.2592434934048151,1.176409726289058,1.1276159357501279,1.1208702778336215,1.1369100069427047,1.1298373827253478,1.1030006714425329,1.1288648608643657,1.1379542417376523,1.1177700875054275,1.118110303356019,1.110084926336907,1.115551599198548,1.1076521856846628,1.1261498630277487,1.1211059896393551,1.1333968238444887,1.1931454699161037,1.1727427679766251,1.1316942984240046,1.1162343153177747,1.126547802739974,1.1139783048665786,1.1082834830721948,1.1030120051185934,1.1552922666283432
1.1066531218777997,1.113487991631627,1.1368295849071126,1.122611465626875,1.1281700109555401,1.213684883282732,1.2374775161137748,1.1778607302450952,1.1422740649484802,1.1268325165797608,1.1400279854174493,1.1279214212204975,1.1103918606934948,1.1235839757181076,1.1319222162806575,1.127837035695266,1.1191445263414064,1.1171742388637926,1.1199792271463611,1.1098127385568808,1.1290212906682877,1.1290946945806823,1.1365622137751796,1.1750342157891707,1.1705828736219865,1.1335929648233405,1.1225522033010715,1.1200047354529303,1.116156120704549,1.1099151520268478,1.1089334367828407,1.1622820860995682
1.1049511150147155,1.1128740397731143,1.1415377419591444,1.1312367349149883,1.127576348026784,1.2251164113871718,1.2483800579753512,1.1924506809115707,1.154695214825525,1.1506916547494082,1.1446933925568856,1.1437849252206491,1.1135304690113936,1.1366450341133327,1.1393283748452523,1.1268226481885377,1.1299377402953765,1.115468781452448,1.1179298020594934,1.113147928647524,1.1134962235826091,1.1269800218426913,1.1292492512636738,1.1626191920580116,1.1614163056798832,1.1399449833379973,1.1189211718480654,1.11109939186037,1.1111495495903616,1.1065224930869706,1.1046698395514707,1.1578467661435228
1.1099503713800534,1.1215371118590274,1.1569030766568233,1.144648670231803,1.1350066500729201,1.2471364328811736,1.262618505065876,1.2002656639751064,1.1478046039790986,1.1491451317256844,1.1503766830833992,1.1309829273790113,1.1397306161276226,1.1438208248713946,1.1494841519928187,1.1515441865779779,1.147011286535936,1.1289044339762753,1.1409624653607764,1.116990587968111,1.1315623242588793,1.1472588303998603,1.1380559519484086,1.1791975630614517,1.166258892026194,1.1391085147799167,1.120649189780813,1.1205580586750679,1.116802157566726,1.1136633163700407,1.106776724398015,1.1768556351941788
1.1174702619568657,1.1225470933913397,1.1624784003563764,1.1451485351382935,1.147549000215212,1.2414691072237414,1.2541425516796476,1.1838336579512792,1.1599298147540205,1.1521903300210397,1.148497350798744,1.1283187680678577,1.1425766656626313,1.1438030659824396,1.1429673010916974,1.1337677547372436,1.1303742106069665,1.1126477751814527,1.1248925685714528,1.10116788054398,1.114271324814192,1.1339446378445381,1.1254174032341069,1.1555697485840628,1.1638867305582479,1.1398737728791053,1.134802155700929,1.129438629498767,1.1298570196736397,1.1318443374665188,1.1186678495486788,1.162200738651075
1.1224722623233285,1.1283899092788876,1.1715907152527982,1.139618675083726,1.153737628079964,1.226732058997274,1.2397053083126581,1.1665986954981846,1.145824734261492,1.1432483086629581,1.1436411095521763,1.1234511224733326,1.128089147689773,1.139920232101972,1.1403401977190113,1.1342154861123983,1.132084858192398,1.1286862454434616,1.131378223769278,1.107908236263619,1.1281457357292983,1.1294763608308325,1.126806464866854,1.1728215497472931,1.169441305287872,1.1438388325913695,1.1292070853691902,1.1256729611941052,1.1268780642768716,1.1319436741998612,1.1357164370696256,1.1505418958482039
1.1290157639500693,1.12924667949084,1.1672862444893077,1.1323736053681555,1.1625771416294008,1.2196385621358912,1.2459450512977832,1.1763860242250996,1.1515443188620984,1.1577115433665424,1.153179115332819,1.128226107659705,1.1274113636901826,1.1372724070756428,1.137782890320487,1.1415154678039698,1.1487523268295186,1.1242633097498458,1.1224968378193811,1.1306003173520147,1.135041103326424,1.1276373503690234,1.1305362416146476,1.1816099652167493,1.1766038479975154,1.1503717709506374,1.1360921623575526,1.1379735532943418,1.1340440650502173,1.1383142569831777,1.1486163436672088,1.1548375102516908
1.1569150135024084,1.152520306724298,1.1780922996950047,1.1470191750512793,1.1712318220673736,1.1992712730957324,1.2365807946948513,1.1422030068819455,1.129103250252723,1.1353407872898411,1.1194579804444031,1.1113693153315902,1.1202336965228987,1.1142576082901168,1.1123134359699842,1.123260050875838,1.1297530210301476,1.1206403559176912,1.1148418066782118,1.1127511241323302,1.1180098149096127,1.1146072520102333,1.118847794175275,1.1687658411543995,1.1744763431309206,1.1479574742546184,1.1317987151849236,1.1343757132720051,1.1262856742751877,1.1352077881195008,1.1362867965005334,1.136232813779805
1.134721747624607,1.1264519284046703,1.1524909367276501,1.1136828113483714,1.1395865252235313,1.210703612542371,1.2407763321264058,1.1378444612103202,1.1188803562394936,1.1237983417387323,1.1196935426756447,1.1052983156471672,1.1201157382242635,1.1133683242879517,1.1180639226740405,1.1303185486829652,1.1324476484322272,1.1154667309590052,1.1177124538363277,1.1129373523908421,1.1263359977441754,1.1198928777067503,1.1305485867894238,1.1709210929293723,1.1880638775197379,1.151052292175452,1.1292800054813528,1.1434128299216952,1.1212335906832784,1.1300926613734712,1.1301635053863524,1.1528905966277498
1.1247689996416042,1.1217341577453563,1.1480883216160123,1.1192285466477376,1.1485895819529826,1.2026353409587935,1.245395679650857,1.132889636513715,1.1323152415224147,1.1144532366525381,1.1040083262925657,1.096052159303677,1.1336840691396468,1.1017718204730327,1.104343917031256,1.1206979658383684,1.1203858385567675,1.1243621711014151,1.1428140306244865,1.128921065199918,1.1387420556741141,1.1426274801259741,1.140654003740356,1.1664237391209822,1.1728178215285883,1.1457428618390928,1.1298079904781297,1.1347944684488762,1.1155664291875302,1.1259457067637122,1.1276481489830257,1.1477564631078692
1.124338497393784,1.1199725355531678,1.1586853940606392,1.1198448476950407,1.1374125142628988,1.2045175227392038,1.2315929145019546,1.1246589716758275,1.123409553697679,1.1243601049412917,1.1174013773618914,1.1107955821404434,1.1279474099856799,1.1162400006548772,1.11325749222683,1.1230458330321371,1.132158976617207,1.125165213162894,1.1082912918829193,1.1025192500559808,1.107961555099932,1.1212332663404956,1.1178147571452277,1.1645020691995323,1.1741315289237226,1.1343383447131201,1.1229821790055814,1.1307916273170913,1.1194607904061609,1.1253564782153402,1.1278692426395551,1.1529862848517598
1.120877793165072,1.110697866548913,1.147140143502536,1.1064989448117484,1.1248561707630116,1.1696246180019174,1.2301650187538964,1.1049317346114036,1.1146134261123932,1.0926402159515467,1.0829512512550727,1.0940198297049166,1.1191155744167567,1.0950866200941967,1.0930441695934514,1.1062408584335863,1.1168464699132123,1.1234434927809818,1.1115262222102145,1.0996132957856957,1.105425693390897,1.114396968967006,1.1139903173072327,1.1768251295894139,1.1912499302566815,1.1113541036769186,1.1098925205127181,1.149557540096088,1.1116524677501491,1.125613104537363,1.1098784751560122,1.1320307456168504
1.1312466642960761,1.1220518982902266,1.1465461057985211,1.111081686985822,1.1252586398607751,1.1702429823203835,1.2046886659994127,1.1103233519090903,1.1083317733105353,1.096116928508164,1.0802049938187968,1.0922686293970396,1.1213460886370497,1.096151592006055,1.0891889963149068,1.0926947138261334,1.1027530409424515,1.109593748555446,1.1070031366854165,1.1033736734790014,1.1169257885636008,1.1145370543451503,1.1187769134130157,1.1913190870149495,1.1868899153267383,1.1134767882675856,1.1209407983083761,1.1659771916467008,1.1265364685425623,1.1371505408838367,1.1208005194922488,1.1282489949031795
1.1328496903859728,1.123064069830048,1.1588818763863873,1.1162831445417072,1.126216454870607,1.1810362409825648,1.2037780380138947,1.1154562569840536,1.1099240460382738,1.0965588158386521,1.0878772424079284,1.096987891227462,1.1319837765506344,1.1017139796747557,1.1031737063443705,1.1148849070279052,1.123245228436094,1.1247367792219696,1.115542294974787,1.11405851980868,1.1221309261855281,1.119313279667205,1.1290669927299182,1.2080594827005904,1.1900596656507123,1.1088571976278032,1.1111772479927813,1.1615439515050126,1.1162678876291967,1.1304479668346048,1.1100659883267483,1.1267740634630563
1.1461218989637965,1.1403894529314447,1.1775375070124106,1.1373660576770956,1.1262594771931138,1.19918279008674,1.210976651535677,1.1304042341994744,1.114479168846152,1.1062498903573779,1.0814862558998548,1.106068462220621,1.1282272650751561,1.1014016022043953,1.089607164425531,1.1018985050573078,1.1067876436842128,1.104174742203715,1.1137691251953103,1.108323637421538,1.1224440980727375,1.1259248803885653,1.1422076495257105,1.2191142521561176,1.208119041067752,1.1101139343528017,1.1280972649403214,1.166363049531816,1.1321246656255597,1.1444477630039986,1.12170071694507,1.1355457124938486
1.1431428796758798,1.1352211900610767,1.159817858027918,1.13138309614106,1.1236720126866142,1.1925655335550587,1.2303720827934566,1.122124819108576,1.1215222336459767,1.1046740084683024,1.102087135949492,1.117505730847791,1.1282957475101938,1.1080970740318559,1.0932284725657284,1.0988684679392748,1.0992704501142803,1.1120460387874347,1.133268113750565,1.1134477800444087,1.135895589993418,1.1279416474348298,1.151216348522465,1.2164081576459054,1.2113095257897488,1.1077774938116918,1.137340980931839,1.1871407565368028,1.1415748784396256,1.1468368761915932,1.1168002914423356,1.1298980745563512
1.1427222794489045,1.1361591155547617,1.1564040798175657,1.1307322282132146,1.1227514841470676,1.202571959622595,1.2463191411841048,1.1353074481305714,1.1315612920369822,1.1174385833099858,1.1075017569757333,1.1235747031149819,1.1228348104674668,1.1162947176032358,1.0967919523715208,1.0981250986730369,1.0981722092585022,1.1065018604909487,1.1197725555901834,1.104249795231581,1.1203683673148221,1.1084341321381082,1.1315547103068577,1.2222051267025404,1.2071612456820624,1.1085337983203327,1.1460294475629342,1.1860991535648442,1.1495652627790764,1.1493307734317684,1.1218793909951033,1.1535175783201246
1.1392656930947807,1.1319296654025162,1.159966865679371,1.146627754837106,1.1162708940589512,1.221136450630764,1.2673585153212215,1.1459776230714436,1.14014405089292,1.117068979272771,1.1022344701705717,1.1193058253863941,1.1382794545097943,1.1131675999487107,1.101878284737214,1.104045548457453,1.11133351497793,1.1082558860168465,1.1355002732386588,1.122737165708502,1.147638918050144,1.1443104108786701,1.1612191901192839,1.2247765914517383,1.1971417579772428,1.11003638593664,1.1244058482914085,1.1680647550112728,1.126345897047345,1.1299620453190946,1.1123650963594094,1.164915415579562
1.137009378899762,1.1346406236264488,1.1676147050167032,1.1448303536475364,1.1215643882198614,1.2285032660555306,1.2396891730794861,1.1473646027988105,1.13493590723866,1.1254426643831668,1.116126630487753,1.1354314836389785,1.1440499544542724,1.1300856367774257,1.1145284161357023,1.109410735164839,1.1049317031142936,1.1011541803556848,1.1177186230844973,1.106887485734209,1.1241601548959421,1.1188609418609987,1.1273512708676885,1.1907872100707089,1.1782034333409475,1.0999517372401375,1.131866198777716,1.1657214944371062,1.13910443963495,1.1450471531533948,1.116163688334171,1.1369699112151062
1.1622385299058209,1.1582362123840853,1.1629733629990369,1.165825928285609,1.1662267511168118,1.2334212408876928,1.217466564313392,1.1465072493314437,1.1494155410257019,1.1117252070552874,1.1082788099212966,1.1310950426039992,1.1187735698041035,1.1204018668472628,1.1134155447875564,1.1079866888084615,1.111393285862799,1.1049608063957683,1.1357386509324197,1.1155317834643306,1.134149567379483,1.1250775981916448,1.1260025471282324,1.1996187156837623,1.184653496475815,1.1022154087468692,1.1419120891446946,1.1758049763321115,1.1618339694934794,1.1635607833331951,1.142161849082058,1.1581593373278036
1.1526005995110213,1.151672785553935,1.1756249232092748,1.1615614462974786,1.149534538036422,1.2437521971207635,1.21993606829028,1.1617870273055657,1.157525376639323,1.1239423959526076,1.129662623481894,1.1458893238905274,1.1322241619935,1.1328942685895922,1.122551428413544,1.1218633886624303,1.116275534683066,1.1141817955758344,1.1269977346382702,1.1240052572590893,1.1421419597709175,1.1216577915140347,1.1353184562268275,1.2097542067940312,1.181118258417878,1.1227237437578215,1.1457936806760227,1.1582476638644021,1.1587829378091137,1.1594597446632313,1.1303634227862596,1.1512788992431497
1.1495348689509401,1.1547671180080317,1.164331087236566,1.1683059924778814,1.1533660808662913,1.2478226238479098,1.2311993861557078,1.1641743973315457,1.1569694975691032,1.1387626674663902,1.151507467594915,1.1560185818258668,1.1235993658085783,1.1450861834695623,1.1375452955088812,1.126168270214331,1.1147717642481578,1.1119415128651344,1.115562520246861,1.1174923280397349,1.143374676808583,1.1151027053214257,1.135925759122918,1.20373250026779,1.174958823888188,1.1236272614525915,1.1427803809147397,1.1576746653534307,1.1529418926413162,1.1549273059256306,1.1365100692933259,1.152521646028773
1.1257667378699983,1.1342935601141853,1.1450979801489785,1.1480588568906933,1.1395951300938756,1.2324133833938167,1.2342832699293447,1.1693838077770435,1.1604367877686592,1.1296582630301113,1.1496776879030266,1.1558432525241542,1.1188625765090419,1.1378836666170615,1.1294316576281571,1.1097536213549388,1.1080184010563294,1.1139021124577817,1.1192419754064926,1.1139847393449376,1.144195597773096,1.1246717499778318,1.143949611800423,1.1759656152473392,1.1610722467161863,1.1151018969737096,1.1263373676379942,1.1422509091027158,1.1311927543289204,1.1299048213017802,1.1248476851814841,1.166705949453931
1.123817538060566,1.1298119253202281,1.1440809872755704,1.1384016985374343,1.128255481915137,1.239295118864083,1.2305945714466806,1.1859207275287946,1.153858763075353,1.1328350340116973,1.1513890423222133,1.153239749860456,1.1072408030682548,1.140252490401328,1.1304323279903408,1.1084068418018296,1.1040943402767636,1.1128822994914238,1.106771290421913,1.1127189174047551,1.1293310447328915,1.1107870913953986,1.1187378493002902,1.1625497797700453,1.147302550459992,1.12078064078898,1.1180873670430789,1.1267947101338995,1.1223685292830738,1.1178186416964722,1.114650910640805,1.158146191247697
1.1160966782834707,1.1180040255432528,1.1235862900828906,1.1358273620346189,1.1302568462761051,1.2426602937509026,1.2268490458772168,1.198995997096516,1.1589095760679613,1.1289261576433005,1.1557124445085032,1.151517772578336,1.113327682369357,1.1494196176990779,1.1328028722721029,1.1071017209086178,1.110538884362297,1.111497782340105,1.1085719882107232,1.124108974538562,1.1355598520707713,1.1112753603578907,1.1154585159201555,1.1632147888166133,1.1540382642560318,1.121368205846268,1.1132707359541045,1.1293503089152637,1.1200031265115173,1.11011151093412,1.1125808203825152,1.1713265916942401
1.1269945205304441,1.1287921672220012,1.1317982179969117,1.1334300720853225,1.1519464869734213,1.2401056557841816,1.2116927263520336,1.1955897946476817,1.1504852580599056,1.1236139424433291,1.1434211770081004,1.137013589241709,1.1211049913464228,1.147204408846197,1.1340638538425787,1.1097447727447134,1.115311072341969,1.118247609326848,1.1096158853292868,1.1222990698109534,1.129531781533329,1.116100578303677,1.1249669142063774,1.1812887565194985,1.156942710727406,1.1261392411396616,1.123528470839618,1.1235365588895891,1.1263256800683998,1.1205956386350464,1.1299859762159752,1.1689049636468973
1.120565474495324,1.1277404419169137,1.1317777130254096,1.1348678736625988,1.1640144776658934,1.2461312498117982,1.188838895485482,1.1866783599812807,1.1703966508000616,1.1238474040741462,1.134344167573592,1.1295527665734983,1.1400132858626622,1.138380327948595,1.1243509189519847,1.1133251645092825,1.1151573595620525,1.1289129043805337,1.1268217229204889,1.1249316150357058,1.1381095482193864,1.1358885373430072,1.1278599962810265,1.181580483150261,1.1600541328873677,1.1323343822880603,1.1230209373573354,1.1306857246009874,1.1243864864930595,1.1201738821776448,1.1309420574506241,1.1721040623061232
1.1126474463715599,1.1260694641295041,1.1397693057097178,1.1336403230614394,1.1603552525327052,1.2422811644066232,1.1956759135667496,1.1883582392366778,1.1755335410756451,1.1263780497272762,1.132557048784787,1.143239548350613,1.1444464250476623,1.1483699086903925,1.12124273412638,1.1068684563380562,1.1157240911560393,1.1399122677125613,1.1421849263492732,1.1335179591090117,1.1598731939361617,1.1471686482999277,1.1428049551186048,1.2011654530554847,1.1610245518536588,1.1316372011697942,1.111948139722064,1.1256581047655008,1.1214031785975633,1.1072372746784103,1.1234023803653967,1.1855937700204668
1.117277464892278,1.1208300965664815,1.1405258060167058,1.1294803699826816,1.142903925495082,1.2227726756521167,1.2047487331855022,1.2047484875835035,1.173242336196002,1.1432324137376522,1.1418666788133311,1.1489318594162061,1.150722811990208,1.1550293017589128,1.1381250471444793,1.117770003679815,1.1355880993768954,1.1428117508440057,1.1443309913965871,1.1532541284849918,1.16867777948326,1.1445677357081248,1.1529276644270454,1.2112398868420235,1.2124654494820581,1.152900764411396,1.12650862309328,1.1491126901217192,1.1270702530120331,1.118639967706328,1.1206115724116006,1.2066374614221544
1.1233299297699526,1.130110583144984,1.14701648421198,1.1386955287273237,1.1526014976864236,1.233024349673639,1.2132567834420152,1.2054546607939278,1.1752470975043392,1.1333673438575278,1.1376229933412638,1.1522945486327494,1.167137617873587,1.1583190299358377,1.1347355665398007,1.115416692909013,1.133436492162835,1.151732492540866,1.1600050314805308,1.1608219998411364,1.1820268318084202,1.1536242215444368,1.1615419155705602,1.2100788266027402,1.21846443797764,1.164924762452262,1.140472497433883,1.1550420148877978,1.1311372066199796,1.1228020240381507,1.136452966074134,1.2153780212231187
1.1121444711740938,1.1197244153232726,1.1348272618217954,1.1350298720099516,1.1271286543185863,1.233662676692324,1.1989591734828862,1.2167468196509639,1.1768745981175346,1.149800045765829,1.141095469863898,1.153567232393756,1.1756303119814768,1.173628001059443,1.1510210816465092,1.1433250862821047,1.1649621369059358,1.188360886916924,1.1758376213714912,1.1774193533915105,1.1786862456578255,1.157276649111523,1.1588272221363662,1.2103163163995079,1.2078771596383655,1.1477709058481194,1.1281877444493478,1.1567103124407896,1.1296884518837416,1.1211160743728799,1.116739186136448,1.226125023649694
1.123150396930385,1.110479783849417,1.1421225378976918,1.129061076960022,1.140301952651555,1.2272355447387522,1.197452257386771,1.217389808352322,1.1925960835451217,1.1650286897421382,1.1478929511135572,1.1750142886200587,1.1972433894977592,1.1812133153337612,1.1631131616097223,1.1603615931531237,1.176927246665122,1.1886662590553667,1.1949906168886453,1.1865113390392654,1.1942329745533524,1.1778025847959206,1.1840909685521226,1.2436228692892124,1.2205840441147788,1.161650775470397,1.1414330445051961,1.1651184436067155,1.1330196762997247,1.1157001637083588,1.1170780480190865,1.226960018085014
1.1311527909063024,1.1223983002184912,1.1492816922216367,1.1388096297622303,1.1437494510748605,1.2404834952740647,1.2044549681826684,1.2140892950427113,1.175033680936454,1.1575142008142578,1.1438484360221954,1.1617385030596095,1.1890391698272786,1.1844842848816592,1.1729196189272875,1.1651388667733553,1.1714522017142346,1.194670297638406,1.1873822090469195,1.1852007517965537,1.1865954417093534,1.16858665587107,1.1671382502472056,1.243062671614384,1.2121182398361898,1.1455971111462049,1.1406029213527795,1.1553364464352525,1.1328862155701964,1.120702146044918,1.1279323426698904,1.199547469754783
1.1281489245539074,1.1201909977472262,1.1499962587148491,1.1388568590114165,1.1453562643579598,1.2577290088326465,1.212914407504145,1.20920470787329,1.1792761840710762,1.1493656947220756,1.142575772980745,1.16772761183736,1.1964359138788658,1.1761962571632334,1.1676896510407178,1.1594579766083222,1.159544855372472,1.185607298349212,1.1902161628329124,1.1743868292445685,1.19323377220702,1.175621004587735,1.1726131686407149,1.2279200043578156,1.2117353977245549,1.1529800535658843,1.146913888473453,1.1594033668568418,1.14760745051935,1.1368466992693405,1.1272252413014316,1.202383821215157
1.133839954063339,1.1244211955466794,1.1651726474351547,1.1435143848245686,1.1407554331726375,1.2504719894180862,1.2118611587804506,1.1892320718617602,1.1635683549888538,1.1352663649833912,1.134088046323336,1.1550076483792124,1.1732300132462041,1.1478964933847355,1.148906531969476,1.1571778911443162,1.1566051726319417,1.1797082665242293,1.1749096633488882,1.1749402115181011,1.191286539207092,1.1580567089475955,1.1718244402039126,1.2339105227264302,1.21488091168308,1.1442958885956032,1.142803741715136,1.1586273298856944,1.1309289107127445,1.14508334226948,1.1188681344368854,1.1968804938829032
1.1575998916206447,1.1452420497369011,1.1758176326092493,1.1712122208243096,1.1537220630508012,1.2623543265310082,1.2379469228189262,1.1745569995272176,1.1748205249801948,1.1542728534887812,1.1549271269003285,1.178856879803441,1.176398791398577,1.1734597114151786,1.1754919740150986,1.1754172152205669,1.1817528781568272,1.180368819394081,1.1717964526567812,1.1861648551432882,1.194588875493042,1.1626994280196141,1.173348982912244,1.2416729179312875,1.2231945594146187,1.1656833378506175,1.1592262299771026,1.1695738873053914,1.1539066875365094,1.1666111820678673,1.139991977403307,1.200883355283288
1.1595438871534003,1.142417107386259,1.1777698998623176,1.1492487291027076,1.151829784861608,1.2612331695180807,1.2549219194362622,1.2031329453440598,1.148405489504218,1.1434178415273273,1.1607106833461531,1.166407594294322,1.1726684569417347,1.1623230250440764,1.1845390525812785,1.1870038523924846,1.1755045949961662,1.1791768349593021,1.168620822507727,1.1835917155294702,1.1856377618842255,1.1584121888861965,1.1629582284150426,1.227783549423959,1.2289592450569808,1.1746054654787872,1.1697500054934862,1.1721773676307419,1.156307201867748,1.1713385437767265,1.1507364919491017,1.2171125094303192
1.1517701823064812,1.1364732276150982,1.181921401234903,1.1510085939413488,1.1390128969930815,1.2686319793495922,1.264315742300229,1.1972033983631587,1.1551620956858575,1.1457028622346332,1.1553620200018015,1.1591857035299853,1.155830715948733,1.1468850307915557,1.1743835603907022,1.168793443458137,1.1697896579488856,1.167147042848312,1.1625369794522962,1.1788661231639557,1.1794803440672983,1.1563859934574108,1.1649058086921353,1.2419375534225494,1.2221241239995433,1.1641833052111639,1.1613861576943776,1.1829807298120951,1.1549246378865152,1.1701034276146913,1.130682232269577,1.1926852516513062
1.152126767660694,1.1415966848069181,1.1663737961087128,1.1500866932630476,1.146197836974329,1.2677943810422334,1.2736521116251212,1.2058096902956617,1.164531152588356,1.1563943011504019,1.1671949399255614,1.1742339245264861,1.158644036484702,1.153796042566803,1.172245028086892,1.165838653485768,1.1524008473944618,1.1597290639712925,1.1664510145388196,1.1776005779674474,1.1928742690813192,1.1534884459455361,1.159219066301618,1.2304418710559482,1.2090416347917063,1.159833613909626,1.176697725759889,1.1882539606056428,1.1738142265612408,1.1888347586885661,1.1442164581730858,1.199243219785969
1.1540816171666692,1.1541753239215806,1.1796702005367052,1.1587126830327177,1.1601368744288376,1.2889124570372237,1.2719997972196124,1.2252964809070201,1.1494729936050132,1.154489570507292,1.1636737667937345,1.156458704527805,1.157214822024998,1.1405556438683349,1.159763204922891,1.1620280551244322,1.1500491412153238,1.1423472697060042,1.1634361640599131,1.1747986880528598,1.1958579695128437,1.166085755663239,1.1663159683176259,1.231661952149998,1.2055877874684464,1.1562410618274332,1.1694951528716993,1.1774792090736885,1.1702542953704438,1.1862154530180131,1.1296187965615405,1.1972805993315145
1.1827526858327149,1.1686646351194452,1.2092422342805658,1.16859154286952,1.161168096956034,1.3065847045272143,1.2957686707081888,1.2159837839817829,1.1555852277972407,1.1564812272802367,1.1715902515596883,1.1651137432073118,1.1536388262104909,1.145514779479605,1.1714552836903198,1.176189968345528,1.150343763413787,1.1518138957732071,1.1622075352730754,1.1852713241264508,1.2030535894713608,1.1491489721954733,1.1615167484304993,1.2313970021934426,1.2136452616297653,1.1694848119476424,1.194581904059532,1.190569897222763,1.1891542096617138,1.2091629383765727,1.1440966595924966,1.193492789843569
1.1743926795345687,1.181378867896915,1.2117687948043545,1.1728316034131956,1.1646113501903836,1.313550756252926,1.2966449670203288,1.2164676551561309,1.157551556784312,1.1505769502065248,1.1606164944799935,1.1647638170276258,1.1409833117098538,1.1331858724920378,1.150764893282163,1.1680391186327161,1.1507170661494603,1.1600278490883178,1.1635377281100343,1.1828576749263364,1.1963977784366677,1.1478733098607332,1.1616146671059304,1.2108910171839022,1.214276347541634,1.1670627051378877,1.1831787189574599,1.1865830158661705,1.1922759458313439,1.2129553293292334,1.1453049932541206,1.1840494154120662
1.1750076383767287,1.1851086714206909,1.2105916908211252,1.1952605180423703,1.2001184470818005,1.3384114556235307,1.3103055589112982,1.217289318964612,1.1752941171597364,1.1645195908744943,1.178582558018823,1.162999665269938,1.1502767121644368,1.146064132490546,1.1562987412945018,1.1626898237696455,1.140609785052521,1.1333281650405365,1.160056462908036,1.1833190138774903,1.206722039702799,1.1505373218208106,1.1813359544030595,1.2344468595854783,1.2182896963000154,1.1754857129887981,1.1924028109830362,1.1851303070771184,1.1904974200377243,1.2090821057426253,1.162174189289463,1.1864465064151375
1.1528160435233057,1.164820874746358,1.185623180758315,1.1776818453655535,1.1732296580588324,1.326891696116912,1.309570541978811,1.229959507735188,1.166922391923338,1.1802164952671923,1.1768465064685691,1.165249672630851,1.153635871138309,1.1433750547397878,1.1504189200102548,1.1488179624110741,1.1408234446684877,1.1324834481653807,1.1476054150020905,1.1630223108247442,1.1824595320250224,1.1526525192566996,1.1809591049677746,1.23858455908945,1.1969992450241502,1.158383450989745,1.1686586999980437,1.1683775554064888,1.1675467088647946,1.1803153055443767,1.1389932759599357,1.1848144439801105
1.1558990857452325,1.1621225023647392,1.1814455205902683,1.172189053059136,1.1717641172910265,1.3258433351765997,1.3202930033556621,1.22409941394447,1.1644279084662439,1.1669997979651205,1.199146285776493,1.1662616579331269,1.1579615303930213,1.1607988218910552,1.1603492465579845,1.1568813250512842,1.145632532764672,1.1373818923889825,1.1516512820857965,1.1545081696653139,1.1856248986367879,1.1570950079064768,1.1603553599203906,1.2037977245226954,1.179074826389619,1.1434589196766523,1.1561331827160575,1.1634348342330654,1.1627588555943906,1.1720175824717325,1.1443527128237312,1.1809636414622864
1.1558280598912292,1.1792488435465034,1.1827806910680863,1.1879085111293535,1.1796445398410467,1.3247888275845319,1.2833715640833658,1.2230413713849309,1.1664720671645117,1.1733321367991278,1.1782511989988214,1.1655991757727164,1.170925951513113,1.1622588280847783,1.1576600070151783,1.1495634922505846,1.1395564250293149,1.1333878833529,1.151445866946094,1.1508364585601607,1.1893874712165127,1.1591068045945254,1.1663831851000863,1.1906614585427162,1.1739604080943635,1.1460992522951876,1.1493963900543036,1.1487071899093269,1.1550309240587993,1.1548348885130881,1.1452842208492828,1.1906460437012785
1.1679497106156593,1.163397399456125,1.1921865880915952,1.1690915765415693,1.1758884907330989,1.310845417272962,1.2829622514657244,1.2082010055314547,1.1564542996487654,1.1767949768853005,1.1675333316010499,1.154290445911912,1.14881743779754,1.145770844060961,1.144222097300415,1.141287095892663,1.1315710382162039,1.1366953999960487,1.1474924151542818,1.139783317830848,1.1786589681527309,1.1552527269004207,1.1634163994663382,1.1935455073519328,1.1718299964985865,1.147878770407162,1.142647533099024,1.1508901910410165,1.1496800750762988,1.161736873264386,1.1455698781988506,1.1856717120601714
1.1710965927765509,1.1686144150630966,1.17849360268726,1.1666370162630957,1.1938046522648968,1.292067589624306,1.253799947870513,1.193425268329637,1.1584714571466175,1.1537614824240532,1.1616232141084608,1.1452964643161505,1.157222164703268,1.1714122433199723,1.1589939970880352,1.1544158337262433,1.1492815570155301,1.1608647208157397,1.1478645758876465,1.1458118709548122,1.1885618248620218,1.1571551531635171,1.1783947568623432,1.1967183462838349,1.1762007057683501,1.1519159135190868,1.147760016486722,1.146525663054893,1.1486771143379306,1.160054388837155,1.1612757314441222,1.1904824192832568
1.1567187853509464,1.1565509358533808,1.170699265505878,1.1539543663944352,1.1625265188071794,1.2718567389000233,1.2469086914562322,1.1776109296828297,1.1605712409897087,1.13741691871135,1.1480785359486922,1.1472728774647243,1.1643939168111264,1.1467699043322712,1.1419030033036062,1.1450981160914198,1.1586162269911624,1.165702537968529,1.1504990528081298,1.1590375870697316,1.183765496531257,1.1568739637443777,1.1737888838802142,1.2205271449835133,1.1507663266405013,1.1400079814613275,1.1296589192228814,1.139416818234511,1.1380397266724585,1.1368278491116444,1.1500373468892189,1.1945110513302686
1.1447889674182188,1.1308946806338498,1.1412255494966477,1.1323953520805947,1.1514980528213448,1.2431015721853353,1.2370384729443324,1.168434550273587,1.14174641368829,1.1194104913804566,1.1224322166547611,1.115333170263071,1.128482422388365,1.1201156049977106,1.118466278079331,1.1220997327221882,1.1517096736942753,1.1567339270513008,1.137256225939154,1.138980228645318,1.1786945750825935,1.1347950507065703,1.1742422226558593,1.2264132277047557,1.1713228824762087,1.1504127786645413,1.1442998289883628,1.1404760212520595,1.144711537367432,1.1346326384388543,1.1471025726751405,1.1940579445260153
1.1475156734273964,1.1430912106472988,1.136224977222178,1.1378092829599469,1.159251317322802,1.230512809143766,1.2230207044668526,1.1707592245479648,1.1486220483224905,1.1173808292690446,1.1345079118951162,1.116838427033735,1.1356325949992916,1.1284706554166826,1.1277160637718033,1.1270418979293166,1.1567910712611313,1.1675727974532186,1.151566469361809,1.1442185523930901,1.1774163767666046,1.150872929357498,1.1639555070557437,1.2248489641610394,1.1663783206447602,1.1548780847323088,1.1421017428655686,1.136029160299983,1.1374811973704917,1.130032015335542,1.1644309043515302,1.1981025908340688
1.1456259618160132,1.1300227287067428,1.1407144014628097,1.1293140958903787,1.1436859924645955,1.2332706926460093,1.2135469173036129,1.1732272157627763,1.129778135576686,1.1235183304737364,1.1209877135868904,1.1073401871628201,1.121216614553433,1.1233813404844748,1.114843198124731,1.1221808854090607,1.1429758080692998,1.1629585038372272,1.1419151606724673,1.1305792348004646,1.1687710416396997,1.1390940966912946,1.1652799666752596,1.1947879959065495,1.1645026546799846,1.1448434432188903,1.140083982452652,1.1340499070352166,1.1418228923662943,1.1282063263957343,1.1456795388515253,1.2119819624390833
1.1565655997488202,1.1406984659978214,1.1329413628276968,1.123178808013781,1.1480279928682475,1.2052954841977077,1.2156675138210933,1.150269966933326,1.1385805259623492,1.1148587953195583,1.11150943631946,1.1154219509490972,1.122332124798424,1.117164942106923,1.1075469097824748,1.113274804923634,1.1343666711983085,1.1659381403300464,1.1431058749617602,1.126345629324982,1.161104082534195,1.139379512179108,1.1534384282647712,1.2025160391493759,1.1651898114021493,1.1734885713684733,1.1662843827591287,1.1446715160657206,1.1573601989877462,1.1438741234963845,1.166487729362837,1.204887501543604
1.1494912873998147,1.1405043155374204,1.1528895322745163,1.1209088262865405,1.1422557444110744,1.2161249207065115,1.2129721937594231,1.146547112503683,1.1510161311268599,1.1033994437457724,1.1159479218871717,1.106612691445659,1.123613594416124,1.107301076278723,1.1013730532087043,1.1144686749901487,1.135104048401608,1.155556852874533,1.1446846812061098,1.126329918123754,1.1574709227519684,1.1464201166466823,1.1622997016378451,1.205998511836917,1.174905321610468,1.1584101116869878,1.1449201360166879,1.1382148891367565,1.1356213380928022,1.127417783517918,1.1466355727767743,1.208824926234944
1.1749972306807013,1.162327000764521,1.1684703430224999,1.1504002462640057,1.1678931945281958,1.2129896198269299,1.1865699065022381,1.1642281341923784,1.1542947948942048,1.1049386681212539,1.1175715237640544,1.0967725851884784,1.1117440969789658,1.094059510338639,1.0934689662377177,1.1062685844176932,1.1270266791691974,1.1491338282131518,1.1373148738768863,1.1189052802187431,1.14966413904983,1.1307863086863037,1.145581554188708,1.202863369645138,1.1787425518744201,1.17230578376567,1.1695354596461285,1.1649687038724061,1.173413753927665,1.1633464391857344,1.1796204913731412,1.1968998450559745
1.1482066868010674,1.1390164245560257,1.1606906217105515,1.1447494055842866,1.1277597106148667,1.2055276428644115,1.1856112403837031,1.1558984109460841,1.1345690965660606,1.0991583227637265,1.1124634957230928,1.099560081672283,1.1091298667465954,1.0987862280003984,1.0958597621374933,1.113611079313115,1.1361773316453552,1.157133864607646,1.144968956499121,1.1231251177741641,1.152372444815939,1.1344212527504727,1.1506798340302618,1.2086738765075153,1.165394383524111,1.1430732199364448,1.1406065077777034,1.1434139772151557,1.1439102414484528,1.1362408553692058,1.1333680381048687,1.211278764834743
1.130711239627473,1.1279145357510314,1.144810290003409,1.1363130688662735,1.129170839115721,1.209681581707762,1.1972027699269063,1.1593176569114978,1.11409857827676,1.1101869947480942,1.1080333575899148,1.090584491683105,1.1174034556994976,1.0911383819582519,1.083859184921309,1.106919210353719,1.1304570914232908,1.150912544051891,1.1563429245955694,1.1315897579035858,1.158292124736867,1.1531665517092209,1.1447668152250619,1.182505292851386,1.1460607501154219,1.1392653673992326,1.1403072023859944,1.1207946507402242,1.138346286312268,1.126312398985999,1.1391315632345729,1.2026639371730559
1.1395376948021145,1.129745001978586,1.157715836519145,1.1341664038806518,1.1215548520125311,1.2213756354573644,1.1881221231659636,1.1525135859279274,1.1227367389054659,1.096420713132747,1.1016325594362417,1.0965304562755527,1.1178561362661592,1.0995544729823414,1.091855136473552,1.0989260012743327,1.11223442948554,1.1300153756577158,1.1342279236840869,1.100939373211216,1.1403339578259286,1.1208452463717014,1.1199399695691112,1.1620245314479154,1.1403574361455127,1.1349029047967585,1.1223165151020773,1.1113753779439157,1.119005784396014,1.1137776927017267,1.128234526696268,1.1853946117848533
1.15461139233114,1.1522426216383983,1.1850176882455623,1.155244267448937,1.1269498879262283,1.2455416227491438,1.1936701777255632,1.1540598725594666,1.1292617548885924,1.099299373142416,1.1162686219772062,1.0995810268753792,1.1317578106589847,1.1068329456307253,1.0965522419908533,1.1055326752559966,1.1063745060441492,1.140233095322492,1.1315773792184858,1.097612683733045,1.1338035595811937,1.1254985566547564,1.1319956490988048,1.1612873954040102,1.1507029593554552,1.1309284042514822,1.1206319928636073,1.115109425976052,1.119475041844828,1.124618958630167,1.1247487889462087,1.1805158178943798
1.152364415216232,1.1490769871501882,1.1521811241077116,1.1520132160439547,1.1213537513432688,1.2159638199476481,1.1629774210832713,1.1330672945941047,1.1316412110362701,1.0771251613230688,1.1057249800754219,1.1067890332365249,1.1524732542371228,1.1108505969605735,1.0924874995621414,1.1100915748653932,1.1048060754049351,1.1391659125661278,1.1343332529954324,1.108401085339655,1.1426370678186855,1.1394840240494941,1.1307212678716632,1.1652790065943226,1.1420079734823523,1.114699080573834,1.1125446778750545,1.1142370278558067,1.1162738005128918,1.1200656603641908,1.1182325890352962,1.1719533175822248
1.1489007300825076,1.1591515593002983,1.1516833819947931,1.1517549753389764,1.1168436502831753,1.2091732552555816,1.185900896571786,1.1274083986785233,1.1283097938133944,1.073197751436956,1.0990968676310595,1.101229181209121,1.1334213058588412,1.0958473365703607,1.0802311958769144,1.1074340760495547,1.105625456551441,1.1371725538503745,1.1219142431162137,1.100696931083522,1.1326855301420198,1.1298216450859457,1.1218259634326377,1.1611246058093752,1.134466294444076,1.1081794757672279,1.1058147384031831,1.108634609863289,1.1088108136297365,1.1147328553075468,1.1146473755576747,1.1611594474098694
1.1491543737335894,1.1567924756124832,1.1550473569969664,1.1492107647304721,1.1250660794676148,1.2045512790689683,1.1775721917842341,1.1303659377752118,1.1358835943485468,1.0771985841457312,1.1014517994792263,1.1245816546127325,1.1460033620969043,1.114000962503149,1.09387674667504,1.1064921016590177,1.1090501505645334,1.1358498484543527,1.1145463329623957,1.0979974725422943,1.1356020294808926,1.1347073064333597,1.137113986741196,1.1531620202090662,1.140193958608409,1.1091350454619078,1.1065962584240732,1.1131144199002334,1.1098888733623666,1.123083016452111,1.1175058970274088,1.1601025246735122
1.1546804283292145,1.163062791948875,1.1613218706533706,1.142995470817223,1.1263465746951975,1.1846895044719028,1.1978956417788447,1.1341766109320572,1.1267456087107852,1.083961651046735,1.0985402697148923,1.117142988939202,1.1611516908493817,1.114148975794179,1.1025629034865023,1.1203892632781263,1.1265039528388603,1.147429230666491,1.138532237747364,1.1226011885539784,1.1522261074334774,1.1478618358322947,1.1480893656010012,1.154923367699038,1.1692633876551513,1.1211204234762808,1.113036484702804,1.124131461607507,1.1181797954359347,1.1344926666557154,1.1259155749037424,1.1860545564239688
1.1349332391396252,1.1364413346564843,1.1413133233588346,1.1250873830643937,1.124048806694615,1.1602509746582603,1.2045080108662025,1.1352935410553815,1.1273763591902795,1.0874371736483428,1.1047161449514238,1.1097771364154942,1.14682181048979,1.1035273882141305,1.1002458477536146,1.110791709438606,1.1148172738631734,1.1375305263414262,1.1220531076923614,1.1151616351479041,1.136965509590872,1.1303155705731414,1.1273292742372458,1.1559498031076874,1.1384095771950404,1.103273012299132,1.1024926909126451,1.1143218823061374,1.1101058462263795,1.1132828173568234,1.110813363650332,1.1814713259045693
1.127734631069828,1.1404096270562092,1.1347565871637133,1.1325366020650922,1.1222790499008395,1.156816069828956,1.2034373878255622,1.1324209237426537,1.123936197662005,1.091367485271152,1.1032432949183169,1.1165201746987707,1.1447010626624035,1.1085324134588312,1.0915615737776982,1.1128983573978317,1.1213486379864057,1.1383391439599246,1.1341119994763162,1.1228656244633217,1.1524559455048187,1.1357237407730378,1.1315154597535548,1.1598943496480865,1.1480841966066753,1.1037763749507692,1.0939159263762699,1.1084127737715872,1.1006878211773323,1.1152067536743222,1.1136496042578672,1.187553255581517
1.144576184081193,1.143870478034044,1.1350448473386114,1.130355380101379,1.1325475864055627,1.1556530301610204,1.2210959597409567,1.1234946329553182,1.1495444792247045,1.1114201859843371,1.1277367442475597,1.1334057374812418,1.1394832557109407,1.1209438453882297,1.109557936367532,1.1215043606081196,1.1228507056974475,1.1398043524220476,1.123761162871384,1.1236510627443874,1.1344305308711453,1.1319259211153643,1.1347667365860514,1.1775221709509318,1.162900533129473,1.1175092275796497,1.1116254014383153,1.122416123060334,1.120847349023123,1.138186279610714,1.1299137468699298,1.1810957428372029
1.1485581796391426,1.1530733459739257,1.1412591943389805,1.1395172215089806,1.1370739421266387,1.1599262340185776,1.2065046435584434,1.1137746540710678,1.1423994882321042,1.0963619655824361,1.1153577424489456,1.1277907093482566,1.1480626951228907,1.1099307773723703,1.1104179354302766,1.1296969959293424,1.1319349351697285,1.1434452479552326,1.1292073241987963,1.127538669838226,1.1402110702708237,1.1299589249511148,1.1461646470302655,1.1998733299176794,1.160150818235379,1.120946309238138,1.1075110409158817,1.1126016921196449,1.1166870335248662,1.1309933987342775,1.1294641235293075,1.1764094608481306
1.1402443716189614,1.1465314511844427,1.1367813132139615,1.1246487040249689,1.131132268147071,1.1500734200488014,1.1982182923107296,1.1345284472691373,1.1423116596483265,1.1000616033783113,1.0957581720144784,1.1217061051719983,1.1269209676588123,1.1023539897716448,1.1009901532433513,1.114053404684746,1.1164328910005263,1.1348792563884338,1.1190202905838291,1.1231133488799183,1.1285121189387752,1.1315493749586238,1.1434518536184606,1.1938372016684928,1.1664958090930864,1.129898260884011,1.1218801309565285,1.116758599355853,1.1247641161199395,1.13305804848075,1.1321575748165285,1.1998200087051996
1.1278205873974343,1.1235795843172158,1.1520884457614011,1.106042390991849,1.11796184287721,1.1571112241880523,1.2261501967011266,1.1351517412002838,1.1312610184344718,1.1148625155082545,1.1138798451226808,1.1178652671962364,1.1147366072202702,1.1060004507380299,1.101331469868385,1.1166113473453463,1.1100655061787041,1.1267341083988467,1.1126089215565298,1.1241370024853337,1.1262698264500766,1.1111587709936215,1.133611551972946,1.1826626529189268,1.1666041050142275,1.1307068223815118,1.118215065732929,1.1303763858913087,1.130328493830999,1.1301424319405098,1.1291849865990942,1.190466206350127
1.1300828157363592,1.1374130061164038,1.1739066486023806,1.1212237696040224,1.1303944755994535,1.172911665152806,1.26624319231744,1.1538939064244966,1.144554366551408,1.13765965538105,1.1161794494324044,1.129936601050158,1.1134805194586415,1.108162469573753,1.10544082479073,1.1162246537313585,1.113127290466687,1.1107831684224405,1.1038512666737053,1.103272795454244,1.114706340159836,1.1068982537113279,1.1333232413903453,1.178861509301718,1.1718907897041335,1.1300983956122705,1.1165526818782237,1.1496676675747375,1.1387997993626966,1.1494865554557376,1.1310106012324943,1.1950640580788126
1.1086833128958575,1.113110400952452,1.1485592095286041,1.1112809425847154,1.1313939188811737,1.1517151093372915,1.234810101419699,1.1303620480178753,1.1588648797769687,1.1180018365532303,1.102139813511156,1.1205657665726003,1.1353598562945566,1.1091071147437714,1.104296825631493,1.115845386740608,1.1140459798115783,1.1172395930712482,1.1152275664455116,1.113973474227572,1.1222057269381536,1.1175897109160675,1.129315183189955,1.1748191329837376,1.160682244969251,1.1161597880193046,1.1076569103832972,1.1311890850455193,1.130294869043392,1.1300854512286236,1.1135395892189932,1.1659643857556325
1.1096490585813168,1.1139535811242465,1.1500713009899446,1.1207983772693193,1.1264909888523045,1.161021881637755,1.2308535591316054,1.1457727406877407,1.1404707641760357,1.1228048289370747,1.10363187621886,1.1089954617667526,1.114567737687736,1.101875878164812,1.0950989028259697,1.1034355917190648,1.1012278940180331,1.106752990764102,1.1028348786817175,1.1027138660217517,1.1196745973244515,1.1102796369053036,1.1292492567722732,1.1636861197925958,1.1571602925734652,1.1240634695221083,1.1100759864282532,1.1401901579194367,1.138571408931355,1.1304571482485481,1.115926799409069,1.1791615543384844
1.1236511961917497,1.1315469425322475,1.1771764146156432,1.1279124454108485,1.1120566402828655,1.180142104805224,1.2304409227868842,1.1448735486030153,1.136026491526009,1.122434628145944,1.1222077878472174,1.1210300042217434,1.1286902937790024,1.1190689345263114,1.1125526775230106,1.1166368226289585,1.1168122559330536,1.126960113861915,1.1158023680297429,1.1151098123686478,1.1339380002121329,1.1253368124269278,1.1375059891186237,1.1744616966042687,1.1593300131133604,1.1303981535470802,1.114726177028475,1.144568763539339,1.1429520266041138,1.135807901128224,1.1211011035430434,1.1660281021459669
1.1252866432132236,1.1387125614531914,1.1718070681691874,1.1401059823796047,1.1196625270010179,1.1996500723120858,1.2234396928817488,1.1356978421883908,1.141274112495571,1.1116555614817847,1.1108805197673026,1.103913547023388,1.1293149074417543,1.107763520610103,1.1001567081214803,1.1110762935968055,1.1091583905278566,1.120727842190738,1.1127752664117556,1.1135359029008185,1.1223558247031504,1.1325769514638844,1.1406733615286728,1.1894553526576104,1.17738352008345,1.131276411026195,1.1276390152385627,1.1641791499588436,1.1510813064384624,1.1494833012888113,1.1228678313738563,1.1403605797282077
1.1101401233218857,1.1161133795833194,1.1695436721580255,1.1257156498776901,1.1220591467722212,1.1888907521406622,1.2071338078527092,1.148398904396365,1.1395421081219468,1.1250990418980353,1.1061781022962593,1.1175803237948847,1.14074425779701,1.116121177002763,1.1053251254508687,1.1155111290267266,1.1170776740494008,1.1386785489058877,1.1352459595015167,1.116338057185477,1.1255657161863881,1.1406443523891303,1.1412356206826972,1.1721674395738326,1.153488911771233,1.126942808147889,1.1175228829742787,1.133823220573076,1.12652532580681,1.1197732330446848,1.1167344883663826,1.1415440657787022
1.1179650034643385,1.1433297866160927,1.1895983408843116,1.1399339256791117,1.1313141558097726,1.2023322899473143,1.218450644547087,1.1650494468341221,1.1283176709547407,1.123670496415216,1.1168091190649805,1.1116670304894796,1.1398818306643805,1.119558181209947,1.1174944337418344,1.124497890537726,1.1240389399108472,1.138851337011975,1.1302196590784417,1.1253483289745414,1.140634372958888,1.1533609827208648,1.1604179661010936,1.1693362435694261,1.1685181044983697,1.139680545976987,1.1337569759677837,1.1479216313094605,1.1392420796379568,1.1330046582697009,1.121044323494812,1.1620763078029082
1.1415101086392692,1.1736827155583671,1.204331462200027,1.1502569298122978,1.1299124115853558,1.2095916475414459,1.2401011571158522,1.188590011490178,1.139359291230862,1.1339007131958638,1.127856317199206,1.1242637171059586,1.1461507941682219,1.1254552746672406,1.1275282718830824,1.1288740472911816,1.1289903148470963,1.1572925137693777,1.1385844809865442,1.131125282879405,1.1365206823527854,1.1667425831831477,1.1537292324659536,1.1740469016381727,1.1675331151567385,1.1292039459928966,1.1271603394530023,1.1518797846872106,1.1289468751538887,1.130879344235381,1.1247918368146954,1.1717523450967535
1.1441252612527493,1.1726565366966348,1.1853085528128866,1.1623168922468732,1.1427470139369877,1.207539878494542,1.2437122546384827,1.193003072500426,1.15393005685587,1.1376129839539622,1.139212751355296,1.1347650182195865,1.1505334465914754,1.138279926369673,1.1426892033645513,1.1422802943552555,1.1412228773891842,1.1608818183497849,1.1385961825960584,1.1295155306221731,1.1377868258422168,1.1647593818946667,1.1526140625546182,1.1649213381722492,1.1749037344973872,1.1270495940468166,1.1213307852788028,1.1453922402469294,1.1230896915400301,1.1325124477261894,1.1271836656423293,1.160412418823499
1.149666249943714,1.1676795470138626,1.186549533699198,1.1471597821361916,1.1288948407667319,1.2179821606423493,1.247014125708814,1.2030990754754713,1.1476776993247322,1.1367303251490393,1.1372377044328215,1.1279776571733184,1.1423509238411653,1.1400382099827295,1.138725946581908,1.1442718638436546,1.143056660246458,1.1610298674862258,1.139342107207905,1.1332009863937376,1.1338964572235897,1.158627802141072,1.1537801098928,1.1779539648131667,1.1774809536866644,1.122234576746527,1.1268481705255289,1.1463076328889719,1.1314569727286394,1.1316362743517927,1.114539650589525,1.1671673549282093
1.1539574854587176,1.1758547028156257,1.1926656677108805,1.1516373878027562,1.1450180976950777,1.2305471244529462,1.2265578119160503,1.2267949090307717,1.1361478896025252,1.1275576682753345,1.129294810566231,1.123720109969552,1.1386999873996884,1.1274015786706773,1.136710931518344,1.1414337072932996,1.1511686971042796,1.1695826203422852,1.15273244455912,1.154641817615956,1.1475258695083248,1.1656585735441913,1.1595027222383751,1.1951418919476156,1.1803887101648955,1.136772750989599,1.135916284664859,1.1474588758136224,1.131704643606568,1.1331339556138424,1.1254294303555556,1.157259496653692
1.1644203600907301,1.174683409908416,1.1930083615103497,1.144295910757888,1.1406616994116814,1.255572146851992,1.2415405804594342,1.254115493370618,1.1554152659956125,1.1434244131370033,1.1458543016284866,1.1382960550982462,1.1449154023192687,1.1394120280802842,1.137139655476986,1.148922587120435,1.1510989904006583,1.177685411862088,1.152125420862979,1.145166753683799,1.1471013265846188,1.1750059567343465,1.1632055947616868,1.208936892470895,1.1855465223713948,1.1449521395800373,1.1389096797507432,1.1486631612294531,1.1320423097125443,1.1332182980652876,1.1326168985706435,1.1980903804828393
1.174241997255051,1.1772495155045644,1.1800193589998162,1.149901433066573,1.1420531602582116,1.2568885008747637,1.2393702619039497,1.2648952719309432,1.1536639193176272,1.1411612486344378,1.1458031551307435,1.144617348594908,1.1451427860270977,1.149789323847171,1.1597596815043882,1.1568875919310588,1.1653424927424685,1.177732004674503,1.1569812534170731,1.170901194393146,1.1627863817645514,1.1677153290317082,1.1650045031004768,1.2216844135163316,1.193700609828727,1.1478061935200654,1.139733419510254,1.1393632638829736,1.126503123784974,1.1268619924974237,1.1342058193475504,1.1848654229537359
1.177535100982588,1.1793847882953703,1.1713811143656316,1.1571943895124277,1.1457227672563035,1.2624587120597899,1.2423033357381024,1.2475135952484249,1.148030252174915,1.1287859475664161,1.1417214498720096,1.1335394592495895,1.159773311395941,1.1386841977595394,1.1444227984387259,1.1491770473304284,1.1503156439492073,1.1748319652617871,1.1719186687968184,1.162454253841107,1.1781502546183082,1.1780160068963323,1.184908472295278,1.2153503602834343,1.210014151537684,1.1675309122553945,1.1554597037907712,1.1519917328294926,1.1423285035601816,1.1413905577163823,1.1373488697182534,1.1950191542140949
1.2015481207505403,1.1866016267588484,1.1844716406858762,1.1678056925153135,1.1409568551140172,1.2730715782553428,1.2621413441412297,1.248037218738323,1.1598982232421085,1.1323790714965876,1.1311895552146132,1.1309012920186343,1.1622995123998032,1.1387654543907928,1.156007822203799,1.1631804345125836,1.156392807863332,1.1703681671246364,1.159924663762083,1.1651573581086043,1.1695882354053877,1.171490885811042,1.166163841370601,1.211940709859271,1.2045543718765273,1.1675071716019212,1.1653413121609746,1.1729692546374437,1.1528762120300988,1.1586667296877367,1.1385211074866035,1.1756069520394545
1.1954491143079737,1.177325068724192,1.1966560115308615,1.1631202481493255,1.1342590198807072,1.2745136775524182,1.2581018506730597,1.2363692807029667,1.1352763881336267,1.1102826440683842,1.1188976386964788,1.1144376424467675,1.1342830684142398,1.1243037635255022,1.1375905363695422,1.1413836835937745,1.1438931920231556,1.152031228502675,1.1261845658780167,1.151528613517777,1.1640532160007993,1.13325301619821,1.1460350089871836,1.2159387376823858,1.1787086239701552,1.146318150694347,1.140718089545291,1.1557337892425832,1.1383088975720432,1.134502184963762,1.1206384458017478,1.156601187129059
1.1861558910495253,1.1717946273255646,1.1918702877177128,1.1559320141523757,1.1314302399995928,1.2873273285311306,1.2607549310602253,1.233966162797302,1.1333838492268344,1.1235006556489806,1.1189063532253554,1.1137088900300611,1.1316537688018664,1.1167485138372455,1.1379555625770417,1.1458423455340263,1.1454044152281015,1.1665478816124495,1.1335118022094033,1.145292722823322,1.1644154350324294,1.1309865341053957,1.1433299010294553,1.2044389375120899,1.1817508387458857,1.1478534221992747,1.1271994097918032,1.1572751146169642,1.1439431658852328,1.1385021722773272,1.118506160689043,1.154229791754359
1.1619772861722923,1.148716567021338,1.1737859992830282,1.1427398560920137,1.1269868124547897,1.2791891157683817,1.2590754127196337,1.2487906396874446,1.14819429919566,1.1183037280610373,1.1109134251680188,1.1129466906189982,1.127560470372577,1.1145051500858165,1.132830675821189,1.1377289866449067,1.1318682081558529,1.136617620012119,1.1221193242502374,1.134913862973422,1.1497016364641963,1.1258285744847507,1.1385567472099107,1.1971226041046357,1.175898411421473,1.1514741923949416,1.125823059944692,1.1533668266435533,1.1476077764787238,1.1334689740685449,1.1199943085960025,1.1521720862978295
1.1633182183688269,1.1626327623055532,1.178652979562751,1.1655540838739913,1.1443065615508206,1.277613488399652,1.25813789710451,1.236456862052921,1.1376421856798795,1.1203958143035584,1.1050871583013315,1.1149407871031438,1.122171477505661,1.1059505188335386,1.112624877669062,1.11316760118806,1.107753171238516,1.1340457525152112,1.1177330571633195,1.1214182194085076,1.144902748035611,1.125097509741338,1.1360628267364716,1.2065956842549639,1.180701972295959,1.1513648388105,1.134855349594527,1.1655408167439352,1.1770386820139334,1.1425459799623472,1.126873074581359,1.1573716324703995
1.165137103042251,1.1631988633655364,1.1880931760688052,1.1768987523570373,1.1593815991465062,1.3019453854153655,1.2531788374709953,1.2278703872619459,1.1371748505406325,1.1300887203498278,1.1069134496272315,1.1179785552754142,1.1258052282945192,1.1150801495005662,1.1253348931297804,1.1248255792305102,1.1209531532580304,1.1488497690047335,1.1204307135234906,1.1207701413262843,1.1547775716580797,1.1247709514058557,1.140142149156919,1.2135896019334393,1.1797889318292532,1.1561748699855807,1.1420022343475522,1.1616450045104396,1.169732080039081,1.1484488218510172,1.1299372807400174,1.1539250030700277
1.1584958923324435,1.1452604227099066,1.1713088552500384,1.1637268320727279,1.1463130570729783,1.294043924557133,1.2863775790558254,1.213307099757414,1.1471685815673391,1.1364268292493325,1.1082708711412084,1.123164153109801,1.132509987374215,1.115838323897534,1.133824205295598,1.138971673428841,1.1371465365671194,1.1576683167616444,1.1216384914482374,1.1315424923613189,1.1644014136457548,1.1289837728659526,1.1604473769073056,1.2183041973190283,1.1805226920789567,1.1502951725273216,1.1416104975728683,1.1551753164814589,1.166133520671027,1.1354487661060537,1.1273640862151695,1.159333957163021
1.1463106432272945,1.1488186981836497,1.173019958984913,1.1760079394165512,1.153199982921915,1.274702203118413,1.2703797773279502,1.1812787757661871,1.1541341069267954,1.1242728526537529,1.1099585621592614,1.1191583789716295,1.1377721795978921,1.1151031011084602,1.1362114937941532,1.1293054410192893,1.1250189954184213,1.1550623227659063,1.1217431844057462,1.1273601237500273,1.1452207512944663,1.129214890638099,1.148238745134638,1.2057167003491474,1.158547245041127,1.1323093473212051,1.122881950614276,1.1418989243272042,1.1514777208566387,1.133646506927348,1.1223444022701332,1.1425010680722338
1.1280236605657614,1.1260106016209095,1.1665031587270807,1.1498356465868549,1.1349962785190042,1.2532552859820156,1.2542895949125692,1.1773862260078347,1.1569639201724402,1.134153133066636,1.1200873045742772,1.1279073713303538,1.1285311248212413,1.1140307663204607,1.1353949338996214,1.1319051956786061,1.1219586010938405,1.1490319985853568,1.1114241479440814,1.1224140230423647,1.1342958439217137,1.1208223381460298,1.134331695954106,1.1890967617651638,1.1487392847328977,1.1238465141963443,1.1113265416800457,1.1315505540667754,1.1386782622486245,1.1194210219055976,1.1057310468418229,1.1464465714093452
1.120802167559456,1.1272122226118757,1.1714397740314324,1.145878854529663,1.1351397829194907,1.2533069789807219,1.2583442936227598,1.1796860779615692,1.1713183662420217,1.1450219945657656,1.1282764224708994,1.1444261508560387,1.1458327381718805,1.1336196421303826,1.1560235463674986,1.141630206725213,1.1386453467323823,1.1643707992768564,1.1235311318119674,1.136387772218522,1.1420236314143806,1.1385814892289612,1.1435905799851331,1.1983963040204368,1.1496979707301103,1.1209396442011237,1.1115186460701383,1.1249037626244742,1.1399214014204633,1.1157066976847192,1.105663180405735,1.1616640672330862
1.1392359374270093,1.140864242563651,1.1839029651483046,1.1549985350277912,1.1490036945405115,1.2565096570901426,1.2333772911737473,1.1878434142160015,1.1691662470590776,1.1427300447492033,1.1286483623356054,1.1490558461257534,1.1493219317732661,1.1300136442185325,1.1442809842160422,1.136462237647939,1.1350607183546848,1.1595485555322742,1.1276692818042107,1.133885349930321,1.1512830641979594,1.1374409034433546,1.1590735862363453,1.2239870001532969,1.1882683579308648,1.1473337015361027,1.1371661935445028,1.1413788107425296,1.1594681551469537,1.1326844071021451,1.1394601357338234,1.1797810125097938
1.1382581307654764,1.1477428712485305,1.189660797247996,1.1616986115552477,1.162276496567024,1.2709199982505375,1.2239390678754418,1.188697006599183,1.1750270171454467,1.1560233161278772,1.1264537986501204,1.1430567837879935,1.1432069522968382,1.12528347186338,1.1384417026504923,1.140622491802128,1.128534150115981,1.1494434292195805,1.1110506878015698,1.1187868185974985,1.1299082097821864,1.1358245017335367,1.1567922441972076,1.209825612273245,1.184315791762133,1.143435950381515,1.130523040474051,1.125823771982668,1.1489420832062913,1.1299762678336815,1.1393362148747044,1.1954797649026705
1.1459840300894353,1.1582235047971727,1.198590890240211,1.1731372679142134,1.1644502033566644,1.2894079600287733,1.2289892052296076,1.1935511678038184,1.177714660486706,1.1722509463606972,1.157672889194827,1.1777251165186662,1.1434006636570653,1.1566039342058045,1.164239504166452,1.1520995093887239,1.151226101811765,1.1743823310690127,1.119178717084874,1.1409773599090618,1.137369690306395,1.1307575311221556,1.1570063185364305,1.213759077943612,1.1692995868866634,1.1441301308935972,1.1360875873281087,1.1142945640795712,1.1468866512252387,1.1341619921420956,1.1432039883720544,1.18223620665467
1.142420279343449,1.154424461324801,1.1745217955150293,1.1630316251673833,1.1511346319348241,1.2676312148635027,1.2120738752026987,1.163082270495077,1.1556767065597524,1.1353986181399378,1.1207362997212476,1.1359806456427144,1.1288347676399504,1.1151541247421743,1.131932228054498,1.1358711059448585,1.1345303704405674,1.1560737820290619,1.1160606608852053,1.1194049674588513,1.1278297938679411,1.1248461335609186,1.1497915902507194,1.192243402628993,1.168286697602082,1.125790864290605,1.1284587566406905,1.1227529424929708,1.1420244471507128,1.1324369475937983,1.1308986761679933,1.1744437156214629
1.1374219230554454,1.1439118221021984,1.1879608699714304,1.1534030986419441,1.1427657177557808,1.2791237592405365,1.2321348806383763,1.1829427592818047,1.1568751508258954,1.1249904859066204,1.117888828985415,1.1291517470018309,1.1364457475975938,1.113914778761187,1.1348909823481927,1.1338725377846703,1.1385006796613082,1.1583258574787885,1.1103821284269115,1.1173872306056376,1.1263660707431904,1.1249229799290974,1.1581181956291815,1.1744393112854496,1.1825445159063783,1.1405711685344564,1.1366575770289693,1.1200400487598232,1.1336029297407495,1.1317019667642805,1.1353196184005365,1.1815230555067482
1.1560017150005342,1.1645144505092642,1.195254916541276,1.1620231894217734,1.1523605584987646,1.2718547405319995,1.224217404389779,1.1776745307832173,1.1508617276975759,1.1054149797700414,1.1040122167838957,1.1129627432375975,1.137035955051706,1.1044348892970397,1.1182459503267688,1.121883905638004,1.1339239828006362,1.1560028921937768,1.1223461085105388,1.1259169483416431,1.1464360871793946,1.1374759864869857,1.1769559071760278,1.1752629921219846,1.2027045297483114,1.1551472197964832,1.156639101369257,1.1430944917483608,1.1457114167622018,1.1464239922464183,1.1572322192126168,1.1892627544631307
1.1498992214020265,1.1602866901197255,1.200106607532937,1.1594016193006982,1.1461824660333149,1.2748367374038048,1.2122012712832027,1.1818131285481306,1.1418999078786467,1.109980497596798,1.1125643155284097,1.1211149132718377,1.1348344439206937,1.1053683170711042,1.119726983037411,1.1294602495726145,1.1358441575916447,1.1467545111237085,1.121973193693374,1.1153522618343532,1.158566632414466,1.1306018806372409,1.1743036097785609,1.162526962370213,1.205942904530461,1.1507259933955591,1.1414552555223045,1.1368202333863267,1.140871505571329,1.1424511376022717,1.1491138162787882,1.1476071160025796
1.1502090128018538,1.16184302516544,1.1995492385473152,1.1631441535903966,1.1284444958392417,1.2931077387778327,1.2106191186786244,1.183640312461806,1.1483195600182259,1.1126501364941024,1.1194475848067296,1.1281141382569047,1.1527890829650944,1.1224232225575046,1.1315778811389896,1.143652535668288,1.1510177029721345,1.1709682295911163,1.1418074224488695,1.1212154587328318,1.1662068210337073,1.1504822396041594,1.1871126490141284,1.1875009514257584,1.219183081691077,1.1581086781580032,1.1463705568849143,1.1473571258353885,1.1378329898184514,1.1394380679866827,1.1413592285665561,1.1594091599818395
1.1370496583466632,1.1512486091793968,1.1828621717255758,1.1545178172900386,1.1314477187313698,1.291327632353158,1.2018233522125725,1.2040763718424259,1.136964981018795,1.1009967201611444,1.08873675170324,1.1011698520746165,1.123645041178694,1.0957543291612728,1.1037929524378278,1.1203549334954477,1.1226329100045798,1.1253271177845108,1.1173516517418525,1.1112246934853016,1.1587193286226585,1.1290566029197977,1.1736284937809043,1.2010098936559421,1.2211431250583145,1.155995337560747,1.1501281692888787,1.1504654169886643,1.1477633139418166,1.1440136708147393,1.1452221854482267,1.1561546348776235
1.1369027969710612,1.1518269926907627,1.1662154351852057,1.1611779919092384,1.1357924112076236,1.2908254795791507,1.2031617466903375,1.2000175916056728,1.1322594678204543,1.0953434569523373,1.0910370129784321,1.1061474161293294,1.1301517709150155,1.1004731659919573,1.1072647793526396,1.1280620224960147,1.1355927908058663,1.1289438395780127,1.1211987178033191,1.113750248076829,1.1615068148835959,1.1266097317672912,1.1660160755005111,1.2040620373608828,1.2206745059076038,1.1490392238322353,1.150989669486348,1.1400694950709134,1.1397584944026178,1.135751094693806,1.13936498691462,1.147506882041472
1.1343115152409007,1.1489721810153983,1.150737608228089,1.1574585834186015,1.1147156731085994,1.2674374084673912,1.21852324686774,1.1994425487462377,1.134533495445358,1.100149704798648,1.0941374463026028,1.114068213155797,1.1332534449274627,1.1060086476652216,1.1185618139952818,1.139493640886808,1.1350218015874687,1.1384534299509752,1.1275470860030932,1.1326480858901606,1.180973504073745,1.1412889995486275,1.18126227199986,1.2147620381171236,1.2267270664783483,1.1428342155500786,1.1423984022259754,1.1542567933179535,1.1426846013716139,1.1379254476049436,1.1199947004897406,1.1543437084847776
1.127059075799292,1.1330252112412178,1.1226186320958134,1.1425368308525166,1.1149963659938655,1.2509374672078624,1.2147731098955203,1.1810590525042906,1.1247454472944745,1.0879602713675351,1.0820143494131182,1.101465667411851,1.1237528650288375,1.0947951653106651,1.1017568624764678,1.1171076827222124,1.1251940374619374,1.1279654198263038,1.1358508662881497,1.1209113117400742,1.1848555777735796,1.1393803209692512,1.1980643606151993,1.2233449356483646,1.2332209040679118,1.1618137778368418,1.153751813014356,1.1478921200408623,1.1479435373603473,1.13423718910381,1.1271006838919608,1.145952282319469
1.1309894837818633,1.1399127734308028,1.1351524316011625,1.1485928229084599,1.1288967801189154,1.263747724738475,1.225039458449637,1.1963222791732626,1.145527895348235,1.095984337999397,1.0934489749756762,1.1208158058856186,1.1424237624856013,1.1112113031536999,1.113912268762586,1.136284840214829,1.1296794726287573,1.125566103219525,1.1381664985869848,1.1252295253896407,1.1882431908470559,1.1428669204646602,1.199249075384889,1.2517466021315662,1.2365548677369882,1.1662090749748408,1.1572435751810182,1.1665092479986388,1.1566903953716692,1.149394646022711,1.1305399609206663,1.1376009369208813
1.1303704309088332,1.1292830982228752,1.1452158322858867,1.1548287531953925,1.1161953173925852,1.2826215290769591,1.2246753809709214,1.22121865687465,1.1503887053523478,1.0910451555945537,1.0948217730384364,1.1245007085033834,1.150135654605852,1.1334500165440065,1.1233405638898608,1.1430292735792345,1.130277744539835,1.1305891314980823,1.1491056270291695,1.1285341615482847,1.2059176147189277,1.1547287906112027,1.203989598393651,1.2613482127557891,1.2350706926104655,1.1539375280938378,1.1476801839935264,1.1565737870702097,1.1480381253345948,1.1451667322501897,1.120465404731253,1.1365559027630243
1.1359065265823998,1.1278657858188084,1.146654408682477,1.1484764376033327,1.1147599903529488,1.2862173380993143,1.2273225147763405,1.2206097158066378,1.1433693643221072,1.1111970874817925,1.1096392963783854,1.1259140180627492,1.141121211369444,1.1302581616581306,1.1270950228808232,1.1529249210041632,1.1342759252358563,1.1288193172601084,1.1358000585799817,1.128683095351414,1.198119116871635,1.1477305745460429,1.1745898073965093,1.2646027985944366,1.2171579732806876,1.1496261179779308,1.1411287370729912,1.1538296142900004,1.1429729349813478,1.1401909023669674,1.1161449701021515,1.1413064664989707
1.1555836138234425,1.1430914992122962,1.158168497208803,1.159660821564549,1.1255696572049534,1.2691484031063567,1.2244028358694603,1.2184710399011878,1.1387583719903418,1.1037187583072652,1.1049075023281307,1.1269785308142817,1.1464584144125338,1.1364507442303526,1.1228523216673962,1.13791772244423,1.1275256591961877,1.1261033444325395,1.1508448299618481,1.1360598570272358,1.2030013886148723,1.1569648652226578,1.172338026584869,1.2699856500856745,1.2410956771299173,1.1624967164512297,1.1618625098599216,1.1741780350132185,1.1599955781339628,1.1623862118584631,1.1336342536887059,1.1642085819567354
1.176463128014278,1.1590573901393206,1.187163046826743,1.1700046551756742,1.128933143026569,1.2797698199061138,1.207198079981223,1.210126463943462,1.1432384641106528,1.1034656601158364,1.104993500757423,1.125627521004443,1.1454750300168264,1.142634827209103,1.1292677488614555,1.1425406214376657,1.1342516828907097,1.1231308961492887,1.1436713972776542,1.1350083821600452,1.19269838651674,1.1477650140387898,1.1604679863603848,1.2629442572533656,1.223758205242569,1.1541709848866266,1.1637935784382876,1.1674684778313429,1.1633148923016192,1.1667537186251182,1.1382621644025204,1.161825571898613
1.1628230559093191,1.1487249258422345,1.174533230223312,1.1664351617613429,1.139596055647665,1.2658296872963857,1.2214390843881648,1.2100583627527035,1.1490708386040138,1.10682842893095,1.1217101546235608,1.1361350700725181,1.153328633204144,1.1621180578947123,1.1452454618948322,1.1578310650882315,1.1505900714587856,1.138004031377306,1.1693163511812352,1.1687314440453598,1.2287248653587404,1.171836875641952,1.1880666361287422,1.2480868298397265,1.212064334404663,1.152626713193308,1.1493160228403372,1.1492514888841974,1.1513738487822274,1.1548461502695715,1.1364393765852165,1.174490228473121
1.1598921278749867,1.1442706578171984,1.1943836382760717,1.162446879035163,1.146748353053082,1.2948310253101878,1.2206338555108187,1.1977218998129024,1.1720868394564423,1.1253994409305474,1.123135526046417,1.1566934395606812,1.154072653321108,1.1736736265068768,1.1408270225071602,1.145672005617937,1.13857246572511,1.1497109590089003,1.1539032171983694,1.1542922808098073,1.200989725932408,1.1523444213860927,1.1633999612682626,1.2441691129963286,1.1977095856372952,1.1481075396949747,1.15019232933072,1.1498964619158552,1.1497340254550514,1.1481524519623583,1.1399273880877294,1.1429542607912186
1.1764819159035615,1.1602823783511484,1.215451541143599,1.1727733761811916,1.1632044064339837,1.2870554230255886,1.2255334432054306,1.2070877141772325,1.1641762762026713,1.148868885401774,1.1501449630453382,1.160755306369143,1.157311343164971,1.1827435869534424,1.1595567858837472,1.1659033615927576,1.143314188822876,1.131507484864117,1.1322414091478326,1.1444077369053716,1.1897731345240579,1.1337652759334664,1.15053754643198,1.238502757192426,1.1988289893553379,1.1346132387998134,1.1531456905768314,1.1533995977115874,1.1558419360076289,1.164031847730365,1.141748822343064,1.1351516629043956
1.1870280139575482,1.1720378951962005,1.2264465448054709,1.1855526594407255,1.1735208738415899,1.282692761133134,1.2221414549554435,1.1966326645569012,1.1814166007394666,1.1353252401342808,1.1472164214873724,1.1548888814698723,1.1623633339933286,1.1743871284641543,1.1550051828205348,1.1604343426412393,1.1590419787387138,1.1394517280738155,1.1317387030094617,1.1512814877652142,1.1801533534071074,1.1367233914102455,1.1453052425606869,1.2516386784813653,1.2041544828286042,1.1196321934065605,1.1600829281157297,1.1580690331473968,1.1671355051652426,1.180376677949967,1.1479385047430426,1.1350583804655983
1.1703138646281666,1.157081456090022,1.224347482139103,1.1753622086572444,1.1595073160067872,1.276878631858607,1.2111790002734113,1.1992343592489076,1.1593990865817778,1.1386844112064012,1.1409483013367103,1.1438747447220625,1.1328357525289674,1.1572433333076269,1.13504567843285,1.140663257921559,1.1403951474954288,1.1208888475666368,1.1218695416921851,1.1562316209222958,1.1691375424691515,1.1260618635980382,1.122620801520127,1.2341030830966175,1.1946221172650247,1.113330885878983,1.1453553456800445,1.1483744499830943,1.1500446242074085,1.1571094497189078,1.136665577474642,1.1306551526407442
1.172526104948185,1.1502383766643085,1.2031932849595348,1.1727758185232544,1.1961327370292432,1.2675811049762142,1.204975085726695,1.1791780588680687,1.1638943443619378,1.1457649166056274,1.1483562660670137,1.1507294538510848,1.1316859882012118,1.158249729547893,1.1407711835149217,1.1301381432295055,1.126011968066553,1.1161827907695667,1.1170564459709955,1.1373892344770675,1.1661250952961388,1.1420776081013173,1.1421117956763367,1.2175645611988757,1.2008742351896733,1.1187827549786593,1.1500344310556643,1.1447403779028555,1.145468046914932,1.1496696335083345,1.141320670219217,1.1347161088470707
1.175586918348954,1.1581101294990956,1.206130998420152,1.1671909395786995,1.1929387986670597,1.2652872004714821,1.192290416494846,1.1652011857212843,1.1596116591927574,1.1407982900848204,1.1345199624524847,1.135104030103097,1.1329809184721662,1.1476980465775795,1.1399676290902594,1.1373039965908962,1.143751438110672,1.1185993275394157,1.12450225206289,1.148866792153104,1.1761719528964063,1.1333922332135729,1.1565546281726746,1.2158264986250018,1.2218021437082756,1.1156175655362943,1.1599959644653932,1.1620501370102065,1.1641107062509228,1.1613880625396313,1.1469801332213219,1.117880651938377
1.1666857121879595,1.1591699480931728,1.1929470639344224,1.168343818533789,1.2024578034526707,1.2376656108442599,1.1771001721901198,1.1436351201133856,1.1568935269458949,1.1285039812819448,1.1310399785254912,1.1307389246151252,1.1222466221378435,1.136750078801937,1.1291919461324318,1.1319238421847095,1.1363662640540622,1.1177275685201717,1.1182626536554503,1.1433839799135812,1.152627300181444,1.13211094210201,1.1443977768091675,1.2033306157195893,1.1942915211070149,1.104608246299555,1.1401969345046532,1.143610480246928,1.1509408288705332,1.1512969650944302,1.1474338461025242,1.1080143460009757
1.1547966354414456,1.155741044489777,1.1914168684850153,1.1681956020713538,1.180582140130777,1.2339154004938702,1.181674877263766,1.146697637571077,1.1484198833528803,1.1263445371317697,1.1100009199300631,1.1209652612983771,1.1152447932387743,1.1205248252649775,1.1111543289232375,1.1252409836167492,1.1303891167323703,1.110152662286375,1.109209907829691,1.1312144835202205,1.1339310720309546,1.1169756456170876,1.1315127489583,1.2023509222611795,1.16163971901185,1.0924926209536534,1.1185771718950794,1.1169718120741918,1.1300177787717398,1.1283323196738424,1.134911833498159,1.101587074612379
1.1482584888202476,1.1444875728352748,1.1719851789293767,1.163008168240442,1.1781415419335037,1.2436861174902227,1.1968448625211499,1.1563386510707392,1.141677144709194,1.1284846486050095,1.1204366508571457,1.118520155685873,1.1194554627377615,1.1185581978046748,1.1177287647011531,1.1265931827478692,1.1239228443691378,1.1161911383652818,1.1140707890818038,1.1262630408165608,1.149466041592402,1.136457594517127,1.155361405264332,1.1855107541732053,1.1721591400850175,1.10425251143391,1.1281292498081705,1.1168588753625825,1.1349349413299912,1.1257249201847535,1.1370497650050944,1.125931209558108
1.1503045180431846,1.138389441116915,1.169972668469574,1.1446250670278815,1.1587336267255157,1.2331296535675178,1.188225890712485,1.1484475665630796,1.1418271936230757,1.111196390072224,1.1017760793164666,1.1157692017677978,1.1360083997519905,1.1166137477915197,1.1223204096637631,1.139629232570104,1.1333921409098497,1.128101177092173,1.1277676919948874,1.130856669376582,1.1631551607673294,1.1482972480806848,1.165061080041496,1.2231088614792098,1.1850153504856196,1.1163182316196174,1.1416895489460432,1.129913792265709,1.1398414337036376,1.1354341806679802,1.1421631958666363,1.1434995436578648
1.1422808128087978,1.1420472670094444,1.1642609084713036,1.160470775674787,1.1673385628533095,1.224741152016156,1.1854556980382212,1.150536657635303,1.1433039792641244,1.1103164127992147,1.1046003178420163,1.1254365182142312,1.148820878192928,1.1219348164465244,1.118266225567461,1.1278274190039421,1.1211482130841983,1.1218128368047202,1.137907097111922,1.1149466524740266,1.1533068642956188,1.1727304300096584,1.1758368491901101,1.2141466161719396,1.1683265691459135,1.1299563408251918,1.141044411325569,1.1164530548068885,1.140810377691065,1.1318621297595517,1.1455528548810192,1.152574279915553
1.1171632723602087,1.1264136847049782,1.141766578247401,1.1358292569834259,1.1470306390717215,1.2060544211006023,1.2030284791572012,1.158417550419748,1.133499857869064,1.1185240725158454,1.116576477072011,1.1235460538959754,1.126618563504319,1.1259071796272204,1.1294178801145602,1.129112036300934,1.1231359564405246,1.1197333184768918,1.1240695273210244,1.1077346519076925,1.138222221221387,1.1508852445163067,1.1678473427725167,1.2047864364146377,1.1523647180486727,1.1311381072684006,1.124708045274775,1.107398334534652,1.124560737635734,1.1222865289173838,1.130797533732429,1.1622811889145799
1.114118383409726,1.1275875335764134,1.1305973917748116,1.1421516383358226,1.1392279350308778,1.1923255019507253,1.171465276328156,1.123937056588944,1.1299374294496705,1.0822336427037003,1.0892490526329708,1.089718519224458,1.114015112437339,1.0956018388175564,1.095631111059046,1.102071452171614,1.097494770037513,1.1063534441537968,1.1158527889794372,1.0915674198178666,1.1328642237525521,1.1565666808614121,1.161787108243266,1.1793211154964027,1.1374751962909209,1.123017713617302,1.1184873125503627,1.1087570221985406,1.1212106092445113,1.1129450276444792,1.1211022718325383,1.1600341583127565
1.119813986613153,1.1288894688072484,1.1280788072898036,1.1390004399936011,1.1346060660110842,1.1956454574395123,1.1942380029215587,1.1263580532089137,1.1274698858070125,1.0823690005293718,1.0915124778391758,1.094004851631852,1.1149666203948894,1.1027840167422356,1.0999511700402542,1.1107765935929732,1.0994828945723125,1.1144080360375388,1.1192681880584474,1.0962493466520207,1.1362881371675064,1.1497648046620113,1.1755940471204538,1.1995413178842638,1.1471837243612975,1.1246441027798388,1.1157701194172382,1.1118811209124493,1.119129061712886,1.115761761924813,1.119325160161542,1.1611660060652456
1.112077855597863,1.121548786169064,1.131613635177195,1.1343153708795233,1.1066185130957307,1.1915656275815458,1.2047374522854917,1.1309208101767465,1.1247107330552482,1.0970318720881698,1.0999621491914977,1.094042406598308,1.1220570465554847,1.1035728916359786,1.1024787526722808,1.1074935814802986,1.1068296122176169,1.113000060620403,1.1291835021094512,1.1053591254585784,1.1454496019389353,1.1663518770493149,1.1768614133845567,1.183372337438608,1.130134362333502,1.1137561074196751,1.1035179407428153,1.1016766376150924,1.1030183057450076,1.1034727142427252,1.1007732052816133,1.1614601734510541
1.1054659234223012,1.1170140645684126,1.1278969150380516,1.1289031175416595,1.098243269820892,1.192471830906777,1.210204903821546,1.136179664588743,1.12677911090708,1.0876960182474635,1.0996931808804822,1.0902805325638365,1.1094715907438597,1.1027020898570825,1.1014358358717802,1.1046737325260878,1.1008594050622647,1.1068231627577239,1.1090375880155015,1.10175762903636,1.1393702217179236,1.1483554869049233,1.18510378455366,1.187890366368881,1.1343696727060144,1.113162675840619,1.1067372550274877,1.0994424331460853,1.1070651901073534,1.1064989863191257,1.0973259159646314,1.1632880407328692
1.1007238554853986,1.105702047967026,1.1272410548006548,1.1212613468679868,1.1018399506118925,1.1922338599594504,1.226175734142636,1.1413982962308957,1.1260145610686902,1.0889516910553787,1.1059570587331284,1.0936627316362086,1.1141855727110654,1.1059698189899672,1.1038893642223728,1.1026572956725538,1.0968311623455527,1.1118186584750693,1.1121041524914288,1.098929435819364,1.1506015315878309,1.1480799357573483,1.184910052321135,1.206657970856972,1.1439772815958502,1.1048099644750655,1.1031520000083164,1.115975848075199,1.1021261643228923,1.1107114247481014,1.0915828092202238,1.1670449075152003
1.1099817546634154,1.1129483383744307,1.1366731489630164,1.1299799880520227,1.1145312208061016,1.2202628586453144,1.2244907201154749,1.1567318976434142,1.135102654862481,1.0900430444162241,1.1030137066472747,1.0961349085399144,1.1192454994841223,1.1055762502463182,1.1090088319912226,1.1043946272389462,1.105883423303143,1.122365743758863,1.125435359495576,1.104642015967566,1.16122190451554,1.1499172415203263,1.1731316961755769,1.2018985630682593,1.1382734213714774,1.103782546967346,1.1040981168703365,1.1177610405098515,1.1023183882829863,1.1170143338389886,1.0979743821937846,1.1596692719063146
1.1215210575552852,1.11755328186263,1.1474965488327906,1.1263205958660696,1.1157057524864475,1.1953943841505266,1.2064703673370247,1.1601238382626824,1.1310920010903136,1.1010567712616017,1.1072538155255434,1.0958675690376438,1.1053509621483324,1.1007172167645427,1.1000219888384608,1.0975611952221225,1.103180090102223,1.1061322372812814,1.1082895795032097,1.099105038208602,1.134064073761047,1.1249789112039623,1.1518990384401249,1.2012102513627234,1.1453514146595734,1.0927041733110887,1.109510732547318,1.1336030959645453,1.1174411732421536,1.1287151390565395,1.1020873457403557,1.1409989807307965
1.1238710323611916,1.1230974929385682,1.165291819768998,1.1236632630672996,1.1056340275285115,1.2053026890420093,1.2212423864315918,1.1655364280948062,1.1223154713627417,1.1011882037759086,1.112201340015509,1.095852077163105,1.1019420841327865,1.1036526556158606,1.1063562420554753,1.0945204966170596,1.1018693839480398,1.1052949353640298,1.1084930751163418,1.1140324883597186,1.1443711761380253,1.1215569380957968,1.1676351046734834,1.1975696047454958,1.1535940584328694,1.0892355313691626,1.1035494490114195,1.1300750487428068,1.111519360407252,1.1195731747140396,1.0934674400731357,1.1292688610367139
1.126834027505608,1.1242503984529308,1.1610931296397078,1.1250657059403328,1.1042914192702018,1.2218896065794718,1.2250302945545097,1.1620708760419747,1.1234465315858646,1.121980449074855,1.13731873251971,1.112213547333626,1.1083000058933974,1.1267974180928253,1.131557032761813,1.126236109254367,1.133119327132182,1.128710999954745,1.130887270960148,1.141784892270988,1.1719958105200425,1.113666108225999,1.1830993517976198,1.2117502049385642,1.1629977615557843,1.0917476361121945,1.105171043668706,1.1382014723716165,1.1165079680747385,1.1213434401469375,1.0924690723466224,1.1261488583350245
1.1242022552997486,1.1117332381938556,1.1642568967759988,1.109424485035654,1.1040900410567327,1.224782855780417,1.233264046954976,1.1797033051308843,1.1509012884702856,1.1455273522942622,1.14273784595361,1.141570719472756,1.1356075479302763,1.1451366981261764,1.1503775379643,1.1506991156959288,1.1613617482864746,1.1459904684394673,1.1402735576570402,1.1645201956747528,1.1800414808545485,1.1196745997760864,1.1707986974769569,1.2324633051368221,1.1663252169457554,1.112749967487504,1.1137064914748225,1.146929530907594,1.1290182679289837,1.1278081776252844,1.0994313292299573,1.1477519158499603
1.128702808352182,1.1211793775279415,1.167139980768613,1.1192704603941257,1.1081362931999603,1.2328409957881625,1.2524093252546535,1.1796313717030436,1.116706111850983,1.117942473612736,1.1077084040863145,1.1072642057069813,1.1203577544546566,1.117743654104037,1.1211178801925945,1.1154339041495425,1.1309361373007043,1.1250848157652946,1.1249944429603633,1.1333664715797418,1.1490120048292045,1.1090939526998556,1.1521162404154142,1.2062428303200639,1.171375922612126,1.1182310297368094,1.1254055523424238,1.1514732834383274,1.138183874281827,1.1363155636630249,1.107260270353175,1.1469679649318039
1.1356160827864497,1.1220238543156593,1.166031948480862,1.1239381026714823,1.1254557673665424,1.219824330472132,1.2416885536165352,1.164930167437345,1.125473057052754,1.110125122017438,1.1171203699518024,1.1052067766809832,1.1221353881659175,1.1118601723206132,1.1247706846460204,1.1120393596719977,1.1269408051738037,1.127205523080081,1.1159912318140006,1.1317542640474278,1.1482787657943179,1.1186575449225267,1.1459632245143718,1.2201680268157427,1.174194629262085,1.122893786335964,1.131912217348072,1.1446193331703536,1.1459389883337543,1.137135244555113,1.1162663829063626,1.1519452165817554
1.1252113170507814,1.109545670318168,1.1566761825064977,1.1151113916485644,1.1262550303381043,1.2061026025658526,1.222577022064785,1.1761628302246039,1.1405543146181547,1.1087190658439432,1.1023345928422248,1.1314232128952186,1.1311577257963397,1.1203261738207848,1.1114911644898122,1.1025434238130603,1.110987525492779,1.1223977439217507,1.1187027918219963,1.11952706617202,1.1365552435650705,1.1108638601359797,1.1397260098636908,1.207412778949214,1.159871394715622,1.1245101285133816,1.121411000174399,1.1334193747940364,1.1281076857479888,1.1194705769114492,1.1168526714150868,1.1604896202222972
1.1265998405166184,1.1219398272004448,1.1626490932971827,1.130812726621008,1.141657343517464,1.2089665301145835,1.2047536312007134,1.1674209933858233,1.1332619578701453,1.1076406526208575,1.102570070428702,1.1268664849491286,1.1180049241374934,1.113567213553827,1.1023579226953832,1.0909300422047248,1.0959499993829989,1.1067153206301756,1.1064924740293347,1.1144931861134737,1.1232514090441788,1.1010552907768707,1.1235184775077864,1.2138590995825635,1.1555864005427352,1.1272093459747028,1.1143397588602937,1.1247519511830004,1.1273436286513017,1.1194102463883384,1.1254752488997228,1.1610727804833627
1.1257641723881522,1.1262335526875202,1.163445718518619,1.1303673501160239,1.1387256294742802,1.206678792359481,1.207923849346709,1.169357006182737,1.1382969131441674,1.1069567050478997,1.1025343183618832,1.12576290763871,1.1177811041134966,1.10772539350855,1.0997676691589153,1.0948855565177205,1.0985166646148217,1.1023987589911441,1.0987743738844855,1.1088836529531179,1.1246939352006409,1.1011424890560582,1.1362294638825943,1.2172331861655035,1.1646381790752625,1.1403017463676621,1.123524154884589,1.1247729223079737,1.1354573950781257,1.1180666634591212,1.1317088333967653,1.1610433036477212
1.1221922026011082,1.1306889460464298,1.1620864116601939,1.1292997585523548,1.1418821668851857,1.206279488713251,1.215932317542025,1.1559830903497466,1.1309284828747173,1.1084427691363516,1.0987415010819213,1.1242031595428894,1.1130962345231106,1.1076002500637567,1.1002348839129397,1.0934860819641314,1.097647282935388,1.0944179585759024,1.0965635008480321,1.1142942012749077,1.1260097460443395,1.1071247979641827,1.1515948381099963,1.2097662145531183,1.1660951349757822,1.1568844398712075,1.1211878513899105,1.1229865399457182,1.1364801100296076,1.1160254755264787,1.1341735737582326,1.18964365645499
1.1203776666802716,1.1248899349421708,1.1495756443513563,1.135607475003782,1.135947673423367,1.2023675547132493,1.2176784004212302,1.159854689588772,1.1287973985660475,1.1100128654447825,1.1016706054352925,1.1281356197473216,1.1085831361960965,1.106456176452973,1.0951988855807557,1.0913784521262073,1.0925715696158111,1.095976768437385,1.0965620854152462,1.1059788225782698,1.1185568719418948,1.1143277992311458,1.1501137900462437,1.2066318149161015,1.1699709982166857,1.159696461013964,1.1369562681733356,1.1185778245803801,1.1441130117978007,1.1181017849689021,1.1393961170319766,1.1704685343178685
1.1280976124807944,1.125762915333468,1.1457941054753946,1.136406317177348,1.1453120957024798,1.1971002586744073,1.2068952423931956,1.144187131248743,1.1283603040167358,1.0979975651876623,1.091754570102434,1.11954389130316,1.1038421505315243,1.1016657408543211,1.0874222100001507,1.0836912494130628,1.0835706179596212,1.0893584816674131,1.088674517850369,1.098258445309868,1.1073712142927938,1.0986304961198121,1.1150950332601592,1.1953415955929159,1.1511221318898293,1.1408205515149348,1.131686104136185,1.1093033737230793,1.1404152796425684,1.121007445849783,1.1456544396295527,1.1482595229762462
1.1367480235548064,1.130128824671226,1.1571022309174375,1.151993816880968,1.1496850476616869,1.2094577614611786,1.218981511756608,1.1666665287581035,1.1329666215556455,1.0946736657359155,1.0934973554752248,1.1240332033362836,1.1121769115101796,1.0975982593089797,1.0880537219288346,1.0777152823566,1.0867862217668507,1.085080367068729,1.0892028513958478,1.0955402977296425,1.0962896952534913,1.101293315984333,1.1069654658132133,1.2059927699284296,1.1453812077927978,1.1361439810716203,1.130456486022273,1.1130832701037143,1.1361527600551526,1.1165142974174755,1.146690772563049,1.1514922762419908
1.1370347740288758,1.1401973438849677,1.1719804642471408,1.1642837518626936,1.1510456479206546,1.195714844938869,1.2213121040302126,1.1608072235780513,1.1404620689282368,1.1090510648742358,1.105660811807786,1.1360430951021352,1.1166532984673743,1.108360745837338,1.092758325817604,1.0813452912354886,1.092422062658993,1.0969251724162419,1.088900390835392,1.096837955547424,1.1044270204067603,1.1036991593386076,1.1166921659398912,1.2253310101118884,1.154363859705106,1.121650391364202,1.117320955443218,1.115035711859602,1.1314250586715726,1.1176897737684652,1.1431372874727252,1.1432730191829754
1.1330439284771858,1.136705669851751,1.1546068675459413,1.1683973455340873,1.1529264412900273,1.2081847854409136,1.2028816810445397,1.167418435244001,1.1388528178148658,1.1099512064489432,1.107553075372267,1.1303740140229348,1.1181316596204676,1.1067199135524242,1.0954628121813927,1.0859121352605627,1.0935789158246196,1.0900494545214172,1.0955185860126189,1.0987722995699776,1.106542118629298,1.11171834315156,1.129359050029522,1.2446816377512668,1.1540330740856688,1.1310276819451792,1.1232749098385322,1.1281819081797175,1.1407666418806879,1.1284544832464283,1.1460641492376704,1.1541388490149003
1.1388693322911352,1.1469654646006686,1.1656004819432446,1.160692810350372,1.1396888438655732,1.2235588419349817,1.1987580941007592,1.164527668214368,1.138984003211826,1.1267529322191885,1.1071927011175495,1.1386728400498514,1.1347808543635294,1.1130824845265748,1.1034908587851533,1.1031420429988812,1.1153983592948873,1.1098716495216512,1.106166485784262,1.1128020117953077,1.128190238628456,1.1128464563983953,1.1363245966886388,1.264519744378032,1.1580179542754894,1.1209703836959601,1.1259048208242162,1.1361221314252246,1.1427744061663072,1.134910242192326,1.1328370968917905,1.1497049644060044
1.1549038878255404,1.159014188176459,1.1818990272591152,1.1658716362084998,1.1418047647576133,1.2594608100341742,1.213366326404983,1.1657446704588599,1.1189556493083395,1.1134929472502806,1.1253903406482149,1.1206831870498917,1.1232237342255822,1.1136193934370755,1.1118824546025117,1.1073484276124927,1.1131707247312914,1.1032537132415403,1.0991704138925988,1.1038262616222752,1.1164495742817182,1.1085157051884102,1.133368184723823,1.2700714454187991,1.1537757937767776,1.119862574212944,1.1350768195335665,1.1424765283180591,1.154440158294117,1.1451922065681286,1.1401197351350971,1.1432045425820407
1.1465910855518815,1.1562504334037393,1.168633840908867,1.1605546610955924,1.1550050815769681,1.2551292932322975,1.2274019224245998,1.1731317147250213,1.1274137351360414,1.1157821865638122,1.1003371862877436,1.1097791047888024,1.1226768357956338,1.1093362141912282,1.1086447095009615,1.1028501843902432,1.1095512353021468,1.1098573404595402,1.1021927931415099,1.110594461470126,1.1270225627163966,1.123676769451146,1.1515593577907028,1.2390093924071799,1.1547753006852612,1.1250422284324815,1.1352244030715755,1.1227376627158765,1.1523619710224993,1.1435428493203614,1.143002902219984,1.1489471559530535
1.1481967388653491,1.1467727994865073,1.161753226258346,1.1492515902697338,1.1447872207861332,1.239845548497942,1.2265189544995772,1.1807219052990843,1.1298278285630228,1.113167932472852,1.1026714683056937,1.1019889143058144,1.125715220870906,1.118094027882926,1.1160071403704073,1.114453379896928,1.1210185422492138,1.1072304793284033,1.1026318049384343,1.1124597829952743,1.126025862911074,1.1138064574731465,1.1437997693338915,1.2335819739147424,1.1559017505979579,1.1108245817899367,1.1307164546920003,1.1284473784989784,1.138216859448426,1.143015464321694,1.1299369598843216,1.140741174130718
1.166187768634983,1.154408211668999,1.175463985795882,1.1598178670111678,1.1573114722032478,1.2518822662862157,1.243531198098898,1.1725711968877028,1.1345099221069053,1.1219554666203184,1.1244450081436526,1.1031740976913444,1.1314065185041706,1.139901233105376,1.1465829687908062,1.1469736510891348,1.144383513043525,1.1134794980018152,1.1117101135880192,1.1280786412469648,1.1374213291897424,1.1188472881804752,1.1574250111452358,1.2592250140830745,1.1698901154900405,1.1152330702279942,1.141669995090057,1.1403715378018648,1.15247931643652,1.1546230522000926,1.1362402729535181,1.138567320073016
1.1533483583448978,1.1615632600426717,1.1636282235744866,1.172524854168164,1.1549099686686761,1.237993282008034,1.221805430137351,1.1810512384465168,1.1384571313202185,1.1080340819914931,1.1003887783563127,1.0997610047292898,1.1216102791020774,1.1186996234833688,1.116675651961083,1.1195134229602053,1.1252406609482717,1.1144157520845,1.1026238947000453,1.1187411256062982,1.132749434628049,1.1109469166862398,1.1556127442042028,1.2497366287093965,1.1555801650813866,1.121299156985978,1.1352312589592681,1.1273045149125527,1.144740454775452,1.1452710353568938,1.135224883038045,1.1626096172343852
1.1473442209006932,1.153613791735093,1.142703075768602,1.1691691862244216,1.165106860224786,1.2404908008570474,1.2226246178466966,1.177245570527611,1.1425901944170984,1.1082940219438582,1.1030735216019016,1.1061070068999692,1.123684852521928,1.127196498994536,1.1262563050435976,1.1265216208970206,1.1381303904031463,1.1264142506266097,1.1064105589666335,1.1217693395572976,1.1337660641760678,1.1136159026793806,1.1618216436244322,1.2349253983047566,1.160232678454939,1.1273879175570023,1.1326044520636205,1.1329844046086976,1.146131293119402,1.1451601865684233,1.1340712311551495,1.1660845524210253
1.137060996244815,1.1544566010904305,1.1417793193204275,1.1610952827931866,1.1535733843140905,1.259883923211381,1.2323275554107171,1.192865588461782,1.1478049573864646,1.1029372949429423,1.1044510492513933,1.104749085089621,1.121204727947725,1.1248126712057593,1.1252250975578262,1.1220364086062662,1.1249402812255744,1.1143489632599997,1.1025745807731266,1.114724945412251,1.120509877867901,1.1042916055390002,1.1450741642988547,1.1956717632625022,1.154518075746025,1.136247371045748,1.1394931251230405,1.1265131273574596,1.1439626881224598,1.1409962415410406,1.1388551974748213,1.1771222061145323
1.1648475173851716,1.1815849437411314,1.1715406604207572,1.1865786773005003,1.1670284304469611,1.2900627439557413,1.259231893548892,1.2064701936368916,1.168691426740196,1.1266906873445395,1.124818991427005,1.1237611001778138,1.11768525082148,1.1289220830881097,1.1265003024095692,1.1212214743739746,1.125357309885649,1.1138322771249378,1.1032045972187838,1.1112277158150154,1.120607421930101,1.1081392184396894,1.1422112973213894,1.2074389412545752,1.156032941374717,1.1352915848490521,1.1455568016900362,1.1283341018681279,1.1498635938809192,1.1498565302499555,1.1535465440541943,1.188211856080993
1.1451160492397743,1.155762406600318,1.1454125680605503,1.1637530199016795,1.1474381886706708,1.2418201045886252,1.255084773518475,1.1949005721407027,1.1681387312249156,1.1207811691455702,1.1298070348515423,1.1291934102044476,1.1222623949466783,1.1464917725382435,1.1484792572025122,1.1361602552066692,1.1361774072808688,1.1210897256783032,1.0945718380875564,1.1187143858391195,1.1213663024984812,1.0966965199160075,1.1368563098291133,1.1786608920902815,1.1537956775720455,1.1370029454506065,1.1369307911180022,1.129530991825054,1.1447698385126392,1.1385487427602903,1.144413308168565,1.1813210484583168
1.1285999654895564,1.147199228990428,1.127557334434284,1.1656080944830987,1.1486469948600317,1.2280749295328404,1.261220003524842,1.1947216669635559,1.1614545524754798,1.1263713791284482,1.1312072538051836,1.1408258197032504,1.1190745998414686,1.1480235907965037,1.1491214382388983,1.1335778952867637,1.1215180896956929,1.1139180668979787,1.093908281824222,1.1060850192335183,1.1196034220923774,1.089069153742421,1.132180328465701,1.1880350571838263,1.1550285421192044,1.136749318925701,1.1327383792976025,1.127129822479812,1.1397693390597863,1.1319887234444614,1.1353127310228097,1.173442679900661
1.1404506884781855,1.1486760578755755,1.1430776745864213,1.1695018384259477,1.1441465230702665,1.2041488321405238,1.2548164571848568,1.1702158746670885,1.1717302530744413,1.1142661418627773,1.110549669501899,1.1218664229866244,1.1190445740381836,1.1343222705623106,1.1360865276469165,1.1318286167844758,1.1292626437539808,1.1234010780964403,1.096754842203526,1.1081997272180606,1.1275738449388126,1.1009623814958855,1.1419009013141046,1.2047869655237842,1.1611159494775352,1.127532556500053,1.1368311040505734,1.1399220905658751,1.1428413330893867,1.1351885034547906,1.1358797803589233,1.1638668997043773
1.1323906323157775,1.1414510495235382,1.1403473260604446,1.1564508831565117,1.135644634920065,1.1885081151970864,1.2271828368931523,1.1555740803568404,1.1584050868247506,1.099387308339761,1.089246702246959,1.110547045787556,1.1022782719617197,1.1023392898009763,1.1028570587111668,1.1053012924685177,1.1047541292717584,1.0960145416617053,1.0843016940909105,1.0883971009990712,1.1029458670869172,1.0824920735335823,1.1267674320763656,1.1978548500903008,1.146284063351689,1.1305795373732028,1.1283647331256876,1.138428782520497,1.1345831044995072,1.1262502221632178,1.1212231138518507,1.1750706987859527
1.1501643692296766,1.157753659344654,1.146620669950998,1.1647723518236917,1.134981016078857,1.1860813260493472,1.2553388976549607,1.1642825175045142,1.153072869777947,1.1131316851633228,1.1071948972613397,1.1192013778116785,1.1033383446732856,1.0996119356046208,1.1070417601879003,1.1039296591719239,1.109908624197639,1.1030282021959843,1.0889483662172985,1.0963585842312589,1.1073738612636042,1.088154799268845,1.1309943740145625,1.194048572085185,1.1539638118909081,1.138661602266446,1.1393708672355396,1.154040008229915,1.1499856608152854,1.14596141715384,1.140887547265068,1.1705748543635326
1.142255165453257,1.1525683159977056,1.1312918810510457,1.1607564621310236,1.1386661074460134,1.1801931159794479,1.2450665944793706,1.1572836787164775,1.163894071990323,1.1071748590356474,1.0970718129395616,1.1203373778203503,1.1145237801816261,1.1015681391952845,1.1119003683622355,1.1129690846644165,1.1138214037893612,1.1231047655603046,1.0964211007035924,1.0918092569051785,1.1084752070935577,1.097735402744082,1.125665132191857,1.1813585505005515,1.1523033033212406,1.136099070928351,1.1408671325917348,1.1549161676219746,1.1468088429664305,1.1386644990136987,1.141785732907926,1.17794658679904
1.1469288470880705,1.156161357327715,1.1423465752416624,1.1513990137741574,1.1287895739971363,1.179518122811676,1.2609306300077296,1.138618780555334,1.1681479971508926,1.1092285836737528,1.1065932555848728,1.120253258177961,1.1402872369569008,1.1117592037644792,1.1253220147198613,1.123829487180937,1.1276812426527159,1.1395272817855822,1.118708750373252,1.101471804324942,1.1387152063380517,1.126431539778324,1.1616909483303808,1.1997220395851291,1.158845865934955,1.1379150232527055,1.1415334555172476,1.1583104649231748,1.1452264690130725,1.139504977416251,1.1352339454055196,1.1761324735437895
1.1656833665663529,1.170005714153016,1.1440151514212746,1.1703253801492095,1.1630786444135148,1.1704293972910471,1.2478645066611462,1.1579832576357714,1.169907894244428,1.1196536446327232,1.1053374730484393,1.129779938259412,1.151995590391163,1.1212103276034309,1.1354894201332406,1.1369446082425971,1.1295452854224302,1.1590167829203768,1.119181183938043,1.0956047113804899,1.1414044286597858,1.126644446253539,1.1567224231278526,1.2116786705810374,1.1701646231713398,1.1538062935555173,1.1687048077262763,1.186024057817611,1.1711429846610715,1.169822331179979,1.160617201946546,1.1920059964955703
1.1421050247262958,1.1469876346080823,1.1275427581650816,1.1538273879816807,1.154831335276727,1.169928657292507,1.2466798042326268,1.151133755220405,1.1780406669200332,1.1179303988386344,1.1247923893195895,1.136499665075927,1.1518260754604475,1.1250582997956016,1.1391499500644582,1.140680556177923,1.1382528277253279,1.1650547389493866,1.1380001143007588,1.1075745781086597,1.1632650477249156,1.1526736976503282,1.1917698998624837,1.2131283358293106,1.175470209814856,1.164890990505834,1.1614493560410042,1.1678198190835463,1.1538697640835673,1.1555913187411104,1.1491293069318114,1.1902232876691807
1.135908789814044,1.1413444122462748,1.1317810565714452,1.1511761399675549,1.1421315258898732,1.190885647552296,1.2534662919352784,1.1636262673997155,1.1567257036704617,1.1142488087063167,1.1037414549460203,1.114207630989804,1.136139255993586,1.1083321409402405,1.117412761526125,1.1187892691389416,1.1208523568554478,1.1504245572642433,1.1205270743048539,1.0947020877592033,1.1336852592443467,1.1203579868971891,1.1457245012080661,1.1876241719545502,1.1519656270336365,1.139295911018274,1.1357613326514688,1.1614822406694056,1.1406981843091544,1.1399721881156375,1.1282297930797383,1.1643474046723559
1.1326571641974796,1.1549199416092713,1.1353283113146915,1.1522485066672479,1.1341746161480801,1.2144380376861228,1.2537826834136787,1.1710614862290831,1.152881578610658,1.1120795153789393,1.110530477067602,1.1107658419938378,1.1183658045482532,1.1031753039100938,1.111825082500099,1.1147659522381126,1.1144840136125218,1.1379434283161893,1.1168194467872128,1.1045994333754117,1.1274329063507016,1.1140727174909217,1.1332322487711182,1.1863536404397923,1.1427673012902968,1.1234176709235149,1.1221196999001195,1.1573496331065027,1.1322138796827603,1.1299710726094512,1.1155970554573624,1.1552934915513853
1.1381238173394994,1.1588613338409859,1.1539374518589565,1.1624655165855404,1.1516712997151377,1.2369793846104633,1.2754516808528942,1.162911859581418,1.156473382575485,1.1119215853700444,1.1062659690087364,1.1094120251786066,1.1236022098691945,1.1095895060354266,1.1218291801330624,1.1210902714810533,1.1199435427335325,1.1346689462779684,1.104136180145945,1.0915976405485852,1.1030346947908993,1.1081068997067307,1.113254495706245,1.1748805971313447,1.1343099463322535,1.1247075930263863,1.12696020799497,1.153001278092492,1.1290531846859941,1.1374098409488433,1.1270059601145193,1.157612615701016
1.1493625260240636,1.1601448511111687,1.175421445719508,1.1707541544321631,1.130378543919734,1.2419935940138553,1.2643394623710522,1.1639412718474007,1.1569893790373236,1.1228224620009855,1.1240572297520428,1.121069768860794,1.119944994339833,1.1120288354433927,1.1222578252237045,1.114378762715935,1.1223781608865147,1.140993619321287,1.1031874119524858,1.1012373696081657,1.1052904597621076,1.103265580470306,1.1092398104416428,1.1531792978052526,1.1320400430245343,1.125363943787618,1.1327226166503284,1.1508569031588018,1.1324223765980408,1.1404180505517905,1.1281646156302922,1.1606091927678517
1.1372110586069786,1.1618790382215685,1.1635280127175276,1.169842720147039,1.1344742538593846,1.2590780470452432,1.2626858559513838,1.1865031807513193,1.1679443384307402,1.1510189644794426,1.1446619090447119,1.157782699188386,1.1313970058056844,1.137048918410284,1.144086880911406,1.1335358788663092,1.135936169362392,1.1459183580916126,1.1137116786186745,1.1123902333673406,1.114026336146619,1.1045419086771633,1.1098437489821968,1.1549459931354848,1.128140178274326,1.1188115601339403,1.1269196091024953,1.1540288325999921,1.130870973097524,1.1384400998108586,1.1285633073488779,1.1662643496798444
1.1274411512266165,1.1449460111827792,1.15841546488934,1.1489934579963468,1.1251400773400582,1.239806441817228,1.2323637025636023,1.1705611179206832,1.1673035181407556,1.1297634210567034,1.131379381544946,1.152038083907402,1.1244202463206547,1.140567457552645,1.140291615066442,1.127607307820067,1.128941132144115,1.144132548423424,1.107948902839423,1.1133362926913994,1.1073292642234265,1.1044389746238226,1.106829741905791,1.1465900433418204,1.1304309076607126,1.117748815934548,1.1243270584741536,1.1376199894891514,1.1260174147763198,1.1245476238016732,1.1204356282435286,1.176141486655726
1.1220496087037515,1.1413213172460073,1.161165289820017,1.1508464063734072,1.1310312744389934,1.2418508727354831,1.2150272552110335,1.1794712351541603,1.1598483370119812,1.1119506883335994,1.1073241348496572,1.1223817942894248,1.1189564777022805,1.109099995469999,1.1102411062639992,1.1051100056810597,1.111997685955051,1.1285641235686417,1.1077807859066597,1.1066108710330167,1.1098655337721375,1.1089955592176406,1.112227952340286,1.1339055310147215,1.1298575323403273,1.1107688073357211,1.113666126701541,1.1228466439538154,1.112703396428499,1.1170581560494848,1.111074980630658,1.1869437911417458
1.1236836284294538,1.1366641636553816,1.1564782613422204,1.1452859557519457,1.1438892521858866,1.2267397648263707,1.2145605701497486,1.1580497680179374,1.1368804326735815,1.1056021493172932,1.0928719636348156,1.123232148867527,1.0973098585298344,1.1018034300197097,1.1028328592727714,1.0886754232723046,1.0960969561602973,1.1069022506778095,1.0855714608941645,1.09316323703908,1.0951029977958255,1.0867968441326847,1.1043590192585906,1.1233897654162777,1.1233134959339213,1.1329225461025478,1.1223838602477625,1.1167169603758187,1.1166938834699722,1.1160977112977712,1.1247251462350758,1.1708612967530814
1.133790941208565,1.136706679042471,1.1612335856365292,1.141518216242165,1.1292360578564322,1.2158088650775938,1.1991366578931963,1.1432686460254144,1.125904471304669,1.1061162114815304,1.099628902366522,1.1132269941184225,1.0815071147161803,1.0975187619767581,1.1009993924221773,1.0965641176740988,1.1058774394069075,1.1091836050971138,1.0971563747984396,1.110021396067096,1.098736446035299,1.0915138693465503,1.0946184096309477,1.1289296316095898,1.1240731388904348,1.1120218601262108,1.1192660281151272,1.1315539747907168,1.120988075349317,1.1181884870387986,1.1250219801032202,1.1658399531303185
1.1150976702370126,1.1266914707374243,1.1423634821817552,1.1323098195169925,1.1248049998821632,1.2118163506703772,1.1723223277722428,1.1287216190847784,1.1178886657553164,1.090515030347419,1.0759764818820539,1.10227563508831,1.0908912549651506,1.0870842215724383,1.0918900666579072,1.0812382427347744,1.0852870603324976,1.087584755276577,1.082112885960158,1.0794596046673517,1.0807672811081932,1.086353813758662,1.086584982403638,1.1065829041540605,1.1144138036196267,1.110679782228433,1.1071713940615133,1.1100735313137506,1.1025382769031393,1.1026621948936657,1.1179800320823265,1.1691287014141356
1.1221631554003606,1.1228113887139266,1.1678900416039615,1.1277121659758353,1.1185168588550278,1.217530694588713,1.1559422949901306,1.1333822206520259,1.1190537716785676,1.094297043421652,1.0815359331588297,1.1109806997637994,1.089868509659009,1.0959732816919368,1.0950963364333721,1.0842966026188294,1.0944768355614747,1.0881388070244182,1.0890585857485826,1.0909321285124058,1.0880597180796991,1.0946830883404965,1.0934081978053443,1.1144632744238088,1.1153343322411065,1.1136926721312692,1.117154755027685,1.1033263125500132,1.1101528649897192,1.107570826928698,1.1169471558938406,1.1743296967818533
1.1196810742078405,1.119796990360989,1.1626459554818298,1.1209198697445364,1.1186020824926288,1.1832227624602534,1.141887109537823,1.1168612552824801,1.1205193456081266,1.089129328400809,1.076058859180175,1.0971049124609673,1.0995495354475724,1.1006660249520555,1.097642494049812,1.0891977919647917,1.1016386599249925,1.0957321946486074,1.100176753697634,1.1062945867499194,1.1021905675990193,1.1023958096806201,1.1023332102390027,1.1263695913293559,1.1130152159686812,1.1031389613286886,1.1101283736555263,1.0989130135639442,1.0970984702087667,1.1023933918854678,1.115111016065391,1.1724409295349767
1.1197901692753043,1.1067312324495877,1.14548952748935,1.1058786785602113,1.1119036937323679,1.1685198252644773,1.1497297426959998,1.1269766860858632,1.1168224430457492,1.090261494122577,1.0881136097302704,1.0953652857812954,1.093726902110992,1.0992615813146842,1.1014963378144962,1.0928187510170457,1.1002624543498998,1.1036667652066061,1.0947349349835287,1.0944043186373618,1.100321876890862,1.0954659068396673,1.0924599756835767,1.1111568383622101,1.1024362518581885,1.1004653738315429,1.102389620530053,1.0891286644088358,1.0935162016205189,1.0995912512533266,1.1099776792371654,1.1530592809801194
1.114245042846402,1.1087686512738808,1.1503794098623,1.1017382616544185,1.1033036189162775,1.1770934003088602,1.1450409937680168,1.1284616234289704,1.103798709210103,1.0834721313819422,1.0840662063078303,1.093021823437232,1.0970090378908715,1.0941289672890304,1.0958440017556734,1.0879250167367136,1.0957562040834659,1.0963901073081745,1.0994671875453728,1.095288027295234,1.1075266816749227,1.1022009085772735,1.1073091530215986,1.1068641537464468,1.1101628228100924,1.1044593201654838,1.097773580883041,1.091816620584965,1.0920174535594402,1.0963053920002301,1.1013610522732782,1.154487215183692
1.117748615392683,1.1135935791402625,1.1495579010853743,1.1017084083356143,1.1033051408792114,1.187412485220598,1.1537554960829912,1.1121386387913657,1.1039675422879094,1.0905338272338037,1.0926483198622972,1.0940676202463475,1.0895599471922746,1.0998092590234256,1.1062162595130347,1.0979963412030938,1.1001312753831283,1.1010070085991894,1.0992555211793222,1.0980123314214711,1.11399989371576,1.1036756828149024,1.1142255609403195,1.111168659747132,1.1074631323898911,1.1035902236777857,1.1038340716039992,1.0932966273547684,1.0931554778605523,1.096062392373426,1.1053039589928402,1.142818742115833
1.1298600108073824,1.1161111933356094,1.144486056066542,1.1038741425874734,1.1100389052914026,1.1877035966064666,1.168051119518134,1.1041495442206541,1.114690776565898,1.1105290216787695,1.101211388184643,1.107470174772058,1.1093668275129904,1.1157941494306374,1.1220321549329981,1.1159594371031403,1.1201007515617454,1.1102961326246301,1.109098110983572,1.1144588451026565,1.1273150310474027,1.1134535782225874,1.1364561642295432,1.131596083224607,1.1304894065337845,1.1236622127521803,1.1168893221965115,1.1220436149904214,1.1110571731208285,1.1107727020969032,1.1125547002018077,1.1470347636217662
1.1258172938746231,1.1176023947351954,1.1455000775906283,1.1111864722552258,1.1092127674327672,1.196803927356414,1.1707552388751647,1.1198245489131518,1.1207993386292225,1.1166572340930887,1.100872091806604,1.1118442398944453,1.1136786794442732,1.1140201462111805,1.106963970014467,1.1053969475168854,1.108312431283753,1.110282375420252,1.1106774104617254,1.1098401416599712,1.125793884457255,1.1198670508776452,1.1236274426726236,1.1251617168646277,1.1144768487703915,1.1137394443438162,1.1038830548835024,1.1035261721492808,1.1020793952200825,1.1028093648836823,1.1232517612707844,1.1485609022604557
1.1304754989066066,1.1281953776971023,1.1689097478895172,1.1280001986794914,1.1103174791721266,1.2153689980816893,1.192714267978784,1.114109686010204,1.115342670427878,1.106254498840917,1.1042375467325822,1.0979006351175131,1.1079435951993863,1.1107468553872304,1.109300962251658,1.1065969250734966,1.1073518994225784,1.1096864367543826,1.1020467945632693,1.1124359048564925,1.126749627260054,1.1085696765483206,1.1282350402350683,1.1329534490825348,1.130903293951743,1.109616489942946,1.1077188573041805,1.1157409938500098,1.1028451063092515,1.1004550052237754,1.108746292059302,1.129917976987294
1.143907176464031,1.130544684275939,1.190150785359041,1.1181578213887173,1.1043266453452751,1.214007887123556,1.2336554991003785,1.1231517976291194,1.1122991389619765,1.1254968721461087,1.1320810830813122,1.1061067959640927,1.1124956785789555,1.115404284559572,1.1198350795306122,1.1164186446997568,1.1173168081745324,1.1152002004272894,1.1072965373419703,1.130134208296663,1.1382021035317316,1.1164518384636846,1.1341577948768353,1.1660590200509584,1.140657850111013,1.1078505421686509,1.1169344667585759,1.1200779864474883,1.1203186528822846,1.1213987033112098,1.1068971094210907,1.1304403467272648
1.1500174163017132,1.1275376442178688,1.1848737349205896,1.1065320690029405,1.0976613665761632,1.2180521500310275,1.2118877666052381,1.1304811062016458,1.1228952907227012,1.1124933623203792,1.1116437601002782,1.1011702049725738,1.123229771483078,1.1170414832257174,1.1135596030690746,1.1150242847073046,1.126853754065417,1.1338016842222438,1.119682759651214,1.1380820064952089,1.1476807560979958,1.1320671310916255,1.1404893088721502,1.172458647332539,1.166131804486198,1.1040015587400713,1.1148570036163366,1.1368231650850615,1.1222907646839724,1.1142096352211475,1.114933923377383,1.1290283516013095
1.1570760294935887,1.1436669566918212,1.1790001461294823,1.1270272797061676,1.1168328967451142,1.2113016924051023,1.2245080054755213,1.119544117821377,1.1265247189982326,1.1103208003391396,1.119540418201465,1.1154734533151272,1.1139613680579235,1.1197176873991914,1.1128880162115902,1.1119923037239337,1.1252638228089362,1.1379732143428707,1.1253240513600211,1.1384755018088883,1.1525143424912017,1.1331124248473925,1.154410960761803,1.1620774099354898,1.1642446270893683,1.126459343363139,1.1166413593866191,1.1294842113224908,1.1247582686424586,1.1172135872493112,1.1221318188851541,1.1447189150310932
1.145895646869272,1.1302324962782906,1.1545363048522717,1.1097569799162528,1.0992214665684874,1.2100091579505865,1.2156505975627165,1.1386855156066844,1.1252002410990034,1.134512833277432,1.1178769384355187,1.1174257727552028,1.1216864903928092,1.1257228363749303,1.1168358717907565,1.117996646400673,1.1327179836296069,1.1570648652762692,1.1337391213618269,1.1503036823398896,1.1681471990688486,1.1427317487602409,1.1660311509931736,1.1905481532640756,1.1944800673030065,1.1249856189857705,1.124844805410191,1.145631309800317,1.131142674005134,1.117633165630163,1.1159062526047376,1.1478137986529002
1.1415504428396956,1.1423157381934819,1.1680351965029927,1.1285688358575965,1.1070890252637327,1.2090682140291076,1.240708460177163,1.124668353837752,1.1204400243944643,1.1262249970619564,1.1193172690341675,1.1009898753562726,1.1148418220047194,1.111801888536473,1.10780049086416,1.1089984436152176,1.1224107368609455,1.1391761920176267,1.1302107175409724,1.1508656160033819,1.1762509757716462,1.152218859544973,1.1762762152594228,1.2020348528313753,1.1846301994713049,1.1251943050834146,1.1146596718226482,1.1405300798760063,1.1247645711990437,1.1178790403756658,1.1115612196027562,1.149642252235321
1.1409926331426408,1.1460295235448694,1.1593040500024212,1.1376202384633636,1.1241633069525585,1.209267867301306,1.1996874073677046,1.123758842704588,1.1230685924673462,1.1173741713253709,1.1025386139458795,1.1043871739497062,1.1107057930196762,1.1005219964253357,1.0885732274984858,1.0958822220669575,1.1051265130121048,1.1353034648661404,1.12599585494705,1.132938677963737,1.1598401118178663,1.146946589180956,1.162393778743682,1.1934687979158007,1.1803872310372505,1.1376172466318264,1.1203383027227,1.1300024613167663,1.1206873906896901,1.118019787370759,1.1237036222750478,1.1620843764383795
1.1514477323159629,1.1496464207976629,1.1774477558796748,1.1415750594255145,1.120123402411686,1.2166663881794961,1.2014960839268836,1.1392109785680267,1.129624649836723,1.1187693920147057,1.1022603473060655,1.0975198674460407,1.1102561017296892,1.111104293629649,1.0917443761582395,1.106142380989835,1.1018717186201465,1.1331288912973267,1.1110583775507377,1.1225156862213324,1.1383757926157916,1.1300161512916447,1.138295385684238,1.1914319620108864,1.1676624730683658,1.1258776029315036,1.1197251875568996,1.1393505110693105,1.1295371694072156,1.1290401306703093,1.1251751012971296,1.1637862029796344
1.1536825204025571,1.1515399375146032,1.1735620609519961,1.1393549041388327,1.1310946057339033,1.2006064018088827,1.1974255258647444,1.141057033011766,1.1183410987883462,1.0967691180283687,1.09709675410446,1.0915288087928714,1.1104782821591639,1.1044644999993614,1.0942979714777896,1.1233206632453276,1.1157965376563022,1.14918246316606,1.1141224935372347,1.1286597629946429,1.139528768408052,1.127095295274005,1.1314031724821547,1.1862367626907446,1.1650193616940538,1.1311745950110463,1.1201400532414352,1.1273528474797263,1.1261500339424118,1.130821269203258,1.1285014352645033,1.1483053762870405
1.1522557557377915,1.150375305923638,1.1742861195987764,1.1368781857905486,1.1406661426506297,1.2091913460996744,1.2194928873760684,1.141485824167409,1.13355147889921,1.107742397365165,1.1009404961613387,1.1117380687334057,1.1230237814061643,1.1103612269157812,1.0952918113234207,1.1222214419683156,1.1090128861598507,1.154254681942843,1.1217575925191527,1.1232009445963869,1.1438110844761173,1.1219504911033291,1.1271470347236618,1.1834901997646672,1.1633765050590936,1.1356061793777175,1.123603809604691,1.1386750096508436,1.1250866811025897,1.1284711010407233,1.134549363507826,1.1567774384331162
1.165586901405624,1.1652928195453767,1.1816011381087037,1.1516911516690835,1.1378576118946124,1.2295177793483114,1.2111767807315181,1.1489515047233716,1.1170387040124818,1.0945218825870364,1.092261610143118,1.0886021624224778,1.1007548851506188,1.0919040556012074,1.0880993935552359,1.1210858623041817,1.117065408552241,1.1528129225276722,1.1222325732718206,1.1282592951757884,1.148447948299197,1.1233996559663488,1.1397044878735239,1.1870461158932544,1.1726284586387863,1.1467204123677326,1.1354499186634943,1.1522280404272778,1.1395586919490424,1.1475880342537101,1.1360068583425518,1.1774048079882808
1.1630386010838623,1.1762764989606782,1.1948641068831842,1.1687486149006554,1.1454345248000233,1.2712453444276741,1.2279914286688902,1.1586895198050557,1.1390965442792498,1.1125248338456377,1.10800909244363,1.1031836635202201,1.1135897050408943,1.1065671544125593,1.0999059070476909,1.1303856069830434,1.122528873561428,1.1356781027099632,1.1213398447697907,1.1268823002449357,1.1483613017822023,1.1233334939843607,1.1268350235008788,1.1648894082012073,1.15611074021349,1.1330307360634473,1.1194154015141289,1.1359703685027516,1.1166714373149424,1.1325692873772395,1.129509867578084,1.1735969272794549
1.1844368100081926,1.196091296393546,1.2215664442616256,1.1797206547229673,1.1550612785239138,1.271688533786562,1.2467941078378975,1.14754189414955,1.138105473438868,1.1151227418090566,1.1249635603081385,1.0990374707357502,1.1323015846333229,1.1138292765317497,1.1060326457069185,1.1411570034194012,1.1244118025411223,1.1390237437739084,1.1264804152039378,1.13225830431156,1.1370762958504377,1.133058498861699,1.1274412615374445,1.1705751494358465,1.1433812302335074,1.1339975418578423,1.1165746430987566,1.1260434420138066,1.1172796149406654,1.130683990900525,1.1403126492469322,1.1768907620987104
1.1546250526124795,1.1628270964744645,1.1695601541696923,1.163200782520126,1.155544861138775,1.254729587936785,1.214020452278375,1.1714817759160616,1.1542834954784895,1.113266400369813,1.1149730787304417,1.0993871189261268,1.1153684805496078,1.1089349027971063,1.1030167785194145,1.126838870214215,1.1166009712731464,1.1308318488798117,1.1260260960378037,1.13753909383787,1.1660058473405392,1.1326048161752162,1.1512578113647378,1.1682123557655815,1.1512912100183472,1.13837154867785,1.1255093345422487,1.1364528181998117,1.1213468379326512,1.1332329079594663,1.134932036967337,1.1846982953569944
1.1401952406820615,1.1598889999810942,1.1633701909911307,1.1566736179129387,1.163144295943453,1.2396897485774727,1.1933765748403373,1.167319174257623,1.1519224323136459,1.1099025605755752,1.112842520151798,1.1019210612820072,1.1049102542225788,1.1028652006662243,1.0920486470802404,1.1154414733455733,1.1007293517621297,1.1185390842282266,1.1029895744323939,1.1199166028733385,1.1461430815337212,1.107840460416312,1.1322770471231625,1.1691979784967663,1.1509901818110897,1.129980383752479,1.1244472526602374,1.1457878975107059,1.1255235101654326,1.142584900858428,1.1390728746526286,1.1681030081767063
1.1456612088066311,1.1531420429892765,1.1555954438361937,1.1413269006555764,1.1527643627535007,1.225129848040562,1.1959161097545814,1.1610014311811967,1.143623168093113,1.1134436074011977,1.106236686593781,1.1030259424687998,1.097179852751704,1.0990360185144346,1.091032859941497,1.1192649457383421,1.1079361722073597,1.123892361243722,1.1012837204093946,1.1276247299393982,1.1303889494521946,1.1062417700534526,1.1194108378705727,1.1433028746892597,1.1299361723418233,1.124719302135601,1.1215646333496518,1.1323269770988227,1.12413954382007,1.1322816056253135,1.1399443517945094,1.1716011015504044
1.1465720541527415,1.1571154273861055,1.1518638305713984,1.1536192189082315,1.1691645661904468,1.229782842659381,1.203404317150803,1.149290531897896,1.1431619531809936,1.104256934606124,1.0991241972810901,1.1009993902396529,1.1201605943664035,1.1037748581336175,1.1000408397176715,1.1296340585850213,1.1198979154586237,1.1385105605614276,1.1292024933270568,1.1445350125973899,1.147386799146841,1.1176419441474115,1.1241445854923833,1.1564328330064089,1.1346512090626528,1.1364770036952518,1.120984458894795,1.1259813165112706,1.1231986462095842,1.1340044798776592,1.1577316961058155,1.1704524468662059
1.144586126873936,1.1501427965879216,1.1476549737787483,1.1449634987292523,1.146608033864091,1.2194612953040722,1.225303737927327,1.1647562119544892,1.1352493375226274,1.1161906389082754,1.1022909902349765,1.1006343769966513,1.083444807225423,1.089162277835084,1.0862797663420762,1.1020842199208514,1.093556935214069,1.1024207845215985,1.1001661365556081,1.1121845324716855,1.1242596686314712,1.1001277136207643,1.128549130695992,1.1497887718003943,1.1459765891192715,1.1368215179202652,1.1226766018579617,1.1274699520809623,1.1316060442242561,1.1333541886061473,1.1414965068988678,1.1766908955227342
1.1409109948506722,1.1431562103024322,1.1464553135775573,1.145264731633776,1.1467586047508513,1.2246445928950773,1.2088858204508264,1.153410260823018,1.1326370005021829,1.1132411986146817,1.1016769229172019,1.0985686955331015,1.0871969992478063,1.096506662800521,1.0895018084476418,1.0978820554434032,1.0952334501349514,1.1033134382528502,1.0969757200998753,1.0994128074617784,1.117914487124683,1.1006985128036855,1.124500421994522,1.1453745372834114,1.1461337975966432,1.1309780444518622,1.1267039980170874,1.132492683044997,1.1386952802248635,1.140456834389737,1.1385888835623839,1.1751041035389904
