Fp1,AF3,F7,F3,FC1,FC5,T7,C3,CP1,CP5,P7,P3,Pz,PO3,O1,Oz,O2,PO4,P4,P8,CP6,CP2,C4,T8,FC6,FC2,F4,F8,AF4,Fp2,Fz,Cz
0.38031814737417424,0.39087539539701804,0.3249651038910772,0.4456974574128211,0.31975119352556036,0.38726412130912635,0.44609378541429634,0.31902365252517095,0.3291142020913866,0.3721682575687261,0.44938440947065417,0.30425533502133284,0.351780683353448,0.30704852141366523,0.30257605777140095,0.32182020267147027,0.32517166207561665,0.33369734402567436,0.3696179887522878,0.4641579507906778,0.42510172474410995,0.34040786782108207,0.43096176503731753,0.4629915936719847,0.4769237930387853,0.372595710413752,0.30751234591548426,0.47300124895864615,0.2853627291115865,0.30337505055451947,0.29403413803692996,0.34353949293785485
0.35042519009341044,0.371217880392068,0.3404988304946279,0.4274564356066959,0.3139949944663111,0.36002403162969204,0.4759954277322892,0.3945626910757793,0.3238663769066593,0.4160489735712678,0.4704244077221056,0.30608833490385173,0.3456200133274779,0.3014087254818109,0.30351175105753664,0.32283202575093234,0.3161232225114005,0.3176604539410238,0.33891140460374297,0.45159908747663613,0.36772956961978276,0.3441678621609702,0.386033247001316,0.4251766010502735,0.3876327715296144,0.3312369821121223,0.3149686432780004,0.4147859011144873,0.32272151282810835,0.37888932479415594,0.3022823029409263,0.33996285379450436
0.3426703648086732,0.35380948742751134,0.3416919134782883,0.3913186241165486,0.3362341954708073,0.3317884776551101,0.4375990600727963,0.3404371132668356,0.3996244177049725,0.3957175000925629,0.4467800090917981,0.36449522210434165,0.3203196305827781,0.36893347783351993,0.3429047444783887,0.3412886894834242,0.3581517483765866,0.3321682823661647,0.31212657467156407,0.47159171988428167,0.380070304860212,0.29494908879182863,0.3897805698975858,0.3941017372449843,0.3789508127043855,0.342498889566429,0.3585676443879439,0.37991630909286755,0.3408400809320924,0.35654837295930236,0.3474350092689789,0.36864085473027935
0.35826472761696776,0.3434233508069861,0.3005186156789028,0.41036282316830025,0.30682168323496384,0.3195073936846277,0.38782983156917306,0.37884150780137915,0.3686733830484101,0.3720240127375658,0.45340995888664704,0.3500575669565786,0.35732057052565663,0.32145790059672646,0.3515254768954405,0.32993728655186705,0.33216900804951965,0.38251676948603125,0.3680703966053939,0.4441845182435595,0.4454788965003487,0.3174479713433314,0.43341555403313864,0.4017377014866177,0.41651999721236166,0.3228090957654302,0.3574276000206646,0.3535258445294279,0.33013861000108785,0.34451703588829186,0.3361409375581157,0.3396833515123595
0.34790497467061166,0.33527712858938585,0.2951762647020778,0.4350794020840612,0.33015750258608884,0.33603667121297387,0.40922700022204334,0.43060900789661316,0.4009749727949058,0.41038521746258677,0.4654416601858767,0.3793290287552735,0.4219344442864988,0.3282318769987392,0.3867594655627734,0.3529321858179308,0.3613431550583332,0.41767430172647574,0.39604446428007894,0.4558926916847704,0.4354765354452409,0.38840889387794525,0.40200866735621565,0.41539807206784096,0.3741488286345154,0.3080388863187159,0.30638152230677146,0.2976503821027317,0.3033862519476544,0.3136968393383536,0.30911152515214824,0.3617875145827562
0.3525990343550976,0.32358948995727993,0.40606528075679416,0.4498600556405932,0.33651620708711083,0.39294492748073373,0.43941419946217675,0.3769209077315212,0.4137555996843413,0.40508864438345044,0.4459627730501504,0.40755731545769186,0.4001842534957645,0.3230245174621526,0.40256530683641784,0.37237434014190574,0.3948925795123279,0.36502410581372646,0.3351361915987301,0.4530023533486153,0.37861101838564387,0.37482175568743453,0.37593418439753556,0.39500738869519436,0.34290629609919976,0.3367425957018384,0.3241909513392232,0.2985087321239506,0.3207101795171061,0.3310278473664659,0.31425595059028794,0.36138626262022955
0.37928928206762275,0.3495373573961407,0.4323154612686843,0.464429650184096,0.3598888172728762,0.40697259365783317,0.4696631669198602,0.33376716702197673,0.3972805150939183,0.3987243959256121,0.4538522754450224,0.3722166936500631,0.36406638913338,0.31395693720047285,0.3631413362878935,0.36228591485020234,0.3668164938963023,0.34140573079082054,0.3408201443160342,0.4804408046927955,0.3740986537081802,0.3332299169923106,0.3326698525485765,0.4196582744168559,0.3330641934036086,0.3913081658880088,0.3666931979579898,0.3146412281295106,0.3552257369321637,0.3968488808648082,0.33884507443881046,0.3585894700384989
0.32834451951580934,0.31624856424413145,0.3423378380214102,0.43129046556602496,0.3787349432173399,0.3484470690367244,0.5111510245587573,0.3670906579753117,0.3651094645097682,0.40055287064574113,0.4602365960246699,0.3477943875284112,0.35141501430067296,0.3032853446113658,0.36079114278618557,0.341510492528831,0.3429751603516554,0.3532393637015789,0.35734050610440793,0.46719706054434956,0.35525127760733527,0.30786738721590917,0.3369445422175695,0.4277880928453699,0.30820730845716565,0.40058227431514465,0.3433598013737972,0.2636017281323825,0.3632446491514191,0.37867450853195433,0.34743560064690704,0.41112755366115633
0.302516013034054,0.3113037096709156,0.2946145734261782,0.4086693918046321,0.33800518320037953,0.31782002819105865,0.4749014256746168,0.37814600449050384,0.3348162860815619,0.3712811300009769,0.4509518445370118,0.32343229421010583,0.31412892186741304,0.2879071591409271,0.3284914077827246,0.29929455900333635,0.3133593341299697,0.3239065719363549,0.32043664658064397,0.39407364676418943,0.33753805925524144,0.3237486437534044,0.3865227189554481,0.40165833963545255,0.3576670539270558,0.40586644817805717,0.3737636577991473,0.3013851175716567,0.35469820014474585,0.34520814160483804,0.36190734245906747,0.35518069418545606
0.3227799828772584,0.3322285792724482,0.31039770557995,0.4260375522474982,0.334889520346614,0.32821884156298914,0.469343041447656,0.38378161330397903,0.3469465232597489,0.39671132824984445,0.48386166449409307,0.3426614614020006,0.32582754226699173,0.3240367018789316,0.31868760344601926,0.28386657195538006,0.3122798222594362,0.3462885687044602,0.3495340810149583,0.4272207876423587,0.3973222379304131,0.3476398164089253,0.411196238901788,0.42819600407049085,0.3971413913469333,0.3326084211029646,0.36945739916561166,0.3670234933068862,0.35113154556078296,0.37015862853689235,0.3499008139813132,0.3034256150781523
0.3366127502921407,0.3354053105594183,0.3446484473394719,0.4586690314952736,0.33126272283581454,0.3191242458411881,0.4390165244936727,0.37212878939961974,0.34929170740848303,0.41700806503068316,0.47868282974885124,0.3638302665765869,0.3364320100439123,0.32987618957471604,0.31948083693365764,0.2940072642826595,0.3211250876501731,0.3593455521373976,0.3843493819192876,0.4679326042497187,0.4064801412070962,0.3419401098596239,0.3743460884631154,0.43394586487930864,0.35623511579915695,0.2823214240223274,0.33145352814763024,0.3332240679912409,0.3401272448679155,0.36151594207263016,0.3295299998139593,0.30914724207075894
0.38725803435778566,0.370818771375236,0.3427070757305155,0.4754531867123427,0.36314980281453435,0.3555307525363904,0.44687209006953893,0.3181418734777709,0.32214253614329236,0.4317786137984336,0.4661375522143727,0.36845430948953434,0.3640086995823311,0.3230595277885443,0.3099939579377497,0.29851381588467313,0.3244741986636307,0.3538308778736555,0.33959826289331846,0.4754902426167019,0.368561198759144,0.3557092069550684,0.3486137209650161,0.3991682417967391,0.35428532702939985,0.3416153071167263,0.37628941699545115,0.36152373013222655,0.37233571609540234,0.36124695870103246,0.37018638873346565,0.3668152129849024
0.4010742349051756,0.3839641514380944,0.33043286635477853,0.45612783475615054,0.4000321182425115,0.39266888673093925,0.43614672895729617,0.3366060635033929,0.34663490468951386,0.3889549697867063,0.44807865784982226,0.35545918065961074,0.37639508409917527,0.3391758483881786,0.34518500970412175,0.3359481873167134,0.35044927621450933,0.351666909795147,0.3345702233713817,0.48222172182260903,0.3982914606950715,0.37015292466651123,0.38051023745571383,0.44481811626889356,0.3790191139080266,0.3997596196219425,0.3861178337586644,0.384205950778822,0.41365634918451694,0.4099768208999879,0.39706916738315357,0.4027678607148215
0.32225202829538224,0.34168551090765037,0.31015970536233195,0.4047408220621563,0.342080233472704,0.3569663375314567,0.44361522119401214,0.3902990499574231,0.31160339819274596,0.3917661871868476,0.4723690366444147,0.3210477751015504,0.30427917471250476,0.31966397399521124,0.3537286617249773,0.36125556829988026,0.3594239419089966,0.3004230482624772,0.3185334948996078,0.48944646212490633,0.40478622758066135,0.3047677547169716,0.38921632183149846,0.4921165234913119,0.41674948679372786,0.40760839721676406,0.3570275994803754,0.4099693390719092,0.4104602304964443,0.4189717876126854,0.34278991117380814,0.3536219993616438
0.29327589907417195,0.31648039999130045,0.3262203788942713,0.3857281420777093,0.3017343222439315,0.34363714808919127,0.4554977346285785,0.379722467704459,0.30017628173201333,0.4082524789243177,0.4993976894601921,0.3402391592809239,0.30656166247212985,0.3377797046749914,0.3609977018306612,0.35248766960599376,0.36506164495662324,0.32304626985073576,0.3469402308267987,0.4966934357697333,0.4168795858309266,0.3219931367271549,0.3710683298071807,0.44114256014807324,0.37277382548876614,0.3426527393909343,0.3538658751663192,0.3631976587683485,0.3765125955367435,0.4036284001789396,0.309193251259079,0.35356564432237575
0.3413591546223889,0.34769213167722796,0.3621980153998161,0.39927818770552653,0.3186902221648843,0.3657826906393696,0.4227028188379179,0.3763381889921792,0.3242845396143243,0.37623076226198826,0.4479148206826278,0.3546618918553163,0.3503208686215195,0.3316492839794686,0.3537933523325942,0.3482616027356981,0.35158206229973965,0.34908954473819215,0.36431515754261706,0.47646492120321254,0.41640565038520594,0.39416431576952987,0.3988629918794773,0.4181341729176594,0.3657085804425574,0.3533905726270218,0.3651112250478497,0.3326088540794328,0.3446571622473333,0.35187055931900446,0.327970628674044,0.43577988801390444
0.3546950030060442,0.38010542406363795,0.40647861118445416,0.4463142043307373,0.3117053440146037,0.3736144202209973,0.43377908563830586,0.39302426349936764,0.333778664853379,0.381983074315053,0.4452778954360297,0.3759960067424121,0.3428346025941555,0.275718226197147,0.3689508344865078,0.3452575701324846,0.3576794826096421,0.34376819255709085,0.33918750768339906,0.45041625203758834,0.38896930059191076,0.38649709161220797,0.4253267815534477,0.4155550559224483,0.38290169376901273,0.37798220925541126,0.35627314158772266,0.3358306878253212,0.34175757533392814,0.34548846086713525,0.32612056703310643,0.47345981926731256
0.37722168765372405,0.38027755967829896,0.4034745866321031,0.4916342284495254,0.3282859952092176,0.35908468167329893,0.4344852841372739,0.41387932554760537,0.3539117799695473,0.41199455387508255,0.46479640268475636,0.40324254906658213,0.347493749584615,0.29225927666819357,0.3769180432646105,0.3585977571943119,0.34781499693160284,0.3484494548728408,0.353289465885335,0.441080195516447,0.387268753012561,0.3682722271005474,0.41481831806120345,0.3860193034027887,0.3780110115237771,0.37756885406690915,0.3599529203062339,0.3415751039316799,0.37088682173306886,0.38858108264259666,0.3294472046956859,0.42925077995976174
0.37605920986955604,0.3865077479466649,0.36501416825016036,0.4608469494887567,0.3709052513415535,0.37519871318656717,0.43217274959321106,0.4314961459478146,0.33710831400160757,0.43235840984168494,0.45650100537302873,0.40197181256784903,0.39797914792669065,0.3369053248082884,0.3763979558164303,0.3802720371934555,0.35758107997525235,0.3712017740207479,0.3656523888460147,0.4540836668977504,0.3802772244396283,0.3715760940742254,0.39923405395167433,0.3610290894558524,0.356292365501811,0.4199565531783578,0.37864580028763395,0.32969348564179635,0.3723405379006504,0.3745653208511223,0.3596203725204746,0.3880197201513594
0.3786207354113585,0.41138215258965977,0.35120384396991344,0.4310776589274233,0.3797788802474241,0.3768530525857681,0.45019896995726644,0.4160336295207813,0.3393202984022294,0.4120323439162122,0.44633977356077814,0.3663998927239536,0.38321839404421065,0.3777484379533875,0.34515580350483227,0.31454476941308135,0.35000868506506105,0.34806191786689905,0.363829662490142,0.4357466170561847,0.38021223631074275,0.3468368755249252,0.38469689625887143,0.3618361493274897,0.3465426568628773,0.3982521420594134,0.3737336356944383,0.328369515926021,0.3602970489616415,0.3712715579131049,0.4031252675172956,0.39583309256909155
0.38488344688369014,0.39827252210669833,0.35386411880623486,0.4534611094696384,0.3225659798869463,0.37154390722741987,0.46554209476891295,0.3930803840382874,0.36077344060340627,0.40196506050562586,0.4417247827404553,0.3326945923733592,0.35063109886386257,0.358337563273674,0.32601462988878327,0.3082844872751389,0.3224929568728094,0.3197670521882045,0.31909477714479,0.41158439538201813,0.35909283738945286,0.30167000520461396,0.328639986125834,0.3778603995554192,0.33548225037008067,0.3386145155072313,0.3195898662053166,0.33226961199330324,0.34431842361404585,0.36361602571914925,0.39008835937247976,0.4054876735192592
0.29583922754747494,0.3127714658331903,0.31417265476409667,0.41763181536489813,0.29041448555893296,0.3404644098272138,0.4675461316608244,0.3936142822615758,0.3545999815439514,0.4076708442692276,0.4470184225744816,0.34643869916367886,0.32694156002514646,0.3056776303368805,0.34978266215313997,0.3517141825376971,0.3455276176862662,0.34949994252431105,0.32541998146225876,0.4315835120848546,0.3643381477527638,0.3186692058904075,0.3195935569976105,0.38457344797109455,0.36209006582255304,0.31240006776565704,0.30107941354166,0.33342523597880236,0.3374223776943308,0.34476618118024643,0.3327628274426069,0.40977412205715547
0.3156217668783806,0.3014775537430437,0.3343938850715833,0.41392947252794676,0.3128129554735679,0.32788821903516524,0.42742319816222113,0.3849845174861212,0.34536458473122594,0.3986289477076369,0.43756845569685593,0.35355422150908455,0.3286563400668647,0.301831483225246,0.3601690657413779,0.33557516151475464,0.3590730838113311,0.37804130239437234,0.3768838667933042,0.46744047567596164,0.4055943618136769,0.3459760647718782,0.38010025664488534,0.3818390933639385,0.3702381567880026,0.3370293897988934,0.32213612080600246,0.33118681213068013,0.34315240079994946,0.3585522476344491,0.32568102741518545,0.37470594208293195
0.3630114163300151,0.3550808786990943,0.3785735828655888,0.437001370537711,0.3523572058076269,0.367548551422811,0.43334311491292227,0.37975774262290574,0.3075854539643937,0.4141259974360119,0.4653527050647407,0.3914935867174593,0.3981780186377645,0.31252462188239505,0.38285931832106684,0.33838312184312874,0.37387664925053204,0.4297644139673904,0.4395055574325599,0.4888307952994646,0.4133249292208685,0.3438076878498677,0.4037892628822775,0.40922117768864763,0.34914092403238844,0.32955721956708994,0.3083066162278424,0.31409149794940494,0.3287046508993753,0.33430037799566,0.3189969564956658,0.34285752978134165
0.36671205497553366,0.3598270760732635,0.37352205725734944,0.40537854055939593,0.40079385013922914,0.3884101912352553,0.4813878724953386,0.33848873296096715,0.37529032253140027,0.471443769404878,0.5072452045081279,0.4615298046813701,0.4333099821995575,0.3566437087146353,0.4147612576219137,0.3907971023306107,0.42948418175391817,0.4292757898326727,0.4398423210015379,0.5016398314703913,0.40792787237135164,0.3696102187227836,0.35587444589881617,0.43939683108249566,0.3746452131534581,0.3370314838867434,0.32288214066312176,0.35112352827207866,0.34968522133246666,0.3508874589802106,0.3332474534168572,0.3545991542939756
0.34348308095843655,0.3511610161639672,0.3276622525603163,0.39241758481807976,0.36861919861496384,0.3663773795121238,0.40864388964579285,0.323184917741297,0.4029556217388462,0.376023222106034,0.45552766045654225,0.398316302503855,0.41222005358898817,0.35157473706010406,0.3849289439727412,0.38920929539715693,0.405240877459143,0.3998419392938808,0.4004514667218541,0.4489529100513095,0.3990810388532242,0.40468669239987776,0.3788728848578047,0.41954083180442087,0.37848434249083657,0.36406851176992316,0.3397061825905093,0.34947188078620234,0.35265479332919486,0.36471926686710954,0.3446583696735536,0.38747185306203946
0.28622056126965795,0.3339000686717611,0.2883968025085429,0.40718590192338777,0.33018490754315794,0.3224151116168875,0.40709196262903874,0.35239342292503506,0.3548427152769511,0.341624466256058,0.4192987071403538,0.3250645271521051,0.3707031011848605,0.3056855738705035,0.3185963260507033,0.3390962212380621,0.3395863707679316,0.35319822528302264,0.3683356855481344,0.42161651834121255,0.3827415062624323,0.4143975087810566,0.4088603380136423,0.3862775599745035,0.3738698186596859,0.3789668723848607,0.3544373026952499,0.2994778973041823,0.3044787316403122,0.2989887975792816,0.3179261467160645,0.43161694487700647
0.28499524132706633,0.31679790112575634,0.28830375423277116,0.4157696062672647,0.314983811674688,0.3247495572811981,0.42760053382430524,0.3431223842212934,0.33043670268390735,0.3810860398806258,0.41937692808313964,0.31367490715964724,0.3391423760417183,0.294362835913479,0.2868993953782238,0.3029349755107553,0.3092205237713246,0.32283187225296106,0.36231013328583117,0.4479049094638259,0.39566034153991475,0.38383116148866553,0.41554713660920867,0.3746656213977091,0.3979388207888852,0.3776959470630649,0.3669358621321062,0.29982463285365996,0.31014364291319313,0.2981048316696855,0.2979489993045844,0.4160226190590087
0.34197545719523775,0.3438844008532489,0.33958544060936924,0.4313524556666885,0.32241569272191184,0.35066357532838754,0.4340498564332097,0.32501979587511276,0.3341472603276016,0.3918937318296132,0.43672979422841296,0.3221598089638642,0.32745375647540675,0.3203060424951586,0.2953712888962996,0.31273365937468944,0.3069220429752303,0.33530123510231286,0.36220374872427785,0.4937338725563859,0.43322531916756474,0.3743224273665133,0.42629832810440016,0.4198693704120871,0.4028061102852769,0.38742887597212294,0.37090726695731296,0.3501275185275133,0.3556827475142859,0.3465138320029042,0.31385899730477856,0.403572501069768
0.3491667332544695,0.3778150664374804,0.3637104016144587,0.44689086342131173,0.3371498133671666,0.3841036001188266,0.47388321287756346,0.30755107086250555,0.36581889031449244,0.3937961268900954,0.47574662706478277,0.32755771808653666,0.32570951942158916,0.32772686139814766,0.3349260939238892,0.3451662682344536,0.3478334499596374,0.3550227559466384,0.3459171222495324,0.49387689098996784,0.40714090206205666,0.405061630342344,0.4361464189099947,0.42781694030676143,0.39224924707670794,0.38212476367145665,0.3483882695689494,0.34499855222421816,0.36112600497690067,0.33834487769058835,0.3332082018496526,0.41178208752077344
0.29664378859147633,0.3095168704158359,0.30990104504532207,0.4200940275525068,0.28482892858617126,0.363857222450278,0.41966159012100734,0.250494521779006,0.3451746272840119,0.3464897897155245,0.43556579922624694,0.29637633884065645,0.3119775003599655,0.33928700388540894,0.34157769342370314,0.3548506233152521,0.35471426084486074,0.36996405865941623,0.3238502924145569,0.44511247434561635,0.3934739611444107,0.36848014177899485,0.42376044713814,0.38645185524456865,0.39334146492733996,0.3566204329028237,0.33371087832729535,0.32944162662972776,0.34575741999710663,0.31889658581969826,0.2853937433475897,0.3991396030178166
0.29399178087080463,0.30249298094427585,0.312115420035229,0.41296373916909274,0.286478855007382,0.3506748768318287,0.4104838036779487,0.24448207409831732,0.3136654727608055,0.34681558967238374,0.42154027913003117,0.30491375438356405,0.3078538755756394,0.2963143875816935,0.33370642780604803,0.36074837002935095,0.3632590630274476,0.3860459168970272,0.3307746459505241,0.43784346804146074,0.41863018355168924,0.3532930354296312,0.3891602477144031,0.380538889391346,0.37950680238085704,0.33626986383429874,0.3416477619179733,0.354440801381766,0.36880027074069127,0.34925688528541565,0.2836857441992186,0.4283129063913881
0.32053722753289277,0.3396293705337719,0.3499695006037529,0.4233297358901379,0.32444185687782373,0.3731618305397283,0.4412253100458,0.319041078726027,0.32817341895816965,0.35592216887441985,0.425423571536095,0.3365306139600326,0.3392711310055684,0.3132334416292108,0.34868185704381804,0.3421040973339384,0.3566393331627114,0.3572736759074291,0.37046347740886254,0.466447666189403,0.3990854535512764,0.36741229455731883,0.39576274715547116,0.38891201021706606,0.3533888613704707,0.3186828979967237,0.32667238575933927,0.3404186945369698,0.3465613536853962,0.33946650450398164,0.30466077180315454,0.41298016770496293
0.34680772552312245,0.35954876335455194,0.3586405172253274,0.43285728304216226,0.3144173695184031,0.38639606787867653,0.42762792457249355,0.4161728514838231,0.36486908078056274,0.36650220586209603,0.4232039200891854,0.3712320694631034,0.3274362469350885,0.3920971444016828,0.3625781321229064,0.3373811863391601,0.36530244526122957,0.36451500626087885,0.4011130771353526,0.5046750345522932,0.4265933597753026,0.3648882852229136,0.40991129810954513,0.4029199680936727,0.35739791036921803,0.3583572828447222,0.33852711471607116,0.3381740930262913,0.3440231946482975,0.3394487987445958,0.3345438356736001,0.3773689795890815
0.386191337650051,0.377505709292385,0.38448775066077084,0.46321775390823844,0.351609304357741,0.3946053657135292,0.45276927482773793,0.36697491029627427,0.3612275568291672,0.39219892654371374,0.4400230382193205,0.3888403143134234,0.3446052524113586,0.3690498552569169,0.36750103389611777,0.37119150594584777,0.4119372107731323,0.39890618727946436,0.4047625709441816,0.5074995536196115,0.43515978962701385,0.3835868100740034,0.4163143988338313,0.3900507394152547,0.37492889617337444,0.3853222886092474,0.3544102956368576,0.3668875311614082,0.3753557485911266,0.3871615524764316,0.38230787024268503,0.3726003079166188
0.36279683115198025,0.35516289364461867,0.3907786169397386,0.4501596220917534,0.35018645124366166,0.376375595616589,0.47151513589488464,0.36295070411313335,0.3275793441291148,0.39660341526974413,0.4529830344986444,0.3575351990230246,0.3491150227349241,0.3430356565799775,0.35956719382867747,0.3703869974795618,0.36075061726938873,0.34596653778566216,0.33198437887831544,0.44156841819973913,0.3699083692019092,0.3343199573147038,0.38247281595149324,0.4222295757467102,0.38891207231096386,0.39579611859934694,0.337407533312714,0.3737655294381943,0.32879673434529333,0.35790400302400954,0.32722861809551634,0.41158544548765774
0.34971593436523357,0.36064750687941227,0.3654227701255402,0.44787860310170274,0.3464245530290843,0.38095479953246203,0.426891585523308,0.3630146470827234,0.3460192259777115,0.3828547168997442,0.4520668779394914,0.36103485958320547,0.3506828936952274,0.33177208416991155,0.3649206898156501,0.36083506372617613,0.35504388227921585,0.35493721621278024,0.3343968002499298,0.43639083494734043,0.37414918078580156,0.33181922845681705,0.3803961926336621,0.44427959498312075,0.3745174212168034,0.3729272033966399,0.32392686494700573,0.3519627022744427,0.32309063454952675,0.3459071938069361,0.3184445357630676,0.41577084362895184
0.3499965494806166,0.3613136699795337,0.3429664378293939,0.4608932980397082,0.35732542633320635,0.38338727657197846,0.42525796722897535,0.3496496643166514,0.34935241414047363,0.379449304597716,0.45233399566216964,0.3445101950689521,0.3479791331181842,0.3080468979456568,0.339406919197343,0.3412558242759132,0.3558562653233782,0.3616364931733354,0.34556343370460774,0.4361102893025855,0.38042367906462693,0.3521497845701847,0.36166644573122675,0.42089486767504564,0.3549633018366513,0.34233290013411566,0.33609117407420913,0.3286218004427375,0.34417267926931877,0.33773412343327297,0.3296435123465969,0.36300545880346663
0.333473988786831,0.3337826093754711,0.33606065670665125,0.4165388158282411,0.31764833953210364,0.35617472867837374,0.44833749991674005,0.3727748381529672,0.33742843329386474,0.38523498340658824,0.4524848333617714,0.31085820593409036,0.34055162781177867,0.28616183722772226,0.3103008939210915,0.34101483125607857,0.3405904315357714,0.33077967996868085,0.3331561259919604,0.42324403909789743,0.364222976938843,0.349220396549687,0.3636604094912399,0.4136439569476333,0.3506445138129847,0.3322130157517268,0.34528299545831953,0.31120809301497687,0.3205777897297208,0.32442043838882023,0.31580372280508645,0.3324073268219315
0.3371070802491769,0.3415099624718407,0.34659492354900684,0.399625302858479,0.33639442824495985,0.3423250158814214,0.4286963120378546,0.3497134447925329,0.340555078116612,0.3679545759835986,0.47689124976484015,0.3316107808033206,0.32460291034262134,0.296290584789063,0.33743148826240316,0.35020984609723865,0.3474146358575448,0.33874751802399194,0.35513756260583856,0.4461342215631844,0.385039423806357,0.3447125677351922,0.3930970769204669,0.3954993753459884,0.3416499787816004,0.33461150655622424,0.33125038743749347,0.3105144964175124,0.31457347942443253,0.33299051518380407,0.32009966408169455,0.33823449784694487
0.3546638322562787,0.35463360496539015,0.35354843570632066,0.4204005316687463,0.36430038051240693,0.35933950140775056,0.4244159011316336,0.33173368332950137,0.33356346510751694,0.3814030120805996,0.4920515209937315,0.37528565165993316,0.3124925912211569,0.3488635756190632,0.3664536590180333,0.40398850478179027,0.3332318112760031,0.34474697455927517,0.36094049797155725,0.422118886987234,0.3738614213091397,0.3014407092582253,0.3830913005858188,0.3828181248732143,0.3570901965274774,0.3837922144068788,0.34292416332197156,0.333346598056493,0.3824105100960472,0.37432430856842114,0.32936711566721016,0.3967004372372663
0.35258699990023595,0.35807920218138056,0.3342575388076445,0.4119874493388896,0.3479594365629746,0.36763154079725824,0.3728011749107092,0.36727250498626995,0.33842764861465585,0.36675616493998475,0.39755542200792654,0.361596781193683,0.31712223281300844,0.370415775191027,0.3417773553584795,0.38947022656426405,0.3277499800740969,0.33842046646521035,0.3746942246708375,0.432584681529092,0.37657640879373294,0.3060094569494375,0.38350135665204144,0.36838221747455135,0.3534537896109052,0.3737198396438804,0.3256470613284589,0.3155415432246628,0.3568626570986082,0.35497796551087174,0.3162513750527055,0.4023125333710072
0.3605848532445788,0.38605270357809224,0.34008523163630955,0.4339010654710864,0.346736157360286,0.3800714459508033,0.3799232313434411,0.37978502610315573,0.3550718521773897,0.3446710928413465,0.3692428575710497,0.35109509884644835,0.3129415586337115,0.3326967868677943,0.3532463170801025,0.3734670257423409,0.3678015191504021,0.3618020801030596,0.38761070474268094,0.48815401249699153,0.39931592982265096,0.33945265853618023,0.34329021351956823,0.38918867170931637,0.34751131512613925,0.35819865319878935,0.31061769738484035,0.308996346811044,0.33664555947992025,0.3433175112502298,0.30929853681372443,0.3980870273424938
0.37274543632666296,0.36229043061933913,0.384911683758663,0.4457168294837451,0.38520501366050935,0.38953042531107823,0.4580659186472187,0.34690096901053374,0.3784886420331378,0.357838448824536,0.4375297116649282,0.36170625758920444,0.33395449314111875,0.33511151347483786,0.39358742132543506,0.3569271603431573,0.3999370934656593,0.38449664172813847,0.3488212583909164,0.5011514290462877,0.3989371701032742,0.3685347753153495,0.33566988821821603,0.45330380003029785,0.3288706954206736,0.34444183005204565,0.3242139699137512,0.3292103905943541,0.3534129658428519,0.37990558676725666,0.3239481731911649,0.3869049848365168
0.35111907431140793,0.349083839117186,0.34279160549956283,0.44482074924930526,0.36823663171863596,0.3514450780821618,0.45132863614683205,0.2870299380748382,0.320835256627173,0.357333634347059,0.4274794606864172,0.34778255578291234,0.40373692215595663,0.3438751388728662,0.35573067600722136,0.29563469148251437,0.3569402175885246,0.36969444495226794,0.3669989675679059,0.43977162368819267,0.39222727550957803,0.387288051594494,0.39790776203152767,0.39173581764618215,0.3064001943298073,0.2991806494359213,0.3104327362842463,0.31423957075232245,0.32597858782073175,0.32972531187337645,0.3066491164921993,0.3383424286678983
0.30217656853696284,0.3382076387885396,0.27783766361922607,0.3872014538877306,0.3437804592027572,0.33477978511549566,0.42033772886651233,0.2870935723910068,0.3136009939175792,0.3616694205926849,0.41150007168293784,0.33478213083736047,0.402530710165302,0.35301907579789377,0.3244688074059492,0.29626910419816727,0.3463958416034549,0.36143565327107036,0.351614990126897,0.44947017458033806,0.39856562254414407,0.4004418916261794,0.3741444176800134,0.35780722513021224,0.29805250839627123,0.31381643995243014,0.3030939020977696,0.2962286449676733,0.31320493610304656,0.30476103700827606,0.28317617628601277,0.35150475101276574
0.29697726671937735,0.3136774420137275,0.30900550785485975,0.3749498493335761,0.31885433375184014,0.30029052428067,0.4365630374959405,0.3496685151195,0.34419341591281244,0.3908749508337941,0.44716988173960054,0.3545153196364681,0.3537698254028589,0.39222582778286263,0.32632680770681294,0.3246039835726005,0.34010246022668605,0.3558135504927074,0.33893517117543126,0.4643564828865347,0.37665212420469735,0.31935415566747377,0.3675095573249476,0.34994604283154984,0.31130579220726334,0.3631936582782205,0.32395282883542104,0.3028287074383995,0.33370026587909296,0.32840323731846505,0.29338507059349933,0.41877017721051346
0.35116895931456793,0.34259917620349767,0.38674405786146243,0.4613818767298369,0.3218576092609402,0.343644857651416,0.47842521524861154,0.44390472497346284,0.3971879247331852,0.41128424398917407,0.4959854204229222,0.4193613285219236,0.4019246759532214,0.40757133324350475,0.41553453419496594,0.3694296400185291,0.399797253256455,0.4228892731730419,0.4012973048931615,0.49059849812641415,0.4265644485202993,0.3293058211855227,0.39862701198160455,0.399134683281948,0.3692193024067904,0.38928456929522287,0.38696946013258765,0.3593281633628789,0.37447883710559754,0.38066783889103595,0.34955300325917077,0.4180261171568497
0.3375642028803005,0.3669162959430503,0.33383042504055177,0.46373739627940674,0.3411755607671196,0.3853170364332018,0.44620515959813223,0.35947326089296716,0.3874869533788361,0.3835804216996881,0.4808018294364828,0.38446589944821796,0.40279983958366955,0.3511765234696867,0.3602436188076148,0.357297722833066,0.3713395352697475,0.39708678258146174,0.39088928120356964,0.47456698802264796,0.438712312773711,0.3740868574212378,0.38449075599080945,0.40409646778890485,0.3896534778216489,0.39407702323169586,0.40282436704056895,0.3608233443280301,0.39265554109584044,0.3875215172419895,0.35274761947453953,0.40657693042045967
0.31269679780702997,0.3548211064677104,0.31754357049183757,0.44533012876033234,0.3129764270613308,0.3436882096675024,0.43887922543853153,0.31852681158275703,0.33180334866999495,0.34049455324902694,0.43109807773658615,0.30895703447884515,0.32792766819254116,0.3089075972245017,0.31666930000242294,0.30655376985382865,0.3029376187493008,0.320330521632639,0.3408954414095342,0.40170095237688797,0.35108137258491984,0.3289090462710116,0.3549995198913495,0.3747439010479004,0.3872609589275964,0.3702672907811964,0.38556881083868044,0.3738470759055079,0.39962169672475417,0.3666793662962685,0.31069743808520733,0.39890278765597365
0.3226324330369435,0.35317685530567916,0.3527459437377096,0.48095688588364716,0.3269915201285101,0.3709003918464207,0.46518843891542383,0.36150623840843354,0.30835210569570953,0.3573893819707006,0.4528633265127492,0.3031366615006473,0.32890646546556485,0.3182698587412093,0.3241022269478204,0.3079254847369605,0.29354353966813285,0.30901774775959934,0.3341266142940235,0.40841661257654566,0.3511904066469836,0.3342378406404476,0.36217795036156714,0.38323278327708576,0.3644732740334009,0.33447060173275445,0.3442215922897429,0.3681850098560969,0.35297614426051327,0.33264744975460553,0.2907237498700048,0.42262002874094656
0.38582898240291863,0.38114192862703383,0.4135721450787862,0.5221784646749305,0.36065944780775216,0.4395387041908967,0.5060375271063193,0.3739899357845663,0.3418625762533341,0.4306203522062593,0.485486490566675,0.34033424753366787,0.3451716274419647,0.3307688565276229,0.3437551766643037,0.3417576408642766,0.3491709016752018,0.3472703726047748,0.35975083301369026,0.4503053736126778,0.4037514328748297,0.35931140307305603,0.3733262052080189,0.4441333342430205,0.3649688076733931,0.3609491214848744,0.35196734375947425,0.3624157697402278,0.35567230171230757,0.37015780477550475,0.3378638571028515,0.4304036712740119
0.3817401320143389,0.3844515004448852,0.3812207800771087,0.4635852596023764,0.3137941261254903,0.3820305577963408,0.4713712758458261,0.39463450094681213,0.3564865586449352,0.43745271342587255,0.4669885059544488,0.36258401317524647,0.3252796951401725,0.3488194025886609,0.3569987519551654,0.3453864403955278,0.371566877545751,0.35402183535767484,0.34492115779318855,0.4314466891368202,0.36934074528001004,0.3185223077474542,0.36298071885660205,0.3899315790671359,0.36662055430683177,0.38428429995469704,0.3903334476513825,0.36666838288629655,0.40621042509252214,0.38565024365952405,0.38240234150904034,0.40386121612142684
0.3195177881700635,0.3260797883707002,0.31270138491559824,0.4388107202349016,0.25112283799370555,0.3172070400706756,0.4299745785424595,0.3891695783857268,0.3451551594874476,0.4162993485011355,0.44971783427035095,0.3692142663434036,0.33936980084502644,0.33279048516130894,0.3489171998208174,0.33859019633484905,0.37308347938966435,0.3518496376085853,0.3311059342426608,0.41571335760183886,0.3542365876291448,0.31363457650484755,0.3670089933923487,0.34718761774980594,0.34896619010282476,0.3872034538991966,0.4066199754693783,0.3606507970894963,0.41650603628491095,0.3593476817263362,0.3520968204323282,0.4216158712651386
0.2643056579995073,0.27669260927404177,0.27871211428318904,0.4192388266025676,0.24124650989502078,0.2885121233586785,0.4373751495265253,0.38378721755199485,0.32290560685194497,0.4038689936387195,0.43524743194945753,0.3663962818735949,0.3592610862401961,0.29773205032729283,0.33993427136338034,0.3545989890885736,0.3854480493465731,0.3764867779149698,0.3439421971050647,0.4328693674725679,0.354563864736098,0.32832622759930047,0.3766023623993539,0.34493975930423243,0.3240698030412143,0.3791314023760195,0.36233069102962917,0.3373448095697884,0.381304834590064,0.3287984283144127,0.26927408283602444,0.3963361298646839
0.29349542914101373,0.3297093317762745,0.29053867238778297,0.39787642325460665,0.30785953760006174,0.2834483770557923,0.3835016058042562,0.3508130760734797,0.3231042112883868,0.37308827436998904,0.4083368945683957,0.34608524367408344,0.3355236449584033,0.3212469772348096,0.3397433951159913,0.34321775101133745,0.370042393759188,0.3879779927259997,0.37136560394599744,0.43994974406064075,0.37335890629968493,0.340754470178512,0.3555824309647468,0.344737161830829,0.32930416987042627,0.3429712103164875,0.34250903292588536,0.32528241195969004,0.37599021740533856,0.3344476082028828,0.27462269400245753,0.36942541649861693
0.36765648014901925,0.39675839108194144,0.3385543933541591,0.43129662021916804,0.333539005153577,0.31697976985969933,0.36398269232212205,0.33655921436597813,0.332602374900568,0.36625152755882023,0.39432800300163384,0.33896457483521947,0.34938876914689454,0.35300295359741113,0.34704131335966687,0.3547264984734434,0.36701031432905223,0.3738155848212952,0.35718550911334357,0.4394203818356021,0.3534011058656931,0.3696535984266351,0.34616681434589347,0.3332920786232564,0.34158149732291504,0.36713896931849627,0.3929727607855725,0.3421435661274739,0.4021913916288679,0.38915423909752794,0.3591802945095995,0.3856998470381832
0.40226418702693395,0.40128130293932107,0.3563297245974724,0.4507677272890256,0.32841510262176005,0.3499380668585597,0.36969667458604155,0.3604004196014527,0.3336759842715667,0.3635670105177389,0.39548413409761635,0.341398119584472,0.3193091440145902,0.3389114100055802,0.320437965082926,0.33523067532487905,0.3314414369560318,0.3319916186838585,0.30604215664672557,0.3986245643058267,0.31871622352920376,0.3591181231138131,0.38054809072431633,0.30854827418834335,0.34161300777566833,0.37792904436324126,0.40359967452807544,0.34114965286807,0.3815656796253309,0.366347751033868,0.361879738694337,0.32626048606832336
0.3438287081995747,0.32628683770075867,0.33704643238824217,0.42991810996388113,0.31882971903841767,0.33204203412102584,0.38432134863706097,0.3502970498623365,0.3116869964766976,0.36204323099492003,0.4142432416414135,0.3219499800222479,0.303474938241213,0.31290761889401336,0.31145030999337114,0.30999215085030923,0.3250471795003232,0.3203580553745894,0.30051615777027113,0.3790365728024481,0.33154083257307965,0.31552297508033944,0.3929216050517079,0.31524531082641727,0.31461256867724346,0.34857726372778974,0.36119096258821515,0.32024296753295306,0.3570299197598307,0.3360356698654495,0.3181944117532571,0.3188968127236736
0.3049760921863981,0.3040282217293398,0.3193548123300217,0.4213892893552085,0.30431234532326523,0.3312783518873405,0.4086130468824414,0.35270990255920687,0.3149836517027721,0.37588467953037996,0.4455907506258194,0.33432294047449457,0.3269615353896063,0.3283059151086304,0.3273937016739713,0.31175733055942106,0.34422884637540396,0.3419491564095221,0.3419575367868479,0.41335362613111315,0.37275179072334613,0.32038088768988626,0.3803635239190013,0.36055427082478647,0.3251477658055847,0.341557623142449,0.3464936667133774,0.3140661360327229,0.33122627003947197,0.32038072927004313,0.289580187396481,0.3427543770484462
0.32875306259666953,0.3214194835035502,0.31091422128003016,0.43074260399730835,0.3152474334131173,0.3386721402512547,0.37861147953800045,0.36706913689794385,0.3235640367703103,0.36461625141548065,0.4514457792458254,0.3546124232880435,0.36570241740391946,0.3488370741055462,0.3215274881103328,0.28680426990339275,0.35281393388421545,0.37898648279369995,0.37794053175767356,0.4757106325095577,0.41048837170766594,0.3815028593010756,0.36684790598674083,0.3902362133423742,0.36311638241563404,0.33656340533831147,0.3250424686340272,0.3238149368442026,0.3288395799228873,0.3014065093758483,0.28924734245690503,0.3772794061709954
0.32989137443444816,0.30925155417053374,0.3069958982445355,0.41315804309960874,0.3481507683531434,0.3210420261235464,0.37073397691160676,0.3712718862852688,0.33621447098991936,0.37114211202343966,0.42630512917025837,0.33368781860722263,0.349605808012108,0.3124255938210449,0.32790444932027357,0.29516863096176144,0.37140562618108264,0.41305231477234217,0.3832212580601359,0.474567000791835,0.41709005616071637,0.3650025898874492,0.36213487745559036,0.3535906622461829,0.337809923173125,0.34702274948740347,0.3164987926434476,0.31984792711850896,0.3545091415369728,0.3066470806613145,0.3086988632322797,0.3904405117877379
0.3328882224872367,0.33515943226578865,0.30183159088812617,0.4470094379787473,0.3704661655298892,0.3207094087441101,0.38448634061531334,0.37496782253857047,0.3579731593248425,0.39493792823598595,0.4062305980543503,0.3265976235831473,0.3464677601761626,0.3131423091580283,0.32703323207452895,0.3179276440807195,0.34600768510824786,0.3699608332601086,0.37719126363751854,0.46514766665155677,0.412501379577949,0.3495373859095717,0.3938469288199503,0.3505440563705459,0.32746929711707023,0.3677321382395833,0.36136895283415077,0.3245714562385829,0.3938704799282318,0.3296554101664241,0.3616140910529411,0.40892479389889735
0.3872511316952695,0.3937379941348626,0.34933869123033146,0.4763295479298465,0.4204397688504933,0.3588098247006244,0.3832963012582801,0.39657965474501206,0.3774450817652539,0.4021079017929234,0.4128908802945985,0.36147034260169847,0.3558054786242501,0.36296750381487225,0.34453944449017715,0.3431004588957018,0.3483978425454083,0.36468630782942535,0.36063360879808165,0.4701683609302508,0.43043018561786794,0.3489099623248409,0.40318694727245485,0.3837354204850091,0.36564727585736906,0.3840760049802099,0.3885406613618108,0.35823684048144533,0.40186267909680834,0.3635359951339159,0.39014343897709763,0.4137870321073154
0.40677004555344143,0.40382414438145203,0.370519588537228,0.47347897444522485,0.4203735222125707,0.37197225455978683,0.368737796137767,0.3510905609524656,0.39304632540607254,0.37413890244228404,0.39838129500551706,0.38400505123787054,0.38598996730567886,0.38808039987108983,0.3747901585131557,0.37329929495090725,0.35268380787619164,0.39448005524118107,0.3800801542951949,0.4397338920243459,0.42452578146523906,0.38728110679822175,0.4103871637267419,0.37733773320149205,0.3806217317565793,0.3853979523960066,0.400477238011515,0.3481520863110799,0.40009559623440144,0.39168743059048233,0.4014394081513774,0.38878013960804775
0.3849728052877503,0.3693302579894745,0.35959705039192125,0.47870754168729773,0.3504899269380238,0.3683531352073942,0.38195818891799554,0.33068167610652716,0.38311655253799937,0.3712269414516804,0.41477773615582886,0.37097059345463684,0.3895612171818002,0.3724432327872149,0.3754701234021274,0.35898929593550877,0.3509236026464575,0.3935586314241072,0.38958694580059355,0.4362961490898185,0.4036740543513043,0.4011860720978925,0.40730598317425576,0.3488238527977531,0.3473696536331136,0.36113854397969164,0.38451046759878965,0.3357347601753299,0.3906920655173052,0.3807347337901913,0.3673954944987468,0.3787744218980209
0.3395543163818027,0.3378930678104956,0.32201593574446086,0.46657530225431465,0.2977148021957323,0.3187324449580546,0.42629778929746176,0.33985441526589116,0.35035597453563866,0.4333647657286912,0.4758505608165158,0.35741399443270416,0.35770619918488095,0.3728941985818205,0.38302675590519175,0.35523100989819933,0.38052382523804357,0.37396916357026094,0.3791240403522168,0.4534618312346903,0.40894260325859233,0.36170478454331284,0.4004139538861497,0.36789505542921436,0.3363275010005866,0.35686453909058813,0.36333972831729794,0.3468425717908854,0.38859707150349265,0.35240172255158614,0.3197761097366417,0.3779887825478017
0.3542062458103543,0.3827996161197866,0.326269399672122,0.48558147655822237,0.3082408376656702,0.3158833417658998,0.4955323700704873,0.2879511948763752,0.3381397662444166,0.4400758923513396,0.5092680997570606,0.39601498688158426,0.3629122865781531,0.3479564414002833,0.40523463650441516,0.3813997650448386,0.37252282268964887,0.3721429662052974,0.352591144653365,0.4724418358185556,0.3939241380821345,0.3452016803461363,0.3815508567215556,0.4220755758557237,0.33268306880037424,0.3679521766187428,0.36818697828974184,0.34340271780259907,0.3981371422233756,0.3436501644662549,0.3512566706417368,0.4257820364394094
0.34926394996726806,0.38192246287072074,0.3390294316533101,0.4862755129643593,0.32847120750768455,0.33586098287061966,0.48617485623281076,0.3258778398303655,0.3664999486354554,0.41437633008807384,0.5113643885213772,0.4069522124624107,0.3398530829854702,0.33957377216258033,0.41860632838199396,0.3878628065035662,0.3681204303760149,0.3819549847597092,0.35741787029588307,0.49590359745715645,0.39264049991772143,0.347053267907958,0.39436113732048894,0.45540307876107816,0.3687511544408825,0.3641783516476462,0.3763700302826628,0.3841939573468333,0.3988718288612157,0.3495923753997231,0.3373533298548364,0.40218199389645687
0.32153487158503286,0.337049513819881,0.32912501854975107,0.4270248510060492,0.3333254659321688,0.35431053087627135,0.44850559473589996,0.3648453291164512,0.3371265734259895,0.3449319371831681,0.43040545369107275,0.33898446543188687,0.3318088711591584,0.3223193616242499,0.3925042514851223,0.38205489708079593,0.3584099741183511,0.3682491453982172,0.3552240560292265,0.45870866389079695,0.3773556933241656,0.3386313548201169,0.37776652537931477,0.3685574926190665,0.341752469105217,0.33134885158205535,0.33596491252774663,0.3474105814838649,0.3350880399694935,0.3312239430985497,0.31940083587389706,0.33095669640526426
0.3200968506989675,0.32464843922141906,0.33094235229673924,0.3983504270142727,0.291712212990728,0.3518975945513223,0.4025958551551367,0.3686559998962098,0.3194083692340945,0.3398320535621134,0.4042968329148852,0.32477934469538466,0.33224769247229263,0.3052277043016084,0.3604039421030461,0.3567714113149267,0.3462828275294491,0.3359011271508391,0.35063637576398904,0.3991304881482494,0.36018621790545224,0.35382709714196425,0.3503410385937267,0.3291478391609264,0.3095961429750807,0.3287654182064375,0.32851269470928607,0.31406485869992307,0.3334865664085031,0.32874979208693633,0.3106346162978402,0.3504620445737
0.3235091610272206,0.32000008643489053,0.3217292064309621,0.3963719626309134,0.2787882109611123,0.33141497270405906,0.37296462025489674,0.38905926969725785,0.3117156337672874,0.3638317393880367,0.4105937751816437,0.32096560609623637,0.3404402141392333,0.3144767626284707,0.35143375430733576,0.3544544989554273,0.3528170805569275,0.33682524329015195,0.3444996272205628,0.3917942385475449,0.3639851570367064,0.3876539755030232,0.3507990982641027,0.31819716224160527,0.29876732902676995,0.339148840307299,0.3410819815040793,0.3002513168480269,0.36275638607114613,0.3343257831459855,0.3055553404346723,0.3840088843813626
0.3505194647503043,0.3610960067378536,0.3194795054132944,0.45132235082795824,0.3277050465500548,0.334382299031942,0.3769666677076876,0.4013371129957367,0.3332671733649841,0.3905726402221096,0.4380705072899674,0.35873242479043516,0.3793827230295056,0.36348228734590454,0.39994926292446004,0.39580715191363763,0.4098018060825382,0.3941186283072981,0.34534598290555546,0.4765115790272406,0.4192623723105226,0.4280641445267989,0.3920642594368457,0.3451351995828025,0.3142184873751673,0.3651499293320363,0.37114887425830234,0.3226225009286401,0.3972349055593472,0.32924110127477896,0.3276978286809577,0.3769866935254553
0.36682511833612946,0.34478785004487783,0.32839665242910543,0.4568092722797925,0.3386787572897597,0.32863223505127337,0.3780604557935462,0.395113894487084,0.3679069735894862,0.40532968406463504,0.4457474663515951,0.41316507948453596,0.3918443924036107,0.3987519744699279,0.4088813770292703,0.41834267679604625,0.4189832048907583,0.4228187606342246,0.36269031875452534,0.4573607915489821,0.4154288546836995,0.37846423574085364,0.40569879739438314,0.3753227813777081,0.3604757762028687,0.45229426260741135,0.40557429581904314,0.3695492521927954,0.4157160807496714,0.37405652855618654,0.386632496788454,0.4057398529704936
0.36466954882364255,0.3408759255289534,0.3459007651497879,0.4470922687343677,0.35013995294740713,0.34038910680535883,0.37917786031577877,0.4009005612789439,0.3433185944740982,0.39355938464656515,0.43141997716090835,0.3706198203507354,0.37867884280431025,0.3774220617411711,0.3665397643521243,0.3759560662386849,0.37685653465134505,0.3861409640078519,0.3710476413631956,0.42178675265881294,0.3825135718367574,0.37872422042753084,0.39787498069226496,0.3726305779345601,0.3748746461152605,0.41872710372839095,0.42215705033305573,0.3782983742198925,0.42188316173681184,0.38309522470019447,0.3804012128466379,0.39097943878266134
0.37251925762195354,0.3840303876703703,0.3706566753731039,0.4694335871147941,0.39809226267433134,0.37880972384255496,0.4077575916839398,0.4290039820763176,0.3380536398737581,0.3665248390864965,0.40974152210605586,0.34165818518328034,0.3734160781882928,0.3325123455843018,0.3385635531575517,0.34979091673837276,0.34215449821361005,0.37363764212035483,0.3938484369248913,0.4307589985986317,0.39013246007112284,0.38173589368146127,0.3907535708028679,0.36819645137270357,0.35611428514859944,0.3822024358171583,0.3932348802252237,0.36509759981965995,0.3830154268769333,0.37137940761098714,0.37283440664077255,0.33982140395325283
0.3457615365769699,0.37151502032856304,0.3356176495660375,0.46324877813059767,0.37724298630099945,0.3569404716150692,0.4121453624387955,0.4184492045161341,0.36718406864151104,0.37931616896664033,0.40520408302266453,0.3583729356359825,0.3640074997833349,0.33932564274311267,0.3353164200222487,0.33920665000804706,0.3322003955574915,0.34020925215740794,0.3560790060960918,0.40761942718181715,0.38601472849570584,0.32137822714303815,0.38815062261604655,0.33117893655424485,0.3370352289884774,0.40930265847829966,0.383648087327642,0.33886517443860836,0.3828028556387771,0.3475851174346598,0.3694565689001034,0.37580882532005344
0.3225731000954221,0.3331827422447909,0.3202786701935123,0.42113765560849026,0.33392974693539035,0.31168258179136826,0.33358524360599556,0.35684430185964433,0.3678319262319876,0.34361823841166156,0.3475166490911828,0.3518675167526745,0.35482661847499236,0.33737650174128697,0.33579984837092325,0.3266531810150549,0.3395992183921412,0.32295750971208936,0.3278668754949785,0.3925515538820106,0.3646990288855854,0.29912835920868397,0.3546898618262643,0.34465301323783515,0.3280540323294816,0.36625383142828843,0.3580922647557726,0.3188300815772147,0.3716134362921929,0.3440594862930908,0.3292925372949727,0.3949872296148259
0.3127749209169003,0.29948168196135844,0.30021739093168814,0.4321489598550134,0.32979599955505806,0.2938408481017903,0.30133114182695614,0.31535972060662676,0.3586552388909511,0.3200748139362277,0.34079063959685607,0.3436425059708208,0.36074838646612317,0.32914727196601024,0.34181800926823624,0.3371512197132756,0.3435179888979467,0.33881794324569586,0.31808922152378577,0.4008930354175363,0.3647166588477272,0.2860007994304047,0.3439276556525577,0.3540365170102574,0.3212999703368796,0.3343516910035444,0.3366267747940739,0.31198048463066436,0.34858596120736046,0.3524787105855103,0.31330093877994936,0.35067036966474496
0.32096176139698457,0.3116484850219591,0.3037431842842286,0.4582495231818033,0.3338382665318665,0.3416091650780033,0.3609787611346125,0.32752382701088284,0.34077917989297507,0.33756894355966705,0.4064101952611166,0.34227102185043456,0.3585791896311943,0.3404473346961603,0.35922396854935523,0.33574449612232155,0.3454569286065212,0.3428540155721471,0.2772866788471332,0.39913924312575644,0.3566820619077271,0.2775629941216483,0.36146938245903715,0.34467739783963647,0.3198430744970388,0.3479900550394163,0.3500478524982969,0.3162857895804974,0.35287198463684505,0.3467089130279689,0.3188768191443483,0.33651516904326
0.35066959684469823,0.36665868867981594,0.362088119524848,0.44864576420490865,0.3669480187320258,0.3802057832551037,0.41990527437423847,0.3543489212464614,0.3480009917169928,0.41646572490647016,0.44269630637828256,0.3569814078059024,0.33237388590794137,0.3608145516879493,0.3527503746090733,0.3101980225523301,0.36241208288857407,0.32348394064169883,0.28137476950144324,0.429446421056685,0.37299241887594237,0.3192369768546683,0.3951590989761018,0.36561958926361515,0.3343018219521523,0.350253933131486,0.37324412456083694,0.3457187966461571,0.37904149647642377,0.37781931009589126,0.3252396229474827,0.39062736189772357
0.33063057651440325,0.36051485601021294,0.3429976905496177,0.4455748310887709,0.31598838600485324,0.36560592501834177,0.39184400433625693,0.37068246767327384,0.3367993001151277,0.40932169062805823,0.44088657421152166,0.36066327336488785,0.3493231111440764,0.30330302919197105,0.3640528758934444,0.33026811230986514,0.3542200874684298,0.33443730091694823,0.36265654753816545,0.4258501844900138,0.372523761436779,0.3699044341329264,0.40570362720715253,0.3342847184498436,0.32370013344375936,0.36434364549871845,0.39434019947026056,0.34614490392625274,0.3891722284871608,0.3784952662073132,0.3398156617852638,0.4011540224208753
0.32507024878690616,0.3471986559810829,0.3246144316824357,0.45919730106702833,0.28067681383230636,0.34778917967888084,0.3427264342992712,0.3489598467316395,0.34130379449819914,0.35270132453320663,0.3646449594361368,0.3435046021926583,0.3671541168272015,0.2924074747633275,0.33857552767851706,0.33012015902222086,0.31985014060590855,0.3118271256464785,0.37989907973289555,0.3938388277128621,0.38002612687946935,0.36772934807248914,0.3731082177412136,0.354286067331377,0.3327780965387208,0.3208321853775006,0.39193928616188917,0.3571670791134118,0.38287080963534703,0.3418794728682778,0.3162903948575951,0.3526228660431151
0.33332560640309933,0.3247340747330109,0.33074674676511123,0.41502847890969885,0.2840968622008361,0.34252923232860116,0.35692757066470043,0.35719182625908824,0.3330180808265412,0.3379266421229247,0.3549814004504132,0.3277764494864073,0.3489428037524264,0.28840282353073315,0.32053979331344834,0.3163957485407105,0.3049408062273786,0.3042097314554849,0.36492448819745393,0.38995704600228354,0.3639691846588082,0.3466445520027623,0.3547949861028897,0.3728257010732442,0.34110639455926234,0.31424207798140663,0.3962142757176679,0.37224908484554753,0.3994863427458905,0.3265848639337414,0.3173107117350577,0.33231338178770725
0.33346109584145983,0.3250982995759532,0.33732920554922935,0.413760666578737,0.31992592153652744,0.3389579256148445,0.40137917319292515,0.3948637662281769,0.33016012948792517,0.3787723526887947,0.42050704990412,0.33750130503771975,0.34733134322931497,0.27053367531746175,0.30892737690522126,0.3038307349560816,0.2808836003806628,0.3059649554454196,0.36918993182972665,0.4292360176640701,0.3730594180185864,0.35205470721465104,0.35654368294874095,0.37170808966148705,0.34194401237882255,0.34272224697650516,0.39249977087141397,0.3519188771140698,0.402838834264265,0.3357886336198557,0.33400108712224574,0.3523400087150469
0.3237473758857499,0.35295734675506163,0.34694370882322123,0.44634217700583145,0.3560684673140945,0.3308406822063731,0.4218966173116691,0.3500936937299636,0.3300656396141195,0.4192144159624438,0.45346997932203365,0.36746874930869233,0.3864807095916971,0.27861474078675397,0.33755220426841087,0.32777409153745096,0.3141965235754406,0.3255612959011636,0.37061593036868135,0.47051083324454046,0.41937809133913956,0.3485418195009581,0.38156802458176475,0.36207436365143647,0.3215414570175751,0.36864951618281705,0.3661611650665678,0.33390589341818033,0.34997753651589975,0.34915937782761275,0.3282986108634625,0.4218026828880498
0.32565952613412785,0.3493981775056016,0.3490549432473479,0.44099625059672287,0.34527376332938214,0.36645793190952636,0.4433607929764968,0.33294525712290624,0.34636630526929046,0.40810817398190097,0.4605062426050911,0.35903114541886894,0.3912552002290475,0.282225048976884,0.35454847348199575,0.3114523571251057,0.3549043802961717,0.3761212709024139,0.36562448444805556,0.45613667071072317,0.38800722390109743,0.35271226402869543,0.36658737848984796,0.3497587058216403,0.316538938413044,0.37054333788908694,0.37841682883057676,0.3392673013649062,0.36298915256404374,0.3747158536283807,0.3388161674952975,0.42260582230230753
0.31541787131548626,0.31141570299717797,0.3066578271875176,0.4623950612331217,0.3515411270343187,0.31176426409415553,0.37847165992106796,0.34926951121989414,0.39854655138976186,0.3799099248325663,0.4348889769851982,0.38274924498801816,0.3952572271658873,0.3117230327669797,0.36693061355437234,0.29017430499470453,0.3421837430480931,0.3646049586096604,0.3629333916183131,0.4192971200214198,0.36121465328952646,0.34942580033552767,0.3626347694604461,0.31714346334475996,0.31547644445510353,0.33603044670584686,0.35053734376336787,0.31912033816434376,0.38417970716968336,0.3436825761266165,0.36096911437588675,0.3681544977859758
0.2976307211841618,0.29663004808281246,0.3043123617427439,0.45358017394138955,0.3437622971086985,0.2929008900178582,0.39006606079949097,0.3663425191985323,0.3971140361422702,0.38930650796083915,0.436289295747791,0.39130185307779136,0.3903445972771104,0.36665864902981044,0.3728951013446921,0.3429185417256555,0.35785015799488457,0.34085816702816535,0.3547371295208688,0.40455313319573666,0.3621474474048027,0.3452694986456318,0.36197874991407797,0.3148517832849876,0.3122287679390642,0.3081259493515069,0.3067033230198899,0.32551862961143796,0.35642601011134395,0.30694233864559023,0.2975827531156495,0.37473049597336533
0.3099742968804276,0.3207522274943401,0.3134828249960723,0.4739094152257902,0.3429740215906061,0.3262553205033753,0.43605369667597776,0.3587691427235117,0.35735086691802526,0.3863688421101973,0.44250788525678875,0.34474466447193564,0.35853148440419924,0.34509476294134217,0.3740998807457483,0.3577650829214219,0.3686774949107016,0.34560818294085244,0.3507170351576734,0.43431373974515913,0.3962601658629297,0.3471856084731475,0.3737873001851672,0.3472304161572769,0.32959387304243404,0.32225615661125867,0.32335772087051035,0.33992650285248827,0.35496013570229884,0.3357266057372215,0.30096072637243515,0.3758107350089757
0.32070557230408214,0.32766872713585776,0.3085138913650788,0.4693041296528002,0.3334240541833339,0.32282468553228033,0.38185174647397807,0.34320479925174824,0.33822594792845,0.376795295915908,0.4076198074014844,0.3376157856024165,0.3554620898451858,0.3179490027809261,0.36379464833871755,0.34410527165115,0.3721507107470663,0.36175721408214606,0.3619441956598531,0.45670993835180007,0.3938381283914504,0.35789108578790857,0.38011465071745915,0.3503874133093191,0.33193214782962177,0.30223436191445135,0.35291161245967073,0.3273791499028823,0.35333296458901114,0.3602388131893166,0.3159722632099422,0.35010825750845503
0.33042370044043085,0.32262456854676724,0.31542709298235727,0.44227379231700065,0.33027661613040504,0.31118470074214527,0.41672614335585495,0.3582178475886491,0.334421979551496,0.41601566656928357,0.4302440019401792,0.37929600658548224,0.3430966193533208,0.31207423680495305,0.35550817922994427,0.3320490928607119,0.3523427551597008,0.3803626885950602,0.3845159623106419,0.4405509993956058,0.37444671426120113,0.4030559067647538,0.40318586624857644,0.3322968484812093,0.32236463230661666,0.34410272113449836,0.34638191875368785,0.3164512183108653,0.3765339307043745,0.34199000534074775,0.31385200327069424,0.4019403942943419
0.3288962329874051,0.311091329166833,0.3161139348454786,0.447418227722836,0.295626514522934,0.31755327145704104,0.4357963333303726,0.3380448556458288,0.3145625646065882,0.39777077425388846,0.4241990144788298,0.3378578309502936,0.3376733107415265,0.2969631553298053,0.3259118015670057,0.3312246430495559,0.32884963702432646,0.3385329147303423,0.3737784936742166,0.4178843749030917,0.3778048185412795,0.4076348126232416,0.4144655474786418,0.35018625243424595,0.3512081393555731,0.3773612749962417,0.3285138394495114,0.3340348626878796,0.3962288203326184,0.3479447202147181,0.2920859207471671,0.41424731802736275
0.2958453095138393,0.2940343966261049,0.3137170178004998,0.4625007224744923,0.2836305821277545,0.32114970273335636,0.39459169044368536,0.30908344738215937,0.29917788002507706,0.3736432776905519,0.40796015487984283,0.3203710493732994,0.3407033432702772,0.2619767488529778,0.3084790156660138,0.34312188459339876,0.3272816829262265,0.3321166706460669,0.36822861425268194,0.43603740772646665,0.41366482470049293,0.38920033739310794,0.43096455424754626,0.40174902079532526,0.3718881578996681,0.3440131154581793,0.3298843198866481,0.3631869859588665,0.3673611493025049,0.34877725137759985,0.2693399749571225,0.350144558670193
0.28994280078368995,0.29658348312482996,0.31478387677551056,0.4427199375630911,0.31391750163936455,0.3243278440980392,0.3810355858911494,0.3442151612321179,0.32957671920964576,0.35846984168630547,0.41985243225263685,0.332411960110174,0.33006091287166756,0.2613177709239181,0.31265745888828606,0.3826813556297212,0.3372878585964602,0.36973588196518653,0.3894896469050619,0.46387672617784353,0.420851510709617,0.38812499113947635,0.393866929415295,0.38854580726199534,0.33220505111344,0.3387203125114269,0.3313177026076074,0.33857635089407645,0.33073742903876113,0.3387282037062965,0.27015966384135504,0.3672785434807281
0.3120999384129341,0.32872949763767767,0.3386972166814992,0.4273709706207778,0.3093818139138525,0.35433326207417276,0.4064845219334541,0.4056277865029824,0.3401212745108287,0.37369331136633943,0.3997839757085436,0.33174428619063834,0.34103352304066026,0.3221395479893291,0.3107088900501554,0.3392038141634255,0.3177783825975483,0.3316594328222999,0.35804483167311785,0.39956769607140463,0.3748668444296299,0.3747911995095142,0.36917489001354103,0.35433535333005484,0.33216248568202894,0.35561255241240336,0.33707984703474203,0.3365766715216401,0.3686839983670474,0.34851233174128415,0.3086150589079255,0.39431286634314605
0.3220884515794779,0.3449287281904052,0.3202393940486058,0.45149232522300264,0.308998634893096,0.344352337333316,0.3940290080074242,0.330837554256139,0.31834580462115214,0.34452416909279876,0.37188925128416,0.3030508213557429,0.3270898844095961,0.29353520026131097,0.3039347469347205,0.3117347067109723,0.32010833379841463,0.3180014359554648,0.330961203044308,0.366583912552976,0.34154011769113546,0.35463014592430214,0.38332656275290183,0.32791481376270804,0.32443019237122506,0.36009641947040794,0.3462539120241142,0.3416350044307557,0.40790130974913924,0.3699779618929657,0.348508431028991,0.3641449716070758
0.3151834461808079,0.32440904705311296,0.2979903301736027,0.43506811924503336,0.32177171572451513,0.3037485510048135,0.3417383262959771,0.31992291180663013,0.3285890011158004,0.3240511394436821,0.37684499425678847,0.317605917106178,0.3199261291584547,0.2716672885157892,0.3181442993398913,0.3253248807948955,0.32474023651706607,0.33123445362162873,0.3366394063844069,0.38487992235360385,0.32845073150723436,0.3351116778980036,0.3695635539707222,0.331632646960027,0.31876310382206413,0.36937189192396525,0.3550747775523715,0.3175843054941101,0.38722912648323893,0.34611538956060156,0.3592091683654213,0.381821572057337
0.3290706204902385,0.3216709883399816,0.31555619518769273,0.44983713838381767,0.31310592026700657,0.3056146118149244,0.3380291264815549,0.3229300264150228,0.37527410153537694,0.3508242208942925,0.4075472185276648,0.3759968688302286,0.3564628771084891,0.29145402438525475,0.3371279268162822,0.3643428222875764,0.3393967082995002,0.36269256062741306,0.3472676191932157,0.43658176518871866,0.3732621814438231,0.3452005450694521,0.3636726519213975,0.3654474892298909,0.3513581750882269,0.3672145867476551,0.3635614799361042,0.3330017747541108,0.38433260227731514,0.3411973834816354,0.3455210865081502,0.386856796763048
0.31325306378758994,0.2957227053308457,0.3138949494301353,0.4599887132410702,0.2958502886895757,0.29878370164828144,0.3519678095016934,0.3051132570018558,0.3500958757335574,0.35159292663253044,0.416896692881674,0.3545386948146169,0.36864486623005127,0.34178285645361106,0.3475030191917989,0.3455659798645814,0.3460862615726254,0.35423346885967144,0.33256113668870535,0.4318798621127441,0.3759625201338614,0.3380947665793692,0.3663987792221047,0.374024981361568,0.35568574889623694,0.3573997232945123,0.3610837772585176,0.36950851119176986,0.3852027653745491,0.380774769078154,0.31286761903056287,0.3629889092966536
0.3214985991664839,0.30556631654702365,0.30662204756576245,0.45398576889262576,0.3210469635296823,0.2947676470718155,0.3265240940748973,0.35041952829794126,0.3153169484160917,0.36088441086522527,0.40836571008738776,0.33616782897135344,0.3743430059155266,0.33458772329096736,0.34993709396523814,0.34704290745835126,0.3379528794569982,0.3250838716700259,0.33086076981915175,0.42892483462896497,0.33756183742544815,0.29072612314056784,0.3299378472157924,0.35517982212772675,0.29290155430864706,0.3339056542592096,0.32225926715656344,0.3393396553494729,0.3489795527953953,0.3404913068725427,0.29572164936349027,0.35995463077954115
0.3420633746789986,0.3326369350550256,0.31368371083673185,0.4609801702268361,0.354820340329205,0.32336824839365114,0.3669970552186456,0.35527585708425147,0.3113818491025195,0.36715423198740627,0.423440080905235,0.3465573357321713,0.3926239654621359,0.3296950182814013,0.35842295713164696,0.39164890116473805,0.3587302668202221,0.3584321031137597,0.3738769499383693,0.46812281185283744,0.38300933436576656,0.3466987313327852,0.36572077722237134,0.37345060798215574,0.3352936750812633,0.3385033387638026,0.3535751850378343,0.36190974086131306,0.36734253294969793,0.3387994827984276,0.29879901383719704,0.3744056579837961
0.3391031300454201,0.33694118256443284,0.32380490766745273,0.4589032649742138,0.3341925653362639,0.32983952676229095,0.3848291842498472,0.3500403002239829,0.30998292006759,0.3552934170443147,0.4181985018566296,0.34927180083447107,0.36603321227963137,0.36290347994270955,0.36340213777218483,0.3729638528257173,0.3567109060012597,0.369062883953824,0.36584148403187483,0.46560749058805967,0.3988106332189646,0.3930257149912775,0.39444976021768197,0.38718811256782615,0.3708491810148555,0.33759121401221315,0.3703893010546282,0.38505205467501685,0.37552591815163533,0.375043767606944,0.28631923458380043,0.37836084894688815
0.3433484221302184,0.3510109671884181,0.33924288890117976,0.45552926346852884,0.32005623628507734,0.33733558364736843,0.3879493225257566,0.31598741843541445,0.34814111116178487,0.38176559892199796,0.42596936269205654,0.37346569881085395,0.35441228089175236,0.30808579686642223,0.38501732302405073,0.3459425670038782,0.3740076057521226,0.37820843427967876,0.353012615984162,0.4456768268445002,0.36365599095447215,0.3587313508045482,0.38435628882332107,0.3676714254863324,0.3602617926559871,0.3314283500660479,0.35303916069263397,0.365788516807701,0.3631346420078329,0.36121931383044353,0.30445365253007656,0.3350733915232506
0.3463490762326545,0.3627614653246501,0.32399561834477913,0.4554854550180137,0.32399419157013204,0.31737616132210605,0.3761374061587935,0.295918399707043,0.3159780057812627,0.3693142036959038,0.42161051219753587,0.37627576134242335,0.3434903345507656,0.29670037889510964,0.39195222748070896,0.3597531586574138,0.38739591444036214,0.38219374298234354,0.3934327025064142,0.46927086857273814,0.36722681069363466,0.3248450044906342,0.34473376677853385,0.3749734901897772,0.3293410732440177,0.33897632159934654,0.3732609624214951,0.3706028802287573,0.3715008788824337,0.34057897497033407,0.34293348439426374,0.33837813248945725
0.339700909537874,0.34439307551916865,0.32614618202199264,0.47358556254909195,0.3129669032296493,0.32225864351171923,0.3838770629856304,0.34103762636157425,0.3200513956682071,0.36039580031998114,0.41030290482883186,0.36800045622939787,0.3565472401899161,0.253462431048692,0.36546409112240175,0.3698618478725521,0.3739866087537908,0.3705791706570704,0.3850593720186161,0.48645611991584725,0.39585396676355344,0.33025030832758356,0.3303790403326635,0.3995704142690139,0.30698885775038237,0.33176216663055125,0.3749472370539956,0.3385451665858056,0.3847887213983215,0.3193713080707965,0.34821990881729514,0.39177009897207615
0.35932329055629564,0.3712887642462806,0.3713976594637449,0.4909817748295882,0.3188389433657138,0.36520637561138,0.4070016324248073,0.35772544198742945,0.36426289212403196,0.3683839262194756,0.4081089177187254,0.3443548908404996,0.3882600320913185,0.24527925621428873,0.3472091510320498,0.37384677178612813,0.37970186805709205,0.3833539935863842,0.3600674863270378,0.4993416054950446,0.4280973615110147,0.3462476953906334,0.3640355677236522,0.42916807900563325,0.33483608068181825,0.32982857035994506,0.3587805647410481,0.33454373697151446,0.3980430111080886,0.336588218224869,0.3666327519089332,0.3456672864484593
0.40053274708017894,0.3794554814895396,0.4195247964533538,0.45326152962351324,0.3283421222256133,0.3935706359304275,0.4237318909114604,0.35426518201378615,0.34004352508925223,0.3391843031640984,0.39956807180579995,0.31232813991122915,0.38174868613726365,0.296174042464238,0.34392789360613735,0.33465586844901285,0.3729353456905835,0.3815865673788313,0.3829228985772222,0.4685821501469358,0.4242771678581569,0.38507278975125286,0.40705378979735835,0.4406297424306481,0.37654297029191897,0.39187388101424353,0.3822543821457539,0.382675559660218,0.41054482139074017,0.40426497811385614,0.3724066641857761,0.3390037974644015
0.3573755018821121,0.36010346916369645,0.4122886442795847,0.44454104036680364,0.3445182346387325,0.35357022037013336,0.4053654485380687,0.35468120658416574,0.32334170841420135,0.3145895596471488,0.388417732924546,0.3072677996591295,0.3524408647895615,0.265564272511136,0.3239585503298351,0.31319746939867543,0.33947506400947636,0.3444505792617952,0.3620329635589256,0.404183564352615,0.3810695628989729,0.36350388601817435,0.3989291095956743,0.42856386038406796,0.37798411887317374,0.3895034668391688,0.4149260002993031,0.3926365483392569,0.43104631452315867,0.42715423389952556,0.3698070331250085,0.36704622457427577
0.32108372639902183,0.3374793478398195,0.36825674601718317,0.4284228971393293,0.3383486118300908,0.343802173891191,0.3969317872424482,0.3566703545171858,0.3158581056613816,0.33397519138840215,0.4046434375286891,0.31725490877319235,0.3570689783521437,0.2866696004509006,0.3539981702061786,0.3523618603007675,0.3544437208899296,0.35622318956117677,0.3508196798328766,0.4113537820379866,0.35586160751056417,0.3464227621076969,0.3458603311014646,0.3549411475210437,0.31398523279099505,0.3207724131603352,0.3428322052378618,0.3182893326713138,0.35442103304350836,0.3510793112805194,0.31542659024267994,0.3477851870118187
0.3087097579416239,0.31782113438318044,0.34015017509785855,0.4079441045363505,0.3130142036030271,0.33724701106918253,0.3914767549572569,0.3520928363034991,0.3099360173687727,0.3539940709656938,0.3886819951916099,0.31613391721870476,0.3394089912766903,0.3072027839154444,0.33034079988365717,0.32813473597245274,0.323360565861478,0.33532651535402447,0.3345927105282823,0.3956948440262245,0.3333097227195619,0.33536596043291195,0.31715232278236705,0.3206136560867917,0.2973590606620424,0.31053832999585246,0.31109390931316006,0.29329929541147987,0.31390828655463543,0.3170383672787053,0.29390119886691074,0.3475698177231909
0.304036501835639,0.3271446534459644,0.32007615558604374,0.4218266259153,0.32524787229444674,0.31920628386604244,0.3893578113597515,0.35688823515108836,0.31437410665875304,0.3653916175911629,0.3892193931902299,0.3172173979985719,0.3249773402886486,0.3004927256738782,0.3069217170895131,0.3011236633895898,0.30137804364797127,0.30942716670939774,0.3043965537224379,0.37920304416746947,0.3258931859824806,0.3286083305258357,0.30686645497913256,0.3174024251400936,0.30164000568781413,0.3169286923618336,0.32828783746083,0.3001640849044528,0.3323082204520529,0.32494227109935725,0.29982108345667075,0.35927807368196474
0.32982886564129094,0.36177519430057287,0.31169066989491045,0.44582899068936555,0.34518350726137187,0.31097863028482614,0.3942710027817703,0.3793980573655409,0.31143460948892276,0.3951491507993988,0.4346219162192229,0.3580526531902632,0.3191809213107304,0.30846824374241955,0.32608269986948824,0.337076628459889,0.3332290634776735,0.32561625927048565,0.28663447647014534,0.4240469767324357,0.35768771176108755,0.3316449368440208,0.30438775639937105,0.3807839825779098,0.3104894857599514,0.3186846571645346,0.34541460344529934,0.3418400885990596,0.39973106406783104,0.3782338365799346,0.3059748362080576,0.32955806745780314
0.3222533425717993,0.33162918995260415,0.31545331245484143,0.41209313965250627,0.3253094836499162,0.3261315144534521,0.38757229574452,0.35414615917843445,0.29317520955315884,0.37308721572766224,0.4304273789759084,0.3526604601825616,0.311095686534444,0.32357874611848575,0.35025748072949325,0.34966452885809024,0.3500656394506469,0.36506164505850763,0.3442149549646823,0.4664945145741002,0.3871575705527925,0.34764809984708767,0.33704836915142367,0.39896272873951194,0.31584414333262795,0.3293502461266375,0.33110464643797205,0.34531840013175963,0.36598057018596797,0.3354569296365614,0.28618391136741195,0.3462485345126265
0.2744591202043665,0.3004142884256896,0.2717972092420562,0.3946453505488802,0.31618904390765834,0.3037775818611968,0.37667743052892644,0.3614810203151052,0.3334579732568552,0.3799041811096155,0.4196022310992169,0.3729615186475713,0.36894272805816963,0.33159628563572946,0.3695392142469857,0.3610892630839216,0.3657919211677307,0.37301004877357496,0.3613477706099424,0.44336417529600725,0.38378346871315916,0.3611497459984399,0.3839757986275061,0.35347578548231817,0.3245509348226602,0.3558193998988596,0.36186980822872816,0.35351618570154303,0.3656178145694245,0.3150043355336048,0.30180192717840104,0.3579286453838786
0.28670798387027335,0.3074253501441461,0.27308741519084834,0.4281627036026238,0.2985195535229597,0.29215666952988406,0.38686306404834586,0.368864132766569,0.29169566523286156,0.37648784951157216,0.42493591453664775,0.3625901934377354,0.36753358052607127,0.2799258878452704,0.36050972694921013,0.3587457462670838,0.36003426617322626,0.3487459223685727,0.34184634834370115,0.42457819373118755,0.3759230886210121,0.3513498569509412,0.3755929674371434,0.3437807648267778,0.3292089388694776,0.34478706323128633,0.35970767752537885,0.3565598481876064,0.3715360268387878,0.3390617631873894,0.3015584041805619,0.34501370544160614
0.3972404656977125,0.36463474025710574,0.35930802116714744,0.4921034170593403,0.3084236296915598,0.35017167411765265,0.39607079606174306,0.3640836667747558,0.257689246935112,0.35901395605923636,0.4238830973241612,0.31178760387514415,0.34859015978963354,0.25000909208558647,0.3262188675593001,0.3302460756126452,0.28304393461649385,0.35225459758723643,0.3658959013755469,0.4694153947837752,0.40004780348254737,0.39285814049330153,0.36831930512563704,0.3574140185551441,0.3384569655101412,0.32535667293933845,0.358590765976436,0.36139087992286795,0.38656976487465095,0.3967440460587932,0.288838460385384,0.3610432726564094
0.3733598778305887,0.3779805599906019,0.359726405345476,0.48180362655736053,0.28921858120682753,0.34323373935295476,0.36126586797543153,0.3331322353427113,0.26416982093022234,0.32802692665461763,0.37649944260236,0.27286139783397945,0.33744358928232454,0.24917640389338816,0.2963797316505845,0.3030418850724802,0.2643936007056235,0.34444816213737045,0.354120505810435,0.42784988463892715,0.3619072033016218,0.35348288058234417,0.3649862425276981,0.3374190631839752,0.32611586481545035,0.3349680250077874,0.3818461113585749,0.34729254634026696,0.39867354868967847,0.38836188602796007,0.304366007645547,0.39853685859924404
0.3483095317216996,0.37068409101602107,0.3449141954131513,0.4686910241932465,0.3051070915603869,0.3278508313927615,0.37543077277439624,0.3087115706108037,0.3109296313668308,0.34932771014224717,0.39600609660998076,0.3070921668741792,0.36153219075735293,0.23935898753374496,0.32604993409391614,0.3288325556191594,0.32038157159854624,0.3543874817595823,0.36612662775067617,0.40458349640478947,0.35508888156612495,0.35568882298627963,0.39373087774715076,0.32520678237361306,0.3289159328193865,0.36535788562898086,0.3894002740607284,0.329329150479823,0.3982177052856546,0.36101889095498685,0.31504306690036765,0.3761914881326654
0.3203525727124981,0.32750852155496746,0.3102383423393159,0.42757543125364733,0.3449096999028811,0.31354727715162845,0.36441197906896844,0.32231094830194273,0.34097143243869393,0.3875369131831303,0.39568455352726434,0.3672611100115649,0.3471662290550788,0.2775826057474575,0.3384759423185325,0.35366479587290134,0.3647744519478178,0.36264085074341995,0.3592114185405692,0.40900881397713296,0.37685281575194224,0.3615589821637437,0.4002100122468591,0.33870705352260905,0.3236855939605121,0.3729640896238843,0.35656820123783084,0.32106291576864215,0.35220057326687026,0.33630610775151876,0.3406087328620538,0.365791743611985
0.3309542194116525,0.32542485441708924,0.3124705569361359,0.4204527884772633,0.33870182912819224,0.3006861649276004,0.33824458435791566,0.3106766611256367,0.3269370424705392,0.3394440594587294,0.3475548054969744,0.33640598319233356,0.3095280942065439,0.3084637408006256,0.30097636072778305,0.30217187319025196,0.29495941881133003,0.2972407305632267,0.30768773489715645,0.31141018592952935,0.3061901131453805,0.3289625752727978,0.31783530696133744,0.30606990061961953,0.30807750778129295,0.33782820422015775,0.3535704902811906,0.31951131191374355,0.35699150116205747,0.32064880952602776,0.33809273625426517,0.3391308665717807
0.3417070904906507,0.3415020425219824,0.3242722910365117,0.4438842984852356,0.3112478036191081,0.3049240541521564,0.3434877583726699,0.3115387373643801,0.31787916153525314,0.34229774821883496,0.3526007287123945,0.32767551838345876,0.29969002834919006,0.3211362207584901,0.2937768926513462,0.2975932553450004,0.287408840508805,0.2898452312381968,0.3001138419556232,0.303134766381624,0.2999456338355474,0.3168059046764008,0.3099665609616148,0.3001418037418686,0.31026570955245225,0.3374022273445106,0.3728360191261514,0.3253809581316869,0.37907514272068077,0.32788250025610494,0.3235078365983022,0.3303119568255618
0.33426026146857474,0.35972260318520793,0.33671211957307046,0.4775376364919043,0.2837996523254105,0.31303469851522164,0.36553513266889204,0.34095128453916396,0.3425110943958821,0.3857571075370025,0.40872576605247435,0.3356173771280289,0.3224283373873484,0.2918632470879867,0.3039296432997407,0.32014410616363487,0.3073035101934756,0.3199395859290218,0.30808078800120847,0.36191525906413774,0.32645182316404414,0.3320684796785207,0.3345907131998446,0.31837011366355566,0.31083295411851414,0.34170424558667667,0.3953599857239173,0.34484042909999957,0.40905358562269933,0.3504767661396781,0.31690977758947336,0.3439421367687674
0.33674128167189077,0.34256120373758886,0.357310515584004,0.47275393728039966,0.2886087101899446,0.3186935443401621,0.3789914504135625,0.3474362074499349,0.3510859622500511,0.39000857567368213,0.43683006190883006,0.3452229523966306,0.3290264139822069,0.2885713018131805,0.3405401591322026,0.3268290116785412,0.32565527908859593,0.34934003235200567,0.2972100945386369,0.40162699458424117,0.3324701458722088,0.34295884477217187,0.35566010047366575,0.3252482941581975,0.3091763708531769,0.3626862596384838,0.3324721678628254,0.333811364507699,0.3849497770555944,0.34814455501382224,0.32391260720079057,0.34061991654790574
0.3292258949655184,0.33915028174957024,0.3571500204034273,0.47645689777531525,0.31173069952538657,0.32521921356609074,0.4229695566013336,0.351446613379357,0.328831099592842,0.3876898680024389,0.4333771635040231,0.3574987012467656,0.33052065414565623,0.3110583430843385,0.3695850994874766,0.34374495640013275,0.3483612588928543,0.36238897058818326,0.3206823147598588,0.3983519314954099,0.3458449094160397,0.3372892686111793,0.37506721750218514,0.3311569489527995,0.32229251024621836,0.3683554669271827,0.33876051871063567,0.32691611682957467,0.38339466522464677,0.3637935800647733,0.3413815275249628,0.3439863082707754
0.35374603116626996,0.35605647447137206,0.3301846275950717,0.43920979627769297,0.35429425983629037,0.3050541971024744,0.45762414753380604,0.3655171411199963,0.33486209333051453,0.425438082386203,0.47720023707122977,0.3613669364961917,0.35046672224219616,0.3092795170455516,0.3953201688048025,0.367766600021323,0.3704717296129164,0.35454104167463885,0.34252951306983503,0.42186826853021747,0.3718643873292872,0.3577474479897448,0.39141169671388887,0.3631178643886682,0.34439035394971595,0.3749279086047445,0.39014077231442484,0.36504897659654295,0.41581225442840025,0.3600426911993156,0.348808715379037,0.3348055300515848
0.32663944719361293,0.3182223277088837,0.2995295688531212,0.3946190902013226,0.33740462185583975,0.29913904584950474,0.4245207403733489,0.312619070506834,0.29784512516627937,0.39476623241997705,0.48643585845608006,0.32470375544172614,0.3332535632686898,0.30683700775686734,0.3762798625276232,0.36414305887622084,0.3615400202491027,0.32832586025245364,0.32904127477226747,0.42310164377780796,0.36671251041237074,0.3419708339443877,0.37101494685332975,0.3866138942086369,0.3453288046597444,0.3822165534113899,0.3727380412839948,0.3611376519352562,0.3873728667210598,0.345011358124148,0.32993009570503484,0.3315028230639477
0.30653299501804315,0.2997943300929836,0.2831952862864506,0.37857404311537446,0.320959921351739,0.3013948774284366,0.3893644052692272,0.28413752639157985,0.2792755058193857,0.3423255163182221,0.4337965288500562,0.27837064109911536,0.29093717273748587,0.30469478478691014,0.293528658602627,0.2791359314495266,0.27857793156392424,0.2861576467292363,0.324882883586575,0.40312109895284737,0.34469149645019487,0.28412422743403665,0.32268113354005673,0.3389862646787595,0.28820561940576195,0.3375185104772979,0.3344775438173936,0.28139797703859887,0.33562114804607257,0.33663106330754644,0.3172969456284382,0.3251663418069229
0.30792586323520216,0.3252196911450609,0.2948534178263316,0.41682025784022314,0.3398963525136407,0.32030993974547894,0.3686560430266703,0.2780021249339636,0.2601924950168181,0.33982324004728376,0.41419390623379415,0.2903048374006245,0.2769955227607202,0.297795529006454,0.3109371990658999,0.2833271509351697,0.2923899902337382,0.31336334059869186,0.34501447260885515,0.4384051883883792,0.3570271282447396,0.3009640300863998,0.33203389674415884,0.3309017957745755,0.283077819920885,0.32699611318070815,0.32434325753886456,0.2832720179457636,0.3451600472659975,0.3533260288693282,0.3203080117679696,0.28944018608159927
0.3490316659457373,0.3898271734204299,0.31956884768053906,0.4721712016054257,0.36621954783984845,0.3234488761958009,0.3920566652552302,0.31283772132291876,0.2626885894772977,0.40139835481470193,0.46217843513369994,0.39518763032568915,0.3270858356041046,0.30742702845823316,0.3630461008290604,0.3311749341821253,0.3705933219753511,0.39655515872859737,0.4051298964250729,0.4852567053547658,0.3996707620381798,0.39140663509239193,0.39018987674749717,0.36698391442497225,0.34791699933377374,0.38348500749013076,0.42248699936103684,0.3397181401645526,0.4193732148430186,0.36283593124847957,0.35636688803748534,0.3090276965134508
0.3966163401946071,0.4400313115882783,0.41629731347503457,0.48631199655687307,0.38500593581316134,0.36211148597842313,0.4551622751598481,0.39105686619363234,0.3274364026120615,0.41210811029318384,0.4483799649764633,0.40160849450486763,0.3631073767260869,0.3299682090996848,0.3787850607123536,0.3617417097856922,0.3852500310263988,0.39444351675379424,0.38765552481670257,0.4773686682129963,0.4050673219602216,0.3885319981520484,0.417731379188186,0.38656054074090423,0.3675724137314375,0.40295320971371157,0.42660921216285025,0.33065361108401203,0.43214253441300116,0.3860059284377618,0.3723020472970025,0.4305410723511585
0.3690733119954143,0.4045139320012193,0.3850336469269831,0.44412186692308203,0.3900661119693021,0.3729163759407583,0.4416581974112597,0.41766738038697765,0.35458851216107495,0.41887770148204767,0.4542113550004306,0.37961731521478564,0.3560356094148595,0.3261893519105658,0.37701122941351056,0.37421225327989716,0.39970933251466423,0.3775206587502181,0.35172708765275296,0.4653450442216928,0.3991094124215988,0.3804200739237929,0.4076969330807257,0.3978009265895035,0.3775774468683532,0.3909774573358313,0.4083039440133035,0.3247328360851322,0.4153470549419708,0.3915013732448491,0.35970994435129006,0.42361269600165385
0.3742441855074847,0.36118719128542215,0.35676419199900256,0.48698462155367017,0.40216144822989275,0.3352831402048925,0.42034505750423456,0.33142900486389876,0.32487882164124576,0.40239840702893886,0.4748770550148082,0.35999050270118255,0.34450042566237066,0.33080094029510976,0.3340438040672631,0.33763873668058747,0.37671218035317994,0.36853479095573555,0.3473021042143792,0.4728016626790607,0.4054192624017981,0.3779475248238755,0.40600975701223235,0.38191467915023647,0.35945656141184457,0.3765872630900647,0.3821417936351397,0.3327618197027989,0.40328827417394264,0.3866866190392861,0.3662147348854403,0.3632118902638623
0.41427065654753026,0.41395397922202215,0.3937279745117484,0.529479669468374,0.42750688561967676,0.3592107259117417,0.4542528055187099,0.33035739125964747,0.3365476413889928,0.3860801274676226,0.4617600388295103,0.33024411432318246,0.34795873181265424,0.32130670327992045,0.3284817191279436,0.3320633631075681,0.37810935064686346,0.36005609217255763,0.35401045946554316,0.4626056573203325,0.3911749930249993,0.35447210101246857,0.3901352719300293,0.3563413797692485,0.3398932479048866,0.3660740403074286,0.3560459520666069,0.3531154483416969,0.3908803814875787,0.4014080764614481,0.37534555450952123,0.3538322425289842
0.39263847965112103,0.4176847167452554,0.384032848577812,0.5036112540437064,0.37865229937981904,0.37282916375326236,0.4556616757286209,0.3825165675525491,0.3371526886094345,0.3813785254163961,0.4361379428283935,0.32018425252674465,0.32643836364089707,0.3032428936519684,0.3383911462736225,0.34862001673942233,0.378485869887556,0.344876830787106,0.3453995761907046,0.44753233125398284,0.36557891706073864,0.3440538307007339,0.3743114889363245,0.3308673287198943,0.33461560036798527,0.349705255007477,0.3602248898651063,0.34256916674027765,0.3548787652415653,0.3450348883241377,0.3658249060819453,0.36222018955616314
0.34978487849987194,0.3589975269091164,0.3646542204223732,0.4486886158916152,0.34602944296697813,0.3747530998907656,0.4502053377226001,0.3782206833601693,0.3473189377223826,0.3942371304439687,0.4602630855100928,0.35665758884526366,0.3403142284065445,0.31936124666815385,0.37601648545828475,0.37653653024372363,0.3556519374039979,0.35307094533664785,0.3438833077143747,0.4532791094520535,0.36675923520091885,0.33611638003976174,0.3733810986401795,0.3405346016610441,0.33680158083273515,0.3766598256169665,0.36423605315164276,0.33750135013144583,0.3772924663893459,0.34205189343174736,0.36040091434053473,0.3527895433725815
0.35840352065469183,0.37982409903858844,0.34491456082037736,0.4511944328823631,0.3546597145763225,0.38756523461815023,0.46875228251265916,0.3519875446330032,0.32285882813533867,0.389674670933082,0.47140470621230957,0.3341998606905499,0.3289707168516607,0.3203203980467992,0.3517612900234851,0.34578183817538816,0.33423654091264837,0.32360773898893064,0.3157816582868037,0.42080127245391963,0.34813288280234195,0.3226474940738562,0.3568982767765533,0.3691704183081177,0.35579264024994905,0.38623357289794463,0.3758173169670512,0.35344365657227345,0.392641520007283,0.3623699113935177,0.3748749641519006,0.35997460888796257
0.36913222185404515,0.39811822359808186,0.3591890647454045,0.4760908457738168,0.322991691042725,0.3766683094266217,0.36301822184981675,0.32821499246888114,0.2990233823437692,0.31445668231203167,0.3790234067780321,0.30403927333718545,0.32951291169165214,0.31671579982929154,0.3397726877311342,0.3494806602739855,0.3469868030892676,0.3307101145887752,0.31349883554182306,0.4415470500840944,0.3602824107417351,0.3416235615236573,0.3675746687441089,0.38654972470883014,0.34243190938215673,0.3323727017375699,0.3513886458606091,0.3403611046714507,0.35337260769796297,0.3408210595045606,0.32233127395472355,0.36150441977994535
0.3357340476025782,0.35852169438728493,0.3660550807332299,0.4507577130920413,0.2940459965880972,0.36336357138236786,0.36509283373632784,0.3374730854988376,0.2944134079340567,0.30640449961943966,0.36957230325476725,0.2945858703746509,0.3361070182582575,0.2975111043982864,0.3354421044579304,0.3543830089904228,0.35294557413865757,0.354002685477801,0.3377157310577181,0.4663189782731637,0.39890628824135194,0.36613798325692093,0.39445762188826744,0.389005235064845,0.3204610877300433,0.3284135342228452,0.32446650453113024,0.31780069051160564,0.3254173356502259,0.32067305912263794,0.29927058275446344,0.37512768622320125
0.3181165457095416,0.3485747007894989,0.3537535201791954,0.4456036217414999,0.2858995517995735,0.37426670000408646,0.45587842181153787,0.36790516068214185,0.30838733657071954,0.3352970892694507,0.43856499317216924,0.3050723483919397,0.3383674881855465,0.27306592516405426,0.3351320909679526,0.33308760928668973,0.32201455354375025,0.3571740656258538,0.34613360943610016,0.4514890420692102,0.39977460720659364,0.35682423900089427,0.39452718902783807,0.3643001442545847,0.3273733325392853,0.324189667250266,0.32297399545877153,0.3336687271948977,0.3386823216194409,0.3033094256113312,0.29392211271140595,0.3555449218821596
0.32843210492198105,0.3776045234146155,0.39456801074113224,0.4467280450564354,0.30258656599720496,0.36046356271067986,0.4630335474523942,0.3482993831954794,0.3566244580681641,0.3732779568047905,0.4692213664202217,0.35034069290952424,0.34065031400418344,0.284923148584685,0.34582684270580777,0.3344082365559383,0.3249522483029905,0.34882830687107946,0.33887294887244057,0.41803909303236675,0.36640493123389956,0.353149742419192,0.37274175844265406,0.34959942377496966,0.30763200512331795,0.3121075282665353,0.3329601190093536,0.3144559269369608,0.35215117787851885,0.3068253442785957,0.2913919836511532,0.3494238517954038
0.3629442266998234,0.4067971533645815,0.3897243232751965,0.48676305171697914,0.2986364961446359,0.3411255874520098,0.43181918077059905,0.3187768801284337,0.36743186757351,0.4301081756056661,0.48698857866281636,0.3721015110478907,0.35879983929890985,0.2971560308294657,0.34931878765305546,0.357637270810715,0.35887576146551836,0.3572019358940101,0.35179730946988375,0.4112051318182158,0.3671875704463244,0.36852525831722915,0.36357358155467223,0.35434151410933207,0.31301364165054785,0.33141163898485304,0.35415496481968584,0.3048849370050633,0.38751502877679606,0.3449591229706741,0.3169866005751063,0.39946816246023453
0.3568449987742668,0.3986424720915037,0.3398866265181962,0.5129768060566686,0.32025782395106717,0.3540439267348344,0.41959963579704085,0.32285079177889253,0.3366237568398282,0.4151706204810412,0.47990251461223526,0.40768990043741427,0.38261606709264046,0.3372425917712452,0.37390583473361116,0.35678071568978026,0.35502498886078515,0.36737770402236525,0.37920302973034536,0.4116065308969518,0.37779934069434284,0.3761605245298982,0.36141977025567373,0.33135941016453246,0.32485867869972007,0.34940653640488156,0.37117682841929517,0.3339447907790279,0.4096645012157163,0.36700557910786863,0.3668356658421444,0.349966653916913
0.32486042633034196,0.35050219391307647,0.3185907814134287,0.47248829274148624,0.3790766726835232,0.32265039219772673,0.4160347897373747,0.35347339566884584,0.3354763874859487,0.3875372679527284,0.4570907697625349,0.4052827111127113,0.34972536327117204,0.3650219471489352,0.3987943323169812,0.3661549059001235,0.35650864751801786,0.37494366813089397,0.367107387189537,0.44195999648762996,0.3957821632533883,0.3454797291163297,0.37817898144507384,0.3560717102189366,0.333190043249264,0.37917858945721167,0.3813026466531096,0.3496939533373975,0.3980778904671555,0.37983909662881127,0.3601901234057581,0.35439765962759145
0.32206803219227237,0.3599966655234505,0.35400649833104963,0.44089996178960583,0.35345816635143146,0.3178690113106021,0.43333237077445597,0.4009567718019569,0.38143365178294314,0.3989796122698216,0.47855993347945824,0.3916721173502152,0.28026034146646445,0.3771668832214266,0.4000780640004766,0.3995880237164745,0.39338490645788093,0.39197341352916076,0.3660468761640833,0.49324324061185165,0.4227416574122375,0.34919334026960314,0.3941316040057304,0.4306937206785129,0.359773319453427,0.387110097330624,0.3592961129916156,0.3901207847464847,0.39818053510481,0.3900776418439136,0.3193401443660832,0.39677365417762517
0.32560393607540355,0.3934974214920617,0.3930250063985204,0.4319508966838723,0.3030543589259448,0.3584155695789005,0.45845181654071315,0.3681487193847971,0.37859198938981997,0.3989013692490771,0.45934725161980255,0.36034159266389704,0.26943832720996064,0.3369302808617249,0.3374355339030314,0.3434948536747368,0.3554915161073884,0.359797321346534,0.348985620828313,0.4557477556454267,0.3993251925277051,0.3777003563808945,0.38996894514498165,0.4042146933762957,0.34219753517860524,0.3648878979457463,0.3260718381701696,0.3680360641162712,0.3624692389337845,0.3566925990155765,0.30038981529260866,0.40498811841482074
0.3515370086334188,0.3588433146346475,0.3535580094600095,0.4550021400879543,0.30610056783236306,0.3609757226591408,0.42774005088010086,0.35200678884497355,0.31729445113067195,0.35491782553951684,0.41829663136349154,0.3207972743898141,0.30296888883333384,0.3179501541646356,0.3269677562725296,0.31169500343030654,0.3454180385408683,0.3453739973870029,0.3300860128817971,0.42461465864449066,0.3599439492985101,0.3434473755706763,0.3857749516701472,0.3454861070946675,0.3320410170755937,0.3650929864340232,0.35035354494281135,0.33710232284947983,0.3710319196953735,0.35267736058498667,0.31773931950224454,0.41474436519021757
0.38915527841261616,0.35559053735333407,0.36001942320719865,0.4691671939321646,0.34401990097175095,0.35184756445960913,0.3977202038224699,0.3688885378837266,0.3035090008808806,0.3579845447640371,0.40383202045003924,0.3213797078643235,0.34291525808251344,0.36036682187018065,0.3423773835919034,0.32022089948782817,0.3480335500634096,0.3547328555193609,0.3387326872109182,0.41440411695297585,0.3691560999862441,0.3495244630747115,0.3991152134187692,0.3595730130361494,0.3410412181485932,0.3979886221720968,0.3960595238710503,0.33983380495259197,0.4221503254729583,0.379495500877958,0.34765134649391544,0.4408916509959486
0.4051028448019737,0.4006999626715037,0.37685830109555774,0.494874202120763,0.36992875834432226,0.3589557351566245,0.3974724851041779,0.3966253182504417,0.3409116835091363,0.395472357541455,0.4075130440829626,0.36754905325549736,0.3725718654640038,0.34572120114582444,0.3656888400646696,0.3363526298491009,0.35673143872122154,0.3687147320435582,0.36524850762702765,0.415312632776003,0.39478794656737665,0.37805963064942616,0.41023937726920057,0.40403555807456776,0.3548767593793459,0.4272396851766201,0.4365096604310516,0.37420890764315606,0.45153776516239225,0.4052651566904179,0.37866609816154523,0.43382453424298734
0.33279864867101994,0.3345591234900378,0.31482590938663474,0.440920886648384,0.3225900155710964,0.3140535939237226,0.3336855076360128,0.3273905007778439,0.30422120303472217,0.30800507938478877,0.36248399307165863,0.3064842943644739,0.3282407322153885,0.293277962608723,0.32591462109498665,0.31260665401407833,0.3144242009332205,0.3195188190754853,0.32642316527048665,0.37443960050771324,0.3583522276923393,0.33136514632636754,0.35669240578582045,0.3248083841779857,0.32951996923764676,0.3375791842076002,0.3738311442854445,0.33676316417599306,0.3677381721602707,0.34086520410518767,0.3203374947234466,0.37596254524848177
0.29749438162039954,0.3114767242040918,0.2895093855604155,0.3987757833243306,0.30438190150547956,0.2917991850015947,0.32488713903246014,0.31128140638428414,0.2873396326198718,0.30275733397155097,0.3509953711441107,0.2952836977321839,0.3088478243984465,0.29215446274812223,0.3103557242194608,0.30107182700171037,0.2964973597337879,0.30224427649981667,0.3106948152472891,0.34483356829926487,0.3353625009051568,0.31034112373310896,0.32668022769804067,0.2870900098823494,0.2859505261746215,0.3204447977901877,0.3503675549238183,0.2757886748276456,0.3452366677654837,0.3072071798052695,0.2875826202983933,0.36627211940145515
0.2850018511856994,0.307390630019305,0.2811164968332922,0.39545689517818855,0.30711931030871686,0.2995622562810374,0.3347600770074401,0.339777476104465,0.295103749280489,0.34806813467741754,0.3841033479842952,0.30943209480667916,0.29494835589722285,0.3213770082754577,0.319444428541616,0.30644139812141846,0.30439352373678386,0.30810332742459445,0.304173861602487,0.366318571615904,0.32611166043522977,0.29394479336934815,0.3122275011493838,0.27915810768188387,0.2662453090620019,0.3372973964096187,0.33454160609981093,0.2527414080885834,0.32859307747122823,0.30387184518297944,0.28384543321354944,0.37336975789150445
0.2841400424679956,0.2877724835784407,0.28599755946987315,0.38808707632067213,0.2931387526817524,0.30724512687108607,0.33137052571105946,0.3529813491097635,0.3367731511361324,0.3613179204795195,0.4123235003908893,0.339844618055916,0.3068863910601911,0.3148161872554828,0.34938661098256024,0.34051316421838407,0.3327787233289639,0.33656238790068704,0.3177686273326884,0.4159709780857569,0.33948348462255723,0.2995113191887636,0.3429946124717183,0.29164921645331676,0.28602390486939183,0.3543397831689328,0.34443433243027893,0.27810024343745265,0.34819231747758117,0.3132732458584925,0.27157009237867114,0.3677932090395952
0.2972032434345923,0.3036026042418957,0.30259895051620267,0.4249151337815182,0.30037829554756595,0.3134317000640436,0.38204915500952275,0.3657152328695976,0.3256693195627133,0.37892515240160507,0.43502410844882705,0.346341287485759,0.32296440010955946,0.29555923719093014,0.34983751048419887,0.34542860579801343,0.3379285507727078,0.32907948911790086,0.32189973791482546,0.4243345535325966,0.3587236050887719,0.31736803447474954,0.36175537607815494,0.3419148473254499,0.3143316392814883,0.3219687764350807,0.36879958061355766,0.3055713681499015,0.3865399309649356,0.3452848910015524,0.2743073613274911,0.3654321632806064
0.33743952196051624,0.3446947288090658,0.30882165794075356,0.4676490763561297,0.32332434014079786,0.3405950352895927,0.43461461005003454,0.3183336740979335,0.30509477595562795,0.3857677904963746,0.45377884330622437,0.3452100403541956,0.3357145914476042,0.32442864590635384,0.3400611640249055,0.3544726031729546,0.33281017028302423,0.31745940491948865,0.317220208835151,0.4050198708477695,0.3644401723853199,0.33823874003756266,0.3830716350656657,0.36481450221741946,0.3376530966662019,0.3304774443170271,0.4097532478369043,0.34192826193473,0.4079148646529983,0.39136383640231903,0.31587008304404735,0.37162522749530746
0.3562896866536048,0.3710110516250495,0.306425162629611,0.48385085519907667,0.3482755969658634,0.34439709173620947,0.4520202415235837,0.28633122705449177,0.3170788352289118,0.3834975656211864,0.4716719125746307,0.3524577680316924,0.33824776048312605,0.3130325222912319,0.33808703919674493,0.36510808613537604,0.3349700842179773,0.3224913119595055,0.3254363614524759,0.3957979614769124,0.34898131521781944,0.3359346357893748,0.36691753825462,0.37773200414770974,0.363682601888013,0.3735064757939213,0.46130137163880547,0.3610783822992105,0.4537756490773888,0.4091189990890446,0.3317931301493767,0.3544842255525505
0.35257810321986616,0.38188892140791525,0.35913998843106887,0.47828104424719303,0.34636714285524284,0.3620108967970311,0.45201924974800334,0.340094151917261,0.3296389320882166,0.40533747416455174,0.46557558707778723,0.36144770561639417,0.3216097639329096,0.2889458994572563,0.32804871064647595,0.3478972198238802,0.342421654311497,0.32157248745735645,0.3253387338380977,0.3807980381049061,0.3320893223064962,0.3291778124262434,0.335531915662574,0.3610197626459727,0.36627712908583293,0.3595032812770883,0.4304790477563861,0.36561820944340734,0.43201642773681564,0.3730034711202076,0.3041226146443703,0.364162853094507
0.37029262760365544,0.38538784233871837,0.38657590362304334,0.45980641865516664,0.34340324767233854,0.3924792720688308,0.44560498240163315,0.43024898143597035,0.33622670830263596,0.4035222044276533,0.4384367092282454,0.3395723301181927,0.3271950290292991,0.28276536164080707,0.34156212459664115,0.341536681560411,0.34500042882376525,0.323986885706365,0.32528881599768555,0.3931312047081003,0.34105614376862176,0.3261127578836812,0.3333176794436829,0.3566454512680407,0.3570149953493477,0.3536420703192095,0.3854563547710701,0.38063174949752426,0.4414702665139207,0.387420147394597,0.3010130764421682,0.3887926196292185
0.4261578343052681,0.4223494502592966,0.3987692712580387,0.5241813323034119,0.34130600080620743,0.3760107211862811,0.40231219252640144,0.39995946764659396,0.345716070130287,0.37581903456862487,0.43923688847950676,0.3058086874932836,0.3446143246602209,0.2834926494378171,0.3592000140125496,0.388301181533422,0.3395379124297779,0.36383782238556994,0.33005735911417766,0.46378854760858146,0.3866709481923107,0.33253907614024697,0.35925477578062504,0.3801812957233599,0.35662994448725516,0.39877301943610943,0.4088112245229162,0.39051043817538306,0.4779694691899646,0.4342948649001872,0.37469910345488827,0.389210319383977
0.366161313897789,0.38874788227529544,0.3520471387091944,0.5125576004399236,0.2944302486061232,0.3401897084427851,0.3976773277684374,0.33276445293993917,0.34089243324652024,0.38205175772156325,0.45147087264147784,0.31659054371848355,0.3392277642415925,0.33105188496037957,0.3389430811449283,0.3560707118710418,0.3467942820475565,0.3515146221801122,0.33102399668515076,0.445679355492966,0.3773263633900259,0.3645084987293587,0.3737690721683874,0.35602636853308517,0.356154499898256,0.37657613857573147,0.41062987834039644,0.370890083075286,0.4215890354640256,0.37811897035589476,0.3540715495339836,0.41050264515731094
0.29408056255503434,0.3078654518594432,0.2920603022243179,0.41965101427504525,0.28727044749312697,0.297351671581273,0.36678438985902906,0.3263102074635298,0.35002549436617386,0.37845817169336843,0.44376348054797277,0.3521127288375258,0.3761064826312012,0.3027355364657679,0.36456783545225724,0.3693251644567775,0.3584901927431311,0.3596706662415147,0.3665855059033169,0.41284890818430664,0.36800763872095577,0.3793572770526543,0.39277154782152407,0.34305823507684047,0.35823281966655657,0.38442172109245615,0.42586870981232655,0.3862551346785843,0.4117869989055899,0.3386971637792962,0.31358096793696616,0.3933929184151502
0.28603389832762277,0.296237027686751,0.28261899275779845,0.4177174433652062,0.30019601904627324,0.29175972618154355,0.3626577952306099,0.3348931120544365,0.3622337205143053,0.35354211856256595,0.39091241049255376,0.3465900055201853,0.3338899085843172,0.2973564939016737,0.3303754658373772,0.35412251093455244,0.315480119340756,0.32763240034367014,0.305036412412534,0.39724530104861944,0.3540677536366619,0.329147857235352,0.36050411798896814,0.3319242606886092,0.3583226451222398,0.38471330020833544,0.44252942460096234,0.3651646287207917,0.44920930110097973,0.36327437993983,0.3158377845097348,0.3784393643215212
0.29504378605518616,0.3227414915739598,0.30568350784703274,0.4512907866297288,0.30339529751961264,0.3131622764610538,0.3931065701382409,0.33430654300406565,0.3174885328576091,0.34633138289509346,0.40076061322345163,0.3405744395419781,0.31234447599203274,0.3174187121090099,0.32143155344772123,0.3445093320014205,0.3385912389682884,0.3180211614761142,0.2954781033754584,0.40330773176254114,0.3496366564423741,0.30460783203967723,0.3318778518725853,0.32873911246179377,0.38710429001447577,0.33263011180695773,0.4492222474582541,0.35962417562386856,0.46111419879102233,0.35615124842805507,0.28750821335773946,0.3525393991886843
0.3474030007069306,0.3689531436111082,0.32995807355042595,0.48143469385222426,0.3459285088045895,0.32719454541393095,0.4072006554135251,0.3503877691192101,0.31896464743692143,0.3695435939490334,0.44153305005476784,0.3519328224789834,0.3429949821426225,0.31987827593241314,0.3577142374442059,0.36924066968333225,0.3840667827364993,0.35679411284315316,0.36121089065050005,0.45772758794797974,0.4021490442881901,0.352744623977228,0.3809081020724102,0.358436341298664,0.4007630293007175,0.33569205293840615,0.4432183603411128,0.3703864729028665,0.46241990848295556,0.36471573756201614,0.3007811575243843,0.39319827871867585
0.34808560968707586,0.38683328005388745,0.3282458956707836,0.4831764872784439,0.3410163194665828,0.30783382303845086,0.3797995894403775,0.34480338877980915,0.3501014489485225,0.36308782114352955,0.4117895907891919,0.33845626438968474,0.3462062798867993,0.33137271574728927,0.35381200915635763,0.3522207655474186,0.35978414967980915,0.3507370975159298,0.35221118987400757,0.44830114672082605,0.37979828827854756,0.345327139355397,0.3709728259031979,0.35303527777799454,0.36404589263387016,0.35904052772379563,0.41043654810693514,0.3782723821437998,0.4244280342313205,0.3759275427710802,0.3108659334330864,0.4392488961863003
0.344337255781489,0.3676685530775216,0.33494945919827057,0.4978177014439164,0.3493554475092835,0.3163719054041258,0.3932038812051991,0.35273443727238224,0.3484985068997673,0.3609509135914088,0.40726744904294293,0.3399318956661586,0.3576303659100233,0.3444546381922032,0.3401108087682881,0.3365321889578348,0.3449053186615422,0.33712463082037597,0.35474711150657734,0.4242191252112837,0.3851630045276386,0.3541537517546524,0.384387207742021,0.3593965466467416,0.3675756275173555,0.3711236449593744,0.40994304927540515,0.40535225674563574,0.42017546163758634,0.40109071884799147,0.3114954473453686,0.40436808027469684
0.38754905082138463,0.3884512201165619,0.3844646832317049,0.5074840643991105,0.3784526514249923,0.35385388798143,0.42387318736913543,0.3550715582567678,0.3710585697155589,0.36699487072945425,0.40950473319775205,0.3545230071242596,0.3648863141975551,0.3469328555950678,0.3392584670509184,0.33786842058917255,0.3352385042874969,0.34279815046141,0.35520228352264344,0.3898864923944009,0.3601113435173991,0.3811806166008005,0.386455306543621,0.36377499041482975,0.36592001895140547,0.41040490289740833,0.4205438916721375,0.4003479682829283,0.42847423229686404,0.4369424706060065,0.3585854249065596,0.3928145229842817
0.38037771883535687,0.37998336479254974,0.38661114238792227,0.46070188711372956,0.36632370302307543,0.35746016938241254,0.39241117550697674,0.3387205210930562,0.3353975618253345,0.3434347748486342,0.4019280056024241,0.337495643108586,0.33540951669939256,0.35400692400618544,0.34795632431536344,0.3583569569824647,0.3372335669237509,0.3548018718968255,0.3537386534610809,0.3929838360245828,0.3476851340971461,0.3693129904498494,0.3768355360086061,0.35515682925563824,0.34379434792447694,0.3891830725260266,0.4159689863294734,0.36568900105292895,0.41995545941464596,0.41380818716663326,0.3471489651692051,0.3704498376740791
0.37632827264336266,0.3830411453636784,0.37925785870717277,0.4735502095031791,0.3373723885523683,0.3927224449096942,0.418738444989338,0.3421372909136892,0.3012467277120159,0.33226586677180114,0.42552637497499546,0.30939344609104613,0.31086002316865197,0.2762232354967014,0.3351252422683348,0.32346366932466164,0.3179995365140943,0.32609193365352956,0.33956306304116596,0.4155156627155994,0.3456331063951216,0.35235804002105686,0.37330243114094297,0.34017817667203576,0.3355429481404231,0.33988150148864144,0.42967062194704797,0.3584527790537682,0.41509019644603357,0.39156898826296227,0.32457068806461703,0.37301972086387136
0.4126857157930707,0.4295005617324734,0.37682357110836784,0.5168365358814521,0.34118839683234575,0.3975543419499244,0.4449790506417869,0.30456994997849374,0.33535133850937604,0.37505805208277965,0.4719395759178689,0.33111526648786394,0.32732746076278496,0.2614099788825285,0.32317101717117136,0.300157257815363,0.30906975370718476,0.29573342226444654,0.3021478920993589,0.42253445493239356,0.33360861306461165,0.3238575489253317,0.34399783447465776,0.33706099586672694,0.3364038820595448,0.36533493757231444,0.4379497683577241,0.3521477662691148,0.4247613462445483,0.4207440916216885,0.3497369418818895,0.3606834537712743
0.371135285588748,0.395943148255377,0.3345370876208526,0.507408971009074,0.3917906759276222,0.33050107785497623,0.38646554840436476,0.2761557816246466,0.3528335498115892,0.39927135547922865,0.4496424432935019,0.38471410055465494,0.3634914031081601,0.34167226828201186,0.34799640272751386,0.328242699566468,0.3562955664609112,0.353061194577884,0.3148940866928972,0.45497264707018176,0.3842246001958676,0.3405667517957799,0.3531273439735766,0.3490591924899971,0.3273676498858225,0.3776375130699705,0.38956856653350086,0.3220551372645614,0.42825349296738713,0.4010527101639021,0.3587582953104027,0.3209591218065302
0.3497788092509953,0.354040527819063,0.3290872410357351,0.4940082140279447,0.3838671313654909,0.32897302731756073,0.36289425455967433,0.31491338575899364,0.3323850700954872,0.36966306010895655,0.4300061940574108,0.34932133676063243,0.3321903105518762,0.333284792522131,0.36708630182003205,0.3540491308363904,0.38392846192726704,0.3575599643514525,0.3311973840000617,0.4343481355437679,0.3692191511875337,0.34170876918510223,0.342634632573576,0.33701210842926665,0.3274828586344782,0.3609914420547719,0.3886674440482822,0.30603451312281854,0.42198787388558134,0.3666852873374521,0.3422411744868467,0.3324288120237236
0.37235044371237425,0.38507049453146186,0.3562162998543971,0.48082300123302035,0.340560064118541,0.3602443503939743,0.39502154117291793,0.3273628273245343,0.32618394744692925,0.36372039690796754,0.4341970654659731,0.31939754249460117,0.3388609260613385,0.29537625727241357,0.3467201698009653,0.36272637775919236,0.36999183472713776,0.33678333849780356,0.3674276626835701,0.44119868825839814,0.38451474223654863,0.36816662117766974,0.3625391367043929,0.34357741823330584,0.344910548585228,0.3740754976187906,0.4137959026056641,0.3374239470441957,0.45390543587913446,0.37327466203167126,0.3515354582519154,0.37577220044377885
0.35206807375542193,0.3922203856075327,0.36185698162587576,0.478860127591519,0.3137778512958336,0.35391422319896393,0.42266362101791166,0.2952895694545183,0.33170897309897523,0.3648022148106083,0.42820296100449834,0.32793552664323583,0.35815204272290396,0.29712175079573655,0.34252924830507847,0.34328353875425455,0.3615250735448106,0.3531248316295152,0.3682895835962297,0.45023955604235993,0.3861923308723828,0.36206751947532706,0.3989808090146923,0.35081022735987744,0.34719540872729426,0.35906620491090324,0.4177072659554095,0.3502917277033972,0.440892413118621,0.3674160709281388,0.32920028431797166,0.38983201361572783
0.3263613382501682,0.33353468644398176,0.3348388925957485,0.46390326974710755,0.3239333636431378,0.3408358362220054,0.4023275218963409,0.29442089080899375,0.3198556490440935,0.3485705982150355,0.4179552171549443,0.3278186427617233,0.3322893874662637,0.32026304441855247,0.34867673235861796,0.33332203172040126,0.35852483355938325,0.3578961111831904,0.33988119068853206,0.4330808706043599,0.3810023073551208,0.34630238098696053,0.41551816789777246,0.3697716375574806,0.3676713113400267,0.3498495630700161,0.406110677391923,0.3539190538133913,0.40454335189650814,0.35409973643321874,0.3265390524173061,0.4077477452054273
0.3372381076101967,0.33842067943565796,0.3301160432643294,0.45752147611862387,0.33035530892215464,0.3286428851147018,0.3557114633285325,0.30248882745184713,0.32103806536881957,0.3283688803635646,0.39033329455847,0.3310523650403041,0.34015587123577856,0.3256179536273494,0.34330290238642475,0.34641600095173175,0.3480317274281976,0.36135473571695315,0.3431879104306082,0.4224277749049662,0.3760992152012077,0.37217541178996744,0.3891011959424823,0.3427494070742829,0.376698940422095,0.36725839828719065,0.410495510247042,0.35796366902606425,0.42756750868770627,0.3744077247645027,0.34412726356622964,0.3771263405181488
0.3586501800359503,0.3605717951966541,0.3431935520719148,0.4656842441569103,0.3234476618247948,0.32419245963500637,0.37638182410876303,0.306505136957564,0.35142068416999644,0.34697350494663093,0.4127295804905206,0.34771930172402493,0.3688810690993134,0.3383262966222955,0.3547047080461301,0.3554385155073573,0.36198177500087336,0.37174275004306756,0.354411958895814,0.3966278182510557,0.35025428219932314,0.3893361419337832,0.3528710497864676,0.3381117505435941,0.3868595853303576,0.40051048860167715,0.42283329516645424,0.37633033738539745,0.4483697108140851,0.380661229579188,0.35369348221694435,0.3663939100109006
0.3561946151506695,0.35511964400252943,0.31648883462335997,0.47332838048430365,0.3459977732630124,0.3045307707173325,0.36568541272617394,0.29606167460320537,0.341488943234134,0.35893167507158213,0.40849300094070784,0.3253219431695748,0.35262132900083604,0.28253822188295485,0.33270133340731717,0.3347575943483308,0.34488811374594075,0.35153389897725557,0.34660869763691393,0.40489665895282007,0.356096963150985,0.39114954861069,0.3442289991147348,0.3757122535458719,0.3790844499130053,0.37224628791515435,0.3960046748312147,0.39147897868602116,0.4425952046407815,0.3700928069906393,0.3501871235108309,0.3570579184654544
0.3646116181581245,0.38727860994305047,0.34184445072604724,0.48630227798479053,0.3731039282666736,0.3162776130198434,0.3494039700962183,0.2907800936867266,0.3423612930391174,0.3492718390095373,0.3979271763912,0.29764587152026556,0.34053959662596495,0.28404975296424134,0.3135116691077111,0.32281124982644865,0.32992294821658813,0.32928683643678847,0.3346869159606112,0.44126049631493025,0.3979716105588231,0.38924979057252806,0.3504778706080856,0.35637178726592605,0.35562179150584616,0.31469486489949194,0.3908386325426618,0.3818191661859401,0.4721238131565908,0.4016237668886549,0.35309747983035683,0.3240724624215827
0.40974603051680175,0.4203030955754048,0.4240648800508723,0.5060957653190193,0.3208465638004855,0.3870541559237415,0.397293337415536,0.30560318084389826,0.3822646728705037,0.4054169362303671,0.43312117271933337,0.338804336357388,0.3578120441576271,0.3845002883829578,0.3510657423831807,0.3497567571434063,0.3450667255652255,0.35359302484930477,0.3690822646991552,0.42247618317004376,0.39004311159040794,0.37468065873800516,0.39594149979891957,0.35175564390894964,0.37388255471398923,0.3743806749884107,0.4293805968912354,0.3929924314639999,0.48386409776677036,0.4361164993416637,0.3646754863310661,0.36706587541009567
0.36938889471440955,0.35843173712479864,0.4004586671604083,0.4619553354856423,0.2820557822526669,0.3741201264351698,0.39386219811370093,0.3239405970606393,0.29215562871933776,0.34743831628462396,0.39374743087228803,0.3123004445673771,0.2989249016800059,0.3159159443326075,0.3243498499043702,0.32103601773844287,0.32443685819580237,0.3354958141477801,0.3432767885427435,0.4003247411578247,0.36340125697536013,0.33250048232117874,0.36962069934145175,0.3875586838981083,0.3769387075092379,0.3815835543157709,0.38820948349614853,0.38418785259015686,0.4177887410720746,0.38538515583246086,0.31998478234627786,0.3778572757226252
0.3255755941435255,0.33141339425253563,0.3869359170414285,0.4264829186828812,0.282969992521817,0.3518707595997744,0.37270451054350723,0.36377770858339425,0.28883647508408833,0.3372991969068065,0.3824953575569128,0.3097335076587511,0.29630099277982963,0.27594608551679795,0.32026151926939656,0.3165215560783504,0.31547286356106136,0.3226713787755334,0.33512682260223386,0.3867692358233359,0.3510702203326835,0.323914487973755,0.3588879954845468,0.3678228503087682,0.35782477959502207,0.34595889328162815,0.38051205412008426,0.36470460540023786,0.3865612561772619,0.3614173467876579,0.2887490483890818,0.3446000423508588
0.31208518568593724,0.33546866253582264,0.36881529174806954,0.4094622993341714,0.27728161590319617,0.3369858877406344,0.34933369639545975,0.36997476068020824,0.29593033782988337,0.3502236088299989,0.39643844268884726,0.33231181789769576,0.34920988384246016,0.3391102571363367,0.35239511247166916,0.34518590114257264,0.34349199222396243,0.35672719741045184,0.3505289584068011,0.39344980838095545,0.36487408799984444,0.3589702772840758,0.3942653494082367,0.33083078282342965,0.3708963786659721,0.3470446860176989,0.39545557232872347,0.38127210372175724,0.37428185972277467,0.36265798162299945,0.2759953128707238,0.34182679355704215
0.31744385622060667,0.31950867057906346,0.35625466177236265,0.41739836515325085,0.28594092110408775,0.3722813346291707,0.34417811424743955,0.3708389847865153,0.2750096321207627,0.3265087003576177,0.385520603436431,0.3038118810817554,0.33699205863792114,0.363394232809511,0.3358217471232309,0.33651728016433863,0.34638587493831535,0.35457239854343897,0.35105424381461586,0.41325343119946994,0.37116329538110154,0.366246406249105,0.39290363754242313,0.3486164852716171,0.394583706939014,0.33290903080104206,0.38532221123416405,0.3866270176594515,0.38036842671271914,0.3779501526225969,0.27902369209412325,0.3435650276739023
0.3601420314296799,0.3501184279711935,0.3996163963950353,0.44401336891878296,0.32665099075875736,0.44257520347546825,0.3661011376694926,0.388944917133499,0.28852661311075617,0.32577337302992015,0.39336565318988365,0.2865347821835103,0.3322198272637718,0.3188116612833981,0.31990045266324446,0.34407973691000265,0.3505084579001399,0.34805872354442474,0.37072303822517905,0.448782464244874,0.399320062790247,0.3694984887725092,0.40642229846977496,0.40310304874055564,0.4061944462545105,0.3483509825157784,0.4124431763518547,0.3877468412710542,0.4241347381203333,0.40795066645078026,0.3075303585278293,0.37324144238600077
0.38548135570086856,0.39994169534763174,0.40021857213261325,0.43653354242504033,0.34671077974605563,0.4115771096006598,0.37615705168664826,0.40204048054193875,0.33348007784072653,0.40695545147971557,0.4316457868657854,0.3538568830327591,0.3410418406768745,0.28906625724366564,0.3604292225001185,0.35494151998509543,0.3610105612189341,0.347305819100219,0.3566116999452019,0.4577253143965618,0.41073921669622554,0.3406517319396415,0.4152213768915505,0.46724026229045146,0.476406351985395,0.42018315661247113,0.4444362225959559,0.42432829371438485,0.4425854228512701,0.43413678937598366,0.35513675609587486,0.40365881025759415
0.3467151597186557,0.35795902577162403,0.3715782555406203,0.42562361296113915,0.30512723517648066,0.3757285415072059,0.37433081640084137,0.41470628012985855,0.31145169259572675,0.3616469821279478,0.3732143568213846,0.3253049051609227,0.3252382126976132,0.28846613432070184,0.32566451993041823,0.3261867959478287,0.3378553834565613,0.31673609204979003,0.33100125490652377,0.4164412087457433,0.36013794842674374,0.3113750680359882,0.38176804773190515,0.39198536558510355,0.46945955203783246,0.41156287164673866,0.428370273746428,0.4311734788295153,0.39145253516943107,0.39803038038732397,0.3322494100806657,0.3936552930630326
0.31827136397134287,0.33281210287760515,0.34810512740812294,0.4430440017485413,0.29834415066703035,0.3062702980912253,0.38956273298994243,0.3556861403941275,0.2941989694390025,0.34715960406805046,0.3829377767577748,0.3095303301746085,0.3119550072766183,0.2848775927841033,0.31545531914213076,0.34158010558927393,0.3354539313807498,0.32211903273436865,0.3409736841896351,0.392973925321977,0.34106565641084385,0.3098320420574655,0.36168127700336444,0.31707290433708346,0.40488263965925547,0.3835850801081076,0.41969048418952437,0.3887453544321032,0.39808961481540633,0.35663192959304035,0.30690782744613715,0.3920414053954841
0.3413880778940368,0.35038379457815416,0.3551975961874091,0.49726283716016606,0.3403551955472765,0.3352741923202512,0.37840599995475005,0.32699815453635456,0.35011739879631204,0.39962152947215723,0.4261778724923894,0.3481206212216853,0.3022136930400869,0.3060946285764159,0.3458625578293068,0.334589242884015,0.33985002831957734,0.34211113767903595,0.34339859220246927,0.3719780967724928,0.32177174419670673,0.3333490370951883,0.3623433218591864,0.31084550876553396,0.33760234110920984,0.3837983786679579,0.4051359652213564,0.33975131224981864,0.4374910218715764,0.36363695792999695,0.3293442278286558,0.38816704396246465
0.37068403998688565,0.4017406147249871,0.3892312001081267,0.5017763245021101,0.35475487758205154,0.3930702272220252,0.3753855532183337,0.39233287897046776,0.38489137872530443,0.3858743454822954,0.41787020304159445,0.32546386171258607,0.35102776504808636,0.3410920032668942,0.3467275774045072,0.327719496879628,0.33290281077608835,0.34469363133580616,0.3592299694068025,0.38461644253247723,0.3506819968485747,0.3426154882239976,0.37193770365294415,0.3356804742422441,0.34145868475153424,0.39291380686933824,0.4096786210878714,0.3559165513876293,0.4382845347065777,0.38299424141421734,0.371786044398202,0.4149854268283059
0.39330636112072687,0.4165634979560948,0.39171560768737895,0.48381689901091074,0.38268449914376157,0.42745597180925904,0.38249453147614754,0.40708354047160245,0.36915661430948216,0.3801354551742488,0.4176253852716826,0.32993931753283173,0.3285009458992331,0.32362354279233935,0.3587844433954606,0.3561674548316753,0.33298173953464283,0.31244384146141174,0.3461208385660705,0.38509652271053935,0.358977192258103,0.33308200569526036,0.37717828349291205,0.3631443967382906,0.386034567535908,0.40591582821528077,0.4183405735067415,0.3760751373329933,0.4514132823148829,0.40843085466002427,0.3763422260243772,0.38400780374671006
0.374995949214349,0.3688607738288687,0.36549028876772294,0.46584260526160554,0.3368170595711607,0.3844032659912898,0.38177101557835946,0.38833373509018554,0.35216419339082405,0.36096202896657126,0.40928628948560947,0.3466546947043616,0.30684525603800933,0.274604960411199,0.3686258737632948,0.3439303017729981,0.34536044027343804,0.3055934415484228,0.3319204358757086,0.41093958800260383,0.3675496148664998,0.3333629503450633,0.395564210973822,0.3635870297140444,0.3792950616231882,0.4185246627426516,0.42375104092879,0.3659332494043813,0.43015495836212114,0.3928023503567496,0.34828376265257743,0.3687026507565544
0.3761654038966193,0.3531035017849717,0.36422060997496336,0.4658475483284534,0.2927930806424493,0.3464780488608272,0.38872864559217474,0.34754895260309776,0.3580003534838212,0.3724734498089625,0.4108422972164385,0.3662079088056779,0.37032342264204166,0.29667011287493394,0.36882464866266523,0.3489380086649692,0.3486160864195668,0.3646786539174803,0.37215254987859187,0.43778743186858476,0.40342850256873675,0.37515680670610724,0.3842978355294854,0.3808798649961356,0.3695079711065897,0.40534646830490584,0.43398513318543464,0.37118335141788916,0.42106317015284456,0.3967423958257529,0.336862663156755,0.39266713586871416
