Fp1,AF3,F7,F3,FC1,FC5,T7,C3,CP1,CP5,P7,P3,Pz,PO3,O1,Oz,O2,PO4,P4,P8,CP6,CP2,C4,T8,FC6,FC2,F4,F8,AF4,Fp2,Fz,Cz
1.2737712943676645,1.2033145825333473,1.1876322149647507,1.1707465495706249,1.1496668945048347,1.194476085602408,1.1369758010214248,1.1478229634245125,1.1019638925884692,1.147846671337201,1.1534646356606164,1.1137212203504065,1.1321297031308486,1.1498995783645378,1.1907709400303284,1.191533148696216,1.249016503559491,1.1568734785591543,1.1194753031117446,1.1615068695663502,1.124622174150452,1.103756676426772,1.1185952969990942,1.170272888898227,1.2039446903191184,1.1695457705500332,1.1832771686676944,1.2064679088937107,1.1959597170818717,1.2037360968348798,1.1445114323395713,1.133992349709482
1.2573763055779306,1.2063448727906514,1.2066577344319598,1.1725789845781203,1.1511941013186344,1.1935817314057804,1.15462660087308,1.1558699561073473,1.1107254876827155,1.1505968962160689,1.1646406132249223,1.1080868594886066,1.149514096816666,1.1532547446262784,1.178734304105073,1.1845690840491205,1.23305045729847,1.1669286473141856,1.1409193565729656,1.1734818105005662,1.1371311985433143,1.1255451387574922,1.1178717077479572,1.1686262640624534,1.2015432014301486,1.1693738214327252,1.192849904253603,1.2315194639470732,1.2049330156974976,1.195049219317149,1.1487141743929254,1.1443524893633765
1.2588586771166455,1.225330093082066,1.2273052754790759,1.1965353612993423,1.17173908313226,1.1916196824651164,1.1589341685793224,1.1763513945650905,1.1200482251831008,1.177981778316,1.1912239032708147,1.1370412209480165,1.1593836241627746,1.1756601956102175,1.2034926364105651,1.1669849451088274,1.2225613468941519,1.159626807203556,1.1384827763250762,1.1609204338545895,1.128783184977598,1.1236852045827492,1.1178321338206805,1.1366832538080078,1.1750206443145514,1.1813054671297651,1.1909813941348528,1.1916878898407814,1.2080761146175891,1.205693775915184,1.1742378302099095,1.1407487725938517
1.2747203344103388,1.2056536344241682,1.1897130465994827,1.1906141138031798,1.1831832662043242,1.1768615284548696,1.1547700854464205,1.1822453112653633,1.1426011723043414,1.1807936677566493,1.1802571292386237,1.1408275587921959,1.1704212144085335,1.1692687134809785,1.1916957356915805,1.1594538653581623,1.2281089371958225,1.1718041688509078,1.14750082336301,1.1748596743414392,1.1415999326036552,1.1346864660276779,1.123140505792536,1.1541161303403238,1.1799550637389906,1.1913560137365717,1.1925055660964592,1.1898787765433065,1.2020651066806378,1.202112616864064,1.1817538527904023,1.1484085091545713
1.2552964445343089,1.1776631760836216,1.183558976445485,1.1615391533971435,1.1544213842338604,1.1577215122217597,1.1551299780145632,1.1814124776867763,1.1289149283972104,1.163613377101214,1.1839931923234825,1.1308293784859507,1.161323795364715,1.1597219916424197,1.1927362180399983,1.1596050215653972,1.2110508304081193,1.171803888478962,1.1553938620427167,1.1738838256791806,1.1519109545800756,1.144514699216644,1.1314714372371004,1.1581327681466624,1.1727359032852944,1.1689067570138219,1.1754007084475515,1.1813379709433802,1.1811622621969815,1.1728562026064546,1.148157493750302,1.1424153819807874
1.2499805120425385,1.1929966804339287,1.1780624864705782,1.1701678867540368,1.1675558239175048,1.1610639484551306,1.1535364898509313,1.1774343902456514,1.1531407581183009,1.1468161533965673,1.169188706317317,1.1319469808855895,1.160218927457641,1.1618329785003658,1.1802523454005678,1.1535213580159493,1.1921995326874564,1.154376107152648,1.142562484098558,1.1532216145120304,1.1416210546498675,1.1544811801488408,1.1411876384153672,1.1444760601389148,1.1657875379614238,1.1846746594489712,1.1709609145026674,1.1771848191139738,1.1698123970840446,1.1794351654724167,1.16122648770076,1.150626330870386
1.2293314253199445,1.1799767618452768,1.1627515842997007,1.1653801016633418,1.1602796090329306,1.1526950810538767,1.1504188248746363,1.1573092228861646,1.1270411595751821,1.149221636909968,1.1733625228494213,1.1350195283880375,1.1531510034371968,1.1635271282987165,1.179628826818,1.161921091846993,1.2034080851212723,1.1612533032929526,1.1299988078858365,1.1577481737704132,1.1284587906374264,1.1347027352250072,1.1208133267429705,1.1514910759657107,1.1512559904691295,1.1684616697642571,1.1642736216687544,1.1716622339576697,1.1689605154520017,1.1662980027462275,1.1546658003659807,1.1453215649771047
1.2077693636134323,1.1663806242706753,1.1447296420510598,1.153216581346993,1.1480670077505424,1.1392719027923115,1.1474806292777102,1.143624419289363,1.1352266623870257,1.157628829124042,1.160938864100945,1.138704655581116,1.153944136982927,1.1566597725142882,1.170986196502853,1.1566853020183436,1.2033720022484944,1.1562399225807383,1.1250984998796745,1.1529761543909904,1.1167815587071122,1.1314165444345066,1.1162979094297703,1.1461809322371619,1.1509129293549833,1.164456104249876,1.1645203642679918,1.170666257222163,1.1717584358839228,1.1678090547948676,1.1445865415059024,1.1591234850600713
1.2100488939975163,1.163811215047747,1.147235681977383,1.1477702709545068,1.1445662175955928,1.1417373994962532,1.149091846433877,1.1425361286434652,1.159643007500113,1.1599781321238438,1.1752798956645074,1.1558180154131836,1.1656442346961466,1.1710760003677712,1.1648181892806515,1.1650602708933364,1.1968906771379373,1.1575306196954471,1.1357640509267894,1.160837196588943,1.1366813004224823,1.1444626736604047,1.1343037640578988,1.1597871943816795,1.165679075059699,1.1733476916941132,1.169842870167508,1.1811334033456786,1.1768338601038077,1.1651696775174563,1.150068791963886,1.1444806502921354
1.2104729225587236,1.1715386895461304,1.1466317526852636,1.149584893733551,1.137788848461673,1.1398434243960256,1.1474140450355557,1.155582317294013,1.1352961888489592,1.145920147016055,1.1749718810820253,1.1545772898262308,1.1632860528272113,1.178033640014953,1.1829568727702569,1.164516864525199,1.216635383049836,1.1618665795798302,1.1378936651170228,1.165620814958989,1.1400162047999638,1.1497285954929497,1.134351754163245,1.1634767985999015,1.1648593806811036,1.1763772392291874,1.1668840375652536,1.1802573290800424,1.173940049368547,1.1625230947237806,1.1549392679085182,1.1806203892648697
1.2104315374261079,1.1536024576315145,1.1274642451445271,1.1452355909934984,1.1462092274525566,1.1373184412957578,1.1408210002543357,1.141019687752388,1.14101207752076,1.1536658418303956,1.163966067544879,1.15713130816904,1.1543980450876994,1.1612793696819381,1.170380092337627,1.1535634846861131,1.1793934843180587,1.1490669674183376,1.134027342829647,1.1486343161644659,1.1283933100745103,1.1449963723626477,1.1262606449604817,1.1478325127398434,1.145692820181178,1.1529941815326117,1.1511026442845378,1.1642526754805387,1.1566143411066263,1.144852677752851,1.1546036473804904,1.1570888932146686
1.185930524963274,1.1406513294525262,1.1344353681361645,1.1405519920762355,1.138374803614381,1.127103416424061,1.133870181194912,1.1341222233921409,1.1290815680728952,1.1580349985035998,1.1639733767991736,1.1725178416158502,1.143072770140368,1.1692823631455784,1.1774570760986713,1.1683018723969827,1.1816753257993122,1.1458349772250407,1.114870407078658,1.1386955059020372,1.1214490472619005,1.1337269989628178,1.1247348294466282,1.139895263842974,1.1390002993997075,1.1433296973824,1.1434691103065782,1.1523824241348575,1.1503539749684402,1.1361959106492323,1.1410218024509495,1.1460663926802672
1.1731629994736292,1.1374500581865883,1.1310765866088996,1.1287601283052435,1.1183703923509554,1.13026183366491,1.1355639119696446,1.143221811320773,1.111775753795849,1.1314251376646676,1.1379395773886658,1.1530332723562469,1.130495825981866,1.1546276886842137,1.168240400065262,1.1675629517250568,1.1904052467948896,1.15766544079288,1.1215370574480634,1.1483518626034421,1.125812212052884,1.1328105564883304,1.1314793745211464,1.1313255351943508,1.1413184645148415,1.1429267880267362,1.143530243141916,1.1519654868809992,1.150490033605491,1.13445037786359,1.1341427074519723,1.1527107038045719
1.1615698282275122,1.149608134092849,1.1369198869546175,1.1415138402810605,1.1288179696010197,1.1370564287112912,1.1307432717401666,1.1359575532960697,1.1065609748409893,1.1248265705224494,1.144389302629387,1.1651860628925113,1.1604370778800737,1.1663343495636036,1.178240503193793,1.1818937134195826,1.193555551339391,1.1740318399682084,1.1415789938901406,1.157399033204639,1.1365045748583253,1.1374853044174331,1.1298384127625671,1.1333782878624574,1.138067622950919,1.1367744514030107,1.1477927147306288,1.1497401436860468,1.1560515269303,1.1423487906204246,1.138969854239543,1.1411712846939959
1.1618525539140834,1.13119099887699,1.133596767062397,1.127006394420862,1.1194552879322046,1.1246389223537356,1.123244390731989,1.1414451530991434,1.1050872562377243,1.1290699152620478,1.1411402121084928,1.1585542189178273,1.1417111130500877,1.157752605609777,1.1685739222470444,1.179713561205551,1.2010659781251454,1.1675331772926176,1.1307753480723413,1.1470564830416583,1.1255142639352813,1.128334498234571,1.1175203986787958,1.1219169510849474,1.1251824310301697,1.130484494559275,1.1320012976071303,1.1391875944049408,1.1416073905793196,1.1309019953308481,1.1278188144342716,1.1561324533087627
1.1706993288229688,1.1387275299728834,1.137117479432306,1.13264826375902,1.1170381546637456,1.1264104081632609,1.1308119396974365,1.1360137204326184,1.116751880846687,1.1376370924516213,1.152371011302386,1.1714196994823425,1.1543372949871489,1.1744304499615048,1.1925763082814047,1.1941683913156924,1.2157496246788926,1.1628066110366946,1.1336278669924393,1.159184206381751,1.141789070277518,1.1309028209843293,1.1268097452619406,1.134476049146738,1.1363633635429153,1.1409688868139845,1.1373509640664514,1.1536551795092762,1.149695230960692,1.1375942255095128,1.1304749148912683,1.1465226152361374
1.156336316242308,1.1300109429656529,1.1351631637976374,1.1229639293605758,1.1063738340252474,1.1233225615124938,1.1310474275668836,1.1359350637853212,1.102986274312251,1.1427393407499151,1.165732232766218,1.1644559087950401,1.149583603735022,1.1730914766224636,1.1901899733160017,1.1850056650310594,1.2026602887853017,1.1548130682703062,1.1339745064548548,1.1495714938911699,1.1336785933094353,1.131610197234857,1.1264245318368202,1.1234928143994518,1.1247134860227388,1.1194421886844608,1.1221372035918245,1.139880954859848,1.1398384913939419,1.1262461797206835,1.1128448951775756,1.1420926493116628
1.1537033768317089,1.1135255162834026,1.1352972934071843,1.1140761533142611,1.0967647665296274,1.1201927274467451,1.1328703821660695,1.124803756387174,1.0961585146415325,1.1346512082874578,1.1513216458989373,1.1405219252137695,1.1403660500416295,1.1576902788279648,1.1933442794762037,1.1917978985734712,1.1973531016445882,1.147637502895844,1.1332433011555245,1.1394055969411792,1.1393361784783635,1.1415379024836043,1.1363037778039158,1.1199335840248537,1.1171361365265031,1.1038724783087819,1.1114253333433761,1.1246666497907178,1.125442106165579,1.1133709718096543,1.0954558199480393,1.1402858473499116
1.1424688980190811,1.1212477228618285,1.1407555154673772,1.1143524908085094,1.1031414507515136,1.1205188940656332,1.1335319421205345,1.1283429207933762,1.1071446932385085,1.1311396532735944,1.1407807456052503,1.1474415190156857,1.1437404729821632,1.1544964516296796,1.179639365631554,1.1845107980456788,1.1964045563217593,1.1516132847647087,1.1353330846574032,1.1430186154344772,1.1359616327173392,1.1353537604344166,1.1329857455455379,1.1230776907645772,1.118476841641243,1.111151035095954,1.1143330999588175,1.118064459474226,1.1260521055236519,1.113229043581999,1.1017372905546612,1.1368457261440508
1.151413077361603,1.123137921388071,1.1486853471128609,1.1171841172898214,1.0961769531362466,1.116949969430599,1.1124585742999378,1.141893373227178,1.1083183985040534,1.1199420753765963,1.1140387859948662,1.1386758376914183,1.1466847159129026,1.1359234423112536,1.1524324935683274,1.1574589369486696,1.1894917140114696,1.1449104803350185,1.1293998161791103,1.1368626559833888,1.136149218864286,1.1434895555560292,1.14361413600152,1.1170116014061429,1.1134375541074715,1.1105867912871088,1.10957732898312,1.109277739681721,1.1280654527558382,1.1093970264645712,1.0892129789286507,1.1646411619928725
1.1505202253030766,1.1436991863932917,1.1620713054320284,1.1316533608578676,1.1015582275768656,1.1288216992271194,1.1144219196737908,1.1443256225120992,1.1193618772266019,1.119556721148175,1.1183133208700744,1.1484779281793098,1.1533889252070488,1.1356817166816306,1.152030171895571,1.168617134079388,1.1925865084395442,1.1485025152005308,1.131793669538655,1.1315925102665887,1.1304276982415393,1.1400722863893136,1.132857795751898,1.1078844170203215,1.1076619542227693,1.101281402855678,1.1154961187062715,1.1101817247908692,1.1387449882883731,1.1162141252982138,1.097432504334062,1.155369490581855
1.164951607899866,1.1529552688974434,1.1714716987938714,1.1450305237617169,1.1004129260411144,1.1434191940278247,1.13627461091338,1.1336355459266225,1.1213714265207986,1.1397574332448628,1.1457651007397749,1.1455645690224918,1.1524438940908583,1.148429806241984,1.1602586573599347,1.1702586396713246,1.1958351185216103,1.1398180004241485,1.1270594462525985,1.135698011351146,1.1302528658930977,1.1330828200477256,1.1348763962242108,1.113661506915914,1.1195943511325719,1.1094576550218718,1.1194744837370174,1.1213135243025905,1.147412612727118,1.132434321879007,1.0933155662748184,1.156764275440933
1.1587025688441137,1.1594124888133637,1.194275149641227,1.1525877879052233,1.0947268490868227,1.1535349864076325,1.1454643007682206,1.141434134873971,1.1264741268717844,1.1457217908382369,1.1374810743458643,1.134194800548334,1.144536137020408,1.144351261613771,1.1529916655511532,1.1605781631719496,1.1978708064535737,1.1296365019770083,1.1144364582340116,1.1273411314593318,1.1226032485482376,1.125544809868445,1.1210563191256533,1.1143941879482013,1.111098293794444,1.1046100718102383,1.1177344522062373,1.1166548117944393,1.148850665949297,1.123481251698637,1.086801271270781,1.1578393496143995
1.1833114471835537,1.1784835568144716,1.2136657802690325,1.1769335133306746,1.1096388922730815,1.1622539871742976,1.1483545542761067,1.1479957540477916,1.1396678064959376,1.1481545625949086,1.140166075153111,1.1346840947841927,1.1450478845813556,1.1475124088473692,1.1667031212238193,1.1550994886449562,1.1943829561321557,1.1307753773556883,1.1189357817656072,1.1245651252454756,1.1291439554809701,1.130022702173861,1.1215051783643704,1.1115043579305823,1.1108513888436196,1.1127993333304718,1.1203579766009368,1.1247833557711384,1.151822991568226,1.1293452929768417,1.0987335239748086,1.1565593656680053
1.1875930705554583,1.1737525276247482,1.1961338150935408,1.1658280057084904,1.1005574702818381,1.1657866816905997,1.1511762754592894,1.1475334158205135,1.1552023139672218,1.145003338406325,1.1411861909739092,1.1527495868385298,1.1459286596098754,1.152425382982153,1.1781723887975617,1.1492262358386203,1.2016423959721143,1.1194079042623595,1.1106022848544919,1.1218049415928941,1.1157785133936127,1.1294317412807304,1.1110458275141941,1.1107937526629232,1.1130689219884655,1.1078949952082056,1.1217275490264005,1.1305571744705034,1.1662702224966015,1.1317279465021712,1.0851668010700568,1.1557828873234486
1.2025898415051974,1.1857013582278035,1.210888613562308,1.1903545549858765,1.1159048337664266,1.1819271594590097,1.1623535805190324,1.1551260775511256,1.158072098851669,1.153536462975041,1.141944991358607,1.157981986708757,1.1461621199254615,1.1602511265323274,1.1767853120634642,1.1614248286089104,1.2033004466044297,1.1280459825243934,1.1070207701904662,1.1229042272764582,1.1101778642513371,1.1282040604718278,1.1079220516919608,1.1186700182774971,1.1195085078210607,1.1188457764190012,1.1294159101584387,1.1393551764590384,1.1572084332449915,1.1344936481647134,1.0966109433702418,1.1687003730448753
1.215223836890584,1.2038171879757056,1.219491226910104,1.2065349622770485,1.1286248357269888,1.1941416650109573,1.149984376647784,1.1725937584625328,1.163576031312346,1.140759009644524,1.1325099646523629,1.158705638306469,1.1415860977482788,1.1495277789985991,1.1753327770524442,1.1520940113831846,1.1903719750738313,1.114347191314319,1.0986567076764375,1.1173955265911772,1.104177764326485,1.1191750898210235,1.103946498364372,1.1292611134565989,1.1236702422406573,1.1332128186143178,1.135755613139692,1.146664364253128,1.1687230006967917,1.145909570906462,1.1124123242626103,1.1762631740150402
1.2175005742476208,1.2117131139540946,1.2335982737339615,1.221876257049408,1.1342602763081375,1.2141144594257949,1.159030580079617,1.1658627868272355,1.193566226314522,1.1454638128596564,1.1568022555525574,1.164425053591367,1.1464383223832808,1.1738675072425766,1.186689246218953,1.1415630853129897,1.1970204191284426,1.1152587669818284,1.0954490611786358,1.1162366393079286,1.0909468512505853,1.1069392571059502,1.0890302017724087,1.1137123901712962,1.1249908316475004,1.1245036257997059,1.1455731690500122,1.1530623080044948,1.1868363749908266,1.1556497816264863,1.1173608791483238,1.1566924450480147
1.2198426787530834,1.209274629494252,1.2268237391510068,1.226759516235278,1.1440716641463233,1.1940791232380006,1.175036157170074,1.1641517510123018,1.1829775185142635,1.1461267161538489,1.175115452567964,1.176762740143206,1.1567171059520798,1.2078085345026413,1.225287942248346,1.1623441773997267,1.2300217221696568,1.1349961575128704,1.1057814335985716,1.1330840811793905,1.1003978790118762,1.1113063611888676,1.0937271658502405,1.1268224584823219,1.1292243474167292,1.127120870810121,1.143272058882231,1.161564957093429,1.190330973440436,1.1514096205400945,1.124811361299482,1.1515847539532238
1.2311954169882808,1.2257384260349131,1.252462659805314,1.235408057477549,1.141195422033962,1.2124695482764283,1.19511302284476,1.1650726743816826,1.1724332459546214,1.151141238697867,1.1799854477399465,1.1636152835631903,1.1395970440606207,1.1960430855137598,1.2301234561560732,1.167042144540287,1.2496252847940765,1.1347058822151697,1.0976263755710471,1.1315843321583094,1.1033784502927484,1.1173253415453694,1.0975815359926009,1.1347966104246383,1.1325522289262024,1.1417259774492419,1.1525260543989995,1.1702119404913252,1.1934883799392393,1.1558363968649485,1.127908762890703,1.1567599271031357
1.2487327917750546,1.23528236439841,1.2491377721690373,1.2305750528349277,1.141285156137867,1.2260802206468766,1.1957430816064847,1.1692033173391212,1.1765864755254316,1.1562203058000335,1.1835090484755484,1.1524375058876648,1.1457718901848608,1.1826818729963864,1.2334688550157258,1.1719111369733477,1.2554722006827181,1.1375421613165106,1.1009731219550827,1.1375395465358844,1.099296701104473,1.1091055946817399,1.0884900405682754,1.1268689916406545,1.1352257033535071,1.1414824950934803,1.1531775848860288,1.164617823932717,1.189496601142453,1.1715617557075375,1.1367194994787537,1.153939401422248
1.2461595141815602,1.220107909148674,1.2282737198448221,1.2190335097354486,1.1449338956752682,1.2137385134210765,1.1809686966022435,1.1700592379025618,1.1809423258005192,1.151230294736595,1.1730763660393253,1.1577467970199598,1.1414247122116286,1.1851611326741225,1.2233916506576648,1.1585279924081604,1.2327825853823617,1.1377373622418951,1.1131524745855705,1.1368678978928357,1.1137179710095564,1.1224864763463578,1.1094574616564135,1.1425784703236697,1.1685602167054685,1.1656411161944502,1.183552503053424,1.1879749122805097,1.2085071760390595,1.1793222799661085,1.1578524489348938,1.1511401954194318
1.244449439927944,1.206635273173117,1.2245556854389557,1.2215829164168766,1.1666484000784532,1.2107664207220319,1.1605249419644537,1.1829966901280524,1.189155659922231,1.135019976742528,1.1687695573770394,1.168511868898709,1.152532021086834,1.1862458589126232,1.2253521632023974,1.1463096260808259,1.2291918928308054,1.1464300279931412,1.114198147003475,1.1384508251754162,1.100079795271463,1.129945631534178,1.094920489809664,1.1208863855668985,1.1352298974544757,1.15385351144074,1.1611009812013338,1.1507455966117823,1.1891967851528824,1.1576411367166957,1.162765245938902,1.1509658542505012
1.2753439672549851,1.2472149600941027,1.2376049017523512,1.2348566215725345,1.1882048369057505,1.22335085310125,1.1639364867417472,1.17024181476657,1.1840969804458648,1.1318099750109492,1.157939395505813,1.1658489952463782,1.1572877784116786,1.1768180713434493,1.219110208803062,1.1598247261415027,1.2643166851967063,1.168796158268262,1.1288622504401462,1.1472729827374026,1.1118364047999527,1.139837704129102,1.1001015359447457,1.1277015576284295,1.137224281173549,1.1553980624063263,1.15104859065902,1.1477967633895714,1.1885291669099014,1.156006723928823,1.1718463638592163,1.1695277896187164
1.2953424265247664,1.2625401930212397,1.2462762779344334,1.2484768176594903,1.1876359223165036,1.2438865221677213,1.1736991330886062,1.1526854413648713,1.180685985993174,1.1348746856880607,1.1581383681487145,1.173757927386145,1.1777542759933393,1.1707345183649267,1.20649763851284,1.1635515105185552,1.2311823772168502,1.1827499143025064,1.1513066894872168,1.143922411677677,1.1303321925352081,1.1691324389015771,1.1235953599219257,1.1375452596489604,1.1505591984190584,1.1529914159784056,1.145839612210952,1.1403460600586952,1.2023936704481502,1.1625260583726786,1.1772092337133555,1.1600180737177064
1.2963495950040056,1.2725005851576368,1.2518749949240413,1.2572529955804563,1.1972560638395184,1.2397497595148361,1.175367958701041,1.152566951289465,1.1801007596627477,1.132985321821555,1.1631379503473671,1.175510338973165,1.1711674227504338,1.1830374161417134,1.2152525482177572,1.1624242445163762,1.241003831683363,1.1812689240707166,1.146073972301506,1.1631287404049928,1.1343834697293829,1.1639259733242102,1.1249305575089965,1.149782651466071,1.1510608729683625,1.1621576972017982,1.152910605686205,1.1677203544554164,1.2155508980651881,1.185345024917133,1.186355380779141,1.158676750976179
1.3132971211108175,1.2753303184019718,1.2566858362006739,1.2502545982008433,1.1992704719822078,1.2596851856921687,1.1943021381427712,1.1587184101282533,1.1608046443282407,1.1651996515338734,1.1781297607748114,1.1934310365862408,1.1727592241250737,1.1933682706206523,1.227395763216596,1.1740173834662984,1.2371138544358766,1.1841739232492596,1.1267973298231413,1.1477208697817713,1.1180543165770427,1.1409450253600328,1.1060704368088379,1.1363161054385487,1.1620724378061311,1.160853656348206,1.1528711170769113,1.1673980660825245,1.2017084064226395,1.1758313093333765,1.1828299110458498,1.154874704846791
1.3021805309305994,1.2684110135379973,1.2482071278059303,1.2452518789043798,1.1933492924850606,1.2541367711560065,1.1828470462736755,1.1534859047090809,1.1507951190151613,1.154252488805605,1.1677664350780916,1.1782902633890313,1.157771165016552,1.180153340668647,1.2027539184793201,1.1693062427196417,1.225691289143497,1.1760567667383164,1.1230190942618465,1.1371872451060854,1.1163240856012597,1.1300187933653492,1.1115669610861192,1.1472853708960769,1.2310673611751612,1.1757831370111427,1.1850940523462956,1.1921951510034319,1.2356878338587116,1.1875135285989147,1.182565366190725,1.1611977392412074
1.3017256108065596,1.2533816380469314,1.2576871239196696,1.2223869073344258,1.1800796433596592,1.266029904641879,1.1923513694314434,1.1519606233400923,1.1553766995706736,1.1451821969821396,1.1763410778227057,1.1752445958502573,1.1760482734767663,1.1866903891513427,1.2072125007482652,1.173896383165468,1.2290918789277667,1.1875636531508285,1.1386347811059134,1.1515621067066404,1.1494835747631984,1.1488691568046783,1.1357534795868514,1.1816633495249556,1.2592688391796445,1.1707284188892568,1.1894439264775591,1.2024115118276313,1.2087198941044826,1.178731833299967,1.1597580555666902,1.1559743446942548
1.3084429420478554,1.2630402292964384,1.264245862085039,1.2294689045351126,1.198854748395409,1.2798197141302103,1.1982953189685166,1.1673499302136687,1.1478271554701067,1.144812720739132,1.1808135315063646,1.178793426671171,1.17474272026371,1.1982364297703914,1.2209610137855915,1.1904692281663887,1.2206571475706929,1.1870637944351266,1.140762735061425,1.1632903268060728,1.1581147493713246,1.1433597603756804,1.1364156816690167,1.2009247203741031,1.2209876179482921,1.1760890869663958,1.2195541292823726,1.2041573530708376,1.2356038686751079,1.215642309592901,1.1988978392076264,1.1510368943563003
1.2887535124717036,1.2439518783583652,1.2684283734197643,1.2181487317053765,1.175279939310344,1.2688947794370857,1.192366688429712,1.1685803797035679,1.1430488940329484,1.1606288837894732,1.1902082394142472,1.175772507071673,1.1546738503813165,1.2044673386170215,1.2374809543027911,1.2067497663196511,1.22756022043448,1.1758516409137176,1.1200277402510157,1.1581435303232255,1.1551190629400097,1.13183811229894,1.1357413989152954,1.2131023470571978,1.2059743806971195,1.1749315557972375,1.205233443294536,1.1981916608172567,1.2278475003437963,1.2002613411550784,1.186207866019776,1.1457182036330589
1.3017186082297763,1.2571450605687886,1.2572246510656417,1.212978696461053,1.1706508872603396,1.2581511050857361,1.2075662834935608,1.1602253051771034,1.1728283304102471,1.1750024029364998,1.2037569359006746,1.1990493140853717,1.1592676856574315,1.2369953714754907,1.262676604976375,1.239352160190473,1.2511419332383085,1.1838307051065988,1.1058380838865929,1.1567080410139354,1.1475666713134713,1.1121197973697665,1.124222309333659,1.2301705889201904,1.210067813867971,1.165858362044162,1.2003982467912593,1.2133599912459534,1.22557692677741,1.2025392575447187,1.1766409254172214,1.1351047099716145
1.294491303017117,1.25096211263627,1.2619166221930147,1.2050026587394684,1.1630686575050875,1.2657010621137836,1.2077578434956329,1.1550029023779647,1.1376606784215268,1.1601804086198497,1.2006616324471564,1.1799987115665715,1.151917131982023,1.2254123970881112,1.2533913918904434,1.245235023600355,1.2392448221899035,1.1715514419552298,1.1027721574964793,1.1626442168174635,1.1529145521139743,1.107934852292738,1.1301715301892892,1.2600331174252297,1.219458642156983,1.1597472268546507,1.2025136778961942,1.2140703484164403,1.2203428708694775,1.2040725397481926,1.1683708731145874,1.1187349840288014
1.2891828936699647,1.2302043789272525,1.25063982307099,1.1823256791507237,1.1399905473225356,1.2440667323657426,1.2164382604223578,1.1683549422664887,1.141644129950849,1.1655085247135215,1.2067384376232735,1.1777220585821329,1.1528794495179264,1.2283942657735114,1.258074482559959,1.246503629519577,1.2434155924144061,1.1722959025723012,1.110252482912805,1.1662857897994092,1.160654047951456,1.1200228440339732,1.141016862077886,1.2525563205398582,1.2606031438646028,1.179950754864875,1.2296607719984056,1.2180150448894231,1.2433858603205183,1.2263101195154935,1.1695311979459833,1.1384214435648492
1.260320807270718,1.219456552223508,1.24527059791789,1.1800122803583557,1.138897445956913,1.2384773157151847,1.1971813925677426,1.1702157083855644,1.143366367811824,1.1592505115529588,1.1850395502713207,1.1747848316476885,1.1503820623987184,1.2238108581916767,1.2519713617411334,1.2501987764760456,1.2568983046776876,1.17850306734413,1.110182945839986,1.1780771289922807,1.1714206270679786,1.109360758019238,1.1430450540553692,1.2595746424269811,1.2510553311717738,1.1789315453232725,1.2237057403127758,1.2530572273532161,1.2266604353001567,1.2189023896502817,1.16460477958991,1.135231051476198
1.2509812375130387,1.2025712417655712,1.2369662589549284,1.1775300413797387,1.1435653347193786,1.2351477001309552,1.1828007544332293,1.1629159578397252,1.1453102762925509,1.1472025664554095,1.1735156554144222,1.1544307671807925,1.1587402668807172,1.2056873055157862,1.2419328650563684,1.2534297855332606,1.2480219211526797,1.18563700409677,1.1305431038118252,1.1849603252271823,1.1962315236070489,1.1360931641506242,1.1736108311455784,1.246281209858556,1.2673053995870522,1.1826041873215132,1.226668741325002,1.237256012883124,1.221934791061116,1.215171271912156,1.1559347936983038,1.1362926869891496
1.2634662347960428,1.2207754809695732,1.2402897229405843,1.1912265057328864,1.1453839543863142,1.2392354944597153,1.1879695559786372,1.1510568856014436,1.137496805938888,1.1335588081958128,1.1786395358504984,1.141762398468825,1.1283858758282643,1.195889694425241,1.2275547370001276,1.2248886366644176,1.2354909906216611,1.1610573707724265,1.1156252989172406,1.171430597213832,1.1776705717980578,1.123326476253601,1.1601695303160438,1.2512971721753972,1.2699350278153658,1.1849157589962553,1.2304684155066266,1.238085841424997,1.228261062817056,1.23215096077288,1.1689281886721081,1.1300454374938012
1.2537412190411532,1.208074054517841,1.212893928403224,1.1779658605760808,1.1318873628525348,1.2153691525468033,1.1716072516028289,1.1559716901987545,1.1294110184938715,1.1359750127031083,1.170539015661671,1.1474615739596614,1.126174853658989,1.1872804706056552,1.2203546086079382,1.2258037929786427,1.2236394287262795,1.1489355249998214,1.1139419781419608,1.1607260264588866,1.1794050404492211,1.1227174849481425,1.1694355650007149,1.2639667598431825,1.252485566479307,1.1766372827746832,1.2147525980076574,1.2354217988207858,1.2102011222931028,1.224353920205134,1.155902726135049,1.125549006714091
1.250761935251464,1.2015514512543386,1.193913267469927,1.1719227557077876,1.1085403551003794,1.207936534195487,1.1801044815292758,1.1490254773461828,1.1302421906817122,1.1382179284790377,1.1677025732046098,1.1354868775473863,1.1283027490641446,1.1776328666176403,1.2141131826604699,1.2180157610767164,1.2160670472473278,1.1525500087038805,1.1270865329951585,1.1665977587665937,1.1891435250826943,1.1363245710355665,1.1792907566711106,1.2672497741448183,1.2658031857397072,1.1793575346430731,1.2165429103240268,1.2442182730974425,1.2044123947669223,1.2090985697569718,1.1412139532641536,1.1298637708887929
1.2547857303568728,1.1990276209788544,1.1990089439842035,1.1842200049366647,1.1123742288227667,1.2175547647269853,1.1837705941596908,1.1464946068434942,1.1361513245339576,1.141002070947896,1.1774173944343773,1.1352060734602787,1.135429714340296,1.1783327216367805,1.214878434466395,1.2164456536090515,1.224350608685642,1.1542970829323067,1.1278177338020692,1.1595426834189961,1.1702982751934803,1.124097960200682,1.1585456356698498,1.249748450200837,1.2725984398587307,1.1657337442161997,1.1950661772390065,1.2432304981618405,1.1851247723063467,1.1903290612934498,1.1342860108349018,1.134224235394159
1.2627249520577781,1.2102245550637332,1.1844178695940277,1.1766119605945615,1.1157557679068126,1.1935947731811103,1.1869414955334545,1.1460036948139027,1.1382704996667041,1.1250437898410568,1.1836637483868309,1.126168793113576,1.1369075564841116,1.1694105475889738,1.201847814430477,1.1980691739183682,1.2133453796139486,1.1558915945188246,1.1260502428821264,1.1494819321292116,1.1733047748094017,1.13209811093434,1.1833454892429318,1.2393919929295094,1.3010315772663748,1.1871934806334525,1.2191887114972022,1.2358267975547867,1.2009892664032522,1.2110348037468488,1.1351660688539815,1.1434293801897097
1.2668597168561104,1.2044839554950306,1.1830966141527388,1.1750299996559397,1.1137026179909677,1.1857721234706322,1.1794398385173088,1.1474157699314307,1.1133885468417535,1.1134411620508247,1.1681969861811032,1.1078662484870618,1.1200588925549986,1.14174045920952,1.1789397000515833,1.1849446079400763,1.187068288197351,1.128991013154797,1.109491109529578,1.1349951735572543,1.166210706160425,1.1246540028961372,1.1804618716704456,1.221039770441192,1.2888709667872198,1.1818800648887064,1.2162490069662732,1.233426999981754,1.2000081422312687,1.2048997115414766,1.1364325651832283,1.1380595619830904
1.2890987773520375,1.2115932702279544,1.166938153718261,1.1845960413956556,1.1176879730220834,1.1943434540686042,1.1688794542655598,1.142997303348938,1.1159797160680438,1.1164342095048287,1.166117110036866,1.104268704077498,1.1217991702541292,1.1450617281618738,1.1806327553839846,1.183092448909593,1.190139746205925,1.1440200747583888,1.1285564167502409,1.1564211922809742,1.1851715370362184,1.1331734604106602,1.1910343971582695,1.2166850584506195,1.305557695648118,1.200647023896932,1.2230970891041586,1.2579235268775169,1.202014231780161,1.2080588465698008,1.1476844651183178,1.146455076967742
1.3004550041114806,1.2299027966676122,1.1670786656402328,1.1776264268418435,1.1110482942740378,1.1937768838878906,1.1663980698347842,1.1476766675074932,1.1147854700816477,1.1214656016730167,1.1697539751976342,1.102990995734748,1.1193438883137474,1.141408272087247,1.1767553809261095,1.1782970747576134,1.1624480045724914,1.1243944886137238,1.109483178407701,1.1345643444245685,1.1604179627525772,1.1173346671318183,1.180317155341727,1.2255506720473677,1.294233428278094,1.1908791803134424,1.2130027391673004,1.2399855767895283,1.1918097082624894,1.1994455552314873,1.1481471870474107,1.1429847135983995
1.2881595200048066,1.2205034539419017,1.149730405250778,1.1658300139738498,1.1044990784943869,1.1698747216065857,1.1630334993499363,1.1549257926872412,1.1147361525290433,1.1189170426705382,1.1722871590831598,1.1113267502287723,1.1231465890656362,1.1390849765833393,1.1666659968591286,1.1750558936368811,1.1411001125350415,1.1162217858302872,1.1175583900854558,1.1487677664797835,1.171324433143843,1.1261403681287792,1.1800161976775332,1.2357813084711247,1.3008226446434783,1.1977873309189038,1.2195330866506797,1.2559161476773166,1.198138698481365,1.2006971388080625,1.1480819060389642,1.148925633546018
1.303893104988447,1.2458494946145957,1.147547112500587,1.1842365752215371,1.1260277744794838,1.173585028475083,1.162306434807024,1.1611015466340096,1.1401253593739542,1.1475959240618803,1.1830096861800214,1.130439908016247,1.150243374503377,1.1552999586958037,1.1796918226997515,1.1763496089548182,1.1578620674305973,1.1399346396783139,1.135793291437129,1.1540777387284835,1.1806064968246885,1.1363669698889547,1.1673446884539873,1.235504559798459,1.2869621296072307,1.1979153224698014,1.236417847221236,1.2349208654069912,1.2179770649457695,1.2023923485325865,1.1656587859341845,1.1540631433703743
1.2851241515118508,1.2389755776828575,1.1464414203828688,1.1737653231261964,1.0922841108859358,1.1747678538572153,1.1565431629683078,1.1635043611973408,1.114491739088367,1.1237744372504703,1.178699408457109,1.115341916300276,1.1244895605830638,1.1301025866040286,1.1646071643523868,1.1797486378060777,1.1474076764608114,1.107644743455492,1.1100861849421835,1.1365884572201588,1.1730050889556705,1.1204038707605504,1.1706837422763545,1.232281861534738,1.2821552820362794,1.1876036891062474,1.227529644257543,1.2267107421260046,1.208330264060655,1.1964554596598476,1.1536236168768998,1.1445642738210555
1.3163709752595938,1.2728926345735858,1.1557202030105682,1.1926750397748074,1.1253968187594665,1.1691881808641171,1.1343219158039848,1.1652457958776248,1.147212471779032,1.1295645318798793,1.1757646227273646,1.1464983483155595,1.1530414580827393,1.1743646074631557,1.1903439256554649,1.1898103458477571,1.1700348558466502,1.1226317795429128,1.1124916081055929,1.1455129767528798,1.174740104449738,1.127593438129389,1.1708149454400931,1.208804875266701,1.2796074983786696,1.2010117403379934,1.224098910802813,1.2198025475601912,1.2163275971114955,1.2044161376154876,1.1786646435639159,1.1572522954914315
1.3143363321172148,1.2757205441381072,1.1675740885366486,1.1877923005973177,1.1243099061452733,1.183497448637539,1.1439165285244954,1.1684362544670484,1.1543432173458337,1.1222366391511818,1.1600156920239717,1.1434163846882663,1.1638109311743836,1.1650017316843193,1.17991448877535,1.187927727356171,1.1746614099687687,1.1337671320100975,1.1289922564462653,1.161916944820322,1.1855114413874588,1.1390869967680166,1.167637780292441,1.2177530012550601,1.2831630932391687,1.1964192529385793,1.2275920494680874,1.2298350368168902,1.2141240444654429,1.208652569562883,1.182290354942578,1.158020749200665
1.3253849453933886,1.2889257155929523,1.1753230098127694,1.1947670999608206,1.1277173756255638,1.1720502052206803,1.144202559708366,1.1686784665071013,1.132845654189092,1.121207705235891,1.159469589980811,1.140332424031266,1.1577329659737277,1.1643772024942565,1.1874031037122856,1.1999350713162014,1.195816030467972,1.1647901175038702,1.1538046538269804,1.1981245551174058,1.2179698204614882,1.1514995544223863,1.1899681770387058,1.2331857524036585,1.2892090406401246,1.1918798377334008,1.2235584843538725,1.2327314155462281,1.2187852758369135,1.2076315272382179,1.1823204014524564,1.1617605002130487
1.3180864116684767,1.2777923547554677,1.170057678405538,1.189243078813624,1.1232898780781773,1.1820422456019226,1.1308043400571537,1.1640317165475027,1.1307006293956114,1.124345952258691,1.1461112067926962,1.1407763663086814,1.140872249716973,1.1707754262637653,1.2095998271267583,1.2204349675345167,1.209331716770976,1.1586627830627518,1.1331938078312291,1.197711512158229,1.1934207475294427,1.1256225166432052,1.1498498119022436,1.2555732645620996,1.258272687075774,1.1732350652027237,1.1960851561981771,1.2330836187027103,1.1934858486179296,1.1974427307804236,1.1656723771019397,1.155998396058921
1.3176821789121103,1.2757086393584103,1.1788190036569794,1.1869375430296436,1.1210378394552765,1.1667596700190002,1.1210046333092074,1.1400275889093419,1.118645157215293,1.1164675992416522,1.1408435929833287,1.1349965182267598,1.1339877462343206,1.165734982605635,1.2118456972358451,1.2265684051236465,1.201792945622862,1.142533797638006,1.131710323276758,1.1935994469342068,1.1830270633448394,1.1413495580192654,1.1605700798394951,1.2382271956120547,1.2800787469987847,1.1738810084429747,1.197417104034394,1.2096724111950998,1.1938270559273025,1.1897737201858951,1.1562924274129123,1.152786014414074
1.3167545164028285,1.2809461907764088,1.2006555847593465,1.2032463293661269,1.1291432980859997,1.1755696943518954,1.119732782820765,1.1530241356159097,1.1130392582415383,1.1099392733297888,1.1308870343646071,1.1228857523330584,1.1312481630261413,1.1492662722307116,1.1888362988688164,1.2132166130540532,1.2107366639959107,1.1566310969278504,1.136546655286786,1.195888112556873,1.1933846947451245,1.1422422150991653,1.1604155870140254,1.2360524787806315,1.2641014562587407,1.171354423240391,1.2041794040642906,1.20402088477343,1.2032380608412363,1.1969733708262051,1.1517340804448315,1.1620341001425485
1.3131817089189197,1.2695674669683148,1.2085117602808897,1.204360037273003,1.1265774371830355,1.167629705363038,1.1280385683836522,1.1623264834609237,1.1330505054800233,1.1092270759626286,1.1390423766953783,1.1259393298663403,1.1426296237312665,1.161688836049145,1.1992023258976265,1.20519801650044,1.2099813551779133,1.1534385501754363,1.1375911331161377,1.1867135901689787,1.203977202670942,1.1502605760635813,1.1688574996327106,1.216600582006891,1.2622889341802452,1.159109981344315,1.185705168327854,1.1794800544303348,1.1888725173385448,1.1930347811489332,1.1399179645868591,1.168547616262779
1.2958936698390568,1.2597618017620291,1.2231466690989057,1.1928245024561979,1.121975760767813,1.1734768145088985,1.1343875748429657,1.1495197345658636,1.1500343105887108,1.109507861117248,1.1624755235123254,1.152169536917329,1.1507774192782616,1.2037929660453934,1.2274329256989693,1.2036707023365925,1.2166456595926176,1.1516662430937796,1.1351476846229294,1.1921843359157414,1.2138672378284927,1.1514730710451795,1.1687686238825,1.2237712067045738,1.2345429971278654,1.1498229096256207,1.1673853246702839,1.1739799549733594,1.1761647472404146,1.1812926995830426,1.1345961252702832,1.1551068840833467
1.2849252315407047,1.2659858512813342,1.2425173135037926,1.2015073484145926,1.1378413092596393,1.1687059569344906,1.135823035391868,1.1502494178414988,1.1568435480132448,1.124044915441349,1.1618721143870594,1.14915055000887,1.1326823794438154,1.1842291216847673,1.2118535574576108,1.2083327310931355,1.2209463480754472,1.1587148556954372,1.1327653397178448,1.200352123560574,1.2057950928852907,1.1413834294046075,1.1658769165815717,1.2108439165513474,1.2575876779772042,1.1829753456710008,1.1907247913340446,1.182566754018564,1.2013751334781992,1.2040234375758088,1.1620901886364816,1.1804997613011716
1.2852452528991098,1.2434157669954018,1.2470909002288166,1.1743096803920776,1.1249401069807976,1.184154611748065,1.1416646784753748,1.140665387105975,1.1439554648854098,1.1134696016252346,1.1581352386951833,1.1455707852473405,1.1324671482839057,1.1851135152548593,1.21918432571786,1.201180675738973,1.2457134947205883,1.1811977069829156,1.1494119999942298,1.2228061272035706,1.2082026501094403,1.1478442042891905,1.1692632705588077,1.2217328292857381,1.2569063739530044,1.1664871609435072,1.1688829612628509,1.1807355584893586,1.1857540518172913,1.1966046830899633,1.1371359186107797,1.1784824678036199
1.2751176568037708,1.235917982603284,1.2447563049376882,1.166830671160887,1.1175480224742236,1.2002082273717019,1.1375587267054668,1.1380179084849238,1.132267934459267,1.1042225365717477,1.1688484154995875,1.1352849641558147,1.13415220349382,1.18123091829514,1.209850013483846,1.2078977419935981,1.2610157337945769,1.1866745686107008,1.1500897020015082,1.225038903900695,1.2212485211858508,1.14842623611982,1.1823555585090295,1.2209462363199157,1.2557882817841743,1.1635965540797537,1.161086616047042,1.176074838413638,1.1882759860902739,1.184573900478384,1.1280568660797057,1.1689621698093082
1.263938964912395,1.2383054002913814,1.2423917011639725,1.1735712020502682,1.1287282676880415,1.1998781833183714,1.14732364761622,1.1491749538833624,1.1673056185911468,1.1241188048536237,1.1755107427641553,1.1634037423127996,1.1581118833401476,1.2047165042450887,1.2407490478586651,1.219663804728863,1.2674527332957237,1.1955372546134821,1.162741992340429,1.235852150259617,1.2508549500312782,1.1716617623848764,1.210585269817256,1.2429464146198452,1.2958273410999415,1.1763207577626902,1.1905498439201943,1.1973763624765286,1.208958771369658,1.2020575850550257,1.1406219926928833,1.184280503896883
1.2721480083340468,1.2310852593163224,1.2301540953046193,1.1710383862369127,1.1471957811027214,1.1989815907432362,1.1436211819634832,1.180949281054216,1.1778652978210336,1.1381558429903098,1.1808160820602813,1.1740382414570258,1.178147902255324,1.2004457088266165,1.2351702400135691,1.2077503623228427,1.2564075322436583,1.1943870668431213,1.1735321916644366,1.2191670235733763,1.2477335913598195,1.1947965624755033,1.2098694812748225,1.2624540898846195,1.2826481207303355,1.1906662014555258,1.1999268855958682,1.218762436329191,1.225179907858638,1.203872586120277,1.1567068731172219,1.211819674552404
1.2708009814292733,1.241319670496487,1.2144365502857217,1.1738217269676678,1.1412398791831981,1.1948262235184797,1.1418761109701565,1.1840495026997149,1.1994094323694353,1.1407680101100235,1.2047808439506713,1.1970065281820093,1.19762998856534,1.212092834166656,1.2331638589764804,1.1896412279642026,1.2566081059416976,1.200351867405893,1.205330557905268,1.2365998285820838,1.2782638351344358,1.2243476208590167,1.2304654901161118,1.2800103208472615,1.3120830551026594,1.191002729514163,1.2253531243925195,1.2295961530334856,1.23961928724876,1.21469387222583,1.160819798969796,1.1907618410432586
1.2669489123349273,1.249693282344649,1.2184642199003848,1.1922556603075174,1.150649740304953,1.2059827342865486,1.1576704511368532,1.2051782357639231,1.204728658827041,1.186983149872387,1.2298541368713751,1.2274977385112085,1.2089401270075102,1.2354959650101265,1.2390657827454716,1.1859212476855017,1.2575915232928823,1.2128021718578201,1.1938396738851458,1.2351410075457305,1.27311720537317,1.2201066826940912,1.2218863927811068,1.2716410608251314,1.3109839472463582,1.2039011438754095,1.2293398600778322,1.2500534367613736,1.2364204747351835,1.2203310920942112,1.1807353664039857,1.1937998114186141
1.2645362794589419,1.2271253944675642,1.2138775393805943,1.1786781123301036,1.142237920615139,1.2136942863416056,1.1731673384029249,1.172105446473789,1.213370059054594,1.1699188602749293,1.243408953861963,1.2172126342151126,1.235133417001841,1.2406804754173635,1.253815702987215,1.199874080991594,1.2885514737702513,1.2437044129376216,1.2224617889957041,1.2559896242451392,1.295740234514253,1.2419922408110309,1.242108119611014,1.2888445926067844,1.3325622813711666,1.1973560940349262,1.2303600178915597,1.2653263795754224,1.2339587020709843,1.2130625216635917,1.1655302376405459,1.2001404115525265
1.2512651810196116,1.2335226477397017,1.2071248565747885,1.1793954893206853,1.1431572229460196,1.2033592091632488,1.1496027945524174,1.1669112030081576,1.184025443595224,1.165671693693934,1.227306061146508,1.2098857345541003,1.2007438915827184,1.2154401260651622,1.2264972903537292,1.1899690837692996,1.2469511080922295,1.204765889904915,1.1873192260351788,1.2196217279463761,1.2631939249622437,1.198344770205603,1.217109460484916,1.3039703383974972,1.3068919722537495,1.201735913557216,1.2260574146159118,1.262001893862165,1.2311806205121143,1.2076818507706562,1.1678461050866262,1.204219932018786
1.2615011097015152,1.2440260052354346,1.2105361392283716,1.188779077448807,1.1587095376775585,1.206801226892074,1.1595285339110686,1.177870239456847,1.1778347349680356,1.2013771621970415,1.2480855199176697,1.2158096746022524,1.2123300282822822,1.2197231798471972,1.234882586456248,1.1999554787881992,1.2612968572609258,1.2206004613947707,1.2005998354335048,1.2306373890948046,1.2652502173999516,1.1985860227041578,1.2129626114160574,1.3034909860017134,1.3116602382298277,1.1944247661842404,1.2091887192133661,1.2629271583909762,1.2221275557598992,1.2038342631015113,1.1673260565597272,1.2018642707391196
1.2477290845017297,1.2424009144787762,1.2165788981553485,1.1923655380693758,1.1566121868780592,1.1922116589050697,1.1597296242649846,1.1872508112502804,1.1901270443309964,1.1881605559398785,1.2276322328190852,1.1963747925861257,1.2096954888974731,1.202747226763152,1.2196475960255873,1.1965625044662913,1.2511334925147062,1.202994524099877,1.180305570407729,1.2043644085557377,1.2492868515775037,1.1900720567842957,1.2067876709871428,1.302147659620617,1.2948173240821572,1.191443511298396,1.2062901983978593,1.2531008901772123,1.2180562183556622,1.2116553446269636,1.1665145969692987,1.2040308936942594
1.265756039908048,1.2608806709748255,1.2521401805577876,1.2179361576503278,1.1510923716717267,1.2470417272133683,1.181002018321127,1.2169005909627346,1.1724413506865925,1.2161420982587223,1.2282676416787712,1.1791121562473363,1.1792925782038748,1.1889948853241326,1.213604225037379,1.1888896796962078,1.230913844274058,1.1675232528775399,1.1427415904671663,1.1697829045055257,1.2242673548312175,1.1765323851158458,1.1916368546086595,1.296950548034572,1.2775705819313328,1.193212824045744,1.2112505181728506,1.2485162191689807,1.2242854647236503,1.2073796435690252,1.1706150887745517,1.2211028775479555
1.2626055601685795,1.2457942338613681,1.2386237215784754,1.1941674901289283,1.1505470400241533,1.2375719385966213,1.1779177979562467,1.188600033050251,1.1850949917456806,1.217762343976482,1.2111854608676709,1.1931039350289747,1.183980150135229,1.197437790275527,1.2188182023884513,1.1886702895519006,1.231775610381917,1.1679167147928216,1.1370754736133055,1.1628484375586916,1.201283377167879,1.155511588711525,1.1681531779970988,1.289401395198839,1.2615938059020382,1.203997750574646,1.2255522251276452,1.2605938187809143,1.2302522036391923,1.2169678793637368,1.1706922124239107,1.2088376062662172
1.280786468105676,1.2604018816953761,1.244091394415601,1.2032156636205995,1.1450661300935518,1.2231897698677292,1.1903249780286287,1.1864620452223842,1.1543622194335947,1.2104274152753112,1.1969651737663154,1.1610337286974435,1.1589528782285512,1.1806000530248577,1.1906497349831924,1.1686664688042931,1.2062903844001096,1.1492809561228947,1.1165403272919174,1.137157737291577,1.1784532705668262,1.1348411330500934,1.1561219251858594,1.2844253101830159,1.2441403920454208,1.1914284331901952,1.2142281886241484,1.2323847306350397,1.2157533094524888,1.2161252664687794,1.1670760188879232,1.197843994372654
1.3001452457700617,1.2778892213475141,1.252413169346489,1.22102263271682,1.1620172899379788,1.2497971842196116,1.2071617757227093,1.1940372969009008,1.1538010244860428,1.221324642964479,1.2086712761022145,1.1631004976631738,1.1552558285491656,1.1840772383973555,1.2021456991868908,1.1736935105445538,1.2126136162975658,1.1456330733099584,1.112571215280821,1.1447708717282272,1.1691707582602355,1.1255473586483273,1.1505101463239975,1.2727150228858168,1.2349299198474875,1.1988014243508647,1.204988241016489,1.239390458339199,1.202599053092933,1.2112977289412852,1.1757385941413345,1.198658689708128
1.296863930985431,1.2856592580555466,1.2727965954913174,1.2197017915784774,1.1711778113938052,1.2572268315910147,1.2127918690562653,1.1965370673196816,1.143785288465746,1.2218243646252913,1.1992500310894176,1.1494101706395954,1.1489967823508498,1.1678065659669388,1.1786640949164486,1.183126430179684,1.2021865479462326,1.1360295605121784,1.112964902291554,1.1437468896043914,1.1636451774427785,1.1315581319662822,1.156953997681694,1.2560234500397103,1.2361499827276063,1.2077003244365803,1.2025608061894306,1.241340555549685,1.2060592295458832,1.214843539738967,1.180742621662445,1.2043166520785602
1.3118700115988564,1.2931569793084983,1.2898938804420614,1.2371466797511308,1.1838073292543816,1.267342316482651,1.218831135094879,1.1950629133804802,1.154838139997814,1.215402119384297,1.1852524828470143,1.1543144160669323,1.1520035268245035,1.1658659094759505,1.1709916368104911,1.1903296950912912,1.2014918393495388,1.1366614934602268,1.113630228326367,1.1476448008573692,1.1577594057791318,1.1260126482139796,1.1518612214327795,1.2933473580570949,1.2219501026751645,1.2076941993379526,1.2169748067426898,1.2334229826287568,1.2192843571571494,1.227123258777289,1.1985666175612524,1.2052602587098433
1.302894483327156,1.2892971108382545,1.2763912737910856,1.2223458982970299,1.1842225653317826,1.2600100549948,1.2305560389456518,1.1988203780978264,1.159924538509973,1.2244161915080505,1.1916388547893149,1.1652421298919564,1.151178135640331,1.1714772958652064,1.1660368417971045,1.174504524476642,1.1924099627910636,1.1356676254182556,1.1235101073412823,1.1510993204650117,1.1601419449091441,1.1284451900561387,1.1427905852765066,1.2848505450981063,1.22408957555652,1.1985857924292778,1.2100354002312381,1.2415885985023398,1.2131157107909112,1.2147696809068678,1.1965076114524094,1.1919421815358109
1.3239860776250467,1.3085273351640347,1.280954326680038,1.2381392276415815,1.1834468374771145,1.261741212277055,1.2205483092009741,1.2083569200225328,1.1716164220600667,1.222755164192762,1.1884363561987878,1.1634099989083726,1.1776172149607083,1.1839981482558384,1.176917029293438,1.1800667691992472,1.2171205171970014,1.1569896715396917,1.1468445337655615,1.1688149328350406,1.1857578184172084,1.1563842700000238,1.159525785130881,1.3021621415472624,1.2245171679016318,1.1986212474568534,1.2246498776060593,1.264873545517957,1.2205964767044009,1.2188123404456483,1.1914910007738653,1.1915707851964348
1.3115254739592321,1.3115866137095065,1.2924840269130422,1.2395957918854874,1.1913256466322704,1.2708837760918374,1.218006320661861,1.196508621448298,1.178285488426329,1.227332250930329,1.1869140239079996,1.1872805050830908,1.1574677753548113,1.1904053618657713,1.1740875072639734,1.1655980781607793,1.195941991073438,1.1355350757498024,1.133722144582446,1.155535809964848,1.1804159890020864,1.1425293935522776,1.1632645017984478,1.316664783643451,1.2176188260254217,1.1901566405793649,1.2103814447240968,1.3286804826471261,1.2117960568857322,1.2093956514905613,1.1897203419300053,1.1733595375035066
1.326733319428819,1.3002293189871534,1.2771928449243373,1.2424373608848227,1.171427655464009,1.2910928046028638,1.2446866162252794,1.2068786174227903,1.168294010415631,1.217799485250898,1.1810400353563113,1.1816049525489636,1.1609000529343185,1.1891702759447729,1.1759579184580644,1.1723139487591876,1.2018845605595936,1.143136802277675,1.140027094026279,1.148869285621699,1.178715586642583,1.1461592837250916,1.1572241966991506,1.2885477356320987,1.2313505737329782,1.1804346274550395,1.2118837407269902,1.314858149404519,1.216577581634667,1.223842977454445,1.1802557266573992,1.1729640143468776
1.3208185151788068,1.2958639786055828,1.2881921954336393,1.2422518270887295,1.1867495585394645,1.2804010708113909,1.221974242570919,1.2077060408910023,1.174066522164872,1.2127086989453466,1.185141677670749,1.1803452139150337,1.177304169226661,1.1791759548910299,1.1785914940502837,1.1902884329977093,1.2054136127434156,1.162747549931668,1.1715328618495817,1.1802369939228388,1.2068761212263264,1.1812431853739567,1.1878320444375028,1.2905189600797913,1.2413857086186724,1.1937262649223952,1.2191571324890333,1.3204827143845714,1.2138182825226724,1.2238674630122541,1.1825533324860167,1.1825002879016742
1.289778113364265,1.2693097901850936,1.27869579259922,1.2206677156306525,1.193598378194193,1.283691134970896,1.2362005214540561,1.210073638517462,1.1724517853575107,1.185013299893482,1.1788775987875029,1.180471823327653,1.1575539796267118,1.1688799500337543,1.1711672587625415,1.15138792637259,1.1948349215169742,1.145249317982916,1.1443221877405176,1.1602532950147777,1.1953520671572462,1.1512935880958748,1.1642046601494027,1.3050209519762797,1.2127300579781317,1.1664766233090962,1.1886343889680415,1.3286486855359083,1.1970619157335431,1.1977563583776065,1.1694572830901282,1.1801970515362625
1.2647343480514563,1.2307950723494332,1.2904499061887196,1.207678082181843,1.1788061639046568,1.2820468171799535,1.2390900731196337,1.1778695480000727,1.1658788466241738,1.1659817684790246,1.1882426600105354,1.176602669861624,1.162273188288524,1.1671862259975994,1.1807877318366051,1.1693194553777004,1.195592713854075,1.149569921281063,1.1489671913853015,1.1732615150086392,1.2040656073931348,1.1538964999846306,1.174242562920695,1.269115958270004,1.2373700547612405,1.1604673697831314,1.1869601033867807,1.3067513197021177,1.181294465988199,1.1767208051477154,1.153243707911261,1.1614438356579844
1.216074628005013,1.1853551630389723,1.2807930279047157,1.1732323632554302,1.1353495946247782,1.2851180612469593,1.2333257311236723,1.1724092819332115,1.151743255865945,1.1597931537698127,1.1699731340645219,1.1709083207084736,1.154621433693736,1.1645335349687373,1.1710980675432472,1.1601284510727579,1.1858392319934545,1.1446998053880806,1.1433086857442625,1.1740550691948133,1.21127342496444,1.1507285578041224,1.1766549971156353,1.2599751920361033,1.225233900996055,1.142987734399704,1.1733472286584188,1.2904216543452784,1.1655337898213924,1.1580207975869865,1.1205084276675756,1.1593704880408866
1.2122553125297482,1.1857987115244835,1.2760025965580206,1.1599322512683372,1.1226882242257887,1.2707835397578404,1.2157034694642996,1.1686126866629967,1.140147011951401,1.1489584156053159,1.171771814270549,1.1568166912357745,1.1637970777776214,1.159386861909679,1.168946070596641,1.1387131792765037,1.189353317879773,1.15918833658906,1.148893155320723,1.1762928548263578,1.2212580977817766,1.1506707932843827,1.1729644568426798,1.279198435650854,1.2207614053230074,1.144781644344936,1.166455227004848,1.2841138289149598,1.163217441044022,1.1707384600061428,1.1173818851319712,1.163625422149179
1.2247930823066975,1.1942761902128667,1.2583099226049084,1.1661452040863156,1.1165038931548457,1.2636122415619657,1.211380409286953,1.16795131009632,1.1339492494374523,1.143726230579848,1.178839088518402,1.1661159145704219,1.1665307538374852,1.1677232413019485,1.176612278953904,1.1429789482297266,1.2094292335159071,1.1687386795284116,1.1573009408761021,1.191676736835229,1.2288972421196387,1.1547529901656095,1.177360401833509,1.2555564372760486,1.2131197024756868,1.138130002187265,1.1578023376291562,1.2835613165719104,1.1601373986582324,1.1669495241964536,1.10748204609072,1.1632540981135902
1.2149094772709625,1.1859177835193104,1.2624780459808327,1.1602493187362424,1.118667106670416,1.2663489267125183,1.2059051867962973,1.1697699267622377,1.1317465843883538,1.140118023679699,1.1756119885253808,1.1825311314672,1.1693515378465134,1.1713751104842145,1.1898213805878193,1.1757812171534079,1.2270141074004979,1.1842372673581074,1.1594739553055182,1.1954674814869497,1.2271850627576388,1.14054976321934,1.1747272328269234,1.2528792060298688,1.2084882535606782,1.1389822856373084,1.1528986589221502,1.2774774975706114,1.1549706234600043,1.1658975829075793,1.1097656833449634,1.1653291634271363
1.2107892258724162,1.1739067221936677,1.2612649338163742,1.1736809375593493,1.1241572757102731,1.2737791762115243,1.2051417515542675,1.1763871324535975,1.1403249171657297,1.1503596905974525,1.1746590302137572,1.1834951219831598,1.183359479387619,1.1824298236707322,1.196810016049038,1.1821097573405817,1.2328613054918134,1.1927509914696979,1.1725982244044413,1.2075529279895683,1.2343850395945883,1.1501550244678975,1.1770331139247452,1.2427574707142321,1.2150728917600013,1.1408963819358833,1.1492008211961895,1.2809959119184386,1.1569381134889742,1.1706692044527696,1.1074978669717983,1.1722512453220477
1.2225982345818902,1.1801483724627562,1.2460739514799513,1.1807129966539753,1.140053996095394,1.2763040889303519,1.2182066449479343,1.1831408689435856,1.1582559370586445,1.152325176630266,1.1689536264213016,1.1963966006559388,1.1942340180915885,1.1883062640616462,1.2026253769944004,1.1723396964801267,1.240686135585765,1.2047624249379791,1.187282997143534,1.2116888071899314,1.2230229815440599,1.1522254413450503,1.1676901593392017,1.2448136036059796,1.2126343506261716,1.1485571174605627,1.1530783890099263,1.259411953653924,1.1604160308299953,1.1716363890691808,1.1203383860931813,1.1773118654018
1.2052209956380617,1.1803613783466154,1.2596895925208869,1.166302665192144,1.1319600804717949,1.2755505006390524,1.2145534167204894,1.1682083638382414,1.1656557575757334,1.161909305162004,1.1740469923434866,1.2087616017994613,1.2129422689714995,1.2078499626143024,1.221587440868254,1.1833011643521352,1.2547724326480283,1.223293345163949,1.1934986436148025,1.218241782707378,1.2278867670430833,1.150940792316156,1.161577078652194,1.2546135924443171,1.1948159941247256,1.14298075823058,1.145674406619446,1.2355261040041539,1.1586278079096275,1.1611297840506032,1.1170673620007938,1.1745334049110567
1.1958881101876977,1.1789628817318052,1.2371223871873496,1.1570475812645729,1.1287593714855724,1.2811667431490315,1.2284557917608283,1.1653634392896972,1.157245276642572,1.171135336199191,1.1995186798431172,1.217085418186378,1.2078798267001616,1.2311511952359726,1.231626226716016,1.1758137030119762,1.2559741544727265,1.2196981423723097,1.2021014264097307,1.2241526935231937,1.2494335064117814,1.1515305725284115,1.1692052023061115,1.2470194988831365,1.2137641643978554,1.145343083812468,1.1463448130385305,1.2394575300872113,1.1583948790272165,1.1587828432688567,1.112173231398582,1.164717543482479
1.199242555326433,1.1754401760513697,1.231167665249736,1.1654354689107869,1.130019757069668,1.2954005438817495,1.2344349822925724,1.1910846533612012,1.1650603491239735,1.1832923443381307,1.1766274491825908,1.209941011437025,1.2075533865513302,1.2135289879038345,1.2264493120545101,1.1854513269041989,1.253469721612985,1.2219188797973828,1.2046112220873217,1.2299972904332424,1.2338262913707265,1.1439811424507675,1.1654768918605245,1.2513142685901717,1.2169378982882646,1.1560248404708005,1.1448963787975177,1.2124095834368467,1.1525726165094254,1.1725453306092088,1.1143979537567021,1.1847994613931767
1.2192700834680295,1.1940727469707317,1.2233074151866188,1.1833982728949968,1.1561546504932758,1.290336706105968,1.1871072807415948,1.187502642600191,1.1807091536426726,1.1773693668021774,1.162547502713634,1.2091134036046267,1.2210648036010907,1.205847778565554,1.2050719824975078,1.1819028618439704,1.2449460115763988,1.2144390973722048,1.2064615001101995,1.2282977616644803,1.2225261299981574,1.1608784912589971,1.161245823376786,1.248047465562345,1.1923674007368454,1.1642132617704566,1.1455817333127567,1.228097572410045,1.1661472366275987,1.1744415414201643,1.136972951462812,1.179270013948349
1.2165039087543303,1.192108786132003,1.222493591704864,1.1827510748409442,1.1559993685308856,1.3030908082291397,1.1822814244756017,1.1807043912541133,1.2025662963046182,1.2059018433673736,1.193307485723496,1.2276280702746665,1.2401359664310079,1.2301690778886238,1.2366824963070424,1.200411287565714,1.244644972942147,1.2243604458776074,1.2224527239983363,1.2143342980889855,1.1990011441305215,1.1638435100757747,1.151110308459087,1.2472140658701814,1.1801512424047629,1.1685892218383267,1.1428570011063652,1.2229758736281284,1.154087930361001,1.1837784733513474,1.1332384172741463,1.1814613415951725
1.2196057969983742,1.2144262433445399,1.2367649364593414,1.2087456808310477,1.1661763040631359,1.2702479304951155,1.1962347768714705,1.1927582190894848,1.1978736490683484,1.1950625192320927,1.179893344195836,1.2150962084176544,1.2116977743182922,1.216009943557959,1.2305314340864488,1.203238131630997,1.231683486121471,1.1947080333348667,1.1831283831789685,1.1937149371313198,1.1589096869888722,1.1444466878158117,1.13331577707826,1.2019946342036647,1.2045362831348547,1.1753840687772152,1.1634897564786972,1.206223895737449,1.1777336233439266,1.1979801298252786,1.1492979475318021,1.1706353823097488
1.208377592516897,1.203725428343627,1.2307403507100332,1.188246245879743,1.1611147661208776,1.2532584872097687,1.2248774259245956,1.1863261114875,1.1952869349847985,1.2111246728592309,1.2057546155296104,1.212962835315388,1.1978224124619883,1.2296692103555504,1.2426499835707414,1.204057371433324,1.2211360717660602,1.1769665036351478,1.1757959882889677,1.1689398257255916,1.162346878017148,1.152193190138894,1.14087011047065,1.1994022424506225,1.2173025136311242,1.1812011087491672,1.1613747015460536,1.2236231802329762,1.1850120765897532,1.2075882214162041,1.1426746347531793,1.1768922023744488
1.2231916111046504,1.2148815708424747,1.221456125745689,1.1896436755154887,1.1741506897251974,1.2613320118609601,1.240190701793861,1.1900308805946593,1.1782368028039192,1.1847941627238272,1.1698417660669533,1.167310925170097,1.1780131074862978,1.1868380143616153,1.220780310897973,1.2048724501909278,1.2250895980859264,1.1716812169454605,1.162532506533491,1.1642251757539357,1.1585946174097113,1.157214471973159,1.1539352856413585,1.1941322801139425,1.2216745498302126,1.1911137745144071,1.1857267488796985,1.2552619913799794,1.1944798872804634,1.209245430932471,1.1463208001076848,1.1749633367863797
1.2331593764757254,1.2056857400127112,1.2240616211033046,1.1755724399732221,1.157882712730437,1.298023453993824,1.2137269220430806,1.1986250781410162,1.1772127636119232,1.1979657512070667,1.1647419230962064,1.1819913366581105,1.1725575242116213,1.1796065022688993,1.2104684924081321,1.1929569097305766,1.1986270215229415,1.1567077136633641,1.1465040255196894,1.154745127926488,1.15205650985128,1.1544201370975378,1.152427134298514,1.1934563394874476,1.207518848150311,1.205925153717902,1.190421263165592,1.2319458992373409,1.1806887532338535,1.20571814956101,1.1586566421508189,1.1895025517913347
1.2412117933600009,1.2301199621596528,1.248030004149912,1.1981455529721285,1.166391574835266,1.3031639922535099,1.1995150706148032,1.2159082713732525,1.1651522155603231,1.1863419547699812,1.1684380605232478,1.1842148147615483,1.1691397590010089,1.1942600387140319,1.2080167183700663,1.1843077743128498,1.1797676636779713,1.140664479613436,1.1320491889542894,1.1524116755538176,1.1487691658291659,1.1463078866092642,1.1377640503124236,1.1856590644014309,1.2162550410182758,1.1927866438875507,1.1934284418297412,1.2423753633529748,1.1802790020583216,1.210488441180639,1.1667005924168379,1.1761044083358096
1.2566215012027064,1.244936715279574,1.2618996027870233,1.2105648896339778,1.1714521250406407,1.290117943753606,1.2077033504326078,1.2096735081342747,1.1727076508837626,1.1897862091537204,1.1663486634851028,1.1709900718728183,1.1584681084723656,1.1623083040592812,1.1917404560052547,1.1719474377107053,1.151533075715092,1.1225695942586889,1.1294243273707427,1.1625170365338278,1.1523779713644093,1.1431308943891174,1.1427495113353041,1.1969622108237221,1.2746253910876932,1.2040295777087289,1.212266473763846,1.2452717066588055,1.1874696220457805,1.2244217086556266,1.1747354308957239,1.179998911804171
1.254759614196015,1.253117405129301,1.2742671963556913,1.213659224353082,1.170064702277116,1.2907119094469512,1.202512140669982,1.2048045807887517,1.1547893648142662,1.188582452366412,1.1680453739223864,1.1562132794411157,1.155767093540386,1.1637337990184633,1.192020081383979,1.1911205289134725,1.1491404493987492,1.1160519405662956,1.1218483522655367,1.1679289671490825,1.176014744504621,1.1455343875505664,1.16375927394862,1.1915400452275848,1.2665279456022476,1.1991101549415355,1.2294757214073666,1.2589698452523332,1.1997383316600616,1.216292826972974,1.1805535179812514,1.1701408092474423
1.2550494989964036,1.2579025492838474,1.264760217663915,1.210474608207005,1.175748369250349,1.2776227988094575,1.201828178192162,1.2159204944785145,1.1524557856695772,1.1719232849755057,1.1560488430727636,1.1574999344298795,1.1429321980677458,1.154764988829723,1.1926593234456402,1.1872410767331194,1.1485311154436513,1.1117167133072077,1.1178811503271553,1.1472158834335069,1.1737986338014952,1.1468839651289588,1.1615050707860561,1.2029087267715373,1.271098389368525,1.193214240295077,1.2377667209425407,1.2491467984964006,1.2042578062620037,1.2185374392593988,1.1793180089557191,1.1704291577687294
1.2828345420994038,1.273043341916475,1.2662645578683511,1.218427677853745,1.1763384272088697,1.2765992835448285,1.1967324012961957,1.2168922720805027,1.1520207720000721,1.171764324384983,1.1619158121046262,1.1696760315491388,1.141157054489334,1.1591344234793253,1.19246894038812,1.1978635027696596,1.1567885768364263,1.1076115999849006,1.122931408240636,1.1631874150165846,1.1892484604267926,1.1559106628177054,1.1726066138019071,1.2069023378894228,1.2840299732932858,1.1939273906715793,1.2507855381118744,1.2477850325458781,1.2165208288103884,1.2318256231790798,1.1841498988767911,1.1789987083289721
1.291460742888435,1.2800369668242664,1.2668347291034727,1.2250475348199772,1.1771576224431406,1.2768253560323148,1.201977518471858,1.2111740968643243,1.1607328317788053,1.161947995575626,1.1301721214357392,1.1601263048008705,1.1491802462389016,1.1424951050468999,1.180969987671676,1.1897350611409634,1.150095204357892,1.1242631892355643,1.1577512175786757,1.1739061066869556,1.2230951589619492,1.1850094517244354,1.2028765115718227,1.2176368014575805,1.2842473978542968,1.1883794704824782,1.247189052966954,1.2315103123133462,1.2095125882066167,1.2243388209012238,1.1843132708763326,1.1808599484571107
1.2911051857714768,1.2802979505375058,1.272831497085056,1.2242211064372153,1.1802988506211671,1.2851372863790573,1.188204480213629,1.2153487312446836,1.1701411516613585,1.1595125911792306,1.130110571460952,1.1577389454515632,1.1492281396441386,1.1450567408132641,1.196976536470972,1.1858611160749981,1.169902363993224,1.1343621729531288,1.1623527735030694,1.1834214358247124,1.222204718582244,1.1846167225174633,1.209526668150996,1.2091218665858097,1.2946507553760007,1.2000903655416983,1.2544905345991417,1.2230936266493364,1.2132827593687165,1.2119517397286843,1.1941317054351923,1.186837178136231
1.323238451610785,1.3180165033404125,1.2911013816871633,1.2593880432185618,1.2094150097280243,1.2914338852669593,1.1701887061874423,1.2171670983123652,1.1700450608547555,1.1528846174105616,1.123331680394641,1.170260819269419,1.1706756110678194,1.1570268881290264,1.1968571395831562,1.192087350050507,1.1781276642830245,1.1502670190236242,1.1816060194372602,1.1826504505036985,1.2249323645295827,1.2013500692874368,1.2126970980474077,1.2162786640692786,1.2853529924986056,1.2067904780478893,1.263492961720128,1.2145146017394197,1.220089856153995,1.236397220466769,1.2229990306724354,1.1882139724389928
1.332140515087591,1.3051214794264125,1.2766042859738316,1.2584168067681067,1.2086625780636373,1.3053305962226036,1.1671480500029583,1.2270776513756647,1.1905224735662296,1.1598535466370394,1.1316588213172714,1.183519735692261,1.1743258413014876,1.1705517274323038,1.2171028420072894,1.2172557117050744,1.1844753704135063,1.151408817411203,1.1723804294003972,1.1996762307033593,1.217967504639758,1.1827709008016962,1.2083115851969704,1.2483291854772065,1.2875727491110223,1.2083883433558782,1.2552181247940448,1.2181511565110523,1.220701553867961,1.231086247826257,1.2283590025448676,1.1993728464948263
1.3219893516238959,1.3066548136889822,1.2879615831286129,1.2664565232753717,1.212440184163374,1.2662763995833626,1.1651718447080859,1.2140230586413743,1.1892159447420152,1.1673697210996816,1.1255783778395776,1.1567745786821175,1.1670793196525988,1.1600978575831444,1.2052466390865535,1.222183329204212,1.2037256515377484,1.1584457934503265,1.1820388313939207,1.200129961364237,1.2259912841454021,1.1972725112570752,1.214070604122972,1.2333278893040494,1.282242043007213,1.1979555110288094,1.2604235096547607,1.2069760945682146,1.24652857449511,1.2631642381784456,1.2229987845697732,1.207385053330919
1.31956612469771,1.276551383747948,1.271223438117513,1.246080377080836,1.2180111846330692,1.2659498435951593,1.1694678238542355,1.221783866417554,1.1977197251162959,1.1789229936300913,1.1339485188232505,1.1702504719935285,1.1746649075298317,1.1764368577456408,1.2193096742423335,1.2231631590126975,1.2184778446564661,1.1743345518624977,1.1830964614398525,1.191416697216069,1.2144933076178746,1.1991662440196682,1.2185317963482916,1.2321391869517426,1.2801611132434472,1.217405592711287,1.2595096277136655,1.2078256961743865,1.2364837632385262,1.2369529260527847,1.211516012019791,1.2102835077943892
1.3228695742485441,1.276422813966357,1.2600944270851309,1.2413241220917417,1.2124893598144046,1.2582664105098957,1.1923494264571237,1.2178220835939038,1.2133261188327995,1.1666513886546865,1.1315263785497902,1.1715238091935205,1.178852845874793,1.1750949745887913,1.2157256175674425,1.2197775231654933,1.2382514891566536,1.1748108523725929,1.1950739908094934,1.1896756498279142,1.2159046304529777,1.2074883987481666,1.2046373810301318,1.222241567256951,1.2549553897738384,1.2024758457940117,1.242779220152786,1.188896098508897,1.2283192510841465,1.2182753108076787,1.2009612889391243,1.2071983238692479
1.3215591232190487,1.2774591224019167,1.2535826865788087,1.251748346093013,1.2139745026650577,1.257781764186235,1.2119284261496897,1.2116095264156066,1.2314155407125964,1.1702704670399737,1.1359626726762913,1.1730723817976596,1.186263809176307,1.1818715884786786,1.2344075279774573,1.2175521080706264,1.2432857990194937,1.1944538496338675,1.1995866437924054,1.186793241866458,1.200023363860982,1.199812925965243,1.1827382001875517,1.2265623402821457,1.2279603224423024,1.185360205931738,1.2283140814316102,1.1880080739396703,1.234783080929155,1.229514459971211,1.2159134813308106,1.1894977929488977
1.3182932340355902,1.2720968027876216,1.2519055032618562,1.2383020809968535,1.2265134372827955,1.2510496036610628,1.2195212009324452,1.2075985529953976,1.2166576400529088,1.188086405829907,1.1433077939317993,1.1648021749611903,1.190962079049094,1.1930570635661815,1.24236628848825,1.2232249881223378,1.2535295927509928,1.2029987987491642,1.207584199742524,1.1867314296551366,1.1971764477424924,1.192969541221592,1.185375422159432,1.2023178966766925,1.210105227725605,1.1934051133809642,1.225222330404921,1.1877508815781992,1.2318884432441821,1.2260375643451387,1.2164257176204947,1.186095505645579
1.3163747322024548,1.2864445158080695,1.2374336914717439,1.254598792370017,1.2438105926105023,1.2647215346368825,1.2160654089606313,1.2099653799837526,1.2230695652221146,1.1845731418602103,1.1461884817408277,1.1833247543149819,1.1942498600544333,1.1923140331734876,1.237207008077692,1.221330082287068,1.2586799182699902,1.2011386733157559,1.1956922336178948,1.187007308773564,1.1793278328093773,1.2000624840839853,1.1833542587644563,1.196560266712155,1.2190588600227177,1.208803433110024,1.2315662657380693,1.206769116945455,1.2314178202977657,1.234290926641549,1.2310212083871757,1.1928420372579491
1.3233314165828898,1.2904636441312458,1.2460003253229155,1.2589012953062724,1.2449601086004913,1.2409108512004787,1.2115671895371558,1.1928734283224076,1.2352355552294942,1.1779045835493551,1.1542458383150886,1.1866292872821156,1.2005483134928516,1.199437113850629,1.2275649123386634,1.2102573537583423,1.2463853755948864,1.2057746300715761,1.1956782430886541,1.1752600210898303,1.1729179413149904,1.2060933398381235,1.1840045704061217,1.1959774855939314,1.2200106052332433,1.2079535621984263,1.244126038031655,1.204872841208778,1.2485440927591034,1.241262988575089,1.2436762207625562,1.1802476851587616
1.3318840980565725,1.2939374629063227,1.2486655107940157,1.254715922849987,1.242798230253187,1.2400200071604077,1.2111926792596168,1.201710431535327,1.2441662758566532,1.1820837066636727,1.1672916648909042,1.1889060624341197,1.2085928661539758,1.2161782732031767,1.238937508850607,1.213573570475667,1.2698108727347521,1.2200750328458858,1.2108195541075417,1.1898449082040725,1.1795952841313915,1.2056564579368334,1.1678292754816904,1.184453950036145,1.1843995688992413,1.186906152369711,1.209061613063503,1.1942822269479536,1.215875440167921,1.2249570737735207,1.2323064056907713,1.1684005661048826
1.3495050732733793,1.297023044848356,1.225971562323741,1.2505506677770601,1.246086116195014,1.2365599313115363,1.2157766071077944,1.206769728405151,1.256939640644414,1.1940215265023533,1.169385013520919,1.2143536662993084,1.2156126497460127,1.2321109331726956,1.251342448027802,1.2231667850670078,1.288138218489163,1.2287495665017063,1.2048317670795328,1.1966361228078184,1.176156237701405,1.2011409387013425,1.1869460171376656,1.172315903814942,1.1941698945703045,1.2117476442124888,1.2222567145394265,1.2014265886120228,1.2272179918711197,1.2229298180008046,1.2421304267693416,1.1732071173433987
1.3190264264463691,1.2807224893981908,1.209215604383593,1.234216792036461,1.224988521947924,1.2325003850691967,1.204307645522749,1.2040399038201863,1.2463970571763385,1.1979444673904676,1.1721050204833179,1.215417544611984,1.2389725358872112,1.2264393153198145,1.245745377058645,1.2252642370400926,1.2983237436329835,1.2418640389971976,1.2288404621447222,1.2125150481411282,1.1865990554135888,1.2243799474388029,1.1882924673735233,1.1427558108096856,1.1776485584577479,1.2001605847604646,1.2161597274144367,1.2078510645869016,1.2236401435332882,1.2093440257328367,1.2265849133226008,1.1976335796176667
1.3270214261361541,1.2942329814460463,1.2207755654176955,1.2480758693971292,1.2414651663411371,1.2218855021177801,1.189278735774497,1.182645253872106,1.2563510182859416,1.1802424289357283,1.181128933667127,1.2187784792465466,1.2502042249688177,1.2444619006703113,1.2578158753308124,1.2458665138304992,1.291267437669849,1.2481964964897727,1.2311735980865801,1.2206329819595252,1.1981197658511413,1.2221509330519913,1.174968802232801,1.160504113107844,1.2028633029361147,1.1995216950020995,1.21123871996109,1.2217960733218542,1.2246428956034485,1.2076161396528649,1.2394631040302966,1.1945343576585028
1.321167229398444,1.2991580868375097,1.200068663412488,1.2387638364297868,1.240396356995748,1.1910003582542217,1.173159174910951,1.1962452038399196,1.2449637346106146,1.1593556319633163,1.181476981088008,1.212370309258232,1.2447627608755631,1.2332924009526225,1.249795749616536,1.2553271534478223,1.2977446115719096,1.233863323703113,1.223361833870575,1.2141820492934439,1.1884109694450462,1.2314942012796,1.1967553966357103,1.159106435548727,1.2173674612600505,1.2079345090118403,1.2257755570507283,1.2267446029472158,1.2290894146095244,1.2221919214660104,1.235852938890895,1.2139806942799594
1.3162165935745558,1.2950321482231886,1.2117408831228367,1.2357762463446562,1.2232103927075253,1.1860243453238541,1.1514299599227324,1.1993373733618415,1.2368524222293928,1.15547203042372,1.1682720436994474,1.2229795426316754,1.2199174224967957,1.2173019547930108,1.2255816022030204,1.2491475370038598,1.281284940877242,1.2091685356686652,1.17696121787285,1.1943707320650574,1.1490341895394829,1.1809047111020912,1.1601962124994287,1.1254252033248993,1.1825946351805923,1.2003349542236308,1.2116062323118353,1.2121176395944862,1.219591350226506,1.2191029278894379,1.2331283054550466,1.2039546286504592
1.329097200681674,1.3036169863617038,1.2102852755041413,1.2381917279877208,1.2234725607332217,1.186662418008454,1.1346765271306858,1.2094542163708986,1.2210176797956522,1.172869104462929,1.1707457737659326,1.2152347847966196,1.2252112231924899,1.2074844771158104,1.2248999655597648,1.2493311444811483,1.2838033725984999,1.2181297345376942,1.190303806271695,1.1987165596137084,1.1359794159903023,1.199444691153627,1.1609803956256264,1.1205792681380629,1.169381525806859,1.1970506646303978,1.200458617103382,1.1968271477370558,1.2227223007630366,1.217554041551328,1.2231650199938442,1.2323845254202779
1.3344527651605738,1.3021284194721165,1.2135450565177777,1.2356250651193184,1.2223560989108648,1.186748529919072,1.1373418917072908,1.2009028340446617,1.2151025121217722,1.1685489572408962,1.171945423459343,1.2176177515445412,1.2235169178101164,1.2066756911756096,1.2187372890577173,1.2708224968684587,1.2871043106868885,1.2077829735777244,1.185238115820393,1.2113767558143984,1.1420250125203097,1.1998232164454599,1.1641984868273323,1.1287143491789726,1.1829921408899553,1.195219419865383,1.2020269882293884,1.1987094468110957,1.222159187570622,1.2020260496545292,1.217528299521671,1.2166080964706392
1.3472901786912423,1.3277702354138845,1.2229272548968555,1.2473828166170633,1.2201804687107753,1.2024128590914283,1.1439338551867622,1.197698812490269,1.2065009650175287,1.156077543005139,1.1671180535935402,1.2110173750585844,1.2026313816570684,1.1924498627291091,1.2052521797572011,1.2386293244418418,1.2445116186057665,1.180625134433114,1.169320619520445,1.1900633637718878,1.1311935651137428,1.1801096024627742,1.1598619782060733,1.1333453636821307,1.174277644367525,1.1933927769792172,1.2000729585667846,1.1963301140201925,1.238388931430959,1.2307595485923941,1.218676793922051,1.2093921982213396
1.3364275023625514,1.3144141647472094,1.2145101096702697,1.2273867332143615,1.2225518802435993,1.189223272502592,1.123257803427751,1.1950299914344868,1.2090563928073748,1.1715866642628212,1.1781072175932612,1.2176651129667688,1.2091055163985338,1.2029180576195588,1.2139326131613848,1.2567258413186695,1.2530257147413182,1.1783454207345803,1.1715266569512142,1.185319956494744,1.13062792526315,1.1708492408328548,1.158623115136867,1.1280590430549926,1.1753603286493621,1.1869539081020013,1.1872997777387073,1.208852755274755,1.2347776018107741,1.2096138641378447,1.2129944027308852,1.2087939621656074
1.3120285780986778,1.316134116696063,1.2131243299242693,1.2317216604541255,1.229909843637668,1.1760445660820016,1.1210909302964336,1.2069482457657799,1.211805502377903,1.169057859006749,1.1747241979888259,1.223036852075386,1.2028728725636404,1.1997356702179818,1.2086756428752552,1.2673341233173976,1.2521601366109063,1.1824848683853082,1.1717508271895622,1.1899332961160949,1.1380160173833689,1.1789460968626986,1.1595677369799813,1.1413018257671244,1.1825708241944457,1.2000527455381778,1.1980258519848017,1.2177999790572411,1.2208427972502136,1.2254379796290804,1.212994075202587,1.211294736033287
1.3309744503373557,1.3297694773458653,1.228705997422399,1.2342433736822973,1.2311001005497395,1.176031927616102,1.1397706840814545,1.2156574164542728,1.2052988832981353,1.1907038804152636,1.1879553669453733,1.2192024014937275,1.2026129725225567,1.185742378422266,1.2056130843834247,1.2623407167454872,1.249711462784574,1.1792910617706416,1.1661783391869889,1.1717923912453152,1.120858044091144,1.167972743046413,1.1499043446708663,1.1235478080205723,1.1731277952112642,1.1811772418103132,1.2018677584505373,1.2089710437025012,1.224121725715531,1.231441130260732,1.2163317692047637,1.1925372383306505
1.3102940952473536,1.3028639245161293,1.2167599916561544,1.2108846651227358,1.2250139796985768,1.1661815716657706,1.1446125327772838,1.2182086562919425,1.2045285465303324,1.1943274618825406,1.1766260802286652,1.2053300547311263,1.2054618982364846,1.168052715910366,1.1801423465950132,1.2211749241142504,1.2314554150198889,1.170863134497156,1.1748885063642083,1.1769509078869613,1.1436274493329568,1.1798741456599762,1.1700496688316881,1.1447427235795458,1.1782576974023604,1.1853695036571723,1.1973800693798031,1.2137807975926074,1.220721221124431,1.236811114046854,1.2083760527981209,1.1845494614361185
1.3227693675531504,1.2966533985646598,1.2167266681014035,1.2062986724875775,1.2338702133019184,1.1815849074421219,1.1560825887533093,1.2046768495345037,1.1878966784754392,1.2010173531237887,1.1715871976443442,1.1994586713007183,1.1865759995845626,1.1542770317179214,1.1762905824042422,1.2226751834404888,1.2271630293434388,1.1736200779554626,1.1600783888455086,1.1723661567253034,1.1261799752895956,1.161231454717357,1.1635187609867512,1.1341682119304726,1.1632680339741956,1.1860401671946177,1.198178229488998,1.2056650662356052,1.213870820751251,1.236905192820141,1.2188550122960715,1.169324635364174
1.313343501560425,1.296628355810972,1.2033611724213502,1.199451686074014,1.2238840739874348,1.1585029950985297,1.154179315174889,1.2201677033292417,1.1767171593250076,1.1995378516277828,1.1715112120410078,1.1882728094728907,1.1996887156053144,1.1486273873070505,1.1712458075013195,1.197945820243142,1.2178686670856227,1.183862999012478,1.1960997654115675,1.1841639509101103,1.1723426540462216,1.1955567184579148,1.2045633557833824,1.157884437594401,1.1985099179914196,1.187267637671403,1.1969991533496838,1.212507974712643,1.2095255092611965,1.2244931832304824,1.2047046996136384,1.1726465918204056
1.3215692478453391,1.3031522897772903,1.218864612301004,1.2014917760045853,1.2151114958703988,1.1555435572534956,1.1613919265790251,1.2103396170183727,1.187456414887242,1.1946216035978943,1.1882133659826672,1.1712134675099064,1.201427207994,1.1603911072272541,1.1868169152989556,1.1972315171796322,1.2116812654520157,1.1780420695481955,1.1917928174161392,1.179867360855345,1.1832182041263928,1.208671322266517,1.2102045337122023,1.1821408085124723,1.2127832507949494,1.19240705014554,1.205605733091078,1.243057947146315,1.2247198748087607,1.2522322342236014,1.2215451843137441,1.1839746399911235
1.2948564798551074,1.2853990200296805,1.203263431542785,1.1898386233353513,1.2151410330007621,1.1558146704623156,1.1506235054098053,1.212966390766415,1.196719059458511,1.177414594379824,1.1564637067260215,1.172880024741642,1.1859348054900798,1.1562386757184302,1.1840080475456174,1.1792641635864305,1.222621500483106,1.195094839903032,1.203785159531404,1.182542621124061,1.1888046549963076,1.1970630220176097,1.2134103876306872,1.178974756280391,1.2122894609761148,1.1974576337268286,1.2059152396145176,1.2363176224741932,1.2274787677215175,1.2326546217049994,1.2049309013618563,1.1664328166776492
1.3116651561287096,1.2914199839487397,1.2258982594775434,1.1992373515229051,1.236588794223674,1.1572142124912697,1.1543705254459613,1.208971881940455,1.1883568264744884,1.189114515819796,1.164475653895243,1.1611213756579275,1.1882709800513735,1.1482578777115153,1.1753128148446041,1.1794985987195252,1.2380499068715736,1.1988576815962466,1.2157938057676974,1.1705082446183532,1.186845918611232,1.2174469307990337,1.223748390699108,1.1794889098069208,1.20506522680105,1.2132665013556114,1.198788683952984,1.2087442510416215,1.2227697968470326,1.2229127119755168,1.211534530600207,1.18785932177284
1.3037938563130114,1.3043572210267569,1.2301717835065522,1.2175003558283966,1.24838067917926,1.150043643793655,1.149794710813611,1.193708172025312,1.1825272480381273,1.1704062630765262,1.148673518199915,1.1536106551211227,1.1712379236242918,1.145334556087649,1.172789050213432,1.1638015913574333,1.256579036033264,1.205999804714044,1.2120486318268586,1.1920554543303787,1.1947466619064047,1.1965383107770564,1.2061532622995035,1.1892881545406417,1.1942352659090611,1.2265205399380374,1.1991298188123403,1.2162128775959409,1.2238026880690633,1.2364171622599769,1.2304792823609627,1.1939887460001928
1.3183713177074665,1.284465822811507,1.2064582773455297,1.1966607477736029,1.2232558035761978,1.1549095652241073,1.1515826590563667,1.1844304942516355,1.1671265146347867,1.1519139346918805,1.138576732168641,1.1521403070422114,1.1680408645052354,1.129040560016077,1.1685013010817369,1.15401246293447,1.2504616192134985,1.1956970176172779,1.1989214522792953,1.1874731902406699,1.1769013557927706,1.1875439685144795,1.19952935048291,1.1804041411931898,1.1919752526278005,1.2122868275377106,1.1989200686701433,1.2157936175309305,1.2181979191395054,1.2145242699410392,1.2274170903769948,1.1801752630138964
1.2800968276894225,1.2659031394322091,1.2146557755886478,1.1961897329550955,1.2036571731377421,1.1616494676506195,1.1491732971162434,1.1758803142024328,1.160330343044186,1.1532019297413192,1.1282260570749105,1.1577506671775892,1.174684548011504,1.1181852964722023,1.1638855966390682,1.1644563005712198,1.2534302147651373,1.1937893809242413,1.1955702351139876,1.1830587944303372,1.1766019540024675,1.1970304629338435,1.189069907964046,1.169310289377793,1.161212363588643,1.1903556705380312,1.1726501464650365,1.167287438725543,1.218518331525037,1.2016613137781251,1.1989740164288012,1.2043162671216405
1.2945758407459345,1.2738254526803587,1.2272789493344924,1.2083574545383344,1.216714219527294,1.1533225047392557,1.133914637814658,1.1754319923913712,1.1711516967188478,1.1605807849191376,1.1325542645394202,1.1577096933286164,1.171530463436548,1.1249181113902222,1.1654271283368605,1.1551076360266328,1.2433358065060487,1.1990309713448364,1.2094103871397937,1.2025681504693118,1.1944671422375295,1.2029586920225281,1.1928835729352247,1.1801268474207451,1.1806779655013,1.210583856792101,1.188686958185967,1.1855803498057036,1.2347393521070806,1.208430047261672,1.2184665021399481,1.223973387296866
1.2762184347884387,1.2921385138618828,1.2326562133374455,1.220478768253219,1.2258945616271522,1.1472948853523905,1.1438238766953863,1.1824299499919029,1.1711056339687034,1.1683474889343684,1.1396472559558004,1.1735985593162477,1.1914024281194553,1.140344536080869,1.1720381697074314,1.1587077693322962,1.2512074686181534,1.2171286458263333,1.2307585800606122,1.207542308652107,1.1967278757451585,1.2073347656077447,1.1753514094945123,1.1797042883894018,1.1787754684702028,1.2001987281236886,1.1920146091193693,1.1804852995445863,1.2278740203999912,1.2105840254953428,1.2188987412255954,1.2181128449055105
1.2662706301194993,1.2851481185234692,1.2192088959601213,1.2204480326118645,1.2182701914256047,1.1580040535706626,1.1539705792438735,1.1658896078838497,1.179671057542919,1.1520885389042024,1.138024749697464,1.174831360432641,1.2032159591900173,1.141940552368306,1.1860608186407295,1.1687706338902086,1.2566345790260467,1.2183639796584265,1.2427435066929071,1.2152427704003301,1.2070944587315844,1.2043765851468102,1.18070579445891,1.1809466751065854,1.1642235058345394,1.2061111007796743,1.1910788620927917,1.1761885655196704,1.2234437401890594,1.2077828223285132,1.211174743692112,1.2118198834493858
1.2497157985465972,1.2712796609443489,1.2143850294908571,1.223771246863267,1.2415260479184482,1.1700537844820849,1.1591200000361856,1.1715314765668252,1.1794700397222602,1.1701700401034527,1.168734369984938,1.2062890512004607,1.22258925367082,1.1781687557078506,1.2272008855606364,1.1838619004897233,1.275665421797509,1.2143929323630571,1.2485047146280581,1.2223902982741308,1.22333594181791,1.2249224701623602,1.2091062629198603,1.193122477171849,1.1858489036766036,1.2288632442086744,1.2152753148769269,1.2212104107396808,1.2448284341003364,1.2174950439985088,1.2205577864368111,1.2364855882596233
1.2698020657029054,1.2898822943510797,1.2417140063202556,1.2373871659808002,1.2345572477265423,1.2325972418757487,1.212081785084463,1.2243602947707755,1.184679271721907,1.2259234504824428,1.1649696551788327,1.1959883665748219,1.2186187590314643,1.1801354382636995,1.2184798245120485,1.1827059426967923,1.290389940468802,1.2334258674921428,1.255818581925129,1.2321744400583348,1.2310511065376923,1.2235935352562464,1.1979290380083385,1.2596960348240875,1.1988339836669548,1.222271693885552,1.2215685269129324,1.3025877611572756,1.2580710980895564,1.2351514469364977,1.2203437473273209,1.2382552638888566
1.300258802145181,1.2846446081856888,1.2298963961073286,1.244193779220071,1.2258700827757842,1.2974864612066779,1.2678168408121477,1.252630467422346,1.182329576572713,1.2564373326286493,1.1898594703936438,1.218884641942208,1.271891461354094,1.1998466914030146,1.2534019250999242,1.194120766342466,1.3152161859178986,1.2649676403621501,1.2705467192594124,1.283419735436452,1.2343312520037846,1.2450927426380631,1.1973806454437983,1.2632552517425284,1.192223197214034,1.207842613125809,1.2172341313885064,1.269139344930125,1.2498044946131686,1.245709585638772,1.2253020513582884,1.260045891490699
1.2891537562637105,1.2756139347843496,1.2743949213604682,1.2595191041761271,1.220931214956821,1.3134648557835167,1.2917068633547222,1.292506052568639,1.2177740103985275,1.282847894710933,1.2028537103489871,1.2096028256273856,1.2721516896299216,1.2149220060288013,1.2736362697467107,1.2077232025909066,1.2808287527647007,1.268461005598969,1.2754852161627162,1.281796409064966,1.2788396654394327,1.2775126929953917,1.2441960457489827,1.278983759344777,1.2701920858016933,1.25545648625955,1.2657379668831021,1.2788968431970789,1.2780900582896162,1.2690053857686467,1.2339356680913873,1.2868814148050776
1.3201188911973618,1.2975421689945528,1.2835421078061542,1.281798463460192,1.2485310091687731,1.3014891242703848,1.2501045380736335,1.261230769695202,1.206456971333188,1.2741870957269552,1.237947988883703,1.2174699521107344,1.256535352206966,1.2285797826242584,1.2749422392571526,1.1971369948954496,1.2728184206361983,1.2432159177801403,1.2519022686484655,1.2529654434506583,1.2468143250222252,1.2625793792293394,1.2463964768056437,1.2610164897270664,1.2696612710164357,1.2711958353819082,1.3013352765493722,1.2961495019074851,1.324726831902088,1.3323817019760908,1.267026957247442,1.2807942436509545
1.3175938164752077,1.2843667975928148,1.2816749081645615,1.2716260703147455,1.2506640256810262,1.31323684019757,1.2677453828959522,1.273112028955792,1.2115658566963883,1.290522367876689,1.2577494324164415,1.2221939214490125,1.2538290678990744,1.2304028741154691,1.275662983156633,1.2018800076518725,1.265594710625202,1.2440951873800012,1.2563045489920375,1.252595015881679,1.256561888259398,1.2691556100624068,1.2735376135707093,1.2785910979002646,1.2955886456060528,1.2876352453674582,1.30164973458153,1.3134400373844461,1.3149596456057149,1.334061209113341,1.2714210042873226,1.2784979123975633
1.3379655658191276,1.2932168669313888,1.2741338856499658,1.2819978087696597,1.2513458700773181,1.3190754453486078,1.2653918113528884,1.2749841901658048,1.215244593520981,1.2843611637521897,1.2584227113438156,1.2242396406577,1.2639603551298437,1.236871084475534,1.2740512523213843,1.1971322678252891,1.2678316736359403,1.2536690239179848,1.2659037428374993,1.2654963312535508,1.2723218525322533,1.2720256948820543,1.2705544995159734,1.274278887017471,1.2610382555100519,1.2626644939953902,1.2696453985812364,1.3361172678438997,1.283961934331854,1.3171190057159896,1.2562311154132189,1.2668927370365983
1.3408038460585878,1.284870847023632,1.2940867183786673,1.2744198169150454,1.241510149995571,1.3217900780471428,1.2665598822268356,1.2749781474228754,1.2238961209944068,1.28142798348688,1.2756916291521478,1.2281794849554837,1.2585667898098192,1.2402246138665491,1.271351833678527,1.2095382155767453,1.2691530452743165,1.2474159898852297,1.2549789052046019,1.2656271083698183,1.2816331548707245,1.2625859694036512,1.268480683435208,1.2879162187396376,1.2509103649692488,1.2641276900732759,1.2687164700639,1.3148189645246273,1.279873784292561,1.2943667402946923,1.247330065048513,1.2646257241813965
1.3334235142323587,1.29262712596739,1.2864300039301761,1.289010134763613,1.25615678275189,1.3276036993215132,1.2778191648023356,1.2753971771865158,1.2195978143545272,1.2821551472808894,1.2726564745096494,1.2229742926298792,1.2535272309255259,1.2382878396873236,1.271395419621205,1.1962713536740504,1.2658505916980705,1.2467064402758292,1.2524938580948002,1.2712823524409038,1.2861798271160374,1.2621451048962062,1.289311899246855,1.2784525599067715,1.308906904601032,1.2941122601368018,1.3081788527883804,1.3044093705162878,1.3098994988851187,1.3044053120886079,1.263926608383576,1.2665884577560762
1.3228463413028666,1.2802495109534238,1.2945740801828785,1.273661432748856,1.2375840168590557,1.307908019842411,1.2796908147402437,1.2759842176933345,1.215590857276101,1.2971677053512773,1.271353216532758,1.2246654530077936,1.2577895619389543,1.2419884697128876,1.26327360240054,1.2193054418938523,1.27387301526398,1.2524674376414187,1.2557558928736536,1.2698688542717704,1.2856883116996574,1.265314503229378,1.2942016534097265,1.2861201444392354,1.3045554128564376,1.293773584397594,1.3053952839048801,1.3218838832059725,1.2970692028151587,1.29314215169202,1.2527974054733337,1.2652471729246204
1.3341248175700908,1.28318758164705,1.2914195682958494,1.271132509860298,1.2458584061154097,1.3005207012808675,1.2743066829195597,1.2694869486613864,1.2175760333462626,1.2866348336883187,1.2644357424030304,1.2333891850404701,1.259871031252026,1.2353859800249096,1.24337199736855,1.2031452520451211,1.2666928064432124,1.2579933153967016,1.2540573568828868,1.270239870435246,1.288444023367718,1.2688828851146015,1.3041809448719233,1.27238419946049,1.3184801423550299,1.3076683936417475,1.3160054268766728,1.3075741228366782,1.2999036029299313,1.291968219226563,1.2624808029018872,1.2552108702132234
1.3227144644921722,1.283228542618625,1.2860146131605752,1.2804370787297252,1.2489280590879506,1.3080246740321317,1.2680145209663682,1.2696102133012082,1.243136815544757,1.2832416156836794,1.277482479837077,1.2430554867968373,1.2604491096707822,1.246778034636065,1.2500509826391795,1.2209363461067688,1.260853985632241,1.253017340288285,1.255782284274042,1.271476754769739,1.2956644758484186,1.2715008274946296,1.3205844799711606,1.2600807475809594,1.3339295674376623,1.3242945724292903,1.3232227563035683,1.2981992880255977,1.3050483786116147,1.2876305486700121,1.2660348807603798,1.2623552008646812
1.3116885067570647,1.288359563303562,1.2861179074429872,1.284455330649542,1.250359786528128,1.3003232448922357,1.2535678073378664,1.2622348769275604,1.2335865680891667,1.2628202849597716,1.2619158818641365,1.2274310583417465,1.2565944710001657,1.2356315559011037,1.2320918834513288,1.2156889949188416,1.2535098063835508,1.2474126574571143,1.2599364135998519,1.2673743978922818,1.3014921580041259,1.2741308949194987,1.324545653155222,1.2531843221962329,1.3402122907324012,1.3273980332383841,1.3294235839605342,1.300142974471265,1.3047929040920647,1.2831959080248354,1.260356553614659,1.2539301322414345
1.3014714828003662,1.2925484366848627,1.2725035100570938,1.28859016316649,1.2489269991489227,1.309186091009807,1.263031215590292,1.2763059930868714,1.2442695353863031,1.2761343085566164,1.2561736793983633,1.2398436233048966,1.2704111691426374,1.2368446068500218,1.2270438594029756,1.227300234732847,1.271581392470962,1.2585714507015464,1.2643077364394002,1.2693629581902721,1.304306473782269,1.2791346695772285,1.3296624329260294,1.2645996585617383,1.3498748469028559,1.3337038276082895,1.3384119768554856,1.3100987283670675,1.3093306610475433,1.2800814423442655,1.258044068042701,1.254619271777202
1.2869293352067723,1.2751575002260063,1.287119959287538,1.2695176177499667,1.2389514585722394,1.3085020481707894,1.2643553679983874,1.289087236529168,1.2430607873716875,1.2857983701772784,1.246455339759717,1.2318849715860059,1.2870543876090783,1.2467619361460178,1.2425071234830702,1.239683565812131,1.2902103389992652,1.2801537735765813,1.2794908217766188,1.291380052782135,1.3213485880045932,1.2917982217279302,1.3279748385230585,1.2523580575524609,1.3450134554466222,1.328696491213176,1.3328619412827183,1.3250657206656002,1.2909315074171208,1.2513533943847874,1.2410971101457362,1.2567545911412517
1.2856425151841415,1.271474395451308,1.2857190141267585,1.2671755013895725,1.2328436698469785,1.2883441568181675,1.258301654509393,1.267677192549353,1.237788347422485,1.2609224527829506,1.2399024460372494,1.2183905422377175,1.2747697780791212,1.2399028838637325,1.2283859055248048,1.2225471793747378,1.2834317360681011,1.2697550148809327,1.2671115602334042,1.2825988497705767,1.318809851674434,1.2835214295926032,1.3339660582302717,1.2560181600234808,1.36592015216528,1.3420486037021784,1.3569493497245695,1.3229335348986015,1.3113439938816054,1.254786792529176,1.2428521503576662,1.2576723090547839
1.2750555571517865,1.262653821553089,1.2853225984217218,1.2488393278608094,1.209748072766464,1.254268544803768,1.2514217029853576,1.2485238311862659,1.2291759991395168,1.2531336607501453,1.2265771480162884,1.2049605965289445,1.2668945970099206,1.2347484496986134,1.2320155209302026,1.2350629584614805,1.284261650807851,1.2654507706933498,1.2576311703013652,1.2737064389087007,1.31267021596555,1.2761376669479378,1.338005991900579,1.2544387691162462,1.3715535860215058,1.336016318136539,1.3481536011904596,1.300388668913938,1.2946288168137379,1.2312246095682011,1.2194495916503314,1.2403055720371625
1.2555520572674437,1.2589899284512611,1.2573098536266059,1.2540204265235138,1.2178242864274063,1.2488716735022793,1.2764102139223823,1.2510306535067615,1.2343185277609152,1.2528466442803772,1.2196347243000014,1.2184525014609107,1.276509385973898,1.2558291801852903,1.2536215179469221,1.239454506765861,1.3013786163369585,1.2769411474079078,1.254428960919066,1.250063034209394,1.2868337106032772,1.2882562920677019,1.331756411271714,1.280382985941509,1.3773932365334915,1.3440670813344413,1.3564100209918797,1.3130858695478638,1.2954922657940187,1.2313233882671086,1.2143750398258897,1.2425035290870796
1.2607609363985333,1.2666256844356505,1.2381179629454335,1.2609121138510058,1.2330202408200563,1.2485180154598563,1.2093633027379815,1.2440628235988322,1.2355700091436865,1.2390695887252055,1.2183587975155377,1.223236233548086,1.2736164833686192,1.2573186485501235,1.2524569338355798,1.2364735356316,1.3047656569436046,1.2660438205177447,1.2515516142890888,1.2392196018848716,1.2849628410665455,1.2848183184760935,1.3191347748275075,1.2561149990009652,1.3842949459789546,1.3241893132106914,1.3452516277429054,1.314460673665695,1.297307510773498,1.255435754154628,1.218382361498614,1.2194197742380755
1.2786389345734854,1.282117605804081,1.2289698969571237,1.2727500658764976,1.2378551002168932,1.2587889658951585,1.2049669722818301,1.2408559102251646,1.241018146873113,1.2285798780005324,1.2114160566327519,1.2036517762096042,1.253007002530706,1.2357880547120301,1.2253421191100569,1.2083966604132357,1.2801556222013386,1.2491971580432268,1.249637870223401,1.2266806622723347,1.273692983895714,1.2749002402515304,1.2898724601512648,1.25255854789758,1.3381837618161057,1.2836545805874682,1.3094579811941873,1.2669267056587756,1.2788700542223859,1.2545168748962572,1.2172227652850904,1.2140827979618745
1.2955317685402346,1.2806681485975706,1.240377222487623,1.281628128463053,1.2234117664762647,1.3447797945407993,1.2273856094509972,1.2602186277575453,1.2267523065709702,1.2161914064643524,1.2004290515361877,1.2009082150322503,1.2504648283125377,1.2220615300228785,1.237018146166996,1.2346395393129825,1.2824294837344394,1.2344372536330221,1.2329891864077853,1.2002223377400592,1.2572466278448653,1.2589964744640274,1.2751949238315157,1.2531631471813203,1.318115560812424,1.2687227239370442,1.280067514777419,1.2952453641760397,1.2675480817111109,1.2515365426643195,1.1872182821646668,1.23831276210575
1.264620210279683,1.2712105362359265,1.2602072324633928,1.2674120226964793,1.2328514701490685,1.3426539812345348,1.3007090591140285,1.2593383127220674,1.2046625646671874,1.2243013292701574,1.214385540260117,1.2311518587095662,1.2499527649258437,1.240506769727571,1.2592202288365797,1.230226393001081,1.2818646915557337,1.2436214012754672,1.2474391294116278,1.2075916924395849,1.2609294262649609,1.2617074495102092,1.2654427686811367,1.2905278515172847,1.3121564417935732,1.2616456044562718,1.282850923207884,1.3016369612798966,1.27192275523607,1.270162584277482,1.1948530842685372,1.238962241501116
1.2351617229215457,1.2629327848954146,1.2960169774877333,1.2632464736800681,1.2314200652878846,1.3188038707709322,1.3079475843140365,1.265969962723947,1.215246327244346,1.246537060460965,1.2205565871226682,1.2206227068804003,1.2512730068773017,1.2289055249962189,1.2449310523359616,1.2387120437585262,1.2663074758842614,1.2214079388004828,1.2244131880692426,1.2024649813246582,1.2337577189912625,1.2399837756291228,1.2432737952929838,1.288454972885671,1.284117438554646,1.2531797503628457,1.2722421206397323,1.2988519156427787,1.2786836338565108,1.2748141209185513,1.2001541821578257,1.2520184969610277
1.2484796730474526,1.2651296205020182,1.2880401600328637,1.2772877931836586,1.2433319588612308,1.303793646711883,1.3082672109919407,1.2672476092690774,1.2149373569805526,1.2540257205434138,1.2220597085168532,1.2510532487995454,1.2482981150763104,1.2597906556714467,1.2796480444371214,1.263563882332635,1.2894647361079157,1.2244932225922631,1.2154636717791794,1.2180246470943987,1.2413732290352004,1.2333507175392864,1.2502406193787108,1.3006520807525621,1.301259369427249,1.2650757296830633,1.2814764915130297,1.26581396601111,1.2852454328274248,1.2773340771823178,1.2103609934514192,1.2611914188491575
1.2428161257936954,1.2706262442895067,1.2903220416810244,1.2736092620663853,1.2543863812065958,1.304819649671784,1.3157279193414542,1.2596844063631558,1.2188937352429705,1.250494308681099,1.2266418166829964,1.238357528039713,1.2404308188274584,1.255239027134271,1.2706625770548559,1.257028428007561,1.2786998971464651,1.2208385123031882,1.208854147245992,1.2103459102065715,1.2264678822464652,1.2190089438613392,1.245454958280643,1.3053390659301398,1.3164395827735658,1.2626606286217938,1.2843034277735144,1.2640614137868837,1.285610150630702,1.283048713825942,1.2148082634564024,1.23855991249198
1.2471850583491622,1.2797293546588657,1.2818102755810177,1.2825228175126935,1.26115021702803,1.310229899178002,1.325644614826138,1.268019546827299,1.2363984115778923,1.2422323781721463,1.2166239873686198,1.2520634190010418,1.2543157310003634,1.2453183705521007,1.2588754195393512,1.2645097875957112,1.2640978395263582,1.2105607781033432,1.2009880584527795,1.206033808616428,1.2228619440611093,1.2094075035010965,1.2289227932858284,1.3035582936001016,1.3199245745856945,1.267876767445432,1.2843876529705427,1.27327421144852,1.2824181451643573,1.2945920018056742,1.2260169624762272,1.2452563806454482
1.2595766549496386,1.2807624892081788,1.2845736897436226,1.2801890297493579,1.2548046718595494,1.310379485137008,1.3309481679107997,1.2751045605369262,1.2245467870663977,1.246597187690683,1.223004087047477,1.2461344812241528,1.2396653202921062,1.2417311600839518,1.2556226229851324,1.2556823869702143,1.2806958549986662,1.2190192679257161,1.2127393925715746,1.200847000246521,1.2389672103936722,1.2172004893166497,1.2431173971834768,1.2909615045408036,1.30610973828485,1.2637004154360667,1.2783127539111698,1.2746021299557186,1.281280400987036,1.288525924672643,1.226479606544167,1.2348047758266
1.2297210176686706,1.2584984608820038,1.2893308568544173,1.2641435096004041,1.2451585940206946,1.3098027330813147,1.3365801406995026,1.2634281525951254,1.2210518029352273,1.2515527251928236,1.2267824182270928,1.22261140457485,1.2208580488238965,1.2341296693521968,1.2546940847338564,1.2520698446643048,1.2634884531646753,1.2065215593332996,1.1999096092185453,1.2075065423168672,1.229485804064091,1.1926868332178444,1.220037178611119,1.3045659323080108,1.269304236626869,1.2362970269557283,1.2551107789178355,1.274869759513053,1.2839524717216741,1.2933848210315881,1.2104102545222355,1.2260237193650256
1.2403781492837285,1.2601361749059987,1.270638547881146,1.2534144775990341,1.2345125043146343,1.3049404791675352,1.3253927720670051,1.262508222379637,1.216875487877745,1.2348428541730483,1.2167559966746195,1.215000878232814,1.2335700260274958,1.2294357900589916,1.2490649393280673,1.2596136408925218,1.2735006759697773,1.2061562388278302,1.1905074739805706,1.2217846456545625,1.224528646506976,1.1952341032965668,1.217313030186637,1.2994528163564087,1.272002492342549,1.2437622388528198,1.2616344613731434,1.2613738505853451,1.2818498559543183,1.2772865929701847,1.211635981781389,1.2347492633379842
1.2108971285079027,1.2291631572292743,1.2768804971352021,1.2427954988109997,1.232225071738062,1.3006668789027283,1.3322292638148494,1.264316944115187,1.214303700932461,1.2457819976360265,1.226121281021228,1.2309529388386993,1.2374689428226946,1.2433119027679025,1.2656350832606102,1.2663734092338486,1.2892239450518317,1.211039059744945,1.191746669070791,1.2316841753257726,1.2398312184286675,1.1983505063737268,1.2117027146023513,1.3015635014948799,1.2728681674260254,1.234939119846698,1.253040395345332,1.2534188218883486,1.279353374120535,1.2604351199857915,1.2026304814141424,1.220311316441296
1.2106435214597906,1.2307647649243307,1.2737281131212748,1.231946402072574,1.2230680833737617,1.3179469148095722,1.3429974727575003,1.2720691400971953,1.207597488316214,1.2355456589652019,1.208851134481979,1.2171901020163862,1.2397316069888251,1.2355972914124695,1.2473980839379164,1.233928379406578,1.2814847116078578,1.2050971468582343,1.1857465440035773,1.2381226077666072,1.2307146129435704,1.188682232157954,1.2039100808875325,1.2838239483316176,1.2891051319105493,1.2281360025127757,1.2561948617490255,1.2740871080373317,1.2799173085654276,1.259521182579431,1.2049172402654134,1.218293448283933
1.2236793049657222,1.225783477041356,1.2506708540369507,1.2075514878428653,1.206718788976271,1.2235662294507756,1.2808708596517788,1.2122957502626854,1.2046775789364481,1.2336210114133583,1.212570401216059,1.1956652053103936,1.2160265475319303,1.2189421774138116,1.2286661252944995,1.208115371347312,1.2761031961497202,1.1908603442872288,1.1705287742044523,1.2202751997551655,1.2191589786611117,1.1625040510229983,1.1824557526824793,1.2693881320462905,1.2569065282262721,1.203066366459507,1.231971866559783,1.2310903331373781,1.2554144478543308,1.2222782492548276,1.1982847442321745,1.190968862418801
1.221562739179361,1.2258703410108063,1.2335456600139316,1.1958109384776145,1.2115560886116925,1.2096262409633332,1.2118924062277063,1.2169769065257585,1.1970683069472097,1.2206798807238457,1.2025908523540534,1.1912183722657803,1.189449398692344,1.2063160336328371,1.2305067962687268,1.2069027083167567,1.2629807675519806,1.1882646859960084,1.171089606490077,1.218866990478985,1.2090601955262141,1.1604923565694611,1.172165164841972,1.2669459250034925,1.2415800007844422,1.1786495398604884,1.2237745334875745,1.2153300652793289,1.2456947917763763,1.2151874495718686,1.190487848375592,1.1646471048341442
1.2120702628840518,1.2333079240192673,1.2162023538495024,1.2036106930402317,1.1985969696808414,1.2011992953356767,1.2201927014529745,1.2109085061583595,1.1732191347814331,1.2108463768256956,1.2094613484596337,1.1702116377369998,1.1967080235306453,1.1929871708011428,1.2173092592971724,1.212186639225568,1.2591798403447507,1.1810678682146043,1.1740191308433514,1.2054620097258255,1.2087666571855045,1.1655362360094472,1.1746325673893818,1.2538397827834697,1.240499552568227,1.182748527024911,1.2367998603774117,1.228240700076073,1.2711001530570407,1.232826333899105,1.1857232712802288,1.1630380268523635
1.2222726062891847,1.2268839422342173,1.237280999660718,1.1920123571161034,1.1822515280163355,1.2025696375393853,1.2025061113480924,1.207776787139477,1.1678281972996136,1.1876072860206381,1.1895094469428373,1.1488881721985726,1.177354038877663,1.1718705332686106,1.206741561327103,1.1939677583638468,1.2546530560811668,1.1694432301833801,1.157993744653181,1.1892058241185255,1.192037937943973,1.153679094846733,1.1589394169062255,1.2504380134017492,1.2288706045823734,1.180307761884518,1.2240421153334555,1.2247152277347053,1.2493140279097794,1.212360147880885,1.1764609324601982,1.177212649311718
1.2190838480561874,1.2142143587188619,1.2018013463099138,1.183913747724191,1.1917806902448942,1.2009605737682127,1.1915977047671247,1.2432509413672954,1.1577743023259472,1.2009512774613544,1.1834555898697972,1.1644560935860813,1.1861854894050394,1.1720553820581476,1.2106852672550887,1.2002147594091366,1.2726818259894095,1.1846147568631467,1.1700388845209282,1.2114281165390224,1.1846852399897434,1.1515306440467585,1.1559096900601602,1.232255667556331,1.2189518405114146,1.177877285488688,1.2205813171208943,1.2262037407118198,1.2460880998350092,1.2080385918121,1.1777940387866395,1.1697170311359804
1.2341656292146688,1.2413572570864557,1.216822207334345,1.1998864831937615,1.20609278220577,1.210339984220052,1.1890735145233435,1.2332043436513556,1.1436530961801705,1.2052530049627022,1.1821424528593376,1.1712552073307771,1.1840912353510296,1.175012942207889,1.210137361250391,1.1943303220245196,1.2579519636883532,1.1823953527900033,1.1717251726731446,1.2190281940121561,1.1831877432492528,1.1505469297218827,1.1489098650856253,1.2230093320365696,1.2166487952709026,1.1704382545131768,1.2103706846163174,1.2088573979237156,1.2314948247704829,1.2061257083997567,1.1801664062865247,1.1637834997009169
1.227341072055536,1.2130192476975743,1.2088754492719236,1.1796297978322696,1.1789802758192267,1.1939840499183028,1.1867191851231675,1.2328218128337685,1.1531558897320784,1.191412973580025,1.1742955970487507,1.1779234735862145,1.1733627524864307,1.172534317323364,1.2151961991092408,1.1791400056123331,1.2501193370190053,1.1675944171422639,1.148592655432324,1.200738055178213,1.1596339123199726,1.1387585920305439,1.147152320733214,1.2028866036091344,1.2188055411707632,1.1604499798810286,1.2017600855395418,1.2150740627060719,1.218873578897195,1.1751384080605125,1.1543121662772788,1.1587625391977063
1.2253771090190162,1.2122010122064037,1.207815852882151,1.1836725950726923,1.1790322348068423,1.1923612672776986,1.1738162726219672,1.2294050460011385,1.1647886921891237,1.179971479362807,1.1754520608820227,1.189758834589372,1.1744156348983594,1.1757209457141624,1.2144805933604848,1.190519969020761,1.2310945595675902,1.175828691070412,1.1570030391650372,1.1944187197821017,1.1643406148841018,1.1577658656567758,1.158829333069783,1.195759082440407,1.2196071721229318,1.1626784551953362,1.2146318401833662,1.213646473124066,1.2164407085063453,1.1673190266373137,1.1569208892629252,1.1677410389922942
1.2386559587419521,1.233272149648579,1.202484848792985,1.1938618340569158,1.1810221474122378,1.2056154045414942,1.1705706059588854,1.220764652281367,1.1801829265217534,1.1667410055243546,1.168906370796207,1.1816046134850824,1.1777961065798244,1.167603199716106,1.2044343275282017,1.1904898034009352,1.2070309813782418,1.145333392650734,1.1417572525373378,1.1672211526554102,1.1389388711341428,1.1419934750471552,1.1416115937580438,1.1678232664986357,1.2012519145397107,1.157417723733774,1.2045009068784085,1.2136539278220742,1.2178740824103083,1.179282579032463,1.1693964147952394,1.1675647150200439
1.234986288200337,1.2318653745038537,1.2087484314773778,1.1928788157506274,1.184998346624994,1.2132916971634071,1.163191399744912,1.209407862555515,1.1772765115551165,1.165088259979757,1.1575907334331241,1.1853479800047177,1.1709633623284381,1.168104071566072,1.2077940811739047,1.1929320631245632,1.2093810486265266,1.1396764868833764,1.1362421587025255,1.1740141250567764,1.135469228934184,1.1457210698104519,1.1435774048024294,1.167339990043202,1.1838816737009104,1.1514625760786037,1.197908123285637,1.2114701656341968,1.2153484815678386,1.1829097420317753,1.172556358620012,1.1679518944552119
1.2208416182557555,1.2122602398500004,1.1975700122115784,1.1851932904499973,1.1946324386482403,1.1945604841833188,1.1576119819689712,1.2065441694981507,1.1909218008509643,1.174356799025432,1.1550166533937642,1.1859998203012299,1.1891939939333371,1.1746339898024776,1.212384099737098,1.2017698184849996,1.2350467958488633,1.1540013998686796,1.1496029549976619,1.1842313564252613,1.1525084297023505,1.152084527723116,1.1613258841012182,1.1662943147786433,1.1767860694623042,1.1591982333304416,1.1982881303382196,1.205882177196806,1.2015403851940754,1.1802400404001931,1.173492876532539,1.18152489004485
1.225025326687372,1.225618355667943,1.219353565786085,1.2048817993010736,1.2082483146752583,1.2093605583622151,1.1521756242352401,1.2047580667654925,1.1749888164040183,1.1588998016364016,1.1451416560282026,1.1841273842279552,1.1708347230031686,1.1695181510101826,1.202484831749433,1.20052538637429,1.2382666725202023,1.1637236532138744,1.1459166576537798,1.1790019084987517,1.1566603940007592,1.15116772818455,1.1545638890181154,1.1631846697819221,1.1819101167465151,1.1573497940683306,1.1841760051464636,1.2034730239643336,1.1931066802591235,1.1769940280159086,1.188184727811863,1.1694595170991442
1.212327440331196,1.2166443527567183,1.2190234017435055,1.2096456801208697,1.2361609027851717,1.2020771590285204,1.1378953381822656,1.2259507454373035,1.1838032001030763,1.1660047847030193,1.1586159539704728,1.1999738960810589,1.1805378267650406,1.1880533882246824,1.2201624156831465,1.2160222335185304,1.2451953203742203,1.1769753284488562,1.1579577034022122,1.1865604333361317,1.1510953999212847,1.1462087477692653,1.151434840020831,1.149642717393305,1.1723352080120817,1.165355374105363,1.186897422195707,1.1950601083701617,1.194583118042546,1.1858960781227876,1.2047290318476693,1.1656705494401072
1.2148190549372215,1.2349270092877396,1.2329271076815957,1.2217392376317873,1.242835502364561,1.205279366930373,1.1287889793817454,1.2236341057169164,1.1999778170278075,1.1654006729767152,1.1466473127986219,1.2125670607575587,1.1940309051374938,1.205076276890428,1.2413767645240463,1.2161180152471616,1.2663453099009956,1.190893973709794,1.1606337398534503,1.182628053830301,1.1516605331544554,1.1501037317584724,1.1535947205210675,1.131921053248833,1.17651938310056,1.1649527325756797,1.1957207848485303,1.2051849090605284,1.2064591901923372,1.1931254487019114,1.2140837529451327,1.1810680400485858
1.222895500411684,1.2375758194412436,1.242727495752571,1.213485326626453,1.2185577025183758,1.1856278284855686,1.1435537100115931,1.1969625351427233,1.2111248820910117,1.1501385541926732,1.1495800774588913,1.2048299608025521,1.189034557196251,1.1965914136207574,1.2176852235008135,1.2176347040403863,1.2633813903411029,1.192381692582248,1.178696925987883,1.1793537426241283,1.1575564619124228,1.1607164960320449,1.157762299556859,1.1529181908681483,1.185173349825598,1.1609491904252753,1.189946401699658,1.2126102131458154,1.2086549168511143,1.1945905862350639,1.2107155182291525,1.1749957509938889
1.2303209156597643,1.2460474348236021,1.2329225091016076,1.2259074506029093,1.2192978041745304,1.215244113456503,1.1664964947029266,1.20074048753269,1.2082044369603782,1.1660930574798258,1.170457023131322,1.209207379018743,1.1938832357093294,1.2059968310056937,1.2315526597066722,1.2267403100237728,1.2776675840760625,1.209651991466672,1.184822954404802,1.1957529797493653,1.1654672225011173,1.175537298713799,1.1647885129303786,1.1641813822400482,1.190163753367402,1.182275653420283,1.212929559372577,1.215324271036109,1.2332728897979626,1.2168876781268407,1.2282024558331148,1.176563455048436
1.2288687127554998,1.245022247028853,1.2189850319126367,1.228170275341975,1.2381426173908454,1.2112968946209832,1.162856166148162,1.2415238157645676,1.235714863251137,1.17013131457381,1.1576080372560318,1.2064400872487646,1.1935676706059346,1.1973927089193614,1.2205279827914666,1.2388747587297553,1.2843818988020894,1.2124319497756613,1.173439190725756,1.1869783957874227,1.163854315079902,1.1690953848883436,1.1620483976485818,1.1704319854196064,1.202728883503137,1.2023056926515123,1.227857263061059,1.21696809264228,1.2365426551063545,1.2165401539426464,1.2376600333978052,1.1749658917149883
1.2253420580796488,1.2381974259529658,1.227573082503442,1.2165484573671772,1.218005469327741,1.2307711306309854,1.190453553004463,1.249615552704656,1.2264378359825505,1.1864048999046426,1.1682841751334354,1.1992652065283762,1.1995029838476365,1.2159419645657739,1.2192201231804816,1.2224734381766857,1.285032124615879,1.2200541427917528,1.198180208419046,1.188865366128719,1.166695598436141,1.178388007666812,1.167615211600329,1.1506627672280383,1.1897813257296648,1.2039569566472317,1.2130214464696165,1.2153016729932924,1.2282275391800146,1.217919514552457,1.2187246970023895,1.1806894628911162
1.2157344790751938,1.2216945492012337,1.2333325023459882,1.2082630771835012,1.2095497008986444,1.1925980575781863,1.1713940443803663,1.2338207256126246,1.2071424185339577,1.177905178541259,1.1681493456417857,1.192514844450114,1.1719952047964128,1.218728734508958,1.2243130538337255,1.2305579222514078,1.2841795726395449,1.2155663056843724,1.1804411076766148,1.1823855033024608,1.1463540864280606,1.1731813974751801,1.1529672421206094,1.135744626954134,1.1548729478671849,1.1766583392872725,1.185312921726131,1.1795225207201054,1.2043904066846987,1.2036071655362477,1.196267447036807,1.1778642354143047
1.227661101874251,1.2170913690756893,1.234734655512989,1.2029797293351125,1.195152422925133,1.1970990803435007,1.159157012885116,1.2362026154931691,1.2076347261777132,1.178831473986779,1.161583983969033,1.1794448615034219,1.169761143633436,1.1880504596732282,1.2066155914504646,1.2291545076409205,1.2672470802332363,1.2075643661705504,1.171987036611338,1.1797678752351775,1.1350849263011975,1.178414820145887,1.1595498208162185,1.1343450158401498,1.1647576177042274,1.188645956553272,1.1896967205641544,1.1776987125639484,1.1926574434851989,1.2020608999359215,1.2023446416207466,1.186355570816446
1.2419081442730393,1.233802778960879,1.2431952997155613,1.2216963878106504,1.197751277419432,1.1969603953887171,1.1633607661103518,1.2492310238535007,1.1990070609900905,1.1703836854128953,1.1560304173734341,1.163332061524112,1.1713008926993962,1.1765433474079643,1.190915840491558,1.2069938401488878,1.255931125053179,1.2116670871759612,1.1747382353357787,1.1848831306332286,1.139579364656016,1.185413550731699,1.142640120912536,1.1294026251177487,1.1443154681599261,1.178998097796047,1.1726979972951477,1.169135518343502,1.1990347621631652,1.2066231434340042,1.1957046433369616,1.2003417753203411
1.2620768129360724,1.227695578739718,1.2304791590967237,1.2184692090405664,1.1941997348325124,1.215590669953415,1.183918581796628,1.2371509636744444,1.1906698657855175,1.17237478760841,1.1702438733710752,1.1696423116891335,1.1600847243382086,1.1803313778734004,1.2058058540237124,1.203232885706045,1.2564926375662264,1.2008960312801507,1.1753404654538213,1.1864757167117435,1.1459150834652463,1.1799458393512017,1.153897205973708,1.1424372276567447,1.1608715100733473,1.178842871273288,1.1804688476685472,1.165700959353965,1.2019059818876525,1.2133473690415837,1.1888552427755599,1.1781935284470293
1.2809752865440778,1.2052569036767191,1.2117038159948976,1.2001751590866083,1.1708670696057601,1.1998021087140658,1.1767611614037627,1.2256358489451693,1.1960348488216106,1.183475793091145,1.1700977810044049,1.1691851346104118,1.1644028175293508,1.1965024490168277,1.2085587885927451,1.1983770756691774,1.2632406013002513,1.206322623555092,1.1645439172419523,1.1821613093273362,1.1342153029749509,1.1545203078677502,1.1301245469841623,1.1271222747475382,1.137790499624413,1.156422089337524,1.160196318672059,1.152732696008354,1.1815682989547374,1.1842649864689165,1.1691098913569156,1.154643622909693
1.266349519218206,1.1944675503103757,1.1933848822019617,1.1862987426151148,1.179468493102592,1.1841340978086736,1.1777145185964306,1.2379831384889475,1.1907452073189506,1.1928953004134393,1.1768721193532994,1.1675005929984177,1.1423467958815048,1.1846002187836018,1.1897073121636417,1.2028577022672904,1.216843879230827,1.1707233037720883,1.1415700517284972,1.158211550094211,1.128046127928316,1.1553877463689108,1.1387311911401725,1.1204385015665832,1.1386130404493362,1.16623454197879,1.170230769125321,1.151307104672958,1.1878794869933629,1.1875213142206846,1.1723537479818917,1.1555448037122271
