Fp1,AF3,F7,F3,FC1,FC5,T7,C3,CP1,CP5,P7,P3,Pz,PO3,O1,Oz,O2,PO4,P4,P8,CP6,CP2,C4,T8,FC6,FC2,F4,F8,AF4,Fp2,Fz,Cz
0.5667191532758052,0.5811093462040139,0.5820910826485509,0.6174690052456634,0.5321990041920589,0.5620202691738986,0.5911882040303265,0.6011573133405065,0.555604079022234,0.5763534626294543,0.6056809908711138,0.6029130656924869,0.5806653484978224,0.6125597820416675,0.6098026981095607,0.5557714823896222,0.5918661009399532,0.6038053836861477,0.579143328367056,0.573097347300853,0.5798410147960521,0.5942535844265622,0.5710651637440383,0.5851221236174575,0.5325759206591278,0.5522878188738426,0.5782822179801776,0.5400928922817305,0.5860157276212458,0.5829712398588595,0.4852465309342536,0.5635141149816822
0.5980356537694301,0.5803735554421986,0.5866198400877831,0.5792650318768108,0.38360603282084776,0.6008631611823284,0.6212692395220668,0.5552161799149463,0.5099285658039712,0.5602517273404238,0.6001970705835876,0.5827436962941037,0.5393097593887999,0.6046767017539929,0.5854001489030461,0.5343544664793372,0.5378977126302815,0.5599958554658898,0.5844164978125765,0.6069789418874523,0.5881195334442135,0.5971156984147665,0.5974413198788863,0.5990628393414705,0.5942887108426559,0.6101990453232403,0.6071927845749641,0.5906025432447094,0.5514137889710408,0.6220276352646786,0.571014750865597,0.5846317575573824
0.5605002913999558,0.5949546744635823,0.545372202147976,0.5591601928636749,0.4407749131473419,0.5841354936400063,0.5822019889382178,0.5526705300782631,0.526873997061337,0.5688520156211265,0.6023649997617194,0.5731820459172037,0.5595459220729677,0.5976117128803484,0.6102742835156895,0.556612845306058,0.5451413792965137,0.5768414649671498,0.5641666352930305,0.5935557585854293,0.5642270060151512,0.5638805194947594,0.5489689143299298,0.6066110517655477,0.6016798222237315,0.5746258661987984,0.5861715274578924,0.6135073982645188,0.5775474476015856,0.6154391737407489,0.5482064190093445,0.590670416376862
0.5899958051515253,0.5786397115371154,0.5597313377844675,0.5893846713297487,0.4829336341257994,0.5884913494189733,0.5576603870127402,0.5811747156885957,0.5868158531431535,0.5116439654640601,0.5989707849113322,0.5832873260924011,0.5866087035929679,0.6085202917665985,0.6221556405277322,0.5936336263187165,0.594295749332967,0.5861552046663194,0.5819241674340735,0.5638835259721139,0.573844279606329,0.5857030965496142,0.5788619972801659,0.5877820970508011,0.616918370734144,0.5915842721061996,0.5914123338932525,0.6219465418893009,0.5753469568323425,0.5990879912797792,0.4362894382130534,0.5943599500575616
0.6161661356049615,0.6248688711473743,0.6011077816123094,0.6168429346456292,0.43734090731854885,0.6281122261975532,0.5170942801242477,0.5759135859114393,0.5300638487964653,0.5202724306272944,0.6057655055922221,0.5748870463150113,0.5704618038553846,0.5901274968457454,0.5955540614246562,0.5207679155299249,0.5402532348511315,0.5673733332542733,0.5535333724981751,0.5464434866595241,0.5302915099335033,0.561820842106407,0.5989136463194706,0.4583511824048088,0.6006393427511988,0.5970393167187107,0.6084473303848821,0.6185319006089345,0.6007138085166673,0.6201241386762634,0.5661431745370397,0.5500482215856156
0.6204018441720818,0.610079794382331,0.6201142303957277,0.6002557812289211,0.3917271792712416,0.588929629728346,0.5247811895494114,0.5972029919421242,0.49275368063856856,0.5161008221677049,0.5989502586497499,0.5834476036261895,0.5941787003074313,0.5811635701224919,0.6033549266612799,0.5308664855315288,0.5667282417987134,0.5839619050117967,0.5902765546598074,0.5912152306467147,0.5885282088933339,0.6052968599683357,0.6150564095241817,0.5174913882224125,0.5796191064884517,0.6206985198649039,0.5937147219438634,0.6054564955177014,0.6020627866649604,0.5968281322644353,0.5374962902939715,0.600544159642039
0.5981274217538579,0.579309549227006,0.5782567467378659,0.5967280198059414,0.5189498852073476,0.581696510530707,0.6167807553965974,0.6198996997946971,0.5774823659144992,0.6058605269159849,0.6181707478592666,0.6062309432792341,0.6138739636141727,0.5907865211778333,0.6045929580760012,0.5931523169871646,0.5772250018957046,0.6034682516262263,0.5976486568870835,0.6085998577244857,0.607480450230415,0.6183041696506024,0.6016594726522994,0.5913205461880502,0.5749433319016299,0.5843384118723837,0.6233218878388035,0.5899285223252038,0.5910236914645387,0.6095467673606102,0.5257312271972537,0.5931189897451052
0.6208026100520667,0.5720533160210552,0.6052891597560439,0.5895957999199885,0.5116639283831883,0.6161902240153866,0.6050289190622749,0.5080407128912123,0.5234604252488496,0.568825510695984,0.6111968121213223,0.6007653998765607,0.6028248995553991,0.5886599420219588,0.6114870522393847,0.5636017535606428,0.5536917836045306,0.603939853816285,0.593468350975846,0.5967499958192249,0.6075182127346598,0.5971178025681751,0.5420880189817673,0.6045414081863835,0.5399658051168347,0.5800608220040346,0.617066935974743,0.6003163528692849,0.6133909604111979,0.6140778405311644,0.5049259093103158,0.5698060910484221
0.583548719172119,0.5371695068102218,0.5885265890523788,0.5897071048492091,0.47098941194265587,0.5589988723632165,0.5709543653683384,0.5919304045435624,0.6028185633203432,0.5049615364568492,0.6011369788261534,0.6030576030886284,0.611428366242577,0.574105762721701,0.5939516996124286,0.5709071755878743,0.5684786609453997,0.5969783750217995,0.5979758123647259,0.6216937470983336,0.6168627840064916,0.6060832278473632,0.534830155578005,0.5643822426140774,0.4693313603778692,0.6062996533449188,0.6143017496439034,0.5924420318031034,0.602896958815111,0.5888090626717369,0.5660671358435146,0.5768150598723594
0.6207527528032896,0.5904880303780842,0.596243741344324,0.5467900620980463,0.41597376777644846,0.6067063582266374,0.6144416569604855,0.6073796321780515,0.5413830725020862,0.5008545673921919,0.5949193632993123,0.6101185781977049,0.5760481175801716,0.6083632438363855,0.6061496192090663,0.49466452460905214,0.5449607366231203,0.5585603397975928,0.5326943849874873,0.5961073439418622,0.5732803220990669,0.5747929580457607,0.5650696694138009,0.5746119480911327,0.5504844139721853,0.6030582030939037,0.61883035122981,0.5905143866344523,0.5735985177108279,0.5901112725230905,0.5226338134913788,0.5851489001963995
0.6037754018076643,0.5873381678096568,0.6018668628490245,0.6116169259929279,0.48421333150361323,0.5762513391602199,0.600070504996194,0.6044671003707714,0.5353187760128125,0.5702054538990426,0.5928218636667704,0.5387416247376869,0.5575286680209295,0.5490061404624037,0.5808485581046926,0.5067934350916088,0.5558969533112724,0.5615599025324264,0.5737588009991138,0.6013159125168152,0.5721029834111717,0.5678870638729758,0.5294390722160938,0.583690938331401,0.6239501203836038,0.5696554657238723,0.6234267045859673,0.5932266332528413,0.5838116010725851,0.5561404450430979,0.5742577102610303,0.6021844365062163
0.6178243362807136,0.6177042736769073,0.6121241273190188,0.6000170033539554,0.5761034628704425,0.595314258535819,0.5927977516881906,0.6251240237587311,0.5640153012394571,0.598794839543507,0.613194935099716,0.5689282704986632,0.5911081536415463,0.5896206676618984,0.5952736168012449,0.549236603123063,0.599195674307938,0.5960036163314744,0.6127915027309644,0.6079250568347455,0.6158297926521136,0.6078389412916106,0.6111100474619293,0.5818395703079043,0.6050658184863577,0.591798597477679,0.629601320128379,0.5975880694416656,0.5800615646272943,0.559765456276368,0.5582087872474506,0.5652947442050636
0.6173020307100987,0.58203747832955,0.5874261056458016,0.5717653056797337,0.4514225732678728,0.5862422816586843,0.6156374789651233,0.6059662492611162,0.6005531938572246,0.5613309070895326,0.5980693293870618,0.6036905239945128,0.6070390792226198,0.5975283809401413,0.5559151512428874,0.5447772688940856,0.5513365960077672,0.5786244153117872,0.5814108090655801,0.6078645113428963,0.5902935053223355,0.6034741979715855,0.5962811638137487,0.5876498005976133,0.6009257289716038,0.5939555730911947,0.582660967592453,0.606753081506149,0.5818297489090841,0.5909410805388882,0.45595981975198624,0.6089615974039363
0.6078215730252746,0.6162582038719153,0.5898335232129839,0.6064990537485144,0.39426578250421707,0.5745446654029497,0.6221552865004503,0.5940114079342296,0.5769254807808705,0.5780522513772387,0.6120806090919633,0.6008627719401339,0.6116670150665708,0.5989319330671179,0.6281831205519531,0.5338439963415342,0.5542921156278471,0.5816230744766654,0.5830591090401617,0.5776765200509187,0.6037580177795354,0.6145437943183557,0.5888384491416248,0.5755983173610827,0.6064208063989478,0.5905781674181886,0.6081767949789063,0.5961831254946682,0.6058539667166867,0.6050373404568075,0.571983966929031,0.5487961226580799
0.6089586105181704,0.5973598516594952,0.6121537344361598,0.5253362988728828,0.36596958149435854,0.5904676130139235,0.6243798002852294,0.5928180117640744,0.5635618594796115,0.5311574170951369,0.5854721324866107,0.5661493984019265,0.5849587124884156,0.5622424532645799,0.5043853688717379,0.5657745303837491,0.577704351459581,0.5221891845815342,0.5975543528699513,0.5782734646549806,0.5854024677957337,0.6110257087420964,0.610214669789137,0.5832384433162905,0.6076190986470866,0.6069515186302851,0.5967007185989409,0.6021128645474177,0.6111911365195946,0.5724127282254957,0.5819057617721977,0.6336266709144175
0.6086520834668596,0.5817088111359853,0.6231833451442995,0.6081309448807931,0.3905115231637355,0.5762354477014985,0.6041868655060352,0.6205356241728027,0.5729122646981635,0.5144398740499119,0.60500568765305,0.5821521471966696,0.5873856473362363,0.5807171774295785,0.574378348912367,0.5366682444329307,0.5862819375649775,0.4419958984507075,0.6163520011039918,0.6009192364510519,0.6151669768561875,0.6140833661103569,0.6070934378086001,0.6194692500177649,0.6195270075239169,0.5878470504044259,0.6154332578896077,0.6021810402482207,0.6017549258666123,0.6239420207689624,0.46333809045213825,0.6013681148807491
0.6363019868417695,0.5999477978226946,0.6307215912795752,0.6033584021935442,0.5141765672438158,0.6039511249978045,0.5628435883179461,0.5862633997141019,0.4867519108050878,0.5788050014259406,0.5956460540469413,0.5796477809134015,0.5707501033991577,0.5686154002164743,0.6260185725294529,0.5184607340566438,0.5961262199347414,0.5390444849198512,0.5893822644512202,0.6156645675246286,0.6322098960317689,0.6179356525501527,0.6139944245687339,0.6187940936479928,0.6056705824603629,0.6272153102226282,0.6036146669447234,0.6174951753648944,0.6041387952972136,0.6135506881428355,0.4248885541628861,0.5998846019971906
0.6166683219939354,0.6059839865843442,0.6109664373532603,0.6221265600525834,0.5574326715655082,0.5790123274722346,0.5656848436150048,0.6031873367331632,0.4809953227227859,0.5758701260898035,0.5899512709074914,0.5709307723452836,0.6042486227482371,0.6107336238503421,0.6019866250926768,0.5245350910560984,0.596849833697215,0.599638188547334,0.5974414884336446,0.550063157386162,0.5937561591647557,0.6214965789801233,0.6091505970113577,0.6137612805414808,0.5898956708247726,0.604437391439414,0.60309336958267,0.6223112252037947,0.5825768283059954,0.5784145442316622,0.5238148029328965,0.6070473473781995
0.6212435505202143,0.5895260476510057,0.5975725383483037,0.593428867364037,0.5589331001454337,0.5750024699582292,0.5723423569084004,0.6047770152132792,0.6035248545147918,0.5085304802499989,0.6129776181213378,0.5954127578611795,0.6076857105599112,0.611483116264358,0.6258043704780483,0.573620654990118,0.606752626576012,0.5966561223528789,0.5920771217848672,0.5927394539123426,0.5986195176638803,0.6082530169066293,0.6098818793240507,0.592851232833701,0.5976115116330019,0.6102228940345281,0.5869846902957135,0.6126030741915475,0.6066501906307983,0.6019866624087774,0.5717252275154822,0.6061947859832416
0.6045991926619766,0.5844464250550607,0.5582564066091039,0.6091229688564261,0.42661843267072314,0.5842709901812586,0.58418785795983,0.6156334720590855,0.5255752700936455,0.5110511486730405,0.5951128641971503,0.6004245169900188,0.5906227164900119,0.6026141392666865,0.6223580416046789,0.578740196625084,0.5893539974681515,0.49023628171513794,0.5536276406779204,0.5679243856510101,0.5515139505550547,0.5758400120636604,0.5669672300206957,0.5367606113343186,0.5799981347974963,0.594810769320678,0.5751866905946075,0.6185474849580125,0.5816578122984252,0.605844403565872,0.6002556674432685,0.5932259803412037
0.5997986004415642,0.5875036030928367,0.5638817425752674,0.5951829944811341,0.41843175146386646,0.546097469976778,0.5476726780851743,0.5426234827060249,0.5488895673728799,0.47950500169863824,0.6015423544163,0.5353060499738422,0.5035241776794349,0.5276682808098794,0.5646918625527375,0.49165031142079735,0.49674197355053634,0.42984803712952324,0.47795062112015174,0.5712710698839227,0.5327943664467341,0.5250793192518795,0.5556245944238483,0.5189466068481351,0.5948124122389357,0.6149826296354366,0.6121619175638007,0.611158706237134,0.5782797045911046,0.5838209091067353,0.5953709717956553,0.6088695991538565
0.593280432390097,0.5938848931474565,0.6082915570977925,0.6056122725666672,0.5035164836591497,0.5357534648409625,0.6028362412412381,0.5504068379663012,0.5252109627010978,0.5410510285152612,0.6068920736988132,0.5654018772661761,0.5154131552153748,0.5426137431145502,0.5888722417382534,0.5518298761677674,0.5243624444612951,0.5123237596341473,0.5340751832242387,0.5785637572216139,0.5290200186806894,0.53829873071555,0.55273901675414,0.5497207484241913,0.5946987219054547,0.5924967611112215,0.5915596000220632,0.6004907699671659,0.5930505350597622,0.5621367323106515,0.5493536095859821,0.5625856274689113
0.5952412796594462,0.5850504525057517,0.5610713991119579,0.6061101411884017,0.4816796490122751,0.5528651325892342,0.6017463135773494,0.5718242960496416,0.5728898722575019,0.5534327891213032,0.6215439740163486,0.5864781407055405,0.5697208543036855,0.5871247841644494,0.6282203870431504,0.5753983105062791,0.5668839846540488,0.5180174088376999,0.5583716082497602,0.6003893058669202,0.5522399844292222,0.5713371957182217,0.5721329489137981,0.5615178546660391,0.5713369753547116,0.575518046357101,0.5872120847643643,0.5975538548144942,0.5847511615079422,0.5807831736361834,0.5727908645838482,0.544313110022479
0.5965248172439456,0.5565229609473812,0.5785056129216049,0.5939560192107473,0.47537537087488535,0.5817633976209237,0.6168354375947831,0.5371776567033887,0.5622207812677232,0.5761466426417154,0.6156804823679409,0.5940798695613178,0.585949757114668,0.6028376828718635,0.5930088051486218,0.5982697795608205,0.5837062466858866,0.5984786283772144,0.5893387928537094,0.6026815352370661,0.5843366496216839,0.6033345440530903,0.6064370105676026,0.5686950075091557,0.5891701146070599,0.5871812134820824,0.6029044764037131,0.6150385422229236,0.5930162232968471,0.6074885843262363,0.4040120106971123,0.5507892962343347
0.605698771592015,0.5446929046142198,0.5726018336025668,0.5890209615911394,0.5509436831061575,0.5855721876836768,0.6063589756676515,0.5027599114427582,0.5648149656337345,0.6000564936837892,0.5910804509886689,0.5827221158345788,0.5717887900425431,0.5943579814141896,0.5984808824968539,0.6017928218301658,0.5956047422042805,0.5522812703535525,0.5731141904857057,0.5946310914742811,0.6114439748946053,0.6048435193533898,0.6013330947587439,0.6082811159165253,0.6147046721306508,0.6008893621854794,0.605125413692278,0.6176431540013068,0.5912660481495017,0.5827462584643491,0.48012079799702206,0.5347920617589874
0.6021580246544121,0.5834491744970373,0.5738710879031033,0.5626158247488594,0.552659291410589,0.6119706681227463,0.5903542892034278,0.4954051471773767,0.5156411984493153,0.4807138398422048,0.5591309684155026,0.5618659920316004,0.572873739498698,0.569334985280323,0.5746550013699983,0.5925799056097031,0.5941030604049179,0.5362495017141542,0.5858880996973788,0.6054483579324642,0.6032039730033328,0.619618682162817,0.5823113079069044,0.5842712809236367,0.55729308347784,0.5941346508804456,0.5979324659449224,0.6059188100925365,0.583134311551355,0.592721463311891,0.5371626098795261,0.5420794768184991
0.6000540440029856,0.5988471213644806,0.5603259333521069,0.5651114023973651,0.4200309219926311,0.5922015642051536,0.5178918101354222,0.5256943389455141,0.5691886787184334,0.47000333558594337,0.5955735955744916,0.5834419189773636,0.5748731749034285,0.595162223918146,0.5779283828817949,0.5431228485596037,0.5940867679285937,0.5858951687403704,0.5991238335008188,0.58650687781231,0.6000889335486013,0.6077563491664787,0.5709269210488723,0.586929278998087,0.6094092286400955,0.612828671578417,0.6153598301393169,0.5977733856740819,0.5812019797186407,0.595140409075386,0.5102975769591047,0.5960542106182026
0.6012779730018716,0.5949426489333928,0.5704734946220997,0.6100836817194089,0.43416242495584745,0.5926673437708655,0.5611878093405487,0.5327778522097781,0.5096808777234187,0.43885307327283046,0.5569437110777965,0.5329910894162071,0.5645014219496558,0.5810120258402905,0.6226878005079252,0.5184576404308402,0.556754011127666,0.6007957511056572,0.5706864520864933,0.5589223271471309,0.5492220981969961,0.579463953548909,0.5532604342384855,0.5218193056617085,0.5803431801903682,0.58579386501726,0.6055186398562592,0.5717446680341958,0.5637480678211673,0.5930147046301717,0.5174394789864978,0.5919393911790626
0.6092038282854331,0.598982351192474,0.5977136824970188,0.609161454733377,0.4840381731740616,0.5939921658158385,0.5535837975333298,0.4621459204677914,0.5415024580857614,0.4687690755874532,0.5690408098746624,0.5555295667277841,0.5733053486121236,0.5269833629386116,0.5636093577922174,0.5426093808508576,0.5277974028049311,0.520777146190094,0.5308787013112599,0.5309308034117393,0.5027646146510069,0.566445704058449,0.5431378033593977,0.536756412905984,0.5787362693765852,0.586886153486825,0.5980887632299915,0.5774738421672753,0.5625960510787509,0.6079945945075592,0.5645242585138209,0.5999790798216009
0.6148301368000245,0.5849721223553779,0.6033452498656559,0.6141464340921499,0.5186825688181897,0.541327794016649,0.5452704655688805,0.4594498551352833,0.521179524045561,0.47317627995764044,0.5704367513884475,0.5419118889766843,0.5646845508445378,0.5038680580372057,0.5502039383444741,0.5761705372773859,0.5392701820981936,0.46127677927115096,0.5510697767622916,0.5107400521458186,0.5344739871518717,0.5844037043149759,0.5563802761182474,0.5873292435685533,0.5886357651321782,0.5871477682229478,0.590889873148234,0.6167879935659002,0.6076145465548142,0.6121172144082515,0.5635845470894111,0.5683324324694564
0.6027501061623669,0.5964492296499441,0.5855394934623328,0.5886379220122323,0.537558621658326,0.5821371047900629,0.5762928692926023,0.6252513950272209,0.5319922151216409,0.5560246169614524,0.6088251861668449,0.6017859946382208,0.595190593816713,0.6193474747011458,0.6322964413581763,0.6047167342610227,0.5799131962745293,0.5202960001964947,0.5621920457686291,0.5658270161084858,0.6043951565355302,0.5888570776638997,0.5714080647378327,0.5896751264848282,0.6100876485218558,0.546952377174049,0.5923702740406971,0.6155101138522103,0.5834667163109892,0.6138292444659251,0.5157572693541276,0.49978238959752835
0.6146722223839156,0.559662668377583,0.5921134367850301,0.6106071231718593,0.5433260451373014,0.5611697451605143,0.6119862374334616,0.6145270949376654,0.5877662292474972,0.48672310593619766,0.6031408470010267,0.5953767887647864,0.6085397150102773,0.5672911115233843,0.6128253500137621,0.5995164809695741,0.5591879126852815,0.5777631614094385,0.5703563181752328,0.6154761163331877,0.6016391181892108,0.6211896096189541,0.5715594163567845,0.5790285595065914,0.61306109759156,0.5169887543290781,0.5805642758329291,0.6263901171321703,0.5833955513507993,0.5939914609137842,0.44310944149990317,0.5438774322409883
0.613173943492208,0.5818416339799333,0.5938548642838033,0.5791103837824201,0.5056287528022669,0.5637068275411472,0.507870729004899,0.5805454390950342,0.5852419078231377,0.5240659242467767,0.5688239663794884,0.5723253575047971,0.5750518689310116,0.5888226851025696,0.6167454061760037,0.5541118928930652,0.5490812594554273,0.5628199519280946,0.5539184544774272,0.592643810024446,0.5999031053311671,0.5932096951030913,0.6136703177277422,0.5826828620141132,0.6112810513698417,0.5977033206932568,0.6066782258993785,0.6091835411375462,0.5894933228447337,0.5978066014065508,0.4927790656699274,0.5680147933609392
0.5734913799474417,0.5727252416347258,0.5672792667712161,0.5887030000757363,0.5327819496833998,0.5710581352738265,0.49890924382216223,0.5499458697897495,0.5643152341255867,0.5098697847355151,0.5813688343223306,0.5706404812803794,0.5949635391428737,0.5697532330971321,0.6028848827634725,0.5614401217248262,0.5499652473464255,0.6123444290709219,0.5939250527209085,0.6204385416915736,0.6097860324285357,0.5946260669711524,0.6062511536628766,0.5572691490712796,0.6205266618886444,0.6082246674161562,0.6158753726757468,0.6138721712742199,0.5536408756686757,0.5785137845760918,0.5303500487488542,0.5540699122889208
0.5730442983419053,0.5683453734977822,0.5585375814934447,0.612438926581257,0.5341706526522413,0.5930449073857185,0.6180405940476444,0.5799459884443404,0.5837917898074675,0.5900608650381262,0.6199929263026098,0.6054818349686478,0.6105125639350774,0.5991701958513529,0.6105493739077229,0.5665038480560117,0.6069169832167917,0.6034164513630158,0.6030811893966452,0.6060044591516649,0.5975168761849925,0.6098261616050556,0.598464850825151,0.6068998688364411,0.6084097891200058,0.6067362450292477,0.5982906768483464,0.6101083329646264,0.5688877826169579,0.6054478481279046,0.5641525926270357,0.6012432834744008
0.5946040204443971,0.5793075932300236,0.5949651005217613,0.5622452347008597,0.47380226348224125,0.6082184974050524,0.6013799913856142,0.5951804910001701,0.5775602793414585,0.4939414035052688,0.5911566421671038,0.5536126349071585,0.6070025126413358,0.5964642510171361,0.6116591019206224,0.5806456125938503,0.5835767945293954,0.5872860951489344,0.5980081743769137,0.6040999045642215,0.6057797661941234,0.6210683706662244,0.5935524991888677,0.6057253717148109,0.5750235185220675,0.5838873433763919,0.562998461458799,0.5885808482896713,0.5657758802714632,0.5686088198239341,0.5260979905136055,0.5953053106013441
0.5841593133709053,0.5473918431798585,0.5406318640517773,0.503864932981427,0.5156634003563699,0.5853872804806709,0.5649514478555377,0.5500563359383867,0.5318193810365671,0.49256243569798963,0.5809227113298816,0.5400893091253667,0.5372268093698785,0.5831451600255464,0.5853587312034,0.44154807933231643,0.5067794882853408,0.5405153497788167,0.551190852215428,0.5618512595167463,0.5691436916374937,0.5627210149736646,0.589553918438281,0.570422879148243,0.6103693467509037,0.5859233192354174,0.5792640321898733,0.6161916129059019,0.5777432477551189,0.5878168823985984,0.5350481888760534,0.5404648693233021
0.580855530110401,0.5726584404559841,0.5831316603083271,0.4772655944702561,0.5508721309631028,0.6108138908378296,0.5576391980134303,0.6009221406236509,0.6003234408467827,0.576555176311418,0.5791885895267908,0.5889071253216468,0.6020214805282962,0.599256330983505,0.6036176055455772,0.5032516700607096,0.5883776758466513,0.5888107068179391,0.6042260772110513,0.5998512156959777,0.5954739952407347,0.6041002666157351,0.5691347495659608,0.6142726419982604,0.5980162629109856,0.5717633826727017,0.6073220451521082,0.6247811605357304,0.582901549670045,0.600258808929494,0.5883791229629025,0.5892925426736565
0.5618269317275338,0.6103766023024811,0.5722681261520087,0.5714159358914083,0.5293328531331697,0.5935561207746082,0.44907638590814286,0.5546905369419554,0.5790485844197449,0.5480765672270077,0.5456590499932703,0.5769818884597653,0.5672652395168534,0.5879221196783397,0.5860260212150636,0.5921253696100516,0.5810724011415211,0.5933941079496986,0.5770965774198461,0.5785889475835938,0.579979938904049,0.5934192677181849,0.5903187819974797,0.579822550974909,0.5987286567561797,0.5912250960014768,0.60614820350926,0.6071126700321685,0.613992577733375,0.5724192913986599,0.49609725553924844,0.5798568730817254
0.5677207917061249,0.5788940093666258,0.5992994185640298,0.5852236674059771,0.533219627488751,0.5567712033355308,0.5286548064729326,0.5477851449579002,0.574519722638371,0.5541845511806259,0.608970351158246,0.5892193689986406,0.5732278697704588,0.5840205471270867,0.5870847543208515,0.5891716095965751,0.5876236166197467,0.5858515512992583,0.5783699532197306,0.6039986893450172,0.583008922976503,0.5804260546795481,0.5904954767654405,0.5796513396102582,0.6071272873748146,0.6137140314103892,0.5878055961491792,0.5881683617996328,0.6156031307659905,0.5827333882385669,0.5629596636776428,0.5836281824833023
0.5727756322155697,0.5474217519631073,0.5938935602633243,0.5899347929556391,0.5320196077338687,0.5044196432980627,0.567812180610174,0.5674495867287178,0.60473998157386,0.5275694174453383,0.6086498849903382,0.5679328832238836,0.6137774347234256,0.599064576662699,0.6255698531142069,0.503917490730374,0.592874587423162,0.586791499964365,0.5974246734250803,0.6151682861830103,0.5820197196984669,0.5939219330187125,0.596034846579012,0.583706451061342,0.5984841748271738,0.6083228147726863,0.6184079168887353,0.610978808207816,0.5850126153810836,0.5829532523224442,0.5831949803377716,0.5990799628072088
0.5845192569075184,0.5976816019440325,0.6070629565312021,0.6001651723826354,0.5034149736522279,0.5376891514132249,0.5026822310090164,0.5557945366725191,0.5125399260454948,0.5820163593762464,0.6076627761925738,0.5551352952366727,0.5536629754148923,0.6113069128923367,0.6246503528102118,0.5180595606360152,0.6031645578493222,0.5723484753556922,0.5603763104692592,0.5958409403438627,0.5791196713034668,0.5558347921138831,0.5671993833449716,0.5837505732017644,0.6063429027923315,0.6138634942837784,0.6078870152137116,0.6204161381490519,0.5946564716511126,0.5960211486891228,0.5703195654240866,0.5747517228944403
0.5996682229780229,0.6039780018943199,0.5930263848542359,0.5806340366266837,0.43357321600825127,0.5789463655426299,0.5612186884646254,0.4908213994250497,0.4957480081894573,0.5408947106184037,0.6092618997861542,0.5559980614367919,0.5489731423117363,0.5904055658066555,0.6034101385445864,0.5689952807556363,0.6109302680195922,0.5276343541519714,0.5602285222457379,0.6073116729390352,0.5693600113680665,0.5408481182865196,0.560201209772193,0.5772630054668417,0.5993481545273942,0.5920436587321912,0.6091603994600968,0.5703864841737941,0.5548596106443683,0.5839483816585491,0.5944640435358376,0.5503403967409783
0.5789789424401084,0.5166727169918767,0.5594982205097943,0.5353489596352583,0.49644170015528866,0.5493413658101142,0.6005855464810118,0.5450248133327242,0.5883339192120411,0.5489829823947556,0.6261234549833808,0.6254368625324931,0.5990304608780723,0.6104008025910416,0.609305459833576,0.5858384876975768,0.599856491875114,0.5889590774083089,0.5918634518559444,0.6138345785482706,0.593923871837622,0.5880835239324219,0.5768495428140149,0.6077403819879083,0.5852932824583849,0.572472702216994,0.5912286939842208,0.5908328743030966,0.5827275460135914,0.5810251178818746,0.5853750178104158,0.5692029064594148
0.6043612179879528,0.551558626213188,0.5781026053220664,0.5045036641627305,0.5839080886340944,0.5441783680512007,0.6193826403813828,0.5729677299413979,0.5741871887813308,0.5788859203018054,0.608539190338354,0.5973063128282915,0.5775402929435759,0.5859386880205931,0.6139233564373943,0.6035597091918198,0.5887769512134413,0.580548545352109,0.599728040123331,0.6185172874301406,0.6078499085497078,0.611658613751153,0.5611074843125502,0.5967629744449167,0.6136324512571422,0.6080188891538051,0.6111069848583346,0.6034379443386282,0.5695305018072787,0.5870305367678678,0.5389787442013186,0.5913645239440658
0.603608928102348,0.5740578423892106,0.5733970924782821,0.5672226203079566,0.5796145322640958,0.5732973740236841,0.6113328733775396,0.6021722077653936,0.5847119632124652,0.5369752108401086,0.5974307031037565,0.5757011282063172,0.5823060275270059,0.5584175832934891,0.5948637733233059,0.5583537347772985,0.5475625545085847,0.5872891472915698,0.5998977498043204,0.5776556672054715,0.5946586621162698,0.5833836614319172,0.5877799465467062,0.578427804761951,0.594421299136615,0.5970012991161109,0.612752755072743,0.6104095662738837,0.5855631224641166,0.6286195467923882,0.5627900441548178,0.517575819260445
0.5735168106480939,0.5881918875045906,0.5951876140251728,0.6078139725550301,0.5365575805667977,0.5969447378155511,0.5566439171236643,0.5824011883231656,0.5657186962483107,0.5175135205059351,0.6022219834422287,0.6110324384974164,0.5757710015381877,0.6033333564431821,0.599391556836994,0.5905185635843473,0.5964473377144518,0.4129402562187819,0.5703337549659582,0.5288892385545871,0.5525948685588842,0.5747659235309395,0.5905484611425943,0.4608769161541631,0.5830135922404565,0.5837882346030266,0.5983934452751881,0.5839450869125502,0.6073055373088855,0.6319971088939448,0.5544929692295004,0.5319217281657239
0.6056540144133872,0.5966051637732711,0.5729252097672258,0.5998335496819408,0.5459536264011422,0.5695871963036576,0.5343853164446362,0.5642915310600014,0.5580512278131569,0.5625462111994524,0.5936831010015121,0.5876327130601241,0.5568664467894319,0.5931613147703196,0.5838575147232526,0.5661404550937115,0.5327326004269677,0.43168544099324035,0.5699117649030989,0.5541331518326051,0.5760216907353993,0.5815669173601125,0.6035026525968032,0.48889640899637543,0.5794276961906852,0.593430742629495,0.6053745072986112,0.5823062189618962,0.6033356944050144,0.6031740785753976,0.5325867467332497,0.5871763110957927
0.6068127326348474,0.5785691226695412,0.561711537717711,0.5949328725388535,0.474878687363236,0.5185110155499428,0.6029900924447599,0.5663433174292634,0.574761288203243,0.5710406020446871,0.6006744291039788,0.6035789632091729,0.5810782970535634,0.6151325926737201,0.600082761035657,0.596133740718259,0.5681929107106041,0.5947580258452533,0.589656129084869,0.599011774382254,0.58486435614312,0.598151574152451,0.5884179101971154,0.49637250674042466,0.5664474375302998,0.5921002987022262,0.5978058103774769,0.5858211071741728,0.6071264326115741,0.5675397918511352,0.4779561026569942,0.5737567345337408
0.5772520445618876,0.6074397734519039,0.5656217705847769,0.5905988925759317,0.5389771275818889,0.5354979897337472,0.6193221633787204,0.5881479412096923,0.6008267164856779,0.5485434562887131,0.5856949447045482,0.6189792113373875,0.5910310202568558,0.5969439180566813,0.5486139115608311,0.5494741437330349,0.5849940351243589,0.5674828742854008,0.5904780074125524,0.595656537177866,0.6181289781795875,0.6101167121529683,0.6118928604092132,0.5878729097380988,0.5953766124115669,0.6338950264227861,0.6154063979984117,0.5978712618976908,0.5720753309613094,0.5662247810685236,0.538643840132697,0.5292861569647336
0.5974985941321361,0.6157281213882075,0.6173947912958115,0.5664196678496822,0.4898142360144621,0.5618114787945853,0.5656625098916029,0.5765516673902054,0.5938497722134871,0.5379923337680896,0.566597489819479,0.5894643160361217,0.5773671600618453,0.5888688861169554,0.5690339617572752,0.526222444650619,0.5533571387179937,0.5593548206727047,0.5819202237590864,0.5895543137482318,0.6010033300311771,0.6111386812545868,0.596669329458043,0.5680270320293416,0.5759691223654456,0.59136163651686,0.6035437225180498,0.6287466168655841,0.5771571841797487,0.6138037730902527,0.5798198555995162,0.5770329504392812
0.5842693752640561,0.5833373032998254,0.5851996023488594,0.6015450061242973,0.5746178113574496,0.5779118860496734,0.5382822793117946,0.5855889566899045,0.5731684263100743,0.5461374845174172,0.5788889876403123,0.581991170981713,0.5555573032021822,0.5817512340161017,0.6119275782389962,0.5431987962860678,0.5489926489607477,0.5579978483239136,0.5714181097869043,0.5268084306953279,0.5488610614389073,0.5802910572722915,0.5930250377428758,0.5534514214143574,0.5757846695797291,0.5928834249381175,0.6022190971154808,0.6185992775932506,0.6006332847422822,0.6100545515256404,0.5351191636469892,0.5547160999114348
0.5722269656369278,0.5477588371864355,0.5977517382798037,0.5322364862268814,0.5723865071436932,0.5932524248268363,0.5565881496132757,0.5812896804681673,0.5359553278709505,0.5581075956827978,0.5626564771576209,0.570056313651382,0.556919047396344,0.578428600523561,0.5603712393031403,0.5495293339841204,0.5595272916823814,0.559834571160796,0.5713058186154497,0.5634682769163333,0.5879778697816412,0.5858231043425569,0.6041985062998625,0.5270517469974377,0.560545379082353,0.608564724355289,0.5983590790770142,0.6068769392309208,0.6035215283065736,0.6058645169622425,0.5137793247296777,0.5882681496953363
0.6180151013728464,0.5775154919164627,0.5818034374996514,0.5897478946095133,0.5140784148902048,0.5799457022218248,0.5804331037656718,0.5614714362151033,0.5571751547867408,0.5623482569945897,0.6042651511333101,0.5609995647095166,0.5218595878946606,0.5935139146727724,0.5823443695147613,0.5906173500353656,0.5983132255611003,0.5614653639310245,0.5776589464419776,0.6246113602797394,0.5907319927240932,0.5497865150886821,0.5976628406885138,0.6012552578690457,0.5824631008162816,0.5522674918206673,0.6123675640843509,0.5930069553176459,0.5792293448307616,0.6044759566499597,0.540587827654437,0.5464181252322414
0.5939344127064505,0.565670600241965,0.600328691099698,0.6151081770276026,0.5878124765912948,0.5099012595983373,0.607423872981618,0.5501479605783574,0.5708912416138434,0.608891634688442,0.6166064409288817,0.5731042406525906,0.5578318267099216,0.5981196857663399,0.5776168478707007,0.5769807460301325,0.5937271172962016,0.5784045527774817,0.5906694414779896,0.5630672966788851,0.5719699486239308,0.5648210103016431,0.5326794608557422,0.5681648187990934,0.5512012399954079,0.5331114495505719,0.5790109659548965,0.5972680798395036,0.5351922511411534,0.6101389066362033,0.5391790691935899,0.5307534679403524
0.5873436076090706,0.6060397482906518,0.5879734930153778,0.6151468218865744,0.525582031620516,0.6018911984238368,0.6167709833610197,0.5545620282720841,0.4764417504907886,0.48298533379879927,0.5776232114519774,0.530955409233615,0.5176887802175567,0.58451893300648,0.5547811186012711,0.47711885423728323,0.44515842815144185,0.5269336060041224,0.6038606111462762,0.5034317437076401,0.5571157879786854,0.5471063535838878,0.5618733225091647,0.5564947961469239,0.5662028990450618,0.5831905915955571,0.5833790208028293,0.6094343000358926,0.5808160116555254,0.6061711150486409,0.5443603484808666,0.55795520794037
0.5596318531120845,0.6024562312663896,0.5607291542159397,0.5741001191271894,0.5396347271109523,0.5940635453299241,0.5699542469875427,0.5725529182722658,0.46763049662160755,0.523384895623373,0.551134127634144,0.5118868468352621,0.49814072232196027,0.5632966963950382,0.5848549289920524,0.4608229650151488,0.48512385553902626,0.5489579477434882,0.5789698447404508,0.5508657663500753,0.5696730967609274,0.5508034242821946,0.5816082871004337,0.5803340393210933,0.6121495127319454,0.5350209488684932,0.5899666809442197,0.5979808971732968,0.5734293070624822,0.6013864791815282,0.5844134372563913,0.5988555835393333
0.5934939376360255,0.5627336137082616,0.5680830441325916,0.610847949955065,0.5453677598215029,0.5610304271507284,0.5860801395111941,0.6135310330905899,0.557688712124035,0.5263503674502409,0.6107008942513136,0.536171838975545,0.5549088484243514,0.5671380576881426,0.5811969260994178,0.5791871597391265,0.5885922698579462,0.5874210494493131,0.5811464248164565,0.5755591878315585,0.5732197505030155,0.5727206280276841,0.5772926436464814,0.5919611958918171,0.5784230107314028,0.5897746630838274,0.5914509685879477,0.634219605005585,0.584806052199799,0.5989888527285989,0.584973171859083,0.5924160034154051
0.5780397430603965,0.5236532834952449,0.5773043766798714,0.6105647239419654,0.46488655142844915,0.5695003882781102,0.5697383361204904,0.6087417829219368,0.5578247433196996,0.522673502394984,0.5874600034189469,0.563735794041775,0.5585148571979573,0.5731569174681166,0.5822199191915363,0.5795993668191027,0.5926646634449847,0.5946102959438818,0.5632278155917873,0.5940462645558985,0.5654495806757723,0.5560146395926922,0.5743602689567535,0.5987591144821071,0.5870679329287976,0.5973272092270613,0.5859395346927306,0.6076957373538668,0.5436535732956311,0.555658026022868,0.5792587864449587,0.5586542591863395
0.5942916949339877,0.5697829000452485,0.5784980802736935,0.5624040104676657,0.5278912483950574,0.5632957518556742,0.5501138222458731,0.482096742567726,0.5887472138806965,0.5381654517863833,0.5628270297355469,0.5750759647222472,0.5907708091061067,0.5564702528808005,0.5428014332529719,0.5815262257057019,0.5748600557546865,0.5782834962821276,0.5611934709918377,0.5887714201799639,0.583612662962417,0.5959586003732078,0.5625093931263991,0.5738181675929114,0.5874541571947585,0.5854855023667045,0.5949611696315308,0.6148362307181794,0.5749505318495441,0.581210373451246,0.5405774436352186,0.5820246651066223
0.6075833463717762,0.605679878738245,0.5987689028020474,0.47651282383672255,0.5257453046683505,0.5941420065802041,0.5495854768033174,0.5613166890716839,0.5889162667760764,0.5367578710787174,0.5840439758796988,0.5878205237584315,0.5851719814029019,0.5948551968330205,0.5529682550847241,0.4895028560058118,0.5401637064924538,0.5741517235020176,0.5789546705355801,0.5799532915470837,0.5607019335326832,0.5819387396428107,0.606327622481337,0.5635140459787105,0.5846446757781083,0.5920998472154686,0.5998521224846552,0.6148404424008509,0.5994811803423472,0.5969304731795452,0.4618606238705795,0.5671985092256695
0.6023569911375439,0.6050731539637237,0.5894970575160924,0.5582982370518778,0.4663955140056257,0.5859144578632001,0.49664753650056953,0.5698099388283396,0.5926091573294244,0.5182374818882477,0.5611325039935599,0.5973307208043923,0.5592574742892108,0.6035043105909357,0.5771935324382552,0.527894245688457,0.5846668161390062,0.5461292989235825,0.5758913233029482,0.5650309744072036,0.5518797080258661,0.5830451273341847,0.5781485189216514,0.4913455281931662,0.5285810856688603,0.5590067985580753,0.5960747052359932,0.593077470770342,0.5948189237665865,0.5981506577997423,0.5032844891876102,0.5545812390950116
0.5846806757390292,0.6055110460233383,0.60531190701562,0.608624972594307,0.4935646600649585,0.562391754226904,0.5222039872106458,0.5143834598617252,0.561330403302953,0.5189645862549036,0.5714337362518024,0.5531652216945758,0.5748018860243626,0.6091248247969178,0.5923155070123577,0.5358976855704299,0.6005244089366182,0.5567124692060963,0.5428185588023624,0.5185304063802006,0.48220180430268084,0.569875680644323,0.5323876322092532,0.5206344781811748,0.5159833894310458,0.536372714173146,0.6078404953704137,0.5941610091513977,0.5991324855627297,0.5814506723484284,0.4719151416541068,0.5465163417144759
0.6060209829036974,0.5979845466092942,0.5752874676112869,0.5328688693142335,0.4383340651789742,0.5999348101843762,0.5753532267824144,0.566130725293206,0.5805784239662208,0.5510995902086622,0.6266369734079561,0.5630332758968009,0.5891255465917272,0.5960070322721744,0.6021004173102462,0.5928780669758359,0.6087924086152502,0.5322857230717171,0.5953483562147657,0.598253422378191,0.5957831853357699,0.6047732575330109,0.5811391441090658,0.6117507255423859,0.5832082968375818,0.5963217381157943,0.6210610164022692,0.6164299340278097,0.5879292513862032,0.5768068253043818,0.5641145003246084,0.593491148220593
0.590032630341652,0.5856347993622414,0.572859911898194,0.5386295460319999,0.44210628074093217,0.5783328903040236,0.5886066812628905,0.5249165414430043,0.49361614609434307,0.6006913667711028,0.6109316636607236,0.5585169483141662,0.575041866964403,0.6003649884311308,0.6050992672795548,0.5961223510749396,0.5532008299706113,0.5485411144290653,0.5485251014617607,0.5890222820091755,0.5677945491714914,0.5735773119963711,0.5703433837125046,0.5483633876476754,0.5454860316768055,0.5955186830031209,0.5907183608461642,0.6025742282212193,0.5806444058988592,0.5686947053480301,0.571921264592608,0.5623208805774126
0.6022216475286747,0.5911649391505134,0.6064619499185577,0.6206343285133872,0.5560121675860237,0.5945260815350587,0.5733439924182441,0.44938637208309273,0.47331547386697514,0.5580871629251204,0.603027604811444,0.5030706226149537,0.5468664800817237,0.5502844979843972,0.5638107652051957,0.5907710234307246,0.5285863213006251,0.546253029730051,0.5414617157402734,0.5745428325884443,0.5421454377685666,0.5521614435988719,0.5428145363397842,0.5765849794058893,0.5553219440340497,0.5934802059695748,0.6234091477156061,0.6059103533575729,0.5987232480288024,0.6083204416632099,0.558669920888892,0.5623858235373426
0.6045034702094496,0.5963961923525342,0.607136248361828,0.6137230741147076,0.5032104439102303,0.5592519896866068,0.5732281013850546,0.5764997699547576,0.5623661684975114,0.5217192296197515,0.579441216089174,0.5654873772545673,0.585484935469147,0.5949389335402894,0.6213493473285359,0.5767060467463578,0.6140924908897905,0.5545061509396707,0.5610553181059019,0.6080698262441337,0.5919466899090722,0.6054675420603799,0.5841311607653412,0.5822345918956042,0.6058132918296305,0.5852920202542632,0.6151597345565307,0.5971852929882988,0.5975042127731879,0.6155593375354839,0.5594966968311819,0.5960035664901142
0.6214183347660764,0.6006219894112254,0.5877167200009722,0.6189853448823919,0.4897197532535622,0.5578511263994151,0.5173170751002351,0.5428999047736097,0.6016371219718866,0.5256685568076332,0.5921754138654975,0.5869222275827339,0.6011675123503576,0.5959703305206352,0.5728986340534183,0.5755855908465104,0.5753292499978817,0.5170462924363309,0.573179220331577,0.6002812919440205,0.5816216579274905,0.593836372013879,0.6005926408799235,0.5767961138311524,0.5841756857745733,0.5950837950585458,0.630786542133645,0.6069089491568255,0.5931286646194129,0.5918187994786926,0.5772428653676894,0.5893066606352994
0.5970903880332595,0.5403766554965319,0.5894241371863408,0.610119643614458,0.46545936575618296,0.5198361552171634,0.6105567069331752,0.5531607689754346,0.6017035927734312,0.6008222693999998,0.6101791721392684,0.6054124291851188,0.6001987837921255,0.6050236969310209,0.5407279432702425,0.5633637603563557,0.5406624023913852,0.5394334428971739,0.5596286535337467,0.5927241452073944,0.5787520206522292,0.5835942263458168,0.5734552032349899,0.6009327281698619,0.5796823917670659,0.5896043756515228,0.5706262658517011,0.6082492941848355,0.5907244737692504,0.5867837857848907,0.5197777270689227,0.5792711987983389
0.5932712969255536,0.5746892182405656,0.5835874943157864,0.6013973858580194,0.4756619561698529,0.5653266903572831,0.6234100651915294,0.6015322902242526,0.5885423403475136,0.5848784587655034,0.6105254966151459,0.5734587619868695,0.5768644809888274,0.6096005494295407,0.5980922470053809,0.5287956882043117,0.48006070743049056,0.5372719031450858,0.5624657970397344,0.5256618293025801,0.551891863597164,0.586010739555619,0.5792481455975947,0.5819138538782473,0.6060571776384219,0.6029866571901591,0.5896199554697629,0.6314968388662584,0.5829292979963002,0.6009459397371983,0.535002254454506,0.5878349780857947
0.615148481597569,0.5924019044212426,0.5940441254686181,0.603224186467904,0.5880054139076596,0.577140804800739,0.5765638097346958,0.5368723024436172,0.5578090010150799,0.5981395260800135,0.607080872123348,0.5789776142618592,0.5635759825125183,0.5810085495867294,0.6094664967790356,0.552054106931974,0.5549380829823694,0.56344769131746,0.5878167839313154,0.5749310006341978,0.5707521242255452,0.5725661766792193,0.5706166384778096,0.5957516302448358,0.5704220430875139,0.5651393640797946,0.5599885383921521,0.6243311592395713,0.6059563567419981,0.5921963460885945,0.5211050401588279,0.5422102775101808
0.5979170716026367,0.6016859548483414,0.580638812819732,0.599492800126529,0.5332528753415409,0.5792771349303572,0.5533253885373304,0.5676178006632658,0.5493505341625207,0.5556007083998855,0.6113757964258558,0.5571373361422858,0.5641377151817475,0.5978704672267184,0.5971812428167907,0.5594721069793893,0.5963567628432974,0.539784263119139,0.5517399553864478,0.5696880757160397,0.5588148028852664,0.5640471100329755,0.5536304838762529,0.5658066953443348,0.5784965630858462,0.5484590755490881,0.5817664374122852,0.6100338702076283,0.6033653202611182,0.6006852876345969,0.5221815636573492,0.5596818344784511
0.5860210020858383,0.5720321918257657,0.5713323103787278,0.6130784000349659,0.5036750480017064,0.5794798064737043,0.5379216703194979,0.5832566478330391,0.5539408034767502,0.5529892030950007,0.5726371720143844,0.5342352223716154,0.5737596394242702,0.5620770869864333,0.6045611020919519,0.5790637049391802,0.5562789407608307,0.5696010204036037,0.5284196899159445,0.5849040086915244,0.5973536742058555,0.6066535432528759,0.5708123882457878,0.5894940919324007,0.6205937622047198,0.5535697925961884,0.5740448665204417,0.6028761293310537,0.5556915283588105,0.559278822271714,0.628659663855513,0.581175077448678
0.5916303377653226,0.5869864610900425,0.5725066521552273,0.6295422739213097,0.49813353445029596,0.5879770711246958,0.5666897564505483,0.4784243400702204,0.5639863919552656,0.6061040401147998,0.6080191918560265,0.5909700464221351,0.5786462106451464,0.5808126031916471,0.61066523434229,0.5836579400797766,0.5813351752040612,0.5933013812524521,0.5784121981537478,0.5941706007149465,0.5933752725847828,0.588318330806816,0.5813508841739078,0.5850318695452082,0.6050545672592565,0.5473560066612833,0.5977869397679998,0.5807250301753594,0.5908617570647207,0.597983214027235,0.5371086761597752,0.5340349013581268
0.6187664596308049,0.6109174208376921,0.6180680428164539,0.5295876074989974,0.49394935421664354,0.6094871043341561,0.5777473539243547,0.5126653576832647,0.5778406185258631,0.6021891423931152,0.6093698648768129,0.5958927432005972,0.5834843812802281,0.5783523895454462,0.6073280124799129,0.5914012710191086,0.5891901501342287,0.5824671164994168,0.5828639885706827,0.6053378154565555,0.5832224985634409,0.593553246608282,0.5982565909594298,0.5969594669512361,0.5990180198582682,0.5377382928887019,0.6104778710844587,0.6100351710050907,0.5797892092049599,0.6101231531319525,0.5528024250604874,0.5669578854866455
0.6078519711023296,0.5911982438987938,0.6214299772101034,0.5326805596283833,0.5057095167456306,0.5487113444887565,0.5608595400419585,0.5293164056681124,0.5797986573974138,0.5679153970133756,0.6210996461400031,0.608899205439012,0.581256328573951,0.5961283009052892,0.5056847641206795,0.5019362880690093,0.5255757451138248,0.5168625077250021,0.4924402311320133,0.5378467873131424,0.5377288179576099,0.5308271813873862,0.5628832154709297,0.5104251538819704,0.607077411321175,0.5757885286246172,0.6052418917028981,0.6044049686358134,0.5995368578598183,0.600108564387694,0.5755394344736721,0.5910876498636232
0.6057090587375397,0.5750062014711578,0.5710605477938702,0.5995120883916792,0.36868502013855087,0.5806594991067517,0.5526494692140026,0.5447790037850602,0.5398558655003828,0.49627886346395644,0.6126425004020343,0.5741987667634009,0.5899286225031415,0.5745545599409333,0.5512638244760061,0.5119266389342771,0.5785845008828169,0.5596346019236469,0.5142884420777336,0.520188323376907,0.5292078148064328,0.5546072160538097,0.5724199014779708,0.5470494728161913,0.6113129188054294,0.5980750212069034,0.6213414020420632,0.6236336778927086,0.5878572613091836,0.612440372459005,0.5819513615481963,0.5982186317455225
0.6010824351497172,0.5630348981290009,0.5667578276330593,0.601967306342035,0.37270232947927756,0.5907077501619943,0.5834676799580885,0.4307037251725155,0.4899986054125039,0.4587640784144497,0.5661773383301784,0.5133797058520086,0.56403864787099,0.5488920468904324,0.6166316808932043,0.595467077314599,0.5975211319557961,0.5599067460943425,0.5339073011011749,0.5811372995166509,0.5427095789939785,0.5795904674760606,0.5865695736457472,0.6090217220866393,0.5847059443795414,0.6177787476674866,0.610316679743324,0.5948414132250452,0.5926688151529196,0.6101605451111232,0.5754392187842676,0.5820187415854794
0.5814148368031177,0.5864494376208768,0.5478004995690792,0.594360719099155,0.4619420025540421,0.5871659953145935,0.5835741634676838,0.40222972803419516,0.5525428128524057,0.487880275561934,0.5994568060894694,0.5446553696366604,0.5331961883223673,0.523761234836934,0.6213411556908068,0.6153915227585126,0.6090312994345513,0.563250912669463,0.5246338050688962,0.5917519720315862,0.5940959047724613,0.5694401637273205,0.5810006053401164,0.5884676225077149,0.6010206553283349,0.6079474719479945,0.5820955643863674,0.581692069683651,0.6089117220881368,0.5441105806956223,0.5877438395609389,0.5711992844769386
0.5858735312676665,0.604912419128543,0.5703300695761218,0.5943784820017413,0.5440005462673002,0.5643591074492488,0.5546160369833811,0.5952657856094022,0.5303007029714191,0.5732649841761581,0.6157209600351942,0.6119681605928814,0.5778464792904305,0.5967589629840134,0.6103062381749321,0.5823440740948742,0.5806345249631917,0.5767224773261244,0.5690711427453711,0.5914228960916174,0.5877710119689397,0.5942349742015571,0.5789894934567962,0.5880394981594509,0.6087180910018001,0.5954347824018766,0.580199067571736,0.5983365141522317,0.6030188951185786,0.5838700850055871,0.5490917379972841,0.5830167171430085
0.5902179303611862,0.6036376506532396,0.5806898226017442,0.6042083971514401,0.5208096694012995,0.5691808103433991,0.6046492541988352,0.6091562060967691,0.5650598298817382,0.5836974739590625,0.5995869172474497,0.6078390761461235,0.5818171632060002,0.6097032212296576,0.6082500062397053,0.566945286795956,0.5867858746944148,0.568977375219641,0.6023271571490827,0.5993346497919727,0.5904194804343652,0.587009483037969,0.5840544528338625,0.5744516161736569,0.5749932502328513,0.587437827146143,0.6180995331881869,0.5711204454773305,0.560834360440471,0.5926904601507355,0.4329367479132093,0.5808244797424164
0.6050495705844889,0.5976136781225484,0.6181534230747671,0.5941720695016576,0.5139067252888195,0.6049950351817215,0.5705221726525279,0.6047511662521539,0.6089157393169723,0.5338272855375761,0.6117703808940731,0.6001713694043322,0.5931614515409066,0.5986034344019119,0.6259849756369353,0.5557997562212531,0.5822427594031767,0.5437172639948585,0.5981421421659617,0.4404410674583716,0.554831023177567,0.6222030724737235,0.5840580226786504,0.510395623674516,0.5578435739827537,0.5930177210125503,0.6042716623617267,0.5676776070831511,0.5791517303166834,0.5741437540671197,0.4766605115974828,0.5847746458462043
0.6039687077941172,0.5976360282263489,0.596442816332155,0.6044102172767138,0.47708915237840527,0.5845268694628748,0.5817038601083876,0.6015163899116649,0.5488855421880923,0.5122058517361275,0.6089164150971569,0.5924147459869474,0.5836596716764553,0.5846885603532572,0.598798525038639,0.5621183225245018,0.606012456067186,0.5792853291881284,0.5688970342366013,0.5574716807157825,0.5909019959822548,0.5938956759050112,0.5503763211068791,0.5651020533124477,0.5793060119470667,0.5527900581997514,0.5566120486818739,0.61137805997539,0.5773180893104362,0.5687901951738218,0.5262212126124998,0.5472476152586339
0.5692495991868719,0.6067885013470198,0.5479559257510339,0.5731856768269513,0.5162966167880563,0.5025520174482055,0.5103826942322687,0.5483937003619417,0.5333940899043357,0.514078314127037,0.5548287974459891,0.5201466170189448,0.501545497627796,0.5378345932575732,0.5520224148716361,0.5396920040919063,0.522169441909948,0.518255197385241,0.5266308771374586,0.5193572419010134,0.5309102398665245,0.4936209119053772,0.5158449342016624,0.5104341475178705,0.5561240041354671,0.5523536555475428,0.6024995294425887,0.5870398516886981,0.5705578501657381,0.5848943740848139,0.4957776839459261,0.5450961914061324
0.5817350265561074,0.6167698494922444,0.6037542785029476,0.5615454506411148,0.5456565004247932,0.5796026395632362,0.5449146490466497,0.6090443768072935,0.5196113289081323,0.5420792939371204,0.5749182054660066,0.5623157704982334,0.528077711703898,0.5634184878088546,0.5587298501214684,0.5051136520930615,0.5504649510944739,0.5335759845133887,0.538557249414204,0.5342630550318331,0.5381458574987601,0.5253432942684849,0.5580286170414474,0.5559639049322014,0.5391520447867463,0.521418833726798,0.624721682828114,0.599698657765102,0.5814562761860836,0.5698017138499943,0.45418258763926284,0.5882953637292012
0.6154840432328506,0.5903362374532752,0.6060101088491548,0.5583995722391566,0.467322808183242,0.5931061225519897,0.5801981958161814,0.5554904158592585,0.593094285231624,0.5751421005802042,0.6252095487951972,0.5574241691253595,0.5791704427060853,0.5948102147189777,0.6072135988449977,0.48350967307529097,0.5317209181540469,0.5238005358846208,0.5866701623017818,0.5128478188823312,0.5645563766905671,0.5764752038258142,0.5910899783360541,0.5796230879075231,0.5850776150207051,0.5752940818457943,0.6087242397177111,0.6044574941663381,0.5828682006192635,0.5714525178746375,0.5863158027565608,0.5827455123022649
0.5752036348962728,0.5985731994314175,0.6080134858925293,0.612563521876874,0.47598601307893534,0.5821943522089276,0.5291819734967675,0.5643125543333262,0.5720107750191196,0.5507256860603534,0.5818563460786564,0.5526402992973917,0.6018678361806978,0.6002459169283989,0.5700757428369628,0.5338085535706688,0.5511835634840248,0.5370696999499943,0.566198406398504,0.5289686193278701,0.5901544479989446,0.5857878615379947,0.5824206938232184,0.5740054131852175,0.5933304211361682,0.5660349368446109,0.5817878944963011,0.6000475782412121,0.5984432408850046,0.6124785569844945,0.5303527792279463,0.5991158010340655
0.5798329908428848,0.6189300170232078,0.6120655297885611,0.6053700684671895,0.4957607483081806,0.6049147553860201,0.5765860865664675,0.5554624880066122,0.5278319482529943,0.5715024869702671,0.5995539473244776,0.5747619858846156,0.5952780772858013,0.5939397182091221,0.5731735301687703,0.6339193586299479,0.5964106975383179,0.5541174436513724,0.5614719976254884,0.5889823421734623,0.5722738207163293,0.5852424748705494,0.6018926762430297,0.5863145884399806,0.5782369314355859,0.5911784418456554,0.6118351391408401,0.6201196816366872,0.5791804426439204,0.5993312642966503,0.4712518135518981,0.5774009770393227
0.5983609866191533,0.606213809447578,0.5755389802698424,0.6225631802050487,0.5358359858012125,0.5769042414568735,0.5897553950833699,0.5954913849470835,0.4906784787615965,0.57325912282119,0.6187698422925609,0.5750824733510166,0.5795672039164711,0.602607942189769,0.61629892100642,0.6051064199079524,0.6091086693301326,0.5589795044274274,0.5394315734782175,0.5865679675856474,0.5964827556975093,0.5661685321759571,0.5686377385687315,0.58075090285124,0.6160540472556087,0.5717365929271211,0.6160015109801548,0.5913762926904922,0.5853098921673844,0.5948054880098689,0.5569971672259848,0.5070364666059014
0.5824399260130586,0.5959362125459323,0.5632950911347333,0.5533418769953168,0.3940329779339208,0.5670003895745674,0.6120122931458427,0.5372338385422236,0.5311931468227169,0.4825684045798789,0.6106691933206555,0.572918418444138,0.5439528412725644,0.5786567593566364,0.5728900774988379,0.5820279131436973,0.5772077820540308,0.5470951358540579,0.5586918609515353,0.5854979575907461,0.5819141720038027,0.5952352532200661,0.5911603369850954,0.6017503885497351,0.5997133588319425,0.5825326242593588,0.6185216329113465,0.5696056797885305,0.5859443161207015,0.6066750344472703,0.578553842489436,0.5415257159654899
0.61067103937348,0.5682992364515614,0.5817383201813193,0.47281562531463506,0.514413294490726,0.6120658907767941,0.5605090246386788,0.5036029543703596,0.5618560503330448,0.5022813841515039,0.5902102340558847,0.5512499698105299,0.56640026508495,0.561949856944552,0.5670067153119139,0.5646991899569419,0.5575797532765533,0.5518982625001472,0.5856843218040169,0.6073173868212663,0.579755760132614,0.5635536153770327,0.554310105528429,0.5984566645138275,0.5611836555587105,0.5787560527542066,0.5826394689677279,0.5980737594440504,0.5639563924493803,0.5971153720621496,0.5440870773797031,0.5424896821640963
0.6211465212321026,0.6019861726455993,0.5895225876299113,0.5789898309475282,0.4890383742980244,0.5721358135260529,0.5146281098380824,0.47383951634887617,0.5441215624397122,0.5239324481185298,0.6127239588597407,0.5613774594443715,0.5781460257692175,0.5654198633306184,0.622179301769835,0.5870680818274803,0.6246326294019297,0.582936567500548,0.5796028275749973,0.6175891697030288,0.5948783552558942,0.5710205155556,0.5812290663908444,0.5408851029213773,0.5947825683807267,0.5434519609560321,0.5454951152284498,0.6174831169377104,0.5687323531830516,0.5896962993824809,0.5712613962757955,0.5333186162243839
0.6077935336343332,0.6051835489818691,0.6194335359047602,0.5873959229862776,0.5054803662372924,0.5347501389156529,0.5684796838478184,0.5714896810647304,0.5278562184309764,0.5305308172881403,0.5404569693248504,0.485714759143387,0.5256793903444604,0.5058525501377851,0.5560410825529416,0.5373785379504425,0.5675582496443522,0.5661913828747588,0.5517096092564269,0.559702194455873,0.5416841893311399,0.5540773115833012,0.5442732841385686,0.5441886425408025,0.563354836632277,0.5729677643132111,0.5909738808894301,0.5965276946350523,0.5907817838176705,0.591882090414012,0.55130662972062,0.5964149453249965
0.6150672184003347,0.6043714676814751,0.6103400443523341,0.6006892771246398,0.5273894692620887,0.6127179471399469,0.5131632459495684,0.6084679681549451,0.537191850769253,0.524441825828699,0.5638242082417627,0.5195761449596792,0.5568824440083074,0.5524523612639493,0.577208774998396,0.551446269768298,0.5860916701219707,0.5741217414390534,0.5805865659293762,0.6070166507531656,0.6008128976085426,0.590874803087407,0.6045943258743339,0.6112286005394727,0.6131615232874167,0.6165812207448793,0.5921801707478568,0.6094155395835973,0.6023200309318,0.6172405888814587,0.5608030610290496,0.6086657842667458
0.619270334044744,0.6212197599965961,0.5923418280808751,0.597552706462942,0.5301218299287692,0.602299779906069,0.5769427392969192,0.5907707188024742,0.5841031728813229,0.548883794569136,0.6087672012466827,0.6108173993741163,0.6191843772249666,0.6225728614676994,0.6182306957599214,0.6131121671333253,0.6359650178692065,0.6071848013351925,0.6171518673181142,0.6154448049722249,0.6071033315054621,0.6130461548149279,0.6089789222561286,0.5348334602034741,0.6098672046894349,0.5903671260165139,0.610612988998623,0.5823421659135691,0.5918670116264294,0.6153798812855312,0.48305214194031054,0.5542103608160988
0.6024767900536578,0.6100429144368186,0.6096942932366579,0.5876884746698753,0.5078128091991786,0.5889346690648845,0.5525615971178944,0.6026481919848176,0.5597491987460624,0.490620888646381,0.5953798926662236,0.540955369796468,0.598636670916477,0.5638591305340938,0.5886431081033849,0.5321758286133164,0.5746526029289558,0.5911364989364011,0.5726284369061124,0.6036895174162957,0.6030891660057771,0.6048373556466583,0.5803256954352423,0.49481511853450627,0.5519697572571173,0.5690951580296538,0.602290862723951,0.6022834965587969,0.5958037688146266,0.5988284148353277,0.5930752410739483,0.5838006824957336
0.5900350198801808,0.61627332396129,0.601796934162546,0.538332905439706,0.5066950156712761,0.5948395434286441,0.5425928469116166,0.5381174878633876,0.5660072429470093,0.5171900088484129,0.5825336279324377,0.5156772295883973,0.5607397221248963,0.5510188985364808,0.5469138090998689,0.5448346757554939,0.5366985367194452,0.557583861454418,0.563107064989031,0.6021634932187063,0.5480605481798879,0.5870629648257276,0.5834322559731052,0.5495450342872584,0.5896969512893028,0.5770865980735742,0.574292423017192,0.6057111402756006,0.5512729060488204,0.5582681261271528,0.607935352320253,0.5759580916658557
0.5523351364230787,0.6038583615954123,0.5857124349183561,0.5652307482287748,0.4251747995392452,0.5883423730484295,0.5398409043628688,0.5190863132047594,0.5777642203060704,0.5295425919426097,0.590838899335812,0.5836418358520582,0.5735866724077628,0.5987177681906919,0.5719462271970173,0.5401999918553556,0.6009522780241561,0.5798227550463098,0.5809908013523714,0.5928289921362067,0.5781427695952619,0.5256962076689561,0.5884331126975229,0.5160197787824055,0.5953760472765216,0.5508486604784723,0.5884088109629052,0.5967838374499597,0.5945946426333582,0.5795068782476271,0.6022000316120812,0.538757409372096
0.5815032710788931,0.577908627784037,0.6053316902926322,0.5203390646961554,0.5165591224923152,0.5964065480057927,0.5784269443855884,0.5543380184783132,0.5666114134348105,0.5163161770975793,0.5966732294042869,0.5767441662549959,0.5468982509105311,0.5767983480312109,0.6044633217072468,0.5560328587044412,0.5462713370112416,0.5754767597317955,0.5934369409764849,0.5229273607615377,0.5854315290127623,0.5768605545783577,0.6104914056306818,0.5477558258751372,0.6074338637318214,0.5989714581844049,0.6076992306718675,0.5769237205183291,0.5512669193695868,0.5873740314628986,0.5946128306414253,0.5243365312259317
0.5948774815488286,0.5843712655129318,0.5860774200837885,0.5924488647939167,0.4887866523627068,0.5683605648506357,0.5743118008665076,0.5608215166666711,0.46796817665371876,0.5321059245078592,0.5782348807117861,0.544506165623541,0.47918149641399194,0.5778417291737232,0.6010094846950543,0.5783371164328835,0.5520830157184593,0.5677140265499764,0.5646387721038469,0.5407618935142842,0.5881376214136868,0.5677480265858188,0.5942071136904868,0.5984587289888467,0.6102364176256561,0.5862576688518027,0.5974229975725294,0.5758168801333295,0.5458822815006787,0.5637831471601857,0.5046728517671811,0.5005485978567555
0.6150490321441203,0.5709910840989555,0.5907301435273731,0.6242120270521386,0.5404936431155148,0.54174264676557,0.5832137827535039,0.5693431875442401,0.5229826287353214,0.5581752225806106,0.6044609578089648,0.5748560927387921,0.5670669958237372,0.5811940968840105,0.5950301240512849,0.6034566482110845,0.6099397368772965,0.5973737477918069,0.5923067251204501,0.5918159514513993,0.5808034859456405,0.5933005071218449,0.5974837478632247,0.5914945395861345,0.6065692186697779,0.5835730893156555,0.5974599709349917,0.6036989212507448,0.5828639641981296,0.5922762058922162,0.5494111722780383,0.5368394143503302
0.6186340305210279,0.612544179764194,0.5894180003706123,0.5937861986242124,0.4925231655400455,0.5794027444346375,0.5343209458053929,0.570517713125902,0.51975999649103,0.5744738320501852,0.5589781736395711,0.5564778878859485,0.5399118582006183,0.573435290086606,0.6056492822213212,0.5608056826436745,0.5938009995009776,0.5734401095207949,0.5659616278136271,0.5489052153961601,0.5580328628159128,0.5554356574920172,0.5768816202745033,0.541560198323769,0.5665640294583033,0.5746031518331858,0.5991843796409867,0.5976511145218759,0.5938479360214612,0.6036168791225253,0.5576608802357668,0.5520563809988835
0.5999823163933786,0.6132425289552592,0.5792006843044526,0.5801163357358027,0.48824489972623447,0.6153853761857706,0.48361569072986443,0.5804600994648405,0.5493388129305691,0.5425724108354598,0.5388973726265952,0.5669964296085528,0.5551237933277795,0.577396014720465,0.5947802994235091,0.561041330479136,0.5773047351636319,0.5600990892469307,0.5582292662514211,0.5490706967770876,0.5261337762379602,0.5295544110737691,0.53724120144209,0.5140376820909808,0.5475815331020482,0.5488617204819256,0.5898711087947925,0.5758126918608081,0.6057401475804599,0.5990368802746158,0.5556378633606008,0.5662194111191117
0.5963611539086168,0.619465813078359,0.5761406793709033,0.5972603086112086,0.5414259553094284,0.6177527967860614,0.5080834496903539,0.5736582768709421,0.5626438357650032,0.5770751593754876,0.5549893922900986,0.5574674574511539,0.582666427969839,0.5703963973429896,0.6042964584045148,0.5927285079074224,0.5696732496065906,0.5660879443027673,0.5831978202741536,0.5728138427639125,0.5705845179947107,0.5690803307589092,0.5494511663084091,0.5396864784427194,0.5748208743935165,0.5251398581392734,0.5833473454651839,0.5630295810420288,0.6169366419647169,0.6288099985035213,0.5237760071243834,0.5839555515389089
0.5963516982630339,0.5893498804688929,0.5830087001854989,0.6113931930980443,0.5146819919532346,0.5634952532957634,0.5440818204203653,0.6144069928462103,0.5497109002159829,0.5272405841394361,0.5545489390651199,0.5672232392161118,0.5990932348148894,0.5753429908055592,0.608573510097268,0.5562583564393929,0.5690748767158081,0.5845452706860045,0.5958537133015878,0.5731536286851111,0.5798495273200405,0.6106177122278802,0.5859882304843275,0.5113014591055326,0.5621086292503926,0.617353013938394,0.6064893648719154,0.5615629193016176,0.5761066003580338,0.5946756394364573,0.4563796163076835,0.6183209734760707
0.573723054458953,0.5872462507560822,0.5885630236484174,0.5567947479954046,0.4850928926229081,0.600416717851413,0.46102818963670983,0.6093445693861143,0.5842383143028633,0.49883287062538867,0.54822530661647,0.5568607549160945,0.5749380557836021,0.5678884431277242,0.5881820722478259,0.5773447980784802,0.5589702438386283,0.5874045983703915,0.5845345497202591,0.5628741233738109,0.5684778682493627,0.588683837328356,0.5749639731538487,0.5253755687254513,0.5317743557650424,0.5943987779362357,0.6209200930213579,0.5991832846843419,0.6080067479707922,0.5971562556678949,0.5175133366461288,0.6086393160325546
0.5726133827535043,0.5928814341003309,0.5588756435459946,0.5722332928844442,0.4830632505485173,0.547485326813627,0.5212283224724026,0.5673421982289034,0.5759892299534993,0.5255131115919454,0.5463143577217048,0.5784243236850001,0.57573260026437,0.5524488330182628,0.6101826017887693,0.5578516977316812,0.5371475749726474,0.5699867657203364,0.5778703527185864,0.5131829798043466,0.5699654342226712,0.5889947172451298,0.5848574221663442,0.535918252675568,0.5904910422484557,0.6005534449629653,0.6110389336021272,0.6184199292831866,0.6067115102098306,0.616940426788843,0.4982646917810065,0.5970636807148272
0.5805036217145365,0.5769777079333569,0.5727455597298136,0.5787744680177714,0.5111708363148936,0.5552509317927748,0.5528396303546221,0.5596181245342323,0.5545529606270274,0.5394765019625655,0.5609588928454279,0.5782578134242228,0.5631600055696669,0.5942048880327927,0.6008154420928673,0.5579425101153975,0.5770124755201966,0.5635670140984309,0.5534282806190423,0.6008362745536737,0.5673276396565895,0.5241125446648829,0.5436544000733713,0.562262468841428,0.5977500782133467,0.5508726094484399,0.5873892475805167,0.6120049367683484,0.5952728767989659,0.609432991068747,0.5549630114359282,0.5965303964095063
0.6082000826613928,0.6257360877274502,0.5899136785401166,0.5872577066481762,0.5153674431799921,0.5352371680445254,0.6003478607923948,0.5394147888720445,0.5117942126453372,0.5234773414975376,0.5826995557173775,0.5423430726511558,0.5514787307114702,0.5395857024166776,0.544012767390352,0.4612132477365741,0.5871886370821592,0.5397072355824242,0.5621940153372582,0.5763221875530601,0.587389034382722,0.5624030818514506,0.604474079748439,0.5859518608027559,0.6059222453278283,0.5528984202164291,0.5961438397930986,0.6105819365605304,0.5988445569908,0.6232993775493307,0.569414136419874,0.567608558856183
0.6189964938389338,0.5984336386138238,0.5871076648165567,0.5862840776648731,0.4766213396394985,0.5730291563457157,0.5901061575899371,0.5013872493280379,0.5924237383450215,0.5969094829658729,0.6161267521354308,0.6028204614519378,0.5872980114705816,0.6115470460038592,0.6154454150945139,0.49121908627612304,0.6013050713669897,0.580078336224868,0.6117067811314797,0.5714894792699777,0.6133597701606458,0.6050071203095285,0.5904120434324514,0.6073017948070222,0.5973272549465877,0.5952409753754867,0.567652020066061,0.5867736229360332,0.5956013154038272,0.5865659777571065,0.5417866571303707,0.5976086177439967
0.6158862982983266,0.5558617742860684,0.5843020945022895,0.6007265018395535,0.5157181433757767,0.5728324651421496,0.5965381289657109,0.5673380762981378,0.5645913136106607,0.5980859406075918,0.6046080798524418,0.5822937534251035,0.5711175079993723,0.6184252785958312,0.6118692876597308,0.5579664028434119,0.5824276653982717,0.5675734570670155,0.5909565772785207,0.59186031010378,0.5985123533482183,0.6034108878401431,0.6008909690305348,0.6020784563096174,0.5956576442824477,0.6087389857114189,0.5727672195116758,0.5774256894159131,0.5914843597355474,0.5457928929488985,0.5206132798166132,0.588097872653414
0.6034116923542416,0.5419099719790111,0.6076180489964051,0.5977441951977129,0.535031562736412,0.5640398771946633,0.5699089834625941,0.5892489611885368,0.5515031676647678,0.569425498202369,0.5737487030140018,0.530994601501032,0.569444434051186,0.5605718821920675,0.6030178359344195,0.5666106552540411,0.5548043119123778,0.5506379353672641,0.5600783023466059,0.6003924890538802,0.5922522988696741,0.5697641524751055,0.5699352722583032,0.586410134733324,0.6167767886329271,0.6017160614889548,0.6124972606788933,0.608530103059232,0.5852891958643812,0.5904439185541324,0.529470559400037,0.5662375966733468
0.5965507333107471,0.578632133772347,0.5954247883476919,0.6255978490385921,0.5036223938697371,0.6019551893543649,0.5263601314303319,0.5458920906798349,0.49089833458861337,0.5361970555891228,0.5774267339596147,0.5660453661483867,0.5704612357126101,0.5461649640152132,0.5974382124226498,0.5078905679133277,0.5649054724332639,0.5988630913941978,0.5485943423367035,0.6015805234222079,0.5850427355327725,0.5751216961282887,0.5746398901775246,0.5556986357886832,0.5955806892107698,0.5892364946582461,0.5947230136842631,0.5922543913584926,0.5926769589640596,0.6095755973519879,0.5635118441459129,0.5231515809584351
0.6078198153913167,0.5937068984128467,0.5993057987260683,0.5802585102573854,0.4975215548782577,0.602191358362031,0.5608123176962229,0.561428038703009,0.5018025769957115,0.5159405177554532,0.5662672630959671,0.5531663471998427,0.5714808207037209,0.5841299831313341,0.5946330553284648,0.5452550617819801,0.5444522210985072,0.580475122614543,0.5280716921878965,0.5526595453851154,0.5394014407279553,0.5753009845041391,0.5750830694261272,0.4996879500411119,0.5879636504857033,0.5949080837909415,0.5926858164020543,0.6122312921590605,0.5818354726443038,0.6176892276533774,0.5700196430358051,0.5995378784418105
0.5891495720272346,0.5817175168451595,0.5801318821279817,0.5999608261171794,0.4508002170738909,0.5609542033815422,0.5343640772631505,0.5626809897794457,0.5869633370819977,0.5838006934378642,0.588211043844214,0.5953066704676117,0.5811317688424378,0.5757562809762619,0.5676872845355954,0.5538728963796328,0.5263406885481542,0.5222689449670843,0.5922074688211585,0.5593029700092622,0.5228801949835755,0.5913634220006719,0.5632639673681333,0.4413327483611409,0.585419120205113,0.5781602090388495,0.6112969567123938,0.5890507789202546,0.5562538579084944,0.6193196028289724,0.4741213660323267,0.5965356281615285
0.6014482915408149,0.5958776303785112,0.6011449320900786,0.5874025358146778,0.536111962615864,0.5869301659375737,0.5366432224771341,0.5907971266218627,0.5722385899211047,0.5280761720988509,0.5410171423469831,0.5129621810239875,0.5605713075227438,0.5437164582309728,0.5812434932978937,0.5293372495810925,0.536837021212501,0.505580166627243,0.5407008612316998,0.5405353764531093,0.5525373523968198,0.572388642399349,0.5775367747271279,0.541318716377356,0.592664099655307,0.5741893183723177,0.617949837259857,0.6032537779616928,0.5843711629189053,0.6081729525361685,0.5476609279355108,0.5983689626288906
0.6037748409015333,0.5939118615548902,0.6042874934222734,0.6108299374376716,0.5456040388753884,0.593900956916374,0.5325970413433417,0.5006754813013465,0.5934609125082005,0.5124507880698834,0.5486265220725967,0.5843409016760711,0.5833946749357023,0.5894201721809699,0.5981757182306144,0.5602085085220856,0.5787931022700182,0.5634873079905894,0.5715908140537768,0.5216088107794538,0.5401369786734624,0.5893555564478263,0.5870143521458715,0.4916982680486578,0.5551102854185195,0.5948883356500201,0.6163353081600447,0.561320424903669,0.6079110822686612,0.5979517478583292,0.5448687539501521,0.609002470231436
0.603519156201971,0.5700205666543953,0.5593256992303601,0.6064084548873075,0.3374054600118027,0.6270160040401355,0.5063774255387832,0.5278921119406716,0.5876317232999538,0.5035427206341169,0.5983838126537939,0.5855280820056253,0.6082936998109123,0.590210829956797,0.5895666061932358,0.5534637889447719,0.5756548434329493,0.5966001499472438,0.6010944561280422,0.5622028066440039,0.5651097472198083,0.6166055078609719,0.5820412685975732,0.5116033660973155,0.5919154608414471,0.6045930041021267,0.612114303892904,0.5722233411545963,0.5875097366799212,0.593010501629769,0.5446049604099019,0.5911421801896538
0.6131224587266232,0.5820244890705878,0.570638686422274,0.6059191200951591,0.33952865204377997,0.5963524882456902,0.5874633272236024,0.591898040199724,0.5389413572317479,0.5256383173940885,0.6250583738193012,0.5530479059405269,0.6012564510682837,0.6051569814085256,0.5424638812439085,0.5040123081060837,0.5762606897894608,0.47165241866682156,0.5938498945885552,0.5859337188197125,0.5651101582744227,0.6000127635847101,0.6127667659690927,0.5556073580446127,0.5823686054769357,0.6259298438027538,0.6097427907452804,0.6013979905982884,0.588659344108396,0.5782405618821999,0.4981642597479761,0.5977754610145913
0.5571418520822071,0.5870310466465736,0.520312860916457,0.5890909723975446,0.46997438335027036,0.5411387017832334,0.5862083016402514,0.599139073848318,0.523911305462012,0.5478296913582104,0.6055276690628031,0.5266952417959948,0.5756131150045237,0.5873633644975692,0.5921954737242137,0.615255964359591,0.6101363899718935,0.5665185417773262,0.5768626389647653,0.5492129429350894,0.579518430260363,0.5813724799616633,0.5768629393691243,0.6084034207159562,0.5686309559809879,0.5924718147385917,0.6085441037752016,0.5745554967883969,0.5812725741974014,0.5696202072366885,0.5636572491776588,0.5979672277616148
0.595548205190485,0.5249508729873307,0.5326108372005394,0.5889837560206141,0.5595861937729549,0.5799977512377161,0.5812606509420709,0.5483606323973591,0.5144399893100317,0.48891426003569993,0.5793408337315499,0.5316546437885055,0.5669359541581916,0.6088765414043119,0.6198927842476653,0.5659173474895517,0.6049550839013375,0.588225842629732,0.58743291487334,0.5284443229046162,0.5908752025015045,0.5925361607344523,0.5998543427824262,0.5802006179764233,0.5917550530690602,0.5574026295559682,0.5101936930465727,0.5941616158527354,0.5952419079345381,0.5477398211020408,0.5308702138534565,0.5957251655544793
0.6196518950806691,0.512850002677016,0.5445265760460414,0.5943225137586965,0.5314035421886194,0.5759394031495076,0.5984366002161814,0.5719865780187889,0.5802189292474333,0.5061153500233528,0.6231254693212176,0.5637021236439644,0.5561103392433067,0.5943356942692974,0.6085250510876097,0.5742376636600377,0.5660571253644617,0.5673666216687117,0.583401668192714,0.5750534626246843,0.576255551381546,0.5882448887954278,0.5968541977028655,0.5413660948662804,0.5916625617453168,0.5661705650399087,0.551504985238686,0.5947474267259263,0.5625084352149989,0.5740244338674514,0.5284298808934323,0.5580688528030278
0.5768590584283634,0.5240223073815603,0.5154827816864778,0.562764881728852,0.5382127503963281,0.5213045600047067,0.5875846858495516,0.5658006478716082,0.5305444022049192,0.569638546064194,0.6127811204959004,0.5540697039869023,0.5538876264207331,0.5901257623785037,0.6044637530498771,0.5569600223536291,0.5821182282015229,0.5597831855646861,0.5800471588985472,0.5824158057041763,0.5500846885532457,0.5730712215242497,0.5862400287261147,0.5339596464284516,0.575374288339027,0.5625243067328435,0.568668801138731,0.5772894763728771,0.5713442223200909,0.5553828923970774,0.5091137201862348,0.4970393932673606
0.5827207675533406,0.5730654634920932,0.5176549833831757,0.5714237753677988,0.5529980165117598,0.5629877677914896,0.5763666537512828,0.5869420328891876,0.5561764524530347,0.5533936044441945,0.6002021394153456,0.5693642895024202,0.5548363420431611,0.6039894294019073,0.5923403146035932,0.5875897709374271,0.5998807432699609,0.5837538288265373,0.5752903519372631,0.5747965765712171,0.5863894915593194,0.5857440172500836,0.5909623067696341,0.6003497068348215,0.577042955891423,0.5655000145364564,0.5549706551842081,0.6078848847254333,0.5829205793589509,0.5824063376447186,0.5257685539758609,0.5361331344104759
0.5949446462088243,0.5477029178034085,0.5622411844852271,0.5698789450945664,0.46520611634440645,0.5336015775508455,0.5102122297807068,0.5641890841657546,0.5582798502772248,0.5016220732632256,0.5613106906174538,0.5134152580978495,0.603685711808172,0.5598026834394473,0.6175598942811404,0.5356538219133316,0.5228447959454847,0.5659538496550515,0.5533570021726489,0.5222253408759345,0.5444217161753099,0.6051089739263146,0.6081819923930709,0.541350150116486,0.6039832120894122,0.6172081866127066,0.6162742587921707,0.5979834609108554,0.6035966250109503,0.5848011252851203,0.5711024002674657,0.5992705999096641
0.5792280219607024,0.5665349854551577,0.5552683428280517,0.5873920963989547,0.46579019620430945,0.5390957741739606,0.512693969222772,0.5090738006542964,0.45340374131724087,0.4846387586734872,0.5352295233196281,0.45615373151365624,0.5123907008799236,0.5436952300060777,0.5855718571938442,0.5470480466243713,0.5147439696136188,0.5090649091769539,0.5134953730954096,0.5231768819824008,0.4937495666813589,0.5249460070966361,0.5952945536844055,0.5038527547906856,0.5962077571703935,0.5592918826131081,0.6207779915356831,0.5914982720577249,0.603098757247742,0.5774219603372134,0.5584599667265847,0.5292261186931155
0.5785161414727564,0.5939249252318152,0.5735934807524147,0.6029731494179507,0.4672690459280055,0.5772073378781899,0.5508199518166915,0.5299992940505122,0.41445059744707397,0.47975202607625006,0.5533978037709794,0.4728243812928987,0.5073587164563544,0.5649220133076153,0.5934243298547599,0.5902375357088108,0.563378568084368,0.5340281573599768,0.5379251884489014,0.5616949789823845,0.5327537899939634,0.5003432538633396,0.6058412900632181,0.5276176615828276,0.5875182702861194,0.5462003031674662,0.618998051013873,0.5842593031025914,0.6066521128766384,0.5954627067925745,0.5117577516724534,0.48186248305649343
0.5798756924172173,0.5975058769747682,0.5937903152426529,0.558273975142128,0.33385788463613814,0.5870323513274268,0.5872971042059257,0.5794148297465105,0.5013909713777461,0.5044105785268,0.582376732434416,0.5605119294427005,0.5875917422391728,0.6146860225769893,0.5896583409123837,0.570330319774253,0.5850745804134426,0.5009719208022176,0.5239380815947642,0.5317906204210276,0.5163795690398183,0.5316575305196342,0.554551730203666,0.5381877609994659,0.6031871416934521,0.5653278300213705,0.5924217474092911,0.593647242759008,0.5440891871924829,0.5950957756919955,0.4615460215938827,0.5309568182955673
0.6103177056480604,0.5781252103592833,0.5638873399437404,0.6154829029892259,0.3450702517455432,0.5620168616573072,0.5796588998638095,0.5957717984290838,0.5698632013744447,0.5800298743401847,0.6035036945711406,0.5535261718689825,0.5632529502774235,0.5970053133173824,0.5519566262653386,0.5902887149421532,0.5626372884214167,0.5523140061988586,0.5331450100759717,0.5695945370392599,0.5338723751667404,0.5462727758122549,0.5444664104899081,0.5688856707139508,0.5927518486799908,0.5349495263294121,0.5601883548908648,0.6114849417924989,0.5303554233004301,0.6001560875460525,0.5054435693115495,0.5491838521879995
0.6094930422966176,0.598513048728277,0.5835445200831382,0.6055524555891639,0.42137017281123623,0.5521664573109859,0.47831629646398743,0.5542500983126073,0.5388866852117303,0.5158022022237274,0.5863686751380076,0.5174574656209344,0.5451473548503869,0.5538146878039945,0.5131760924897611,0.5809032024164121,0.5685669236717227,0.5604143961642469,0.5269556954139976,0.5711395376578895,0.5374246335067013,0.5598357148895756,0.5609164975393158,0.5414135913928381,0.6082983581051908,0.5959734384476052,0.6047708559991647,0.618123282108341,0.5855244006864915,0.5723693151866232,0.5649544961521134,0.576600114481224
0.6140822524816074,0.5851445537603392,0.6021423606929223,0.6091663503409984,0.5759044399452443,0.5816074258933284,0.5253334507583076,0.5603616039007696,0.5715194207977282,0.5195041027809496,0.5803217930557834,0.5744924000655744,0.5994438217169371,0.5920273039079615,0.6211406114363702,0.5795518369932318,0.5922790650235507,0.5821401030750847,0.5849379574681964,0.5826762513516341,0.5492668679943101,0.5547117860994121,0.5302660983645436,0.5794328000196198,0.5978645727433866,0.5876365629114596,0.5885413777711045,0.6263403151611718,0.5899304209730772,0.5752227101338377,0.5603364464799099,0.5760648621040781
0.5955127925155909,0.5733731029365876,0.5510115875548515,0.6028427302009693,0.5541922348473232,0.531611974109293,0.6021091150326716,0.5871954043211927,0.572046837523462,0.5038699966451253,0.596776121668531,0.5884544958638833,0.5848884941350585,0.5625085810258762,0.5900533557472262,0.5487719824168652,0.5666366317597119,0.4884402865146432,0.5803180496551731,0.5790380584940057,0.5542379526808873,0.5640207739107758,0.5432043485069561,0.5453912597089285,0.5557557425416392,0.5856782770936355,0.6033586368418006,0.6255713678033302,0.6020781694062199,0.5685893511378359,0.5792590057596632,0.5768130914740623
0.6070627655749148,0.583866623119189,0.5938490779232701,0.6002978289249975,0.4819769829054675,0.5611159678492331,0.5504706935117224,0.5692289880555561,0.5719258876035479,0.4965878529480023,0.5846150323316465,0.5854183647245753,0.573340240572951,0.5875532441236456,0.6064181358108341,0.567941048908348,0.5342983748597693,0.4791269167721382,0.5688963299542268,0.5459332145518816,0.5485820766074082,0.5670235680254245,0.5518652233812272,0.5696343008168615,0.5513446494306455,0.574724984002286,0.6172656822673531,0.6143979715390918,0.6139780385695078,0.5902141029525064,0.5921431493316078,0.5607907275478123
0.60603297732157,0.6002293649271968,0.5690719803754468,0.5782202823591653,0.5044358395818981,0.5599547589516838,0.5740554584891415,0.6091585745479856,0.5562393701666356,0.5208763366014896,0.575985415003164,0.5692433646883972,0.5665114745243911,0.5829236281253066,0.5676923149750683,0.6143662719016115,0.6039487698910632,0.602374283207796,0.5938708986463482,0.5960063418918089,0.5880766927011637,0.5962276674594774,0.5836840371423422,0.5890709411342765,0.6171046226969374,0.5822600069766176,0.6200373710833026,0.6151792566943121,0.6028715031139725,0.599911874631894,0.584197241659338,0.5648110070366186
0.5946180659804955,0.5928088436798905,0.5693487434566036,0.5614373367412097,0.38972052188592804,0.5267828223601145,0.5645008404559004,0.5482018119152687,0.5679253558561445,0.5412695397836262,0.570254936077709,0.5766458449909575,0.5745382354846184,0.5923105075827516,0.5642895364980935,0.559606153941312,0.5477743238479824,0.584496684615534,0.5649188581900483,0.5811768789278271,0.5836178744892949,0.5570137968452908,0.5702665333246698,0.5727519539038725,0.5676881274695488,0.5592644410441103,0.6224871307151993,0.6051849201928322,0.6010272771162214,0.6056341016317437,0.5928862703203939,0.5691813501858033
0.5698658218903733,0.5462700729337663,0.5794783165254491,0.5727670953452029,0.42871948645643976,0.5674610558228698,0.5551270524570335,0.5470622780361263,0.5375954803787364,0.534936429289686,0.5752497092475871,0.5550875671885354,0.5106232405461874,0.5626471664253861,0.5602580408508047,0.47375261639739324,0.531211426435916,0.5199734542179163,0.529244618809616,0.5631203083436581,0.5442398070460441,0.5280366639079555,0.5369481225412586,0.5535055135314977,0.545793091541627,0.5347424117862336,0.6180019966673362,0.5754076071476447,0.5968141534227245,0.5871256143882072,0.5634077314103515,0.5423384641793967
0.613721165135031,0.5718374962744684,0.5886412849013192,0.6020475851151571,0.36544811620671935,0.5677248482261235,0.5601664486658969,0.5694977274888269,0.5555306012808637,0.4837934314518978,0.5586036095768825,0.5465593463750781,0.5454928974543671,0.5573244174904608,0.5857431607172168,0.5542292104135257,0.5816147475390433,0.5482739190756265,0.5610040415794986,0.5779902489693196,0.5562355125395869,0.558150805922207,0.5537925707832463,0.5370600780657792,0.6043201994104664,0.5654406263514864,0.6097897016501319,0.588649411530136,0.5519413581024766,0.5773636881026356,0.501859810689142,0.5744239012728353
0.6125028609577229,0.6145470935492471,0.6187550875481809,0.6040765045349458,0.3251339644604441,0.5878908225889378,0.5672523725608964,0.6025933415274216,0.5927279442272191,0.5135877202546425,0.5971532474826541,0.5822515261691211,0.5745068853507266,0.5898045780836315,0.5621664014936749,0.4925522518316945,0.567975302541009,0.5495215226335808,0.5739379838294367,0.5967901127305469,0.5870626856483864,0.5888873748299813,0.5883909643610766,0.5370419032980278,0.6181131887203916,0.5722709103874641,0.6011715457631449,0.6120588655473395,0.5992295668434424,0.5880871822333573,0.5198003555803514,0.5708544627717568
0.6118215680251423,0.5846192955825982,0.6155962638980074,0.601087991015707,0.42470333498342133,0.6142429544266252,0.5367021553164287,0.5776725019270387,0.5607406151546077,0.5624818219816572,0.5920239900418678,0.6134431410096977,0.5927260563665879,0.6107140667514074,0.6280896355965686,0.5309676336487807,0.578161878228213,0.5973905625197786,0.5644696269491173,0.5826718822506002,0.5646503305307415,0.558504697177616,0.5069468081183047,0.45640264907390055,0.5766972332008607,0.5664103579749226,0.6002799700364627,0.5583027228697351,0.5567403610981458,0.5747382388098516,0.5424153030125978,0.512241677727894
0.5716310713390648,0.5404381750270693,0.5825102454491085,0.6001455117777725,0.45029664351629356,0.5682676079076704,0.5698508819882814,0.5725555524988971,0.5407135500156859,0.5550858305560115,0.6039150587134754,0.5861139773214419,0.5739827288003639,0.5998838859107428,0.6158764465533695,0.5793591286576215,0.5779118864053695,0.5662961166011882,0.5667125586709759,0.5844519051075039,0.5595513470941375,0.569384212918438,0.5556596580963871,0.5052464191395228,0.5833106416490668,0.5708469313676068,0.5777282092990575,0.5405667460496851,0.5738058867605242,0.5735407875013272,0.4435669379305235,0.5730794367086067
0.589060958273373,0.5342321825213747,0.5814536360309064,0.59749385711023,0.49750873243672716,0.5736474088643423,0.5708834430822992,0.5940498487794694,0.5317902553022974,0.5322293762303912,0.5704463576013766,0.5290663988661749,0.535459704821237,0.5582362795385704,0.5904215010223558,0.5841888039272175,0.5478148060131426,0.5457148441487294,0.5591774135622002,0.5532365888300121,0.5525829405518311,0.5649558043945264,0.5910800859195385,0.6151814421313979,0.5952650405652414,0.6088222744404138,0.5956194625909256,0.5953659828369464,0.5970532846069696,0.5922544354083917,0.4898619554281987,0.6068651849094627
0.6113503568709358,0.5568032055692973,0.5715647148739903,0.5956908711577227,0.4482290567900513,0.5636187270294776,0.5541415285516804,0.5804002575536746,0.5219802728541272,0.5637189479457754,0.5696508779020143,0.4951854707181738,0.5352482455113561,0.5593310260729973,0.5928428485951407,0.5722872286847173,0.5718399814764769,0.5705375969984442,0.555601308136219,0.5583815175967106,0.5463133264264889,0.5545475969871847,0.5837265898038457,0.5801872480134432,0.5870947509282398,0.571100355597886,0.6176921279290888,0.5914891655175921,0.5609483344980917,0.5658232175270502,0.5222006525032935,0.5350249442419839
0.6145188925875492,0.5757957338872592,0.5940714652843306,0.545887343084957,0.41363710418963623,0.5613345418881445,0.5363137444010044,0.5489585149670508,0.5493482348189156,0.5389069172828016,0.5829193021505062,0.4955191332242152,0.507967349762883,0.5444562287071414,0.5618264469258579,0.4723244939578203,0.511148546920977,0.5260138685094043,0.5139476898544337,0.5322564870286978,0.5576561324492055,0.5000725848761336,0.5556636467483418,0.5701844673200254,0.5540944713349225,0.5595525346696858,0.5682980314928509,0.5771105788120002,0.5529735945108275,0.5294193006773138,0.545474193035426,0.5534407123048672
0.586004171604361,0.5745738034592244,0.601534700155284,0.5885017123026799,0.5070398825995618,0.6024311024486032,0.5348310235538798,0.552252992022527,0.5401289473907114,0.5450291000146751,0.575026948469144,0.5542653853401868,0.5536344155224722,0.5549842334807853,0.5730848035037684,0.5493327587982361,0.5165936767604302,0.5099212973243551,0.5386972558824407,0.5156290972177784,0.5491188149396302,0.5535735376295374,0.5717533144767987,0.561667380914108,0.5766360398138242,0.5995288610949007,0.5751046538396877,0.5574084232554781,0.5715395395556163,0.5989617094483254,0.5859205224014641,0.5861859410932112
0.5739324244453776,0.6002182615270326,0.5924117316959756,0.5822668431319599,0.4497831428734232,0.5916180396894913,0.5304384073125954,0.5676543765564509,0.5376031461908131,0.5501052263767452,0.5983828625706028,0.5568759133777014,0.5600404371491848,0.5455605520937418,0.585552855212251,0.520706578286146,0.5751170164391238,0.5537820453440343,0.575674113099633,0.5868889380903296,0.5682716451730914,0.5640540177937298,0.5826276579253792,0.6005694417454946,0.6262383349866021,0.556753538800285,0.5841936628839741,0.5743237401969364,0.5359283458500113,0.6163336723338652,0.5418482747645498,0.5723802368888343
0.6141525269489017,0.6172549155053637,0.5812541078575022,0.5939764517569189,0.5141320675011467,0.5523387326081254,0.5846538048638459,0.5814728879322896,0.5760434760295171,0.5449424174771509,0.6036300046193017,0.5933698532384613,0.5882609242536174,0.5908769600181993,0.626715060653989,0.5382925834627619,0.6030794254531576,0.5348624288028073,0.5650910375682185,0.5622177652547563,0.5741531448358184,0.5680431704944905,0.5774595956508193,0.556524408553762,0.5973679194668535,0.5455382483870685,0.5875711639858194,0.6213664220877552,0.5726218514729445,0.5718297730252402,0.5306868909049113,0.5387664748523953
0.6093620609468562,0.5795870247462105,0.6057135004744844,0.5633977127319292,0.38141661687122436,0.5567484282095239,0.505295810283342,0.5519666024381937,0.586579370636863,0.4931778705809854,0.5602863228218828,0.5586454481512928,0.5989350619086823,0.5965980548581226,0.6034539369235287,0.5582792794504092,0.5816231199489714,0.5740781716107183,0.5824150782833845,0.565017098911492,0.5459755580685267,0.5869115646345091,0.5799903238312734,0.528547141601175,0.5882624639523311,0.5718102284848244,0.563862471346506,0.623069555656077,0.577951519156999,0.5696366745200873,0.5296934835062532,0.5952593069690842
0.6108292406572121,0.5534036814370806,0.5846720171291633,0.5959098644875497,0.2913605007117505,0.58756973456142,0.49914423627917,0.5232231633459701,0.5121934473927487,0.4751945933423399,0.5437397762784163,0.49135998870598135,0.5254953764841469,0.5592132898629649,0.5922555873938615,0.5733884766953984,0.5367648991152016,0.5505376781675395,0.5564333943348682,0.5610961515297983,0.5545031715967026,0.5389099083489336,0.5422853464906228,0.5427585109089399,0.5959383114698299,0.540903952890775,0.5930106232837947,0.6150527712518349,0.5927383834944115,0.6054432562008886,0.5368394230994435,0.4802854243612643
0.5986153885271996,0.5307399285210168,0.5605318202672065,0.6018410947609618,0.5421367333772318,0.5419172701617675,0.5511559638292645,0.5391136618288253,0.565173935365012,0.5525383101149169,0.5860769296906313,0.5615716037876661,0.538551378745485,0.5965685947275613,0.6018178765297323,0.6023873341110744,0.5478161690888961,0.5766982164194744,0.55574727505114,0.557665752785272,0.5638287081494875,0.5378685333214848,0.5672648023267026,0.5466949345979157,0.6220068653473683,0.5927546293682973,0.6067890574127769,0.5786951035480176,0.5697034663608382,0.5753714392251844,0.5560648647540389,0.4896292081163315
0.6024413333037392,0.5159372347247949,0.6002377887829852,0.5982401935557851,0.515710021705454,0.5535098450308037,0.5817479299393145,0.5829584021292664,0.5856352554479151,0.586662742467665,0.591089415127465,0.5506701547040874,0.5766839367424214,0.5552541418107787,0.6075989502117262,0.5310674846656691,0.5827978084266378,0.5869491827458388,0.5815580681309056,0.5615661082999909,0.5640766327300417,0.5696058992026921,0.5499899402451983,0.589813001230295,0.6009085263303602,0.5854156230693405,0.5881235004451572,0.613429916508816,0.5650295141296039,0.5818613538977024,0.5507542265843339,0.5771896695888536
0.6103515437456377,0.5683368555782967,0.583046828331115,0.6094386325062368,0.5042262272965197,0.5747126786320825,0.525265089116424,0.4179111212103077,0.41446697822947476,0.5542925608067459,0.4966195149605623,0.44737214408930287,0.4847494216184887,0.4576762530257165,0.551737514412523,0.5857962811030428,0.5245527029538809,0.4466559432731105,0.48544765403404855,0.5506328323691095,0.5479887231669446,0.5435288143360146,0.5541595826391059,0.5351239032714838,0.6125279865874097,0.5782973165493228,0.5999501399193045,0.6080868698435347,0.5794589013312028,0.6101664145429723,0.4638381920638848,0.5469005186156348
0.6095337557479128,0.5778204315131682,0.6124731518607986,0.5931824062586479,0.5175461863584355,0.5715488973422698,0.601871944632604,0.5267463946853613,0.4505746868223464,0.5492628682271764,0.5394881737661908,0.4634883071576695,0.5291673221519647,0.5612423069590055,0.571013732993187,0.5528554851952481,0.5218867342386314,0.462791535517505,0.5028929728778219,0.5553763162626623,0.5180436156593115,0.5199604136799814,0.562096646413057,0.5239037993843187,0.5726176840941524,0.5410448487199616,0.6032730785058807,0.6119302819509254,0.592223745248307,0.6092406060456261,0.4290857506473927,0.4996430741033731
0.6126037781154905,0.5783996709424114,0.5441971036722208,0.5869240045283963,0.5081298130583936,0.5944092755415687,0.6129566965411941,0.5714737348976076,0.5238422770930163,0.48546308627502616,0.5967595937748996,0.5615164208043175,0.5572796863418318,0.5881326057307339,0.591304487884078,0.5358654525985003,0.567971275231536,0.5624150372634544,0.5733079108066852,0.6032642907220448,0.5910586223530716,0.5934439424823607,0.6016232474834229,0.5527501742988711,0.5955278516969472,0.5665523145326593,0.5694358225433451,0.596261412020211,0.5543688150847285,0.5811976993570526,0.47097162460409975,0.5499586113695383
0.5783813044959625,0.5820722305454489,0.5701634033922635,0.599525885666155,0.5104150905254736,0.5345131737858545,0.5933698555665471,0.5271867473417726,0.5535409282559275,0.532260627696282,0.5395112137116074,0.5599228667035233,0.5556016767336022,0.5354648681616762,0.5569421299418434,0.5384783359089689,0.48073808102640053,0.5410827368094525,0.5451929502174822,0.5481194016250777,0.5385914461503887,0.5538205368200319,0.5638375191236592,0.524801385619576,0.5894573069894141,0.5989913315457315,0.5861417606895163,0.5920450382019374,0.5455651418724167,0.5625445003995239,0.49069858538034355,0.5790442666429436
0.582826152927399,0.5482977935576954,0.5701136007399344,0.5883194051063534,0.4171126429369954,0.5507777031597881,0.5982593423607303,0.5353459485671425,0.5860172360780711,0.6121134658756722,0.5860791927976305,0.5810143502326032,0.5665209087508699,0.5700080644615724,0.6010303680870929,0.5592886361443588,0.5328262115638128,0.5753980078152143,0.5483456586045873,0.5526996977268062,0.5297559084141881,0.5490028450368116,0.5278568014361703,0.5694230501771476,0.6126739608997368,0.5860073334173728,0.5720218201028294,0.588114257465107,0.5794693780568178,0.5995202418701274,0.5682112560216789,0.5677444002303383
0.6143787943396638,0.5354045158946155,0.5922526368417692,0.610933789818677,0.5362392049081999,0.6056900803437097,0.5900403951996307,0.5884851819208561,0.593536946295075,0.5263978638318854,0.5667202363037093,0.5762871548050512,0.5772767042351711,0.5821618332338919,0.5592036878737204,0.5177036957306707,0.5784656996096464,0.586233838754241,0.5519176392191733,0.5643999725829352,0.5208273470438809,0.5430070575311543,0.5429623360507954,0.5618225347018951,0.6154648327121485,0.5997307201703224,0.6208511977254456,0.5902890043324571,0.5920427811635005,0.5706257100901013,0.5088190984522144,0.5999623957166811
0.5928792343481379,0.5500748130706655,0.5748013277639895,0.622127316687473,0.5569092828898307,0.566923429954677,0.6023259340942735,0.5472772430723307,0.5569682425003604,0.5498657494069152,0.6186068279254401,0.5744294349524158,0.5870172208586144,0.5795808381869451,0.5837545072634786,0.5928383651508458,0.5654753696147774,0.591083699440184,0.572767145840463,0.5828246822386748,0.5632961398262628,0.5836936508981919,0.5903208434273796,0.5492213123448514,0.6147210986630085,0.6054807571918239,0.6056623190449801,0.5914022197275147,0.5924372976294051,0.5976181163377262,0.5177203261839933,0.5979423430737963
0.593857844650211,0.5904608479395713,0.5716789695906671,0.597318931278534,0.5441578586531111,0.5715238500615772,0.605931931771151,0.572729952903513,0.5396312258739762,0.49982435351281757,0.5952050204069685,0.5464882779190533,0.5479747196674007,0.5850416234362577,0.5380381622325922,0.5752622259874384,0.5058145768694758,0.5679918077767571,0.5796616120923384,0.5358544769101715,0.5812855354768269,0.5878449558896838,0.572313590348376,0.5757302524009877,0.5928165033979365,0.6033847928345368,0.6113860683927943,0.5703952325385597,0.5907477849248479,0.5914492723535525,0.5679823151299895,0.5282241965877287
0.5895970892199813,0.6087638091145271,0.577514224526241,0.5912434124811188,0.41546775496126337,0.5761972412289821,0.6037259627625828,0.5777815053807583,0.5645312493579078,0.4736420527000839,0.5758857577012818,0.5934620472023892,0.5670274881938208,0.5987303332412397,0.5778899697344343,0.5887432154765061,0.5597984816962636,0.5789123711818653,0.5650016698417114,0.5805611190398723,0.5571851080152942,0.5570380468940176,0.5233784787693951,0.5352606559014658,0.5687778979534168,0.5466053261751067,0.5740751199354839,0.5789194993684881,0.5739231745944593,0.6085491876167828,0.5157848074116018,0.5602287569376339
0.561354654949349,0.6096242359851718,0.6005066386010125,0.6018227583603902,0.3713365229819603,0.5818104120188917,0.5750898819669087,0.5345984486584375,0.5994132337781352,0.5289296271582138,0.5692411129558483,0.5795969503276922,0.5893040000407486,0.5956431851199959,0.5694732899696112,0.5200700607835509,0.5297441081484585,0.562142232899681,0.572449635786021,0.5679774873138648,0.5870004027888042,0.589609165861966,0.563022506150376,0.5796214290798954,0.5662772394511788,0.5154768435762265,0.5735193610917673,0.5920626244664743,0.5745216970488964,0.588218388179219,0.5357575149051823,0.5722017968584887
0.5665821273873002,0.6046107607851622,0.5734239243514764,0.6046006322367872,0.47478149553635624,0.5128659626650222,0.5701152033425507,0.5488565084105754,0.5762622319342074,0.5022658502710596,0.5329238564443337,0.5506335207213119,0.5887166895713198,0.5550935370993074,0.5652667185970399,0.5691501586359732,0.5273203266755604,0.5880171047076037,0.5845292005239707,0.5543283869783528,0.5956287601501832,0.5963636196180814,0.6030397486859999,0.5324688102234734,0.5880174418980051,0.567474652761734,0.574062127788508,0.6096824515660215,0.5858337559913163,0.5932096590470538,0.5311933798451121,0.5983578218283739
0.5816279893370446,0.5904779409548533,0.525233305469524,0.6137436085312118,0.5498632394426359,0.5632399676633355,0.5737834710976155,0.577421703413201,0.5644057822980072,0.5350971591023223,0.5776539185947519,0.546911514926802,0.5733283654019247,0.5653360525298848,0.6064621677713165,0.5558543748040561,0.52813329398592,0.5640583421238153,0.5803262256497309,0.5445345920184491,0.5567172556287039,0.5948822577826852,0.5606456493413517,0.5583724154355058,0.6044760363682445,0.5857055014920818,0.6144511237979716,0.5998347451435025,0.609091315944865,0.5971371931025534,0.5116212836138452,0.519491543338409
0.6133887873118973,0.5793481356616379,0.5609131424135061,0.580987102633192,0.5841133488030976,0.5743912568746484,0.5742627152526759,0.5535995695460878,0.5537228725636547,0.5588292775829585,0.5952199571996564,0.5740353857142392,0.5942240685890473,0.5683843303811326,0.576470630911371,0.5836296227797478,0.5445948030219329,0.5646105554748606,0.5805455053265921,0.49556885916236315,0.5650445784949032,0.5917297183687638,0.5920762160667186,0.6071795751542763,0.6145404398609228,0.5993594582843191,0.5798547765448093,0.5924255201473553,0.5749201151705786,0.5746007057414392,0.5659502221209008,0.5174737980326539
0.6038537642454826,0.5502173998185184,0.570630738905794,0.5791907164456258,0.570978623123119,0.5713320701860872,0.6123148178745771,0.5466750098470609,0.5493345983956247,0.5310240947018965,0.5781313387968895,0.5653407555963739,0.5849712404689171,0.5624467624918311,0.6058290820624935,0.5841537345011849,0.5679929419512818,0.5787393875510634,0.5869332105414118,0.5632151124862811,0.5842233244110522,0.6033616980061891,0.6084247555979677,0.6065420553585724,0.5909342072697349,0.6088401333378078,0.5675244869153685,0.5900212973072453,0.59349014859197,0.5420388336562153,0.5872594451523716,0.5621644905962191
0.6019267513221203,0.532945319427697,0.5216444731512755,0.595091155221657,0.5374655150581089,0.5347589268923625,0.5501685705128697,0.6032489501880745,0.5380542223906827,0.5354588514188326,0.5920362365168855,0.5648169483097537,0.5774053214623549,0.5794243246252561,0.6024913539923182,0.5559741248244918,0.5906362191169159,0.5897855756022469,0.5896310898984298,0.5871638704454911,0.5846689424190699,0.6010839921410138,0.6122661407821386,0.541157635025922,0.6061211600538302,0.6074399885824131,0.5740323446045433,0.5936252144134907,0.5905099976002699,0.5383169457786241,0.57151407304832,0.603804307026967
0.5915198357220935,0.5612785367982855,0.498556190252831,0.6064475057718791,0.45218942748077984,0.5255444685342707,0.5407535381372396,0.5947600004134466,0.5521254448293079,0.5291837808278723,0.6079487800253753,0.5724248550709453,0.602239338983618,0.5961345456466522,0.607641915155857,0.541475810140436,0.5820719889986178,0.5783689479687444,0.6019053556112093,0.6029308928614622,0.6067362588739412,0.5984511588576706,0.6037835824885592,0.5874656610477752,0.6232357608728348,0.6003129141946113,0.5773747952406212,0.6014128905341974,0.5182842856046639,0.5462393290858674,0.5605923186820354,0.6074759449340821
0.5964669328588921,0.57705708101864,0.5589588909511596,0.6224062040001307,0.463468904296525,0.5439023507413394,0.5616636332822877,0.5987399690747539,0.5891399677823072,0.5521660265437425,0.5917266067687127,0.5389498936997476,0.5965253215079525,0.5789153914855478,0.6136289302605255,0.5657836147473642,0.5919065149229102,0.5403731892276853,0.5949300019297792,0.5684974874515465,0.6054012841813943,0.5861276950681485,0.6138483185380356,0.6000654987055831,0.5903333993510507,0.6204886939109732,0.5637109719221054,0.5869388104567713,0.5448829310097721,0.5819826965525554,0.546750316783859,0.5673889010982853
0.6035649166761826,0.5840019191024637,0.6033089378125543,0.6069416352589271,0.520154500940242,0.586321000733157,0.5236289544995952,0.57198261341696,0.5662279769960085,0.5712966297212793,0.5297020655508436,0.5552417892066824,0.5725394735622344,0.5643387445110305,0.6126253522151697,0.5163503447070931,0.5361598221761034,0.5072935642532019,0.5967564613452598,0.5479369435425966,0.5942544571660304,0.6108545014905128,0.5932549176564842,0.5877888332140718,0.585224799780921,0.5964258305398096,0.6157729885431587,0.6104729064699898,0.5495896923586507,0.5845348155633276,0.5410406683321856,0.5739388857775611
0.5926500285936221,0.5778253174493264,0.5275401327833776,0.6026833385125029,0.5653603044111482,0.5853601634541586,0.5388523138672561,0.5698602743742277,0.5459660547869337,0.5314244562443274,0.5634407441113152,0.5568012459138327,0.5462338250674235,0.5647764035053277,0.5827112447205016,0.5625934742687165,0.5889326600452971,0.5556937943542909,0.5581666381512282,0.5638766527487855,0.5403095873960616,0.556087050143545,0.5383644533596389,0.5841124624105519,0.5854493961872461,0.5768613983869195,0.5960053699180009,0.6124818930194129,0.5607873227648225,0.6014664635226143,0.5513963192954893,0.543036365921583
0.5552549582794001,0.554087583221886,0.5574747874180281,0.5957174278888079,0.5754019011418438,0.5485078975554711,0.5775604996950017,0.5155200942363418,0.5457215307065966,0.5535657593990284,0.6017190415932906,0.5689758930027868,0.5576736421944906,0.5760268196242505,0.59198687448895,0.5609120986174362,0.5676095024939165,0.5750345660483955,0.5659979433480267,0.5811693016632353,0.5638047659447911,0.5711734787324662,0.559341132624474,0.5808738115040005,0.5928861430846721,0.5922600158582749,0.593225469473687,0.6076629904749752,0.5767082887998087,0.6057970726253611,0.5733575338262469,0.5874889980673144
0.5780238437383126,0.5717012330052776,0.5567078518739124,0.6154522649476056,0.5421770401036106,0.565378139487359,0.5570811630355249,0.5894698698125372,0.5463960018955817,0.4876818581508716,0.5843413292537066,0.5653142051943385,0.5780041988817528,0.580039057871928,0.5517801873525804,0.5033007648401526,0.5596059663304005,0.5814000880919014,0.5915076088827053,0.5989904924027685,0.5983892249007168,0.5993928820339293,0.5980496579502571,0.5836442672389859,0.622701494491818,0.6044951111010198,0.6019011665345609,0.6006973730806825,0.551557760533587,0.5564472790883113,0.5552277552117938,0.5892805077149172
0.6079615755210718,0.5717447626944792,0.552741561176917,0.6186717059918952,0.5251649741103135,0.49894013073492294,0.5786227917728229,0.6019301380296883,0.5155416058521728,0.5072417935092287,0.6003047016149382,0.5423351543839575,0.5538382544667618,0.5719601691208958,0.6039792586723032,0.5543869597050555,0.5922068136470886,0.5852753311772136,0.593757000320003,0.5478130931934815,0.5859176939652985,0.5863589358156671,0.6173607771778382,0.5740133215133032,0.5920119776134061,0.5761546586225725,0.5613571904511965,0.5866438408023297,0.5854080626982096,0.5455773315779764,0.5665447306917505,0.5515087857290847
0.5682450569980629,0.5794599197988111,0.4877756265870603,0.569561131077501,0.56253682869507,0.5596679807336458,0.6097914519057901,0.5605602387441163,0.5620423414064644,0.5635481974473584,0.5996963971436455,0.5656905665868709,0.5654204752258386,0.57366900168454,0.585540344674351,0.49005799730725075,0.5946772954482407,0.5286112417216124,0.5850367204971132,0.5755340255078463,0.5887177547503092,0.578216712259987,0.5686022962266453,0.6002173450145963,0.5673068877324118,0.5745106768237181,0.5644898507952949,0.5822109910200929,0.5601372245595574,0.5923840785038195,0.5862819552042606,0.5730662232394722
0.5867300853316373,0.5388314670873455,0.47940691919903167,0.5715587680558589,0.5024577598187169,0.51369647808732,0.5874543863595566,0.5825673251092325,0.5890010396685273,0.5782506119769073,0.5914850061787694,0.5874450454513539,0.6000881030991156,0.607442684168954,0.6100262212759718,0.5372054744799903,0.5980675836705065,0.5599133959116047,0.5825219386353798,0.6047921332349322,0.5896271022576967,0.5920743687419775,0.5824758300074068,0.5890590873348602,0.6054300570682268,0.583277323732788,0.5796881210165169,0.5921418089578327,0.5388638321780499,0.5876826780948179,0.5791357779078421,0.5663718493592096
0.60094175162102,0.542810977395047,0.48234168131999644,0.5472085829057727,0.4796718029211428,0.49407847131835064,0.5512108902322449,0.5742756007521974,0.579061730517957,0.4963878123097604,0.5971976568900687,0.5748617307752731,0.5870051497501221,0.5890441151173484,0.605662720081201,0.5606067436952898,0.5948564337274599,0.5889675927482485,0.580519415255857,0.5843485291979359,0.582720530249033,0.5900586392491648,0.5935531451975601,0.5578186897027138,0.619831422335151,0.6030470945322206,0.5943416596041486,0.6079709802605243,0.5897593438068804,0.5806239741788316,0.5766624516130747,0.5957720214605132
0.5973989140304196,0.5748759164827612,0.5733002310225582,0.589990719233877,0.5899930095643269,0.5573515366209826,0.5715023399136233,0.56879139735956,0.5840111435990258,0.45170156650816223,0.5900737976536072,0.5816174575415206,0.5955405658647899,0.5902250628658879,0.5983795208006116,0.5605757964737471,0.5996020097351874,0.582222379939151,0.5895373278743506,0.5863153599528802,0.587957141823735,0.613099882156835,0.5942898468361237,0.5716620561926559,0.6033674604382661,0.5962801461495195,0.5884780857991884,0.6027264671702107,0.5817903660042084,0.5947868957087967,0.5878304711197182,0.5977477143730137
0.5905328284941165,0.5754877944591534,0.5711690854406989,0.6141434205130257,0.5279168604570956,0.5546884696952092,0.5590786056760612,0.4790281183707972,0.5331173190209955,0.5595733874322196,0.5686397742056325,0.48786401026861215,0.578166131658756,0.5052868284566718,0.5524136973211756,0.5593163338864421,0.5427707890698467,0.5561746227581253,0.5751773757325771,0.5627609361212372,0.5743276497612803,0.595013835678928,0.5781631304785243,0.5515557711995038,0.5988678842058291,0.5941985784449949,0.560226917152743,0.5882073781602498,0.5707283534881377,0.6191273747977196,0.5787693197922198,0.5848466113919304
0.5910080608728728,0.6006886536984861,0.5925298424899053,0.6013191068237648,0.4888950611524054,0.5732898515354126,0.5705454609426927,0.5317289704389307,0.5666452527381036,0.5812238957200468,0.5969993176356538,0.5656276542495103,0.5922960863452955,0.5944250832183409,0.5923271850295497,0.5541430559957158,0.577248684412933,0.5627818533466026,0.5915766578594718,0.5584369110642312,0.5975689697837931,0.5824167098603579,0.6038963993622654,0.5784777322455266,0.6007457942820806,0.5567154516699803,0.5598827507440906,0.6106328775889007,0.5536057009246712,0.6079207448008727,0.5456304866018223,0.5314945232590766
0.6042002792470549,0.5869838188756369,0.5921448055041713,0.6015170519442197,0.46451681032980635,0.5407775609286545,0.5955688599126429,0.5716845743829171,0.5429794468252339,0.5742343211041574,0.5961869639671715,0.5459477051437439,0.5726480625828553,0.5902595534046889,0.6046969200907117,0.5516001757213,0.547716585337657,0.5533672924701815,0.5570791843472918,0.542162862400333,0.5570113015714317,0.5779881041829904,0.5697442953336646,0.5719022978870515,0.5706080485284166,0.5840986397079441,0.5744694841995481,0.594889239521265,0.5685009207833138,0.5838900594394774,0.5532442154054584,0.5832864230604228
0.5762192724623553,0.5595930457956112,0.5763520787333644,0.6109277413455222,0.5173090203560117,0.48098154931634624,0.5750410372993597,0.5804102833511907,0.5436424296344569,0.5760790705001883,0.5956661981316207,0.5835050957309349,0.5704102439354347,0.5947387266455723,0.6048283767001118,0.5326739334428654,0.5309902379197583,0.5719024815224599,0.5825869719795799,0.5726707238588247,0.5542602600131478,0.5583156531882848,0.5777882329939829,0.5647906838126061,0.6058016346949632,0.5606516020251667,0.5896662509773876,0.6270549380810859,0.5867711414943592,0.5791224713826714,0.5824404004380066,0.5557839964818114
0.5961194802519423,0.550075548881515,0.5781342768606049,0.6022777290093294,0.4941135670328928,0.5409649752759992,0.5736165544979559,0.6004000541291722,0.585286809201379,0.5937563267614007,0.6100905231305384,0.5986810936713257,0.5682755124218035,0.5950621006609875,0.5823723835557223,0.5361034013250671,0.5435512891035003,0.5709292461997599,0.5678684572665542,0.5769641441994912,0.5649895710117231,0.5375355030162241,0.5634460664263099,0.5811415485684306,0.6046069714977533,0.5613479834859345,0.5897591364438121,0.6055173709477868,0.568658431145563,0.5914359758328038,0.5632987455936856,0.5249958219050862
0.5658330676792345,0.5827251961933759,0.5814062304410279,0.6212166687740525,0.5199512769737209,0.6148868992587271,0.48016876364587885,0.5659117995624291,0.5803523307901206,0.4947450404426218,0.50933717021517,0.5808372055141483,0.6031945054724798,0.593370639867322,0.5981649896567696,0.551093283069178,0.5891897287918881,0.6107703427514477,0.5935540652304169,0.584509400459765,0.5906188960917446,0.5814701472055132,0.5771952966222773,0.5885323462019637,0.5870670871810881,0.584776078442992,0.5929457786482599,0.5759576380975008,0.6089659059238888,0.6023100530709671,0.5454678422162278,0.5980323160734454
0.5525637089045887,0.5698110539357519,0.5682089797057072,0.6120087185802332,0.5412632170035059,0.5982015713119716,0.4450881471126969,0.5293947357065747,0.5692594086389141,0.4652698975774009,0.49687031081629746,0.5383815010713574,0.5614594191935459,0.5963764013648387,0.5508237783479029,0.5722821939198475,0.5194313815598907,0.5535710827970112,0.5682058359661053,0.5263282616961937,0.5673463172493566,0.5774995638685676,0.5606012425615065,0.5735897264630984,0.59281569655704,0.5780789364209804,0.6083402225467678,0.5807186127482818,0.6003387506826825,0.599373651888729,0.550817259054952,0.5748745508548987
0.5940779739112035,0.5824596222975267,0.5787526877387678,0.5999415357651874,0.5433581441449821,0.5581393183177032,0.5808030034921375,0.545635025297902,0.5209711893331656,0.501359436626269,0.5555257879925989,0.5375305524205144,0.5577228765868462,0.5863798913934407,0.5755101210344974,0.5309933526505481,0.5571511057612665,0.5727912228346898,0.5332866511752116,0.5685067728644907,0.5819123062260322,0.5440291581936878,0.5747918192476961,0.5323144751958762,0.5684114066295632,0.5663294039885036,0.5342003463001355,0.584002406223371,0.5549413877872345,0.5327224054300455,0.4629585160541076,0.534417956002953
0.5362691313416474,0.5936553343100726,0.5003845876380364,0.6018379391870003,0.5232496089234656,0.5223762774802976,0.537668266932002,0.48610455419904597,0.5126839916823244,0.5731915047628133,0.5701275590042616,0.5435907790493736,0.5528000408562531,0.5572595352503887,0.5834518571765172,0.5403503715737191,0.5464182753164586,0.5289884644292713,0.5065937373102983,0.548532084335597,0.5466883885265179,0.4960927490640635,0.5648474584226237,0.5066521270291588,0.5621986818037958,0.5424792710920641,0.5572495046402968,0.5435401998078543,0.5029630991480784,0.566883184674318,0.49893840168983955,0.49614463457902297
0.5543099374842063,0.5477613021364833,0.5297371370367521,0.5524042529731634,0.4927656066020146,0.5054783900570762,0.5710191697062471,0.5721541606332257,0.5746660094960746,0.5853816429501367,0.591231999164322,0.5931612130064692,0.584157986354117,0.5936794042294083,0.6086620983013152,0.5793307078757833,0.5644853908935451,0.588166827099698,0.5834994222093588,0.5843291552233351,0.5534941963803682,0.5803898584193571,0.5428034295412791,0.569125760558827,0.5594121605567371,0.5394792380033812,0.5607558881839897,0.5683905306651378,0.49197501085385015,0.5707666273052197,0.5537498109300297,0.5615140289574522
0.5735403175902717,0.5564097366676288,0.5952687609000297,0.5843761626931301,0.5769489788284953,0.5994700884379386,0.5350883934461058,0.5546800708796141,0.5576833649041743,0.5459622640873094,0.514448311837233,0.4943479460202095,0.5623190157506894,0.5144546403655634,0.5997707650414476,0.540482390954117,0.5791256835628673,0.5820977091236674,0.5563084115581324,0.575919214642287,0.5444770572509697,0.5634491338088353,0.5616383235076329,0.5547868629381261,0.5944897738307261,0.5708781473692527,0.6186433960447312,0.6005091165103855,0.5554059807373206,0.5986810315511005,0.49453693333601106,0.5423919643943088
0.5618279401193238,0.5772938842430773,0.6048737970929277,0.6153615865021574,0.40932530099228726,0.5548906311445662,0.5473375870557995,0.5576842299020958,0.5180604179177424,0.5443097134432312,0.60156047399842,0.59796094028555,0.5929824852100544,0.6032943242576754,0.6038859799935806,0.5554039772431033,0.606781540903976,0.6051280907698517,0.5904010444701348,0.6043017750831653,0.5791763728808584,0.5725101682393515,0.5678525135255269,0.5693182267765797,0.6057614218838223,0.5669975434599869,0.604377098567975,0.5996836265520269,0.5954027842621242,0.5737106727443259,0.48372687784602947,0.5129460447429529
0.5790190704710463,0.5797470704557368,0.6008899533106496,0.5880502086203367,0.4467950065760549,0.593013705719724,0.5457688302193388,0.5231750065466881,0.531278398478377,0.5373668984478908,0.5828676335803064,0.542284345055613,0.5472828398703938,0.5921283156754338,0.5865541714373018,0.5770630839045501,0.5138607009195725,0.5311678856093925,0.5692661288172275,0.49910986752018577,0.5433723232081211,0.5707851953320958,0.5694369991419196,0.5214031864826474,0.5993683852793381,0.5731904859367899,0.6069402744756351,0.5922794841811736,0.6011257908634805,0.5783956980234984,0.5645607644864544,0.5450594060192304
0.6018141102355997,0.5621963454646512,0.599755730339569,0.5234136929537168,0.5539435028549344,0.6120521460689095,0.5472663937995649,0.54005505140664,0.552918449693339,0.513911327404536,0.5769574560039223,0.5389479613479876,0.5241364240457034,0.575883155651254,0.5758979212036318,0.5553969476660773,0.5103974618415973,0.51347961811227,0.5679566636027041,0.4852756892167473,0.5528870893640359,0.5785961406354507,0.570572238774849,0.5470308898611372,0.5776432286557727,0.5799153034143123,0.5811045782730911,0.6118387726989911,0.5994926500722054,0.619122491998806,0.5669622630613872,0.5727484413725314
0.6165609107775963,0.5430194318880032,0.5267112747047819,0.6080218043141181,0.5533227434053635,0.5721122164977676,0.559305033008386,0.5582693815462334,0.5204955664039342,0.5395455996268198,0.5887050446516783,0.5545058507072962,0.544532154582239,0.5711995705044008,0.5753378100845316,0.548795829984472,0.5145691671482477,0.557924027622772,0.5797377909064819,0.5274161062887136,0.5807299723805031,0.581621445802294,0.5623112093534861,0.55151643984872,0.5640413996736047,0.5245796544156033,0.5893168979448709,0.59644628456937,0.5911537183271394,0.5770075002334236,0.5433509021610592,0.5375890342106411
0.6185339444598948,0.5484429655788644,0.5719855885367703,0.6063043186540512,0.48503662770287137,0.5995438634190291,0.5781976012894404,0.5502852138347387,0.4761809962907017,0.5019552433351676,0.568149314733147,0.5502359149969931,0.5215163160754871,0.5480674570504197,0.5869377229573192,0.5262573826216027,0.5025853195294266,0.5759235780621967,0.5323429981258161,0.5606944868326166,0.5690881256520788,0.5673677158778397,0.5487039951018445,0.5516519694824767,0.5565649611750191,0.5500791123149679,0.6036448200585245,0.5991288603413574,0.5798163078004935,0.5641486690749842,0.5788230652260693,0.5570159542357084
0.5974331271145453,0.5678076267172215,0.5821246890028092,0.6055886956439857,0.5120834325407481,0.5546966827499034,0.5997644354810148,0.5548346878340183,0.5263792837053776,0.5382556743102807,0.5967916045012386,0.58396660614725,0.5095582963586125,0.5535580762395159,0.6072534370820257,0.5426355647714225,0.5184334998783592,0.538454506537666,0.5396128364951683,0.5473208475900723,0.5757636039025634,0.5446947664080712,0.5949277442952282,0.6004721454635659,0.603779172521088,0.5995544060077131,0.6067529433897304,0.6054699876213753,0.5546720263542556,0.5526722052801545,0.5874081081969728,0.531277685666552
0.6050486483239402,0.5920931217194995,0.575470820445887,0.5593784466859409,0.5159294060685238,0.577014293730881,0.6144158127659363,0.540704436733168,0.5513432800218719,0.5780555594624799,0.6030797954691645,0.5903937443096173,0.566781405660803,0.5949619448022102,0.6263026901411767,0.5503313420731004,0.5430388084597889,0.5433044751379024,0.5355785465153917,0.5499961687470092,0.5475859348215136,0.5679201125193701,0.5965003876351401,0.5186848984813741,0.5960218895752705,0.6080704388960119,0.5998931280316344,0.595702334272443,0.5734009139220497,0.5745025304736355,0.5955783627264155,0.4928029410273918
0.5963372898624759,0.6110290580900587,0.6067479381543883,0.5633019956160207,0.5415512705496646,0.6001424353819205,0.564468986065366,0.5507848240724083,0.5221491990145215,0.5271270798388712,0.5853686761965526,0.573501380531676,0.5889348416756369,0.5845759946155601,0.5957047068226838,0.5774089493740191,0.5323726515003772,0.534875011958359,0.5322468895290022,0.4842741345226128,0.4886823062197545,0.5743719036916568,0.570106981537976,0.4358368293304706,0.5518421104446807,0.5889425547767667,0.5952478217415333,0.589101289826905,0.5884021420899515,0.5961521709277948,0.5517141017993739,0.531992538393622
0.6026778619173588,0.5964280848891446,0.5970927999682555,0.5844049156314877,0.5347155981736175,0.5962248608810264,0.5262029601659175,0.5350594950525304,0.5016131243830179,0.517298461791163,0.5469299609194198,0.5484834693948624,0.5518821199706276,0.5681001534521212,0.5854361261837089,0.575813464870589,0.5662435630598596,0.5905690034695283,0.5490033289650187,0.5862958130850807,0.579176724088756,0.5747496792420045,0.5797738576944522,0.5787058851789495,0.5903944928748934,0.5881997076846205,0.6090172556320967,0.6225691838615492,0.6095562361726556,0.6095258050089005,0.5612741078414235,0.5276919352038426
0.5894068806637403,0.5395660354156672,0.5445636725913435,0.5941918062150681,0.5369944428947904,0.5806633493546692,0.5676701856569527,0.576749465610344,0.5035149982339879,0.5072500768315317,0.5641144079045887,0.5390497613005915,0.5552242280392953,0.5312277521324943,0.5748400457949868,0.5787662357696758,0.5491373956081916,0.5752489742071424,0.569050761145287,0.568971922717669,0.5953947839404151,0.5845945269645414,0.6065574697413691,0.5558807254057979,0.6169448062596008,0.5878033350778545,0.6228298909691912,0.6057574952104999,0.6054780535637216,0.5823561582028708,0.5251813216200891,0.5368179629396689
0.617016731397782,0.5583432756088302,0.5730316626704179,0.6130271776594102,0.5550635356879922,0.5344936021991089,0.553433371502325,0.5753012226160608,0.5697982926973342,0.534809892834891,0.5823471808658781,0.548315855538622,0.5457620225923201,0.5163081141711579,0.5657103205165682,0.5324523248597274,0.5338517838154364,0.5246444198408957,0.543659994516609,0.563908743541631,0.5673010959167799,0.5908221472371558,0.6059448005001771,0.5214250973771402,0.6148711487856775,0.5950758567879243,0.6026002252735886,0.6288382851144168,0.5549095157015501,0.5788209515314447,0.484989124430936,0.5928504473866891
