Fp1,AF3,F7,F3,FC1,FC5,T7,C3,CP1,CP5,P7,P3,Pz,PO3,O1,Oz,O2,PO4,P4,P8,CP6,CP2,C4,T8,FC6,FC2,F4,F8,AF4,Fp2,Fz,Cz
1.2956900118308445,1.2486433074689125,1.3246471436282092,1.2291709489215894,1.5218131843828036,1.2721573647352096,1.4015444791585216,1.3138087116456465,1.3038131145321121,1.4232627178114612,1.432427135685204,1.3819151202469884,1.3887816632033039,1.4147874961762177,1.4658224717096553,1.4578762171594963,1.4330622377046265,1.4393869920132418,1.4546028923370786,1.4290851954960009,1.4346936094584213,1.4306081662690968,1.4417330471518124,1.4260911484773975,1.3960799356238716,1.3956271835504213,1.2918706921416216,1.3634420442596538,1.224937965176669,1.2969896341088918,1.4726414702082131,1.4176204820843716
1.2703914721482843,1.2206326912531302,1.3047609382143361,1.178478825138161,1.5239908538580111,1.2350092628457772,1.3860785884287399,1.3499329030919693,1.402080898988502,1.42445257210355,1.3912463821540804,1.4197233819690824,1.4058099024253854,1.4156124107655472,1.4580741997338906,1.4754067695008226,1.4204416945343397,1.4441286135661657,1.4569082956931385,1.4121814089609872,1.4638997110398733,1.4385050982587975,1.4791696931104463,1.4649413678707597,1.436745559691992,1.4621754838219536,1.2793133775916712,1.3813159407572624,1.2977400309059155,1.30858517201808,1.4938594498015905,1.4718576667387362
1.285852245656169,1.1638779906173633,1.2593016285049983,1.296620683588744,1.5466954178231433,1.2919530506176442,1.3053405831575697,1.3438334623637878,1.4796961379724338,1.3844264585162358,1.2833622115518695,1.3805216734926347,1.4174766387412467,1.3549556405111243,1.3518680406621986,1.4379321967442318,1.444744169711852,1.427379030816578,1.3927275437387476,1.3520938168312362,1.3712888621486008,1.4044492915777558,1.4065155917652266,1.379293277837423,1.3423235445339656,1.4308862785757441,1.2851234459333176,1.288137144478371,1.3260937238365762,1.2387932516521496,1.4629090847093058,1.4690903320753983
1.296234498534908,1.2649710998048445,1.2737246436640584,1.3591993273934753,1.5787896117647024,1.3090616464507896,1.4362891448530735,1.3678225525206873,1.4149342804052225,1.4557438363714081,1.4488457083525106,1.4572738410183579,1.3559463618700656,1.4250731009741586,1.3915473280579427,1.5014526058881452,1.525623438981422,1.4781486286710517,1.4281188669210083,1.4869432100476327,1.4340188683277786,1.3919893202885698,1.3480987655203294,1.482942518021355,1.3401728428115443,1.3583142923225884,1.2788122323169981,1.3175447286559898,1.2649057437407338,1.3687656175557565,1.4868025828272387,1.4113107799927789
1.3036999199864776,1.2235906493564885,1.225070006474528,1.3101543309514347,1.6072448367115222,1.245958381346704,1.5720117223132573,1.311896753763323,1.4498291920730193,1.5256342345558143,1.5382404771671419,1.545112708247845,1.407103672372483,1.5022611129479686,1.4780217927833865,1.617678032801069,1.5307191105339835,1.4728171104837928,1.4923207359121913,1.5058641654738172,1.5035052198982177,1.418326614967323,1.4475492048680367,1.6312028289185754,1.4484804775344193,1.4224886018260807,1.3415072014199,1.2680074767922416,1.2223984545457272,1.334034213166269,1.483413803964143,1.423295845804275
1.3205326666473254,1.2398976098813512,1.2507896938810412,1.2727388684123124,1.5683575896076325,1.2500445017018442,1.4695948736196225,1.2733391164375305,1.525710577166977,1.5089236021191572,1.4895530406816695,1.5701839528738395,1.4734534407174738,1.5403495427119946,1.4557706994161286,1.5843691481169584,1.5122147809350301,1.5016231882157263,1.4756204857915454,1.4375587562814482,1.4630314162684979,1.4450633823439067,1.4404234943571972,1.5857665349256675,1.433130377748635,1.448036813167887,1.2644553362329196,1.3160481788087621,1.2310950283803739,1.2912593249150899,1.4860906593333292,1.449344721038455
1.2319508167741673,1.1796261497341205,1.2291420756880502,1.2626925025903923,1.4803959737254548,1.2136055266606467,1.3716102643608385,1.3396322479792366,1.3783121232840017,1.4211534433703121,1.3262212737157468,1.4113638577054382,1.3637695641251064,1.4451795778522962,1.4666482283306763,1.4911246235047408,1.5025016228849506,1.4607978653537907,1.4080860522339615,1.4106397389036014,1.3641634643624554,1.3675720392327688,1.3719839237927267,1.4252840394123056,1.3735726457239033,1.364840528139585,1.2469552480051718,1.2881346717649893,1.1308494159780105,1.3296835817391257,1.5029164114175182,1.3704011605247464
1.2361772345163518,1.1624133574078421,1.2367337994795544,1.195492733887381,1.57916009207688,1.2238950770661503,1.342108961917272,1.3212198917410793,1.311247417623679,1.4083116115061698,1.3227750237277,1.380373464606733,1.3377317359370908,1.4382103285995254,1.3863391419612054,1.4893287331822367,1.5296980843459411,1.486266775781051,1.4075544866812497,1.446010883872695,1.3557835647071919,1.295154141834854,1.3234777750687652,1.3993496045826055,1.397998090619413,1.323218754628223,1.2462862040398264,1.2353566805209688,1.1843924971981443,1.265722984739891,1.3780939901572615,1.2129770439996648
1.322877389608772,1.2088246228091104,1.30757532934707,1.2255797232080554,1.6313242601815434,1.2371454730425917,1.2837986158035697,1.3201511421905365,1.3937880279060937,1.4523057555617536,1.5089665858623849,1.4424564323692304,1.3999152820471368,1.4213546428824073,1.294419106427905,1.4216880251577917,1.448975451365012,1.4743338658937066,1.478763825115854,1.3910413459751474,1.4066972660953079,1.368784213703256,1.4407981454083252,1.4068968641651245,1.4423456825145347,1.4145635550207232,1.2667846084262575,1.2698528574035497,1.2442836694209047,1.2588507788486756,1.452585754274833,1.3810131471741105
1.3328681461168266,1.2564364799011438,1.3184999199399179,1.3131580605372135,1.5250096869566059,1.2078817417071954,1.3293271263638213,1.3718351570289748,1.4076096596798138,1.5264414314159849,1.4240192265008798,1.4531477889211357,1.4580102386269143,1.3886017107897588,1.2936339162213524,1.4773884189548396,1.4984503711989356,1.5399334732941699,1.5245430475113726,1.468436934627576,1.490465303171478,1.4912002470880037,1.4505942923026967,1.460296808359828,1.3260304012928588,1.426534891169981,1.233197588437194,1.3431362911945122,1.2880672543067768,1.2770085747029623,1.4954587195221125,1.465633331734876
1.2569893446713576,1.2222426358866654,1.1624611486609329,1.2485699708159563,1.53001833524149,1.259852283543279,1.3020920574220942,1.3495504656389767,1.494027314632834,1.457553110947377,1.3979554491589696,1.4626126263625008,1.4647640205800518,1.432443442593722,1.363751073944988,1.509720795501795,1.477696094664728,1.521482061224108,1.5202248244349552,1.4899312611194748,1.5098621580586888,1.4976596392055543,1.4214461848901507,1.468571928328731,1.3104654386225518,1.3818545947109617,1.2205251748065349,1.3251901331034956,1.25505565300427,1.3006474296633752,1.502858137835342,1.3905531293296245
1.2222064200894875,1.1930342459158598,1.1525346496523554,1.3478430857038537,1.4496457856899871,1.2775546379482727,1.3132568963835176,1.3210168843516992,1.4459168048180473,1.4266541366382308,1.3795393904308697,1.4302009663641335,1.4485064857327141,1.470487827550522,1.3990264765005145,1.4781839798183958,1.4417294710983153,1.475483569927452,1.4711900258226533,1.4458259332284455,1.4271710590213254,1.4227197468500723,1.3455362221058098,1.4121811113264189,1.2678430171772668,1.3060509792443105,1.1859632848188284,1.2804813275030476,1.3112321443941142,1.3065137047313526,1.431855367878944,1.3478123265874458
1.3144577297803965,1.2001667773661446,1.2914416008803942,1.3361577236464008,1.5637817544165284,1.2803264320895802,1.3032327505025763,1.387916449385747,1.5621132373974065,1.4818803398029763,1.418748345606666,1.5084355393671283,1.4612650114061052,1.4800053329952203,1.4196627775780561,1.5353535320838332,1.505638086160058,1.4684034008721047,1.4913838871772431,1.4117191045037953,1.4261532586163859,1.4487858619009395,1.4195734983296324,1.4852651576903342,1.3744209190609211,1.4385537716594634,1.3097535339885813,1.2924830892458183,1.3288331648925598,1.1893888352884054,1.4516903061432898,1.4494755283448866
1.3359512025084717,1.168664478574222,1.322539871295027,1.318459950328698,1.6376803836630345,1.2218235015952554,1.2820119889789123,1.3492288974575068,1.506606134593326,1.4323762426211455,1.409781964915285,1.5032001343625514,1.4729923421086613,1.4953338810075418,1.438643426168109,1.5163621142296826,1.5276463266345208,1.5356289527386908,1.5446417613889398,1.5559559360456157,1.4756346789232782,1.4499317906755966,1.4035102587520134,1.5446337897100122,1.3514953272135706,1.4121831915149534,1.3674847639143748,1.3490027258790844,1.2915285063000352,1.2186954024463323,1.5102422854658493,1.4219539843586853
1.2922469188913106,1.2176598765152615,1.2568800764860604,1.2878435138443032,1.590020556121508,1.2562618562553045,1.3267524274081959,1.3462720118779792,1.4121302593257823,1.4606296873913382,1.3451531854243615,1.4276408155075964,1.3535352882544909,1.4187670331877829,1.3960600443197384,1.4032220893879752,1.4460607742801619,1.465964211756521,1.4015259941254392,1.467557816957965,1.370584094789198,1.290586223634381,1.2744629278263468,1.460938851645118,1.2964422112187592,1.2829980073620908,1.2827769266313214,1.2983593862033753,1.2487910142948173,1.2972855759577346,1.4164126621175004,1.3190043640819813
1.2440778397613124,1.203936433301285,1.2352042553539857,1.2550328944169749,1.5496174623542027,1.2637798700958809,1.3370830485132266,1.3252861625112557,1.3554501696482855,1.353440967874711,1.3121086485816937,1.4261424512623717,1.3231780006866922,1.4127197462929968,1.3375324856366888,1.4759550156440777,1.3863949028915068,1.4121513025030061,1.2869315662739782,1.3185059427215367,1.2967924280885499,1.265393828273766,1.2275514813326034,1.316249289997487,1.211937238458183,1.2203739959299404,1.2241830968140148,1.259572182074684,1.2883197178563437,1.2842370771159113,1.4222435805940121,1.257674305512552
1.2631396991286854,1.0861669205492104,1.2958047681849183,1.2922987444628535,1.4843581490629618,1.275847143913031,1.4904147578292128,1.4133597107975504,1.4064029971660272,1.4709744825187996,1.3826666068226166,1.4305865467968328,1.3841835157662215,1.4288036555921604,1.3105738088020316,1.5624596942331364,1.3800715089340931,1.4372354490249315,1.364325860411607,1.3224820798650552,1.322408620412464,1.3380515097801224,1.2626966198090699,1.3124333143617108,1.192954610613685,1.2054655181407201,1.2146009051392397,1.3067994739599817,1.2515008408913657,1.3069450105277614,1.4226986633702379,1.2820767738300385
1.2786082155569591,1.2066463057818018,1.2666870256967788,1.3500712837808095,1.4563473346997078,1.2446905385659863,1.5104542560312058,1.3706447096834546,1.480362739132783,1.5016285747151459,1.3982974661275176,1.4431356222226626,1.422392304464064,1.39830600294465,1.3631951137250624,1.4970732037688184,1.3718294868106926,1.4097715240541864,1.4619473846643085,1.4284544059585134,1.4616503424425107,1.3867483653477244,1.4298769681669892,1.4030290416098714,1.3290676533999657,1.3799970025787331,1.2694390437202103,1.3238281387908772,1.298716522372667,1.2994659452948985,1.4992420616435729,1.3652501200347917
1.2968440793229867,1.21859276773368,1.1851870387883994,1.4017301078500937,1.478408685520368,1.286733897944183,1.3976708675901295,1.3210085180002102,1.502021311549216,1.4986255073111119,1.4170890583498303,1.4390369958247655,1.4194595486507418,1.4074783225117407,1.3397711849235343,1.4618463888870623,1.4170846005418647,1.4281111494776648,1.4390771964818991,1.416332368304039,1.4281626577065276,1.3893118011318375,1.4114202439866512,1.4157308689512198,1.3725065970794115,1.3767347031237216,1.3384435648346344,1.3852223947754412,1.282449173347593,1.3050686488725305,1.4722082220412094,1.3840814952902856
1.2920987085890423,1.1886978619631798,1.1875895345071112,1.2979714497745103,1.4985656790755344,1.2005208537412388,1.3989592680243736,1.3530271372487288,1.5240448527903985,1.5047794765870106,1.4131100834876968,1.4753788871865194,1.4183226864586456,1.4327587954022694,1.3616541752487714,1.495285713725365,1.4944422735031555,1.5364513923279506,1.4712800862250897,1.4275587928205844,1.4691793825769641,1.3678805781990817,1.3958765823543229,1.5217627608186313,1.334981258285772,1.3520480566151107,1.2866727240767832,1.3481841422027663,1.2524994147907214,1.210314784409863,1.452995325881084,1.3648864684254152
1.3273586210174773,1.2383473544254073,1.2282048895039794,1.2370014357794712,1.5458297763178388,1.219739813450744,1.4770650530029141,1.4162548758739841,1.538139456657899,1.48378024048876,1.3716923056615078,1.4272446865330053,1.4543532117037024,1.4167831608681776,1.389753326236476,1.5245805262402425,1.4318061065343552,1.5238388351593477,1.5139249727145845,1.4493328905529745,1.5131406767370237,1.433767027585494,1.4406720579446182,1.5728966483159332,1.3346669407536533,1.3667861765887959,1.2479496959756433,1.248180445457571,1.2632750352539535,1.2373648645790483,1.4594445783932435,1.3568188800998502
1.3537794830583814,1.149176308599233,1.2561500345490155,1.250931760816599,1.574211863310433,1.2810942463587918,1.3940310747203293,1.3945953703412943,1.4715851753265037,1.524548113584389,1.4006549396182577,1.474064705037946,1.4140907201360953,1.3674085109973988,1.3343477359677385,1.4691339627530025,1.392287447721073,1.518402868546075,1.4888411087863198,1.5090804362896386,1.487998188954562,1.411162759223827,1.4352344021223715,1.454600097045154,1.3069447761686765,1.402608467345396,1.2890131686057853,1.2509735954188403,1.2707420482967922,1.2628160108274529,1.5363077594732018,1.3929760821678019
1.3019126320624756,1.2122088395124517,1.2701499031526178,1.3186518248549488,1.5827073328709615,1.259929289466986,1.3860623291536343,1.4346152432094708,1.4499690265483247,1.5635110212354881,1.404880836850558,1.4008863089273738,1.3558290370076147,1.3663316749982806,1.3355986515700815,1.4019580625394095,1.3693291597743578,1.4346136614696963,1.4272851874870216,1.3877886327376014,1.458327031483844,1.419669291873539,1.4378799482676672,1.4535771421920334,1.3754106489718094,1.3802406717460032,1.2866827856025462,1.2855753113878698,1.3527178790518548,1.2663756085956883,1.4953001112354303,1.4077340193253314
1.2341232916010807,1.243796807957692,1.2460943151188362,1.2732941302415886,1.5331493695271334,1.2127964723385123,1.3455187787562046,1.486782664604827,1.4357829675834193,1.5073046430273276,1.3295221351074848,1.4455652513956594,1.384983560368228,1.4019265446322309,1.3889617588062804,1.461880826262346,1.4139407578693655,1.4148049533688791,1.4017318831761196,1.3519739890129405,1.385138678813637,1.38275262191399,1.3912454029211636,1.3619215571733316,1.3559947006911315,1.3921496143121452,1.3062115021800906,1.2469912747520784,1.2974384781347061,1.2424225999059315,1.5285802098599,1.3490262730839842
1.2070530798365802,1.1783187115383136,1.2022775711426132,1.2644718853570491,1.5193345881874842,1.18664141699965,1.3798489558468214,1.4924224390081622,1.4519711174436434,1.4089488024342356,1.3286640045758393,1.4798947230087118,1.4349239927717299,1.472223054704413,1.4328063690302144,1.4546473678325367,1.4241041578517906,1.448153015417797,1.4361254346834877,1.3817542184257856,1.3991175897256718,1.3784824833661575,1.3955954221707907,1.3811499186124336,1.3697558849146754,1.4000191364135053,1.3186346841561682,1.2668351834178246,1.221864931493282,1.2298792684083284,1.518917324991683,1.3763433124074385
1.310673632789523,1.1894907718142111,1.2607304696832975,1.3329757572129564,1.4361736873365964,1.2656382072185446,1.410923018643189,1.4504968894472734,1.4502005417624462,1.4809406219679457,1.3941789063340668,1.4600219421055762,1.4596647233240008,1.405989380500421,1.3935379969842063,1.45673000766541,1.5012982200899225,1.4746012303989648,1.4648565809065761,1.4571160658571982,1.5026848035798397,1.4324773055322122,1.4357845964520493,1.4488846186111128,1.2978028637012076,1.3654933295876506,1.2437902320969847,1.234210370759281,1.2472796598634939,1.2740322366729577,1.5207197694712495,1.4167378108671778
1.333436768496529,1.2303922131192733,1.2486579451365512,1.3149469656434047,1.5028161349338434,1.3032645064417023,1.3903238302338419,1.4343695269149486,1.4190432303650966,1.5008208302336494,1.422681068991912,1.401937436878275,1.3921334800221683,1.3422348801993458,1.2419928731825474,1.4183280470409383,1.4106026897171793,1.3637776320724346,1.3318505448050986,1.3455486732351465,1.358048268257112,1.3509762128952292,1.3410899104382374,1.4113523093139018,1.266355027613406,1.3413463442969298,1.257460451113645,1.1810384348067124,1.3374123986109914,1.235543129839886,1.5741651840758257,1.367790899738378
1.2051786570986578,1.2498978606174989,1.24639990097999,1.2551816942886806,1.5765775981910197,1.201972867481769,1.3306832888560127,1.4167601058579982,1.4802976316333138,1.59512836256679,1.3722024153511025,1.4470031859528192,1.425083678751198,1.3871394710163925,1.2609411332951201,1.3816808796109599,1.3654429785541933,1.3779543766438054,1.3851101827574943,1.3535169348854512,1.3595016729629117,1.3855782321146608,1.389116446836536,1.3754653594544495,1.3045418867921355,1.3633292998708815,1.2648007961017234,1.2017858370833476,1.305659051195115,1.1580505020191245,1.530605172793938,1.3847704339979856
1.196083286399536,1.23009016235918,1.2546521935452237,1.2307842597018879,1.5394485698129068,1.198272299032914,1.3479527292259126,1.4439196004297483,1.4298130409094285,1.5435703560030019,1.4073268182659044,1.4989297346474315,1.4516176634228064,1.528728461663378,1.3745500422465673,1.385677618867382,1.4067160584138125,1.4375385336683473,1.4260175067320506,1.4081272485919458,1.4422408114472107,1.401457628546165,1.4335899768980922,1.4493790000197002,1.4425512474104867,1.3915203942701753,1.2609471341172234,1.2864368458023332,1.2890490042904172,1.210468367402758,1.4397303993812705,1.3504084767739246
1.2784844176692112,1.1048275809142647,1.266766860529195,1.298578960782042,1.5396040749592321,1.260962705980053,1.4062268994033291,1.4411160635465765,1.4673465173744877,1.4942263109244929,1.4827912337577283,1.56182873961146,1.5065715335009617,1.548269334993086,1.4098197692794623,1.4345351488882485,1.4236910308903226,1.4744807163892923,1.4178589280546436,1.398522759509095,1.3747347482302943,1.3904110510997427,1.3282966054981065,1.4418090115467785,1.3832937021103877,1.3701589417014661,1.3050989292692468,1.2386023032118245,1.2439550606134815,1.2501864311128201,1.492322470657143,1.4170295448626002
1.2315710540405775,1.1929127694284594,1.1776987640022714,1.2475031935750205,1.5074914578973615,1.2572726699427899,1.3054812106251952,1.3675394585438854,1.5398108335976037,1.5028867049917378,1.4112123219200736,1.5126433687490854,1.4888787438640525,1.4347601793926836,1.3772918557963876,1.4163256817802017,1.4345231674050272,1.4277449844776091,1.3853412632036322,1.4194294589221932,1.30729519107751,1.3248395520888407,1.275898008946341,1.3784283556776156,1.2582036497124773,1.3356154775095008,1.2985293069555186,1.268155294555173,1.2049493743562572,1.2637763299722693,1.5449562175448641,1.4359470794382347
1.2002261855382346,1.2837792168984752,1.1974892914251083,1.2414868205537892,1.466983079465353,1.2846121108829514,1.352015452410583,1.3838982507287723,1.4539613886190894,1.448579352430748,1.369958640208597,1.4111093260213001,1.3778457402218844,1.438689581652897,1.2950974230396275,1.4006865854518886,1.407500967947749,1.4018995394870366,1.4210815136432342,1.408661059112707,1.3791125788206187,1.3328309240227096,1.4139439652423313,1.4414162244127784,1.3628849545367703,1.4397271983650746,1.3039829878935982,1.2696364376108367,1.2243353512819355,1.3286036732827204,1.5147566727509787,1.3604893849004673
1.264740030723801,1.268163741109046,1.1919509209360597,1.2469948083929803,1.5280523858635444,1.2240411080440017,1.3550638472103471,1.3770007416846568,1.4720117414719323,1.5111813295733358,1.3735037132082377,1.4566415424904067,1.448680773764488,1.4472447696197284,1.3204503198783761,1.4506112952312198,1.4472419559905894,1.43647759657768,1.4903286556826663,1.4244202169722222,1.4440928019215091,1.4042492336559864,1.4270135728859037,1.4631923569598284,1.3469183606713158,1.3542967452231396,1.2828866141105144,1.3136052909373708,1.2636627170962118,1.286873366596961,1.478818534065201,1.319772644859982
1.2596091783652872,1.2309082501700168,1.2268074842905492,1.2787744491168875,1.5802982805736379,1.2124140597841258,1.2892202234571855,1.3783054333594198,1.553686914608389,1.4795525721914964,1.3548586407835683,1.465399617684441,1.48917303532084,1.470409458859823,1.3447936807409324,1.3952672232719596,1.4213202354063545,1.4262445754623583,1.5067548449062222,1.3918146831149074,1.4647134387722938,1.4542301636278256,1.4574334171708314,1.4146003206497388,1.3074851158197414,1.3393044325142767,1.2718077180149794,1.3291269895839604,1.340880715634761,1.2033167529114606,1.4583386024300276,1.3440021742088972
1.2454018608276818,1.2795864583243217,1.2419099349300575,1.345141489624253,1.622478691418485,1.241319620363529,1.3063192831265138,1.3409494524799266,1.4030890522755421,1.4650503268553696,1.3393742394735955,1.3985844716219242,1.3544124209453234,1.3805584512879832,1.3049620487386848,1.4019093349767584,1.3846220202639432,1.3609803980477602,1.38666541515355,1.4084142662915464,1.409318548968811,1.3428344538429906,1.3905318187807867,1.3345034813824812,1.3238565930709942,1.3124343247969963,1.2811165183424047,1.2697802405320497,1.239838333064932,1.1872604182390984,1.5318875489217783,1.2972812026124483
1.2464511779097258,1.246340698651433,1.191721441234551,1.2756040042257741,1.5415074415398486,1.2068202611019223,1.3490209907901345,1.424318968926916,1.3992574603355046,1.4882604693403498,1.389705733398964,1.450716759654578,1.357797793417084,1.4214041138498503,1.3498899048007003,1.4453230490854492,1.4645164566760303,1.4088489822619863,1.3809442944872943,1.4450986809739177,1.4153099072078803,1.3522096491588806,1.3739983979616617,1.4745141944315705,1.3484928691802678,1.3751585939258153,1.274591927248077,1.2463105924574864,1.158692144877177,1.2382427988114566,1.5953187950203582,1.3694003042590022
1.2422995003808646,1.2159234936622665,1.215381267325821,1.3504337611282593,1.502946831642631,1.137534383381213,1.4187593405626557,1.4338502272374267,1.4452485441364018,1.4918764863653156,1.4078916181113936,1.479501081564055,1.4713709868237057,1.4548223167695218,1.38586598243936,1.5275366973930533,1.4759479413010743,1.4980868317852545,1.4491000798856288,1.4433511841889166,1.4679404672844676,1.445443556661246,1.410013508890573,1.4532501501582231,1.3285218869825692,1.3754421945261888,1.256095906327564,1.1998019642458275,1.2210113818737192,1.3306225716870523,1.5607110048617252,1.4043041299823777
1.3521650817863289,1.263594358777444,1.3250376316113905,1.4319338873995517,1.5137152456140037,1.2610133521273152,1.5410169515557413,1.4508573685649988,1.4779125816976293,1.5322902471736677,1.4475420220254305,1.486318232982062,1.456565168172672,1.4657943465505876,1.3894430546549197,1.5617888842886216,1.463188002234272,1.4896766338385266,1.45285319582486,1.4722898019953525,1.4984178390517477,1.4242670006598386,1.452109690040577,1.3993887019910674,1.3660784520776041,1.4824392580172256,1.2659038118892039,1.2870380462853162,1.1820368863879624,1.2741396142062802,1.5239095797356896,1.4833465530241583
1.4163179933742855,1.2628242542390695,1.342456537786417,1.371504519053119,1.5736534402726343,1.3157003988452953,1.6507124023475146,1.4701110964870678,1.4199150108129759,1.5427628178667556,1.5083048988262464,1.479919260161362,1.492848987582765,1.4783244336244465,1.4534323211474258,1.5281976824759573,1.5108645224238413,1.475893715105803,1.4782911635258946,1.454562958878604,1.4636258014396508,1.436154307246871,1.4541467624119337,1.4859678822696056,1.3815825746838506,1.4336536663721997,1.279695823802209,1.3499160566474335,1.2166053600478077,1.2630786908993503,1.4393599831933357,1.4444084288816275
1.4208859638417481,1.247882008836839,1.347134936978551,1.3184581495041854,1.563033972373452,1.3149922090097879,1.574338113028031,1.4460821923608154,1.4097070251179251,1.5065868230805943,1.404279718957306,1.4395352459138213,1.4552584331823926,1.4092777959383724,1.380141705920109,1.5249671299928933,1.499820790265367,1.4468827500947274,1.4542760446536909,1.4195963540456868,1.4554573019446668,1.43665274500843,1.4459849688218738,1.5093682333939695,1.333159540083637,1.407633077902203,1.323713084088348,1.3248173433117802,1.2629549495858818,1.2136682782175128,1.4984534531034248,1.4262031606660366
1.3159265142961079,1.2731316078108976,1.2611727893488234,1.3384502390946122,1.5325739000682412,1.2925716183485867,1.2993169419924389,1.4018282563749997,1.452414983169048,1.4484537952430787,1.2923914438900446,1.420804668143055,1.4089432379515527,1.2932718953643958,1.242299139193359,1.4716740670904653,1.4557238700538695,1.42764486090597,1.4638706311103138,1.3661515607331056,1.4982793812851687,1.4786912957054763,1.4661035245275567,1.5124523425404248,1.3845794776455802,1.4472536577689716,1.3314784442971828,1.2829591590528875,1.2609661488955157,1.1853031196713493,1.5073697601076785,1.487618856894886
1.3047196329394828,1.2370863782674533,1.1862081013820365,1.349428569285617,1.5333710579144035,1.2665487516285308,1.3374867223761762,1.4103598098722159,1.424110398697525,1.4791527891152045,1.3566308291186644,1.4072549139319053,1.412845628235952,1.2705238893122373,1.2568175754355941,1.4193800490122348,1.4415140475850843,1.4929200356857804,1.447682578040366,1.370071430505972,1.501412962043457,1.4302658664012742,1.4229283378408648,1.5106919239014214,1.3917569037179427,1.3919354950164031,1.259278235622802,1.2845734119939392,1.2490216465543353,1.1821592856610816,1.3820611045102897,1.3902519209388873
1.32942841498421,1.3238390461383738,1.2103818216034194,1.3835451394052374,1.5262224207573416,1.1932728835969695,1.3674724457419025,1.4121787543055386,1.433811205806712,1.3529636683883681,1.373067582092225,1.3798863943930688,1.4235032416262783,1.3316010052004965,1.360836512829537,1.3933930235582495,1.402899701516281,1.4666281613714156,1.4153486406168276,1.4016711371948145,1.4565457026188933,1.4195426585148818,1.4135172110501573,1.4334617791355313,1.3511331167317733,1.4055896212802674,1.223110313702305,1.326032144300812,1.3184494819218053,1.2274999935042274,1.4938203712246945,1.385596966436427
1.303472960312872,1.2975350357657502,1.2228085493462442,1.3505874854822382,1.4949718764606503,1.2258934844489373,1.3875021619708618,1.381103977651163,1.440227494373356,1.4178758753651255,1.3751117002142306,1.410544656294971,1.4661749386880942,1.4426769228917498,1.4481483288560417,1.4654587970023552,1.4957178163385407,1.5009237049920408,1.4690325963323891,1.4419913868140186,1.4705287087754992,1.415458944607007,1.440771711174594,1.3756966581618169,1.354992714958815,1.441164129382226,1.2605605154092785,1.3014597267381935,1.3463956890294855,1.244841735597585,1.5344036759923019,1.4331050480958947
1.2645908883372459,1.1939519976768413,1.2068773834177795,1.2747451164569912,1.453281096261509,1.2071062881046013,1.3868252684889877,1.3265527000104138,1.3768618726700226,1.473858088337198,1.4269793719803459,1.4150890037962,1.3852647449885198,1.4375744347014858,1.3964549318853656,1.502302969150387,1.4938187305890223,1.509081040960084,1.4284827586794302,1.4259573050261325,1.4330734434783412,1.3525098990076052,1.39698689672721,1.3759218521735073,1.3641458059876554,1.3653212967666677,1.3170070702056127,1.3117391943560581,1.281167165410621,1.2024274966900208,1.565386984756525,1.3727654882283435
1.31989549052787,1.2931277393659732,1.245112521611838,1.2793969631009345,1.4137142735394828,1.246181281523575,1.3673249804687588,1.399557525685316,1.4499906726742058,1.5122667672704577,1.5085460682556806,1.5083410243753113,1.4146345806145098,1.4453483777067757,1.4068711795091988,1.51471535664679,1.4749379812894348,1.5045834606289805,1.4702474815525304,1.5520415160981942,1.5008737414450766,1.4121637907534514,1.4339185745180139,1.5545260729395318,1.4382926286432545,1.4202937602658259,1.301317714775024,1.37999007191826,1.2363094108178068,1.2284099316457266,1.5206435116984227,1.399035716946675
1.3445778971270923,1.302262399084504,1.3413037370677832,1.2523197717933674,1.4526962812825457,1.2829550683828843,1.4975807282062856,1.50976186537358,1.519870183646547,1.5291916492996804,1.446997420173395,1.4701397742749371,1.4549572871699301,1.4535500140178168,1.3994243895048815,1.418386180716157,1.4472302482579915,1.4990779404158316,1.5364537672556438,1.5915486621862858,1.5579641510695736,1.5231997291192771,1.4821413075060874,1.6641435414324126,1.4894661651955432,1.4903201266881305,1.3372026631829943,1.3677329153429312,1.2358023497669588,1.2936443556630428,1.545966020736701,1.5067787823306489
1.3035846931872628,1.1190954934880775,1.284195180296346,1.3337875883733694,1.5163341833356814,1.2838202500576776,1.5539722099384787,1.5651508696630643,1.5255220304673167,1.550020157827124,1.4441428131932486,1.4865262203357124,1.5259636388326607,1.4661279014977626,1.3558144881419354,1.3806228755519794,1.4224073520098104,1.5183282587002145,1.5665024375566117,1.4757215049864447,1.5707966378531197,1.562242011493747,1.5359026524062114,1.6453183490434957,1.4547874556725489,1.4980788696229859,1.3359079323310805,1.3330768396280994,1.2327641394555036,1.2862958095147192,1.5460741860857428,1.50153607086301
1.288184979519309,1.167466568831224,1.2470521182719518,1.4007528347880256,1.5336949853974295,1.1862251865321818,1.3808248718229041,1.3510316894454544,1.4442438903687602,1.4811756351789538,1.3874880664123652,1.4467110572266149,1.5094747643134239,1.4402761064826435,1.3889732649599853,1.398011134838213,1.4812567987356111,1.5582248435497676,1.5265794949786793,1.4609965885230694,1.5001596010455034,1.4920820192297317,1.439582921298859,1.543815043477372,1.402676765727334,1.3984057889581616,1.2913588736309922,1.363093277905161,1.233815779295202,1.2457231402521773,1.4213061862904919,1.4418468528419122
1.2770235706333335,1.240990820259321,1.256517920816802,1.3074622947516228,1.5126131863392744,1.2187301146015819,1.4011360904861192,1.4302167507993353,1.4922167068115582,1.57113766312706,1.4171188787726252,1.4271776784679562,1.4329587643883999,1.4431993976057649,1.333915216050663,1.5233087876895912,1.4624059763158628,1.5194201808128265,1.4516588783744213,1.458874823017819,1.4486247380471884,1.4106904675326306,1.3964085060877611,1.5029448683280704,1.4381799068690375,1.3578417715035016,1.2548738334362373,1.348500133643878,1.2388977483909769,1.2319142962964285,1.4521117888870658,1.3998423071637933
1.302934024963636,1.2402480749040141,1.2622843096440939,1.317885275071466,1.4757660420054166,1.2829888936257876,1.4063942954949622,1.471292627516239,1.4450936124801501,1.5226349260846672,1.3880401115895578,1.4845399174587728,1.449291672098885,1.476452925740331,1.4208117759832695,1.5500877714795311,1.4395640967639303,1.4755767756977503,1.4042520165899202,1.4569238651140681,1.465958713565599,1.388075674453422,1.43542727058268,1.4911715940567554,1.4264763044583537,1.416157557208728,1.3750611888164521,1.3152608684243876,1.2878362365520453,1.2748798640399712,1.5269498470509095,1.4441737140611897
1.31811855029591,1.2368336472336199,1.3350938860573704,1.3785798241545173,1.4990862961418285,1.2752491705968603,1.5375917250683724,1.4732910516159696,1.5105318229595401,1.5720741884902296,1.4855388325001508,1.5492797697268237,1.4912799817446365,1.4606716486513593,1.3738946008496404,1.5154649112515146,1.490714451127617,1.4919585440180734,1.4470906701044286,1.505383185171278,1.4669898709252684,1.394651205472062,1.4146515191055578,1.4759348594712802,1.3565096801141983,1.3709594570530657,1.339995515573342,1.2740101126510852,1.2931188920419943,1.257983193875937,1.506913623837394,1.4146966127965461
1.3390403828278328,1.2817852947516726,1.3336115129934751,1.3200767387075787,1.5003662706895908,1.2462001104442633,1.5621372160348592,1.4385692103840062,1.497731639759009,1.6040176840688696,1.5495731499885348,1.5257477712718233,1.418833709505399,1.4341506457330764,1.3762248292206622,1.5045651253136598,1.4384888948132863,1.4143257723748175,1.4127765940504444,1.4181955164896425,1.4182134918061646,1.4090424707227414,1.4424645594583643,1.4005847808771172,1.3082201605208534,1.3858092063727097,1.2202002218093944,1.268371490939388,1.2009127838881017,1.2677263875057858,1.4459548693296773,1.4234345738987357
1.2726694763238047,1.3586571837100339,1.2095547695714102,1.3230582468875922,1.5339689146242625,1.2653384067046693,1.4292658390495512,1.4615576411854359,1.4566323111243702,1.4647722412206787,1.3539216473257338,1.4205275546854264,1.4705520976101054,1.4024551150295883,1.3522985448403702,1.3506152789728478,1.309669413656731,1.4343641556043227,1.4587377838543132,1.4155431068534128,1.511817252898262,1.500841641539016,1.5211403072039478,1.4814701992588288,1.434718829281968,1.4637520553557055,1.2592928471139877,1.2694988631677075,1.2364399709312317,1.3189390256047517,1.4265801156309255,1.4607108406683629
1.3197617430848305,1.3198996366660578,1.2218144288658206,1.309416262178297,1.5147935924042784,1.3027610139880446,1.2546936849163945,1.4499975930035953,1.4502071067006668,1.4249667471502263,1.3046600017239525,1.399542881929257,1.4716299877205832,1.377268744196651,1.3565742850206701,1.3819663064215586,1.418732087992703,1.4920184317295542,1.52613013868635,1.4794662052393464,1.4980444465309712,1.4984614045784848,1.459980016014801,1.5117854220543614,1.423590350527063,1.4401804864145749,1.3254182314884468,1.3329353388258456,1.3128593109534077,1.3038203312268217,1.5169464590587114,1.4494596904422066
1.3268687914674695,1.2019044407178783,1.2164594004720442,1.3146319278164924,1.4992340216500897,1.2674416941309314,1.3039578050287037,1.455918492620099,1.492995694240882,1.508087322162839,1.3912444142269897,1.4713479940741467,1.4259368682597342,1.4025886057085302,1.3642049868664574,1.4408465754159285,1.4280494148286287,1.4832239678425498,1.4891533665826198,1.4572929350754231,1.4838874754367752,1.445013840819598,1.460372120747234,1.4353257984723309,1.3927329402783186,1.3899194832957713,1.2685991775770724,1.305316041050269,1.2942561599554518,1.277852720546631,1.4689517621247437,1.432345222808966
1.3278779840909865,1.2319623150359198,1.292000826307204,1.4325971850014096,1.5111716848829981,1.252275811197891,1.3341394343262734,1.4546805225440291,1.4148112555895946,1.4842041560097687,1.3673025041827673,1.4409403590839156,1.40925273146573,1.4149563687682973,1.3905113854365643,1.4113318777200932,1.3653021557361606,1.3880056988159357,1.436587994522836,1.4342153745186934,1.4956969408316945,1.4144752016098217,1.506647720149932,1.5168167973609434,1.4472225090365647,1.4270848714790914,1.2951657725964547,1.374641334856592,1.2426008987695734,1.277255206981956,1.4627797168927126,1.4424940084168099
1.2809131347525398,1.2752432676630645,1.3068909853729564,1.3553107217293445,1.473462210983973,1.3193059248808232,1.4120583534473754,1.4738749878954511,1.4838257573184006,1.5711000918163032,1.382321978933733,1.5143234966333425,1.4545419396791333,1.5059248337673377,1.4270283610711685,1.41135913171105,1.3814224757483748,1.3939067245871968,1.4426844479378826,1.4526545525677101,1.4406692978232127,1.4504938570621793,1.4703447432833505,1.4479195085867835,1.4072132618313156,1.3925105618718092,1.3213423908115873,1.303907595496567,1.286894292254578,1.2996358527412197,1.432695012875951,1.4684215529998856
1.2533104026657955,1.2709473051394982,1.2575256411722189,1.315444838600473,1.5530458581787396,1.243751035938068,1.382633570823055,1.3856388334083132,1.45741027359874,1.5251466885827778,1.322406929783294,1.4769752318358846,1.4256295685533074,1.4595884863554174,1.4061233043227412,1.4189470565201991,1.4161154459749532,1.4130890891056644,1.4240593564641644,1.477817197489261,1.4132386135501718,1.4115828793419396,1.3925887584095114,1.4272232836921115,1.4347060132018399,1.3811512546408313,1.2969069641386939,1.2940349391312305,1.2801368158184874,1.300282542266921,1.5244080385288283,1.4528449380390662
1.2739091455613958,1.2774719480756072,1.281330004503348,1.352274899936911,1.5689778772261427,1.1842031849415389,1.4647094277230526,1.4141256123357888,1.3834128280674385,1.4752799380958173,1.4166769906631669,1.3815439661432263,1.3513949150444229,1.4280300762091538,1.3795330787171898,1.4180009590243752,1.4345774243329403,1.4441225614783963,1.4316254887442155,1.4609941675950568,1.4362971025922775,1.3703373222241748,1.4358997194251297,1.4990730749091288,1.4357320040063375,1.3754083750997699,1.2708381260077466,1.2977510857734036,1.261990700439916,1.2254940024197198,1.473600890073225,1.348590729857311
1.3301630991003242,1.3363260353150608,1.3228649888981916,1.3276048186460914,1.4873876031114297,1.1872071088260818,1.434593128973647,1.516311134095547,1.4380883662633226,1.5482381701184764,1.5101994634864653,1.508280858849501,1.4477978607136541,1.5192569524115231,1.4803580202219853,1.485772032280252,1.545270524925452,1.5601254501263906,1.5284138651594854,1.506043027360496,1.5051650422168692,1.4516849516371513,1.4636294929473703,1.5448934034590076,1.4103443786263106,1.3641098129017402,1.2104362989632025,1.3411790735133984,1.2806244192307392,1.1976013110702763,1.3986884942239335,1.4039320885772344
1.318398718712579,1.3295105050388656,1.3063355138731847,1.3378926856420594,1.5260771711620915,1.2211991284631545,1.4410753424745089,1.4432852084580228,1.4869369336786191,1.5266614293978742,1.5020507443928617,1.511667478201285,1.4851145022219738,1.4908932100273111,1.442306930371608,1.5055303917520548,1.5134449905133884,1.6156531906735778,1.5538592150928778,1.5542202552432096,1.6001935947121755,1.5119364796090808,1.525880825671758,1.6490601018121949,1.5391060732241943,1.4219343083326368,1.243992446886414,1.4363626599710748,1.3622777216281754,1.265099703875249,1.540611213750837,1.4739706219504
1.300621217228602,1.2755820759486578,1.237894642665642,1.3836105856967678,1.5978947257842917,1.269077270864158,1.4205395129522214,1.461957822562036,1.4823388909874122,1.4506410534742888,1.378076678029799,1.4448760597258068,1.4688610205907464,1.4484707182512582,1.3947136218602896,1.5690286598692709,1.4288518778449977,1.5340251018634925,1.471382419787907,1.4980875810974794,1.560008625352522,1.4383670820419476,1.5464473973709632,1.6298250537017134,1.5116417347761388,1.5124019170786902,1.2952500655963164,1.3860948050720683,1.3352147387912743,1.253741123147716,1.5074405959382766,1.4581501928696836
1.2445672654690203,1.2267560289217765,1.2663601072209243,1.4380549899671735,1.5306959507992888,1.3073327322101174,1.4114488929015703,1.4394460811406171,1.4832468054641652,1.5077811139041213,1.3466457864637706,1.4467142352728073,1.4586419176299563,1.4278627465487306,1.3801985377312658,1.4822407032759326,1.4878650473280046,1.5006602833959084,1.4631352221882419,1.4310130011022666,1.4996570841510808,1.4451633019208725,1.4598178211999664,1.4703450592733818,1.369363868375611,1.4194285530343052,1.2641314475088845,1.2750062460063767,1.2385313426278999,1.2541062621995474,1.4088438666343512,1.469419941784645
1.2823487129931275,1.2290290932076446,1.2258117381041531,1.3802536204667424,1.5010409310664188,1.2357450957576552,1.3427984585636092,1.3516218570939433,1.4648741000915795,1.4600397495318016,1.2974069615327775,1.4105524659167885,1.4114493806611712,1.367645276948321,1.3444609373428176,1.3819778433543746,1.4419912668198855,1.4488131511983584,1.4517796859116894,1.3974499374734013,1.465711243717314,1.4205768832498131,1.427343858987979,1.4555641791999114,1.3495955109813622,1.413619715177307,1.2465240797095598,1.1829338831946026,1.2674481714850405,1.2443958033013058,1.4116466721727874,1.3785899774332935
1.2989683010956818,1.2540195665133822,1.2075335192656897,1.3193639421403374,1.4383482375589611,1.2141160633710062,1.2960622279251974,1.3915719554543913,1.4772782628858925,1.3971013632206704,1.3352184094878086,1.44021134599295,1.3883301742423413,1.3538578267445913,1.2755158923423628,1.3808885354201401,1.4023071236067495,1.4468277814939867,1.436130201136355,1.32823895712131,1.4371008017181817,1.3890134023559833,1.3951883785735861,1.4314697804152772,1.2813440779816334,1.4230221375737973,1.2321829300820348,1.2018668695432664,1.2265960791966262,1.2028163510320409,1.5013829962105842,1.3928651681241255
1.2862236873981503,1.288352428097366,1.3017383328516474,1.3927002074171837,1.5060054075419331,1.234435997545968,1.4302982427318014,1.4489704701807213,1.5336521441451552,1.5795560659066938,1.4803284631964604,1.5902420803950037,1.471967871073997,1.4973634177154787,1.3544315526072896,1.4625015140754227,1.4208153208698937,1.4898372059216118,1.4879509618471434,1.430870557397222,1.5219324465376745,1.4546461589697393,1.4869689452910864,1.519904313881849,1.3636182566145685,1.4957147710542409,1.2442170895584261,1.232536951355426,1.259925557019854,1.156446784945124,1.5281400795082085,1.495576522983479
1.3247101784256017,1.2671097060288627,1.3094847827322225,1.2905319770604582,1.5065203955339186,1.2515246616611115,1.43957664276942,1.4384011936330676,1.4660828297578326,1.5503291262131682,1.437809313156058,1.5383886905968644,1.512074636453262,1.4978192239905832,1.4559240611954267,1.5045076270891091,1.4605454633913846,1.5004122674632887,1.5339551466294334,1.4753511430073385,1.5193188087221499,1.4801117524901777,1.4968328280588785,1.4932568720439812,1.3496215427285343,1.4664298031452794,1.243165839555293,1.2013495854756573,1.1640118067447947,1.1696113413305826,1.5060978515253014,1.4582032998087102
1.318622861705919,1.3019330121306554,1.2544558264632006,1.2675500191197169,1.4882452599710334,1.237954852219145,1.4178566250415878,1.41431774941146,1.372223776111559,1.3730427288458638,1.376942234378308,1.3951860869890693,1.4576069011184813,1.4008979096366738,1.4131453938534573,1.447669904840024,1.5085381481266018,1.5080624336368122,1.5267076619644733,1.532271052320103,1.5008871439021063,1.46798556169196,1.4197087231644667,1.4475026817192174,1.204755754710826,1.3474526794381825,1.251549544649542,1.1873241231609724,1.2522720499102438,1.231557916886352,1.4938165755157398,1.38678323920307
1.3043433897588719,1.3014987791374946,1.208224609121465,1.2772712638034922,1.5783513476476563,1.2461816228921452,1.4085992023325447,1.4305453521927989,1.507875577251554,1.5372842416047268,1.3935002493370614,1.4944580575300739,1.53385011602161,1.3891771925588987,1.4093754397620246,1.5163002317930838,1.598487016458128,1.5909670302575043,1.5790757833915994,1.5685383131328159,1.5687830966182008,1.5083826669717613,1.456181761178175,1.4442501714436473,1.335101755303907,1.4101961478710636,1.2775213085480657,1.3193970369401697,1.3102446084143897,1.282052406704567,1.5439130045920615,1.5188433316124612
1.3038747274831215,1.2662464634687345,1.2622458444683515,1.2546280735895803,1.5199679349138853,1.2332308220554806,1.3827210999940005,1.5060548027160623,1.5243829129526256,1.412270419304959,1.3647163184205129,1.4502771338935692,1.5045806980153764,1.351065492883872,1.3158543444963327,1.52278739717157,1.570272579663598,1.5559492495889617,1.5425147410764937,1.529468860410369,1.5568248093757722,1.5071232830628034,1.5025291776648988,1.5015074293081547,1.4723695796442422,1.516136005357742,1.294279097368535,1.3004142729535866,1.2708621124282176,1.3324373036660544,1.5681615634629797,1.5197364439905474
1.3320899833496964,1.2329296911319514,1.2967402619544142,1.2223352040329776,1.4573178200592958,1.2357089011328395,1.4690437812662933,1.5133071880406024,1.4582894203394157,1.4994226981762702,1.3950665277295689,1.4078202703672025,1.3966430884856587,1.3333819754278156,1.251179925808586,1.4302377011202705,1.4665616448494216,1.472761386863661,1.440489897517402,1.442771442137678,1.5103192836471366,1.4348015580118076,1.4719733053277972,1.4651346715550477,1.4047579891615227,1.419148030784566,1.301750717273766,1.2332504436644514,1.1637062563200742,1.3130516579246676,1.50206507925021,1.451515864354773
1.295658254049669,1.2022988419633591,1.2571277545659019,1.2137700072997843,1.474244591276152,1.2565623502920755,1.4129488323364643,1.4322184866419376,1.417211713124498,1.4507007946224002,1.3813719907785045,1.405185179092701,1.393841185041896,1.4123673001900767,1.3283553942517257,1.4651615163122162,1.4262859941198156,1.4585979640479165,1.428594468577957,1.4371312259554387,1.4295485407103308,1.3913825223166087,1.4005197062810513,1.3826853699779158,1.350107476181513,1.3460026824756592,1.302734576519582,1.3082637191164732,1.1617262885068198,1.27493214960428,1.3647295351693909,1.370345782722066
1.2661313563791163,1.1855573543873361,1.236571041358632,1.2933222846405867,1.4890437589120171,1.2209169204618813,1.377750511825913,1.3827043657481408,1.3363255877101035,1.3687961922776695,1.3632314263836003,1.3572009847222115,1.370243005173571,1.3348372524472438,1.3156934273620637,1.4971361483953753,1.4043573776566594,1.4251000591207617,1.4367028638278492,1.4075420889354346,1.4198261530445477,1.3886466330031906,1.3950847214367768,1.4260559955074137,1.3930646834309637,1.3720032548428989,1.2876392954382787,1.4248407805748504,1.3323690112359778,1.2891059922379136,1.449895976449541,1.3364495799327485
1.3186510180398112,1.2535655326715411,1.3004746354957055,1.362352182666275,1.562770713878757,1.2463188877980338,1.5071116085238236,1.424577951767781,1.4254559961602478,1.4693903197106595,1.4110417216671585,1.4070872050639154,1.4284133130663348,1.3698558123813,1.3007660418056837,1.5217523134471982,1.3771073732577257,1.4196814214855444,1.4747488829171305,1.4408175799757945,1.4958815276396538,1.4651896306596006,1.497680374270897,1.4926982319480384,1.4351146629084157,1.4397196616682906,1.3256170794027666,1.4348744258367407,1.445946820118359,1.297878817914381,1.5552310043884283,1.4080093930404856
1.3478074972875966,1.20019589481387,1.3267188780949126,1.3785912072561624,1.5275793200704006,1.2591555724387826,1.6127934828527228,1.433509035904003,1.544923093137592,1.483482861534697,1.389879663612573,1.4494534329006161,1.5423410395393564,1.4229863211950766,1.3472525202353531,1.530948993148543,1.4717604615031599,1.522385654637852,1.5969735903449462,1.5400238153742944,1.5313003556026357,1.5677924920062227,1.5539528936357152,1.4852768894533992,1.3872417258722076,1.4863901498034773,1.3314637113439458,1.3101219214434767,1.3029812216458863,1.2534147391731425,1.4784586884065005,1.4489721821109418
1.4109401660743757,1.2773698861528833,1.3410186702822438,1.3647077240947185,1.5868255275511136,1.2850687934678067,1.6453867646539262,1.4689369447881562,1.4918846341841536,1.4597283067905626,1.4051176899751863,1.427395045520402,1.5550728136936476,1.4435763689103847,1.4055331250790433,1.4955387053073967,1.48086959781229,1.5227937175072666,1.6114843633832823,1.5876646344399477,1.58123613518738,1.598058256671225,1.5501870987205901,1.497187263242791,1.3921789544398404,1.4925564189791798,1.2742314956190608,1.3028653326572677,1.236517388430554,1.2600752577836731,1.4908077537494637,1.4721465840942898
1.3770595047468381,1.2677279387054659,1.337451605326206,1.3836170807665875,1.5552486973041904,1.2773280239935512,1.5673299819188293,1.4659336259422282,1.4217161790028903,1.4349128410540977,1.4423073490274292,1.4164105781085705,1.478486292603902,1.4143629681017835,1.3499389688539223,1.4238749633427412,1.421608095016921,1.4625358146898357,1.4700297373809696,1.4371398692836632,1.4506596112046755,1.4941289946427638,1.4405675457347644,1.3814824053461596,1.4139234967799703,1.3911434640392737,1.2589219076763245,1.3180270286804083,1.2684536968800317,1.3311013647150014,1.4410251679355208,1.4032177852352956
1.293563619821142,1.2049682835016904,1.2661722461272904,1.382553698943362,1.562983385784049,1.3197437093675197,1.4849814799825658,1.3937621176713733,1.3860222623380851,1.4461906445599024,1.3562133586214655,1.410660026940476,1.4105955596705415,1.3495240046091481,1.3732039113123908,1.295949053090251,1.398820468226475,1.5163484437658437,1.5102999488448436,1.488074268010737,1.4797819140437831,1.4543843269352708,1.4620740894641673,1.4072447996860067,1.371637774822839,1.4553886100299398,1.3223561569281346,1.2198782801635049,1.3127338810244196,1.3312022698001122,1.5075751353318856,1.4774656062001605
1.3111431009639734,1.2165691888902368,1.257220428769311,1.3853932087860104,1.5806063029181,1.328241637722319,1.3108780697421016,1.3848949354675542,1.4237646081833513,1.4786937544183167,1.3494901326931323,1.4089431798995133,1.4202992249987214,1.3602736390389498,1.3124077926949438,1.3699098511837748,1.424947981355408,1.4751185846856434,1.4718560023454628,1.4781254231772063,1.4525302009954968,1.397838582907778,1.4380439746718077,1.4372645280919498,1.2847359827601983,1.3918338513911621,1.2883912313197265,1.1835861510486196,1.2801116366897387,1.287881690365306,1.5115969684763282,1.4767089401206337
1.2997356414279784,1.2305113685699796,1.255940537659301,1.2976234417371098,1.5035196932446513,1.27656479620227,1.3411883381048006,1.418822236754117,1.4321632542497593,1.4648984302345425,1.3799736581695234,1.4544295743649962,1.4443338483707349,1.415332166035871,1.4115300675813953,1.5403986451976677,1.5097155848851018,1.5235895020483874,1.4804433927512326,1.4750964979312398,1.4324426276339748,1.4211706999394897,1.4193099944544247,1.420533278598068,1.337305820949544,1.3639146122259957,1.2412792579696514,1.2861819457590098,1.218420249725846,1.2142898169572849,1.5157352061765963,1.43561530197841
1.2295506220363703,1.2245607567069776,1.2370942355467616,1.323201991027581,1.4887982417120504,1.2124221629788263,1.3876501053021608,1.3331452589078865,1.4179719849512824,1.437071521659349,1.3675316446426353,1.4508835422991433,1.3894518812931882,1.4982128918225897,1.3779587070207817,1.508457187773564,1.422265816807205,1.359432976099324,1.39548143384054,1.3962139663037592,1.4127798686007602,1.3713858896592295,1.3493464520378264,1.3965617239001242,1.3397622065742945,1.3636095223839286,1.2764040105850674,1.2832123046551007,1.2520992450983388,1.2346842240734932,1.486305830291054,1.4220137794355752
1.2702482356631395,1.1982361422928982,1.2456403583349094,1.4116992142510523,1.5536620142831277,1.2332039199610085,1.4331853909111194,1.3504047365764618,1.3906869266539232,1.4307883536132948,1.3767529468919337,1.425308314697321,1.3891152877339086,1.4154119816313582,1.3300003831808984,1.457739583626656,1.39381066208674,1.4106686845646605,1.3943705159393638,1.3794391019069836,1.3816447633895939,1.3613648424946103,1.340258589685546,1.3878720464979177,1.3418303757620307,1.3508963079506466,1.282354642718009,1.2873101636851747,1.289883486410309,1.2442043901552993,1.421682272966705,1.3907132070485517
1.3277441061805633,1.239735696320462,1.3056527336814912,1.3696008558636288,1.5408066929343671,1.2823756032638924,1.4034101157979133,1.4519464792899532,1.4355204254548652,1.4878167676176532,1.3688549690564014,1.407147053761838,1.3807648515566078,1.3882203888998386,1.3607341823057009,1.479956187536923,1.4642556699089642,1.4180692169545328,1.4127845668047194,1.4170348682859741,1.4195334866279112,1.394685555150804,1.4077802604663356,1.4249052706439858,1.3924454406527078,1.3920562957139675,1.318109823282621,1.255750701424843,1.346426621142587,1.236832981374334,1.4816660826325996,1.3845104633673802
1.3631176343316216,1.3008449290501802,1.3525194033952719,1.321707185557405,1.537415077085863,1.270361502318929,1.302213394726933,1.4535036629169704,1.4756073931614655,1.4691174117000176,1.3454650956445917,1.4343732826877542,1.4114793384541853,1.3926202711591558,1.3729652348419976,1.3960463610762879,1.4021864147702432,1.385570059533907,1.3543654648139958,1.422266091081048,1.3952184991430738,1.3855810146159093,1.392919506783462,1.3851265530657684,1.2964080102537985,1.4158616820041334,1.2776172033000186,1.2036143891933988,1.3484696678335697,1.267902933474231,1.5647036809475399,1.4184792924028005
1.3260390667634965,1.2769872479766882,1.3029045207152856,1.4080425082929833,1.5598303100821176,1.2559917676559518,1.363135259787589,1.4382654989607933,1.4386136961349174,1.3980993117678715,1.3270959206666273,1.3902624668390369,1.3924325255514718,1.2989969205848866,1.3054747141007037,1.406889796931407,1.4489609560342265,1.48360728624468,1.4269896222079343,1.464147302348512,1.3961638069209585,1.4166459099921327,1.4534027960720972,1.395402306654186,1.3257017695554247,1.4293225631776716,1.2522829752953328,1.278786883624008,1.266676491907631,1.2557345526712256,1.5081196657556328,1.468041856954993
1.294046989103013,1.2514489081765972,1.2643327668721676,1.4061758347465354,1.6173292767244407,1.3002551851366375,1.4163569018640338,1.4366899734160103,1.4483305456586044,1.4142732727988028,1.314193986841282,1.4137357811419744,1.3957083794871714,1.3082774092695895,1.3774897661789236,1.4044450125410353,1.4553961377902218,1.4766486455564463,1.4972307912935572,1.4528070677402838,1.411661364677225,1.4218457916783125,1.4329565611199884,1.4434248511889138,1.3391074218529402,1.4055633714602598,1.25950895638299,1.2579236451624323,1.2048289519955038,1.2259937787502648,1.5077598062114888,1.3610365057797698
1.2901919360845548,1.2658919195649865,1.2203664443927782,1.345374463709118,1.4802289560928341,1.2415968328896545,1.3939722538025356,1.3351202270927935,1.4966343585788056,1.524523359260053,1.4371025948504426,1.4826977697477752,1.4681354327071314,1.4295037836294464,1.4756888670255313,1.3566489436952582,1.460246435049005,1.5119981145345802,1.5404635436060703,1.4477821755455387,1.5139653939020845,1.4850122919309843,1.437446503130653,1.4962660188100365,1.299207816763326,1.3839548799835386,1.2460982699886325,1.2000507875213409,1.2077099079566591,1.2405110443783065,1.5264504788206457,1.3953918003754677
1.309233672772017,1.228744092411061,1.285764721294221,1.3021668938091815,1.4395474478448573,1.2875468354495703,1.394448446487009,1.3768063047957912,1.4483087433866937,1.485906305132202,1.3967282689800646,1.4751897047838876,1.4507588789857555,1.4097970499366077,1.3995375208465501,1.4003376689740887,1.4399886833747524,1.5022407308349568,1.5051391132965086,1.4626781274966907,1.4628450587930373,1.4070817088067995,1.405333237442324,1.460938983407132,1.2722015955785417,1.4184673100686074,1.250297719644883,1.2286135001553475,1.196658946266431,1.2269172829217976,1.5633911499182063,1.3729336508218026
1.3324139844943987,1.1979740617719545,1.2398442393805977,1.4580227329338709,1.6167963667254308,1.2840215712150955,1.4287205816248043,1.4932068531519325,1.4685164877498391,1.5215109595507605,1.3730915237120773,1.4493083211718767,1.465106230966817,1.3894524135679724,1.3948194031528214,1.4791475137961425,1.4324593817925777,1.5002749941161488,1.488057674619575,1.3971800011001254,1.4178196725314354,1.403229049885912,1.3749703861659612,1.4293945892018058,1.3153864395056847,1.4086357592840317,1.349639452611209,1.236749225069007,1.2867626477538654,1.231841835201637,1.4991603363039356,1.3784680234193034
1.340420776027018,1.2328403187499068,1.2296252374321444,1.5000928486457625,1.5830710001597548,1.2264213938719297,1.4732593358050343,1.4918764043723025,1.4711676837089795,1.5335271628490927,1.4180233491601828,1.5259046763790503,1.4145173685072079,1.48200181497766,1.3815585502948355,1.4891588793723267,1.4042534054098,1.4469307106046068,1.3954105499140568,1.3833916973545228,1.3869617163722305,1.3605242919930611,1.3233247710387614,1.4021255089916183,1.3478700352618045,1.3902819077259407,1.2844302758912205,1.2561360901488066,1.2663397639492937,1.2667843911185075,1.5042261652027553,1.3816676664883738
1.345134636037649,1.2710296597841118,1.2641561107752195,1.2687809698350234,1.5933435342253943,1.2326116612342768,1.4825958703739566,1.4370305760937865,1.4339213557061314,1.4616372507852804,1.4176967241687788,1.4790464701788213,1.3685710546423662,1.453985532481362,1.3121985911681044,1.4732722639203517,1.3830795676345415,1.4589312309631592,1.4065327245325971,1.4096928787989051,1.4042168957570718,1.3508957009245717,1.3040110932162299,1.468237423820373,1.301866583154195,1.3539515936067978,1.3127183929343191,1.2524153180985151,1.2830554908691718,1.2970065926792926,1.4990924289596375,1.406679461472422
1.3496360641549285,1.2667771419083484,1.3249753063902798,1.2942221847980364,1.697840317014756,1.2343828203377043,1.5616171152322293,1.5057262255184527,1.6000954354254002,1.6373392945401424,1.5925575781971948,1.671471056951221,1.5763400999899886,1.6199531470064443,1.4762866999239233,1.5233067473054156,1.520126545985356,1.528699011624139,1.562045595814576,1.4501365350167421,1.4420024340992705,1.5185374156668663,1.4617036169480022,1.4424122894622042,1.3766684523096526,1.4630983925722603,1.4136562012691538,1.3831957844916838,1.3103269635176262,1.3731315393401673,1.5060045783523583,1.4538250346538315
1.3560114865675024,1.2571486629345219,1.3795913368776282,1.3204973187530924,1.589433171097823,1.2604684921731846,1.5886986631232356,1.4255033139647426,1.5794074554636444,1.6132557436323456,1.4737898605305555,1.5783834258810818,1.5546137648461298,1.4906436923218214,1.4362451710620328,1.4070114158858542,1.4278700807244082,1.4616789509384076,1.4903216979935963,1.3634092429150502,1.3305215363726142,1.445140902031794,1.3593948123433421,1.3165308552019925,1.2843095304582903,1.4040639838190694,1.4017282723411382,1.2855652535571283,1.2743109327058733,1.3498566935874468,1.4626934605477249,1.3732107135891733
1.3993732265507086,1.2455444073568602,1.3353733855985979,1.3640507501770123,1.5266771868304572,1.3048323756608784,1.498739823777862,1.3816157211253592,1.5075024912395854,1.5560022986381832,1.358967200344716,1.39285595092526,1.4374251981878476,1.3306232885715832,1.3426409435016444,1.3399918017272876,1.3335514894199896,1.4132556947878618,1.4046976345707896,1.3180904301157836,1.2552672215661023,1.3784353939823852,1.235778937876685,1.3756390957616937,1.239168984168763,1.332012466608498,1.315416933488717,1.2152300974569739,1.2560257427576624,1.3253983801780975,1.4395687933613506,1.3752609562153235
1.313225264779007,1.3285762305211075,1.2474573236973814,1.3917568127107358,1.5564923404980544,1.3198218031770785,1.312705161655173,1.4046689950070115,1.4647778028705074,1.4519839275865412,1.3268077928155706,1.4604722279076543,1.3961270863782902,1.4297938162430044,1.343936495799117,1.3875955416376895,1.392803488584209,1.4230495809256614,1.3845896738299794,1.4236012133139881,1.4114730709173264,1.3843582338830123,1.3414582332607359,1.5103857796301547,1.348239528953195,1.3930246111163054,1.2905202336267858,1.3334455986922595,1.2391353630192619,1.2516108685752174,1.464323772538042,1.392999070052416
1.298116223820254,1.297714639433646,1.2708589457763209,1.369087762347166,1.4973507141262525,1.3074070994043165,1.4195009256982571,1.5393819671512878,1.4668622991039413,1.4941783760660585,1.3897708447958936,1.4480543296272426,1.4618095696653461,1.4108040241229867,1.3867517955670572,1.4573846875280236,1.5219455111332365,1.4831073383296351,1.465627233165935,1.4264508922733856,1.4546458096307975,1.416553582134921,1.4140244596347367,1.460830800691472,1.3431685103988549,1.4134746506406655,1.2757681440349904,1.357688767218294,1.322669228280072,1.2127010243711203,1.403809291486185,1.4634801722591058
1.30912782960313,1.2307942120048547,1.2929900945086712,1.3517261011261348,1.535108142902621,1.2717988597724645,1.4368433892422463,1.4900773873337676,1.4471470324651292,1.4991730713915556,1.4313048150775167,1.4451825116254247,1.427358915784076,1.4382472543461158,1.4238580563946166,1.4373145922382486,1.4968939333844373,1.4749687229924218,1.455207723096604,1.4287709188264313,1.3608265441662466,1.3800577512989933,1.3802875111613473,1.3618837306306186,1.3247362808303687,1.37011571988839,1.281688263956761,1.3029802638842567,1.359748477261061,1.1744006938246967,1.4177881580353482,1.4062468160501713
1.3208411776634104,1.2925663927748008,1.299252752595449,1.3808815085219228,1.5093509380014971,1.2365381472970474,1.4673070249362987,1.4216825290863924,1.4573750321134349,1.5906826969440948,1.4922375866557749,1.4719298841511292,1.4820897952244916,1.5017531789559626,1.405239090739548,1.4776001413583715,1.5265892269146557,1.4968475746680607,1.5039653866764515,1.4831258632449704,1.4057523984452287,1.4756749549445267,1.4015203879719966,1.3684417776542046,1.3061853969209067,1.420965966736315,1.2572047551452161,1.2218894920356165,1.3268020249283243,1.0804477757962503,1.4890871478751917,1.4443350558548746
1.3373961864623871,1.2227186946572381,1.2505400458551947,1.2816648075849715,1.4987796670751705,1.2707348662192715,1.5286522325523624,1.4702899916826242,1.494939809633777,1.5724489918919695,1.4116069117044385,1.4875730273547478,1.5204205519078362,1.5163604895761207,1.3605935574812824,1.4930136507518366,1.5270563125863406,1.549942978122612,1.5018574775582108,1.474478053184972,1.486122092782709,1.507082915333708,1.4326980655705126,1.4236813328765128,1.3248191243790541,1.4510167047348344,1.26088557034748,1.2288496037184584,1.3036981687598805,1.1704395026663905,1.6041158113336373,1.521797960998618
1.3382010543653964,1.2521596561236294,1.269040586454956,1.318140208217772,1.5328174679904834,1.262229713809911,1.5601790815496956,1.4248791036245854,1.5072144060206594,1.51550520604821,1.4496603049379102,1.5396238271915967,1.5191143695332834,1.5451181821354847,1.3965643030840296,1.4891286582938468,1.4247991236613227,1.4893095862399923,1.4981935984503523,1.5004918750106826,1.5789570218972333,1.5243382001737045,1.528430238351115,1.5771842566913659,1.4441703857520491,1.4874600752024085,1.3689182115211782,1.2605298174203574,1.2941464450711564,1.295474228738668,1.5379975854327936,1.5606578490010319
1.4117920458871895,1.2869577991423904,1.3178923471173032,1.3678160459758488,1.5708054528030482,1.3247943946391925,1.6222684943640024,1.4864159850373821,1.5715607104145222,1.5901752840993908,1.5537133425613747,1.5948109625066376,1.5395813926538329,1.5782816188514168,1.4428699526057476,1.5444664318677612,1.4608653055572673,1.5186444926661384,1.5376274240725232,1.5602041843939314,1.6122237332506981,1.589659485547271,1.5944536981904485,1.620648266115208,1.4753008450893266,1.549450685989544,1.438531386109945,1.3833200653910347,1.3383463943675786,1.3626467055612141,1.5749961262204366,1.6118032333046566
1.459490125753016,1.254194148092748,1.3260742365819513,1.3299853011548357,1.609683650409793,1.3525003195173222,1.6599878037311542,1.4937698085593705,1.5724562213870452,1.5955198097438916,1.6038774631680905,1.6063509505366074,1.5435678168515998,1.6187502292837657,1.4518436018977212,1.599561591572138,1.545402184244071,1.5930042312382715,1.5728095905981414,1.6098110263681842,1.6290161429666237,1.609739436116651,1.6488802817700223,1.6642889220270063,1.5662857120371414,1.6164418025412044,1.4992256306869258,1.4995935276642112,1.332306506005475,1.4249045545785477,1.5980860922761213,1.545197766719746
1.3477703146013165,1.2147335465394427,1.35946444609108,1.324127288525973,1.5879345411654273,1.2824737037521952,1.5964750720191487,1.4598809671236082,1.5265313378938967,1.5532821319786525,1.5161602740517401,1.5254817125901379,1.472703807704621,1.5134638543416017,1.3816005120254935,1.46435610081685,1.476245914796049,1.5154862998704723,1.4867231209720844,1.4906353060048954,1.555364025804631,1.5169116478785447,1.5769173672022905,1.625847429348785,1.5299658794508066,1.5847347666881237,1.4532276048520645,1.4699581742068875,1.3327009523734867,1.3322389506876937,1.589304769292351,1.4534156530967808
1.312255395294624,1.207531519970995,1.316531843093887,1.3454867896598366,1.4960619476976678,1.2257245874451361,1.5389006422468923,1.4396395516665401,1.4850676030249208,1.4658846233881488,1.4757172984969493,1.4354298330430537,1.4597973383792415,1.4199376469476777,1.3970785227602491,1.4534069087810457,1.5153515914611222,1.5158764695190674,1.520531755614749,1.5255963482875716,1.5789101410227737,1.5001390494353324,1.5287152634724221,1.60421696531868,1.5363679221387654,1.4503077352004408,1.3647237830702228,1.410698605657419,1.3437250289693892,1.2970995978507416,1.5581314292438249,1.4183164449676524
1.3325834167174904,1.285003582218339,1.28654405711026,1.31580500575763,1.4245161841595966,1.215948073776487,1.624418471083241,1.4621407588703699,1.5088427537482008,1.6064644554830139,1.5630197969838224,1.5591321126623383,1.5583804034326476,1.5423159330984846,1.4540067769457483,1.4785819359552872,1.549154351412566,1.5859297104533916,1.6155073564735134,1.5672807733071583,1.6279828244851227,1.5553875811810383,1.571924060217003,1.597919024356393,1.5805010940762252,1.518285313585572,1.3597053655185396,1.3845000617497423,1.3013087402814232,1.3082286819089024,1.5405276571615691,1.4715003365753139
1.4189994097449228,1.3267689196423482,1.336109731358906,1.2836940517984645,1.5637229421565912,1.2412584778244582,1.632858975487505,1.5166927492116626,1.532986509197316,1.6682939194184665,1.5198282152997928,1.5599989941047172,1.542774513325865,1.5287980493905577,1.4055131227956985,1.5112708822473793,1.5272471846923283,1.51018854548663,1.5426304230240715,1.5373167094398839,1.557526387335316,1.4834221102813159,1.4812288582367508,1.5362125555830226,1.5300856805133412,1.3958228978108738,1.2885621354447092,1.3934055349103671,1.1742677450355834,1.30760964800146,1.554189276557614,1.4133663943955639
1.4093549716098346,1.3264935742173396,1.239148788931644,1.3138594459617545,1.5623777456828025,1.2754688958993308,1.4755384547380437,1.4829139557169198,1.5565458097145952,1.5802984234941744,1.4611704810934518,1.5048574525679639,1.5052954324674914,1.5104198168213296,1.3959779589600534,1.5118732087689286,1.537331149211819,1.50778289952046,1.487481080350665,1.4482284875290246,1.5222907647305308,1.476208224309403,1.4952002695289544,1.571735275633898,1.4828286308852672,1.4286393432551696,1.3442141390149294,1.3789764928355956,1.1692776649408172,1.3004304209072486,1.5739457960340935,1.4858808909161638
1.2998602908273578,1.240246923832172,1.187003222334625,1.2839856264907672,1.4044052145798416,1.264095143214967,1.420749020014645,1.4841884948270248,1.517975588229396,1.5559517756287156,1.3252294585983098,1.4695012685607474,1.4428219646799443,1.4229936352808525,1.3513468560277027,1.493149831935733,1.5272957797478866,1.558935192832,1.4866208726711843,1.4894433773430904,1.499877321721188,1.4666990121911876,1.4667065245613582,1.5642062159801715,1.4483130669635147,1.361988546768568,1.325284805094143,1.4197504455998198,1.3273972077277996,1.2380107391627757,1.5514152429659687,1.4050882138216154
1.2655630298179616,1.2398092965925072,1.2575152379819015,1.263047292910553,1.458715436306036,1.2567490456410282,1.4195678586246683,1.4028843954820924,1.432944116932671,1.4629990187403377,1.3219992661238755,1.388677448323213,1.4028765103985226,1.3918515698064517,1.3737886089245042,1.5326199777808844,1.4627442485870097,1.504200747484839,1.4809776960985845,1.4507378007350236,1.4748373506064505,1.4423460036367586,1.4541622501378761,1.449582755664388,1.3361203355778986,1.3414809426023508,1.267022832284137,1.3205582869247747,1.2610293339944245,1.221177001938231,1.4220333662752576,1.328567989907051
1.307700345010675,1.3122175724749112,1.2708909308024958,1.2778121628975085,1.4790819550551075,1.2493886081926258,1.4580155713934164,1.3619767043762323,1.4539666570722978,1.4362419643364075,1.407913610407274,1.462542125794531,1.4529882264139877,1.4783062623656493,1.4483358505288255,1.5360647879313543,1.4681276368047038,1.4725760917394937,1.4339251110377644,1.4523740384553971,1.4373601138883856,1.4190994235005236,1.4446883507065038,1.4295151313874963,1.2985859871046492,1.401672019564209,1.283783662140413,1.26819509237812,1.2200090655546274,1.2662377759444599,1.4676518954490974,1.4282746770560852
1.2999227958551893,1.3074294264114454,1.308453957392286,1.3011944726832116,1.5165172183636926,1.2423153546361991,1.458920208631026,1.4373656995589206,1.5806756642523028,1.5438397895092222,1.4805579013493704,1.5776148082761796,1.5205090500448977,1.5389044192126224,1.3965601887267507,1.4904227378663548,1.4869741438020017,1.4981976399338457,1.4860527282005684,1.4646589893325874,1.4618471045387404,1.503171732472211,1.499345646745181,1.4443214108973534,1.3222050725997894,1.4303760976281281,1.3056569560585007,1.2833609440132858,1.2054769433377972,1.3215291164054177,1.5110541375683684,1.471190780294413
1.3147583677063202,1.304402798883734,1.2971969887581853,1.3121570362757542,1.546907255435273,1.2583050574031753,1.4617799733083727,1.4580439060885022,1.5110194855037256,1.509642814674216,1.4259611560344296,1.4486372013573676,1.4482441607681364,1.404145016294357,1.3245998672799097,1.4955702963030362,1.473804776833314,1.4115660437786346,1.4789318816288248,1.4269933502719638,1.476240921849354,1.4463046360121514,1.4570849725989476,1.5161253353859,1.402780991084606,1.45515567153284,1.4234422002357092,1.3392482926737368,1.2410983774274906,1.2447551930827312,1.4814494705795989,1.4054272810362578
1.3276662937687742,1.2928632069919095,1.2472921268999473,1.3011206296848041,1.5619627280639843,1.2321682554681825,1.4401144302235873,1.5140202606473072,1.4499553101458331,1.4328078137160742,1.404672943821428,1.4267379646166725,1.425094399697501,1.4132503644215892,1.3730251414625847,1.5886735165486359,1.6040152015776736,1.4954259015383884,1.5377370619498296,1.5345598155876081,1.6079368477920273,1.4876717154657182,1.5216102334872224,1.683369904362498,1.4473393361809461,1.449540582547953,1.3842206741377707,1.4173749955522073,1.3118571415903475,1.2635274295239158,1.5304207425737066,1.367204532824659
1.286852225243801,1.2658648042666147,1.2384096061504306,1.2913060849181734,1.5030762040573253,1.2347799686281153,1.4374694323633872,1.4405283429873161,1.4437203188463252,1.4093032155890948,1.4401245080791487,1.4497680229001861,1.5308397328743357,1.454706870790983,1.3493117989455288,1.5786425061111236,1.6445480917760336,1.5588677522975782,1.5288658298914,1.580392672128018,1.6192440278562108,1.4813061643997663,1.4587892222292143,1.675954374603699,1.4002507248939429,1.4043854396611106,1.2971524711312128,1.3319497324306884,1.2581232553594481,1.2500421279268972,1.5740471457633065,1.397857409785655
1.4393686307491074,1.233954728528347,1.2691098167481152,1.3179012882586996,1.5090645654829997,1.2066130469938718,1.4743676676529556,1.4265932042824072,1.5657579522726188,1.5851890753366968,1.6271483482408555,1.6375015688939247,1.5905564579433416,1.599878094959257,1.46050955151334,1.6241846247700344,1.640589150209027,1.6583953787695473,1.6038939064348643,1.6761335986567751,1.6530739661560232,1.535954543938671,1.5185708542813818,1.6742952912970976,1.4691820587730051,1.5176581958065176,1.3085291221122994,1.360459372857066,1.3291322210515282,1.3303323329066452,1.534553404457127,1.4529021508701834
1.490182662578823,1.232498087888146,1.3365293690920017,1.3127262263941173,1.5520865856091417,1.2496355145570381,1.571018371532531,1.4925040384336536,1.5073055826861315,1.6523291276217242,1.6045067556440573,1.5859235279174464,1.5402732324166917,1.5293346018640994,1.4785991022221021,1.6192389746413165,1.5913215991228182,1.5921703965835234,1.5481535603279715,1.6784400066846228,1.6549863414074895,1.5198230625089852,1.5209562318579002,1.645572624941529,1.476321372634728,1.4803930021415002,1.294594769114732,1.4376187564458793,1.3096597757664883,1.3254405835284273,1.496951268437033,1.4348441103733067
1.3666485054539477,1.2390142313898107,1.3032039576101733,1.2847513984387635,1.6820645362838116,1.235546862395376,1.596228022446703,1.5050715170646767,1.3590631511428688,1.6126915856382682,1.4549016719766203,1.389958753344549,1.4527207243916043,1.3840509244118058,1.379295284209322,1.4918335985145994,1.4658812321384813,1.4366606861961884,1.3653102926777994,1.548248386357584,1.54334952005148,1.4098768832321036,1.482228286817206,1.5027266370253034,1.441310249789684,1.4447381705614806,1.3157041866444634,1.329481712217536,1.2554553605871528,1.2773161804066782,1.5029087800037233,1.384555893362303
1.2520281875430996,1.2010606390860308,1.1965190001201853,1.3268739934431601,1.6074926941241838,1.250733823773807,1.50015253535099,1.4806436182332732,1.403564145612149,1.6013157590665865,1.3700714875634379,1.504199244349377,1.4101227634729219,1.4429607902383432,1.2704403885493,1.4363805561926815,1.468874944958941,1.4343996106318386,1.3438684079913505,1.413986544847224,1.365614541891507,1.3941278276950104,1.3804030442060626,1.4314024451971676,1.3155441058749349,1.376534679475333,1.2963513365087458,1.285919807350959,1.2681581567902505,1.2963881374238533,1.5902869499769143,1.4360619857686792
1.242506065732425,1.2129642721764242,1.2244080177873928,1.3337887166566806,1.5518300616585483,1.239941916888208,1.4489984717700972,1.4274682377875807,1.4383556063265064,1.6123465994786093,1.452312344928984,1.5139997810130255,1.3932937955283595,1.4743425552168954,1.2710004150936802,1.4480586351036728,1.4169898497292688,1.4367380140847346,1.3514994858041434,1.4069102579233455,1.3371814336027579,1.356980039662476,1.3905261752875084,1.3980558687519087,1.3255397608524178,1.414300212538967,1.2751111752952695,1.2060481964707046,1.2649334836469084,1.2752760857036454,1.4391762382211057,1.4296195340405269
1.287469920625878,1.2061766988752178,1.2660831115231617,1.3288147145038567,1.5263905367276036,1.2343579057334078,1.4521022576705838,1.375609596409581,1.5026824496115714,1.5140578838219636,1.4953130715509337,1.4957024945225084,1.4599630461082749,1.4272587904987624,1.3406217411271932,1.440477174358038,1.4183249017473023,1.4778139901554292,1.4425120056583114,1.4869590109594988,1.438744540930031,1.4114089820212958,1.413565981307707,1.404830314994271,1.341523824687609,1.4423977432641943,1.3236749539167367,1.2234151404359228,1.2825581116285576,1.255466638047431,1.4523372628786335,1.4344656746411388
1.3056568701248212,1.237277611777966,1.225170908675263,1.2806756592286197,1.5054941963943662,1.197098243995651,1.382122414432019,1.3673009187189316,1.4951587866014495,1.5230545542333849,1.4187819892307278,1.4749150026755822,1.4992734744054237,1.4570056705334642,1.4069982431865848,1.4698517683448074,1.5346659560313314,1.5720198326613588,1.4880715986027062,1.5254522319109136,1.5026309291991582,1.4879874528278922,1.4228349092985775,1.4830686128562502,1.2810654313617151,1.4051783136008582,1.2842289684551023,1.264055406774347,1.2497208723827495,1.2329417551140562,1.4470612920677846,1.462323782251519
1.2807310209780858,1.2808035223685463,1.2660883208765177,1.3218626047620685,1.473029864677961,1.196065530252658,1.3065411149908235,1.388416374259129,1.4500955795915613,1.375754206623823,1.3251450443948234,1.3921266060787176,1.4908992757375907,1.4334717020573233,1.3706114977884758,1.4115439324253984,1.5088982247440261,1.5906581132131004,1.480630159754971,1.5228282097210064,1.4974402053314562,1.5048037713463653,1.506427658193737,1.404386766836205,1.4163180979182475,1.4371144847661146,1.3264452598551013,1.2361668594623931,1.2301534704490782,1.2593482149384054,1.4854371149351944,1.423610892732692
1.3741204190156946,1.2251412613154353,1.2596462705873743,1.3571326500936898,1.496664768034188,1.2544864138611767,1.3572168800867404,1.4400683327602832,1.5237869373018962,1.4319164642458622,1.3915962012802472,1.4275774085195794,1.498810685087193,1.3764851534489382,1.3640820281117176,1.4286280644121014,1.4132549920834758,1.4716826494063715,1.449001561777981,1.4290979133112756,1.4558121691083694,1.509207400224219,1.4764273075699963,1.4122674988608215,1.402723291042065,1.4430416616816495,1.3201220073042,1.2339900309393366,1.1557191902966548,1.256717562581234,1.4789205521997746,1.4613540031236174
1.3522164456330417,1.2324261563785732,1.2242111893003196,1.2420983429406283,1.5420543194257934,1.2532983224137397,1.3800336404884546,1.342317404074265,1.5533102244535695,1.5232420881580846,1.440377366188422,1.5287096877197364,1.4690059520051062,1.4236359254719153,1.3442700265182659,1.548141902154832,1.4673310843097322,1.466995416790212,1.425958312398843,1.4269656108883013,1.3972162499932637,1.3916851216158093,1.3702625708308778,1.3713702557985006,1.2965354142197187,1.3394451306302921,1.2283965103678918,1.2843231979903338,1.1888036219916835,1.2232316500043248,1.4653948652191917,1.4290122149241336
1.3071494005195186,1.2870660322371272,1.2482799738251142,1.233112353932963,1.542919368202812,1.248824654077366,1.3198984806745866,1.427092049697184,1.504744729651853,1.42865328524748,1.3823717408364298,1.471225493619303,1.462620574660656,1.469579758940682,1.445183251836569,1.522474584469713,1.5639137098733842,1.5116728481748831,1.4690201032843644,1.515035729035087,1.475438228022319,1.4216725560794266,1.38439538153412,1.4207354346116483,1.3441421631697972,1.3870492904142921,1.2386180075174433,1.2762252350282062,1.2321585833042858,1.2238210409314043,1.4374254045695036,1.4195941977714914
1.3626623984091937,1.2585077106874483,1.2656833249830342,1.2971928161873605,1.532941768236203,1.2734213139091062,1.414260924113952,1.4532626647697466,1.4526812977581807,1.451218276637669,1.454262976925976,1.460879356171806,1.4903946322461623,1.4776058915833181,1.396887177609685,1.459095259714401,1.5562927175612884,1.5280756536037936,1.516053012942125,1.5554772847865586,1.5116198647686172,1.4588952555825068,1.451357489695828,1.4760227102659953,1.3770479327255698,1.4179349685482043,1.2467680165033443,1.351806376911522,1.2410763729489085,1.2987981546821616,1.554797908117799,1.4286594019656453
1.3477947334060925,1.156358929591553,1.235785316122375,1.3272913425891815,1.492306894204023,1.311879376028149,1.4209228597164396,1.4480313936542102,1.3970931280990642,1.492899570190226,1.4395708508798775,1.434927124802598,1.4005524402472602,1.408571769968067,1.2992905593205704,1.4259760202445173,1.464623544111127,1.4908656799021125,1.4788949804921208,1.4943087852041337,1.512915678566828,1.4373502518690182,1.4534865187272041,1.5211362015432148,1.333453036300429,1.3695148719860621,1.23877040266645,1.3443573586823907,1.258134385686799,1.2620474387535163,1.4918452980113257,1.3933015544436107
1.275069227384256,1.145161367251845,1.2989208482367058,1.3312316315519621,1.493444049055273,1.321543647204576,1.425898077838295,1.481053461392923,1.4867519389636128,1.5288903611645452,1.4174911396357077,1.4780001217610719,1.4104889252598591,1.4518374010409814,1.3558158241025133,1.4321102297953794,1.4704482670595893,1.4831157244171236,1.4722096639918323,1.4223537752585944,1.4847298913681442,1.4424231408737185,1.466780536391791,1.4555361215411262,1.3458658422980274,1.4024018020263718,1.3118002701016505,1.2844684374214634,1.275576330894593,1.2300671979919886,1.5172421479489382,1.4170230938854735
1.3682667218711404,1.2632993114125743,1.381432721310194,1.244579267686129,1.5213680668426808,1.3539110014818956,1.6284975650183284,1.4747599359988701,1.6209790635058359,1.6434927971291944,1.5133030773277532,1.655290703852914,1.604458023641346,1.53700879579613,1.3886763049007502,1.485474621637623,1.5106315589056616,1.546920128521618,1.5530833540964935,1.4655090486332987,1.5272536717133367,1.5095507874238356,1.4779962599421625,1.5218166164825617,1.3575489745347975,1.4230749473656754,1.2061801177998324,1.2966790261056962,1.2378821015383943,1.2306842738895734,1.5646260627898845,1.4768390157842435
1.4349806833717302,1.293464562881148,1.3901836491777377,1.28472791090968,1.527399265592179,1.3343854245232154,1.6377659282459132,1.5022656778699686,1.5865141534457663,1.6574504194257669,1.5261525432705911,1.6407426517063022,1.561752803916873,1.5423866470408836,1.4097222237746003,1.5563154443911869,1.5279576928633347,1.5513971920083431,1.5296029938653648,1.503617556691559,1.5383173199234608,1.515578291239013,1.5110354039594283,1.5338263536289782,1.350985450044608,1.4514053595179774,1.2535661743108946,1.310716996368763,1.2453532248045203,1.2909611402631496,1.5368778854132001,1.509244243280713
1.3583603302846374,1.2469058191724463,1.2962293164423349,1.2087480557925117,1.4587452195453081,1.2879800191830495,1.3597775166836812,1.4800359741705322,1.4886184892034133,1.46059787405788,1.4308962059474983,1.454838476032351,1.4906752334347766,1.3882166732777461,1.364614762407534,1.539991820654282,1.5405235960705925,1.603900585116967,1.4944635918372446,1.5276903846625212,1.5159923566181162,1.4981448359489336,1.46513930268754,1.4820642302795468,1.3534951972717235,1.4207647279539728,1.3182264747981356,1.3284947249700114,1.264765709564263,1.2763000318883069,1.450199693595228,1.4672510714193114
1.3154946364711786,1.276406371297079,1.3216222910180484,1.1948129142137658,1.522114249112755,1.1971494485047682,1.366327919051459,1.428337545365866,1.494413180315052,1.4223010098529487,1.401097904792528,1.4379344543676706,1.5247364380505972,1.3808335069458022,1.3292895508859208,1.523733822854839,1.541420270722726,1.5667092834776741,1.4901903296438679,1.5271605234151433,1.5288601091481353,1.501828564104633,1.484681042685562,1.5129687374332097,1.4316328394947708,1.3978320070387549,1.2962049346878972,1.285202446757684,1.31880445412562,1.2443066169889945,1.4213253252554023,1.4443229865902965
1.2685657396151715,1.316128294663736,1.2918193926282493,1.3821016342004342,1.670583038309458,1.2324267950317402,1.4215720868894917,1.432035822470999,1.4649495252774214,1.438636966413562,1.4179600982776976,1.4583198807271647,1.48743386071958,1.408664652488818,1.3359456173952076,1.431436940185945,1.4284782845699175,1.474140696149247,1.4563695979491769,1.399283724544027,1.4711525637390377,1.4971905760756306,1.5060485678344964,1.4658674636467341,1.3829512984218775,1.4718209824235546,1.2650884337250183,1.2855273808645828,1.3073604991522045,1.2106328085593885,1.4871170264260574,1.482189127147396
1.3002398425539596,1.2687530981856288,1.2835239938780059,1.4404936048742396,1.628897279660885,1.260822231363686,1.4317619097585998,1.426579474437888,1.4309241433551787,1.428514073585398,1.4036983925384947,1.421048094869742,1.4721299384391597,1.3701827067197336,1.3297819237770474,1.5173249663483102,1.4620735078684357,1.4667036311145754,1.5158085127841834,1.4525135391141266,1.492975748242885,1.4694350836331571,1.4681661143034759,1.5153888764184789,1.4711823148439631,1.4828938689669044,1.3247285671839482,1.301277037994542,1.2949553490633818,1.18878301865495,1.5039825971337386,1.4552192290485975
1.3774552625682106,1.3259210945952966,1.2893438451183685,1.3381931874908177,1.4596867149645987,1.2461699292161066,1.4385554440006876,1.4443807166202183,1.4497004273879301,1.4337945251874222,1.4424962072879832,1.4487115562010229,1.4718812386244444,1.375612439193852,1.3847834333787303,1.5811186604193288,1.4731184374671298,1.4857464552558812,1.5304049132858288,1.5015279793049865,1.5454600905531604,1.4920227143996299,1.5013448826174882,1.5271614213939924,1.5134805421657838,1.5184420027961614,1.365720019910862,1.35338397925039,1.1974472840715458,1.2733583466753196,1.5029655368492678,1.4866198830861772
1.2835125498597195,1.3056416814637375,1.2327514028832627,1.288449843752579,1.510229782261484,1.2069470506094284,1.3595795919103564,1.4256498203609573,1.5290140808351964,1.4618073555335378,1.475227912259452,1.5371178260782083,1.5348681237805801,1.4907189754442012,1.4483911281813568,1.484877949641005,1.4612977787464754,1.5108027957834622,1.543098910757599,1.484948167862636,1.5446424767511204,1.5326630577958775,1.5073099257797498,1.4461342065922411,1.4083530872225276,1.4932968843025891,1.2873063414651034,1.252593445297813,1.1717080666417683,1.2697864030883104,1.5112203233176251,1.5150416607605137
1.3722374286236412,1.2325103323993059,1.3023050144091939,1.232610977828658,1.5237663459841349,1.2824450049060612,1.5507205451313968,1.4837671851939387,1.5181969064444711,1.6395975770307385,1.5255792018421477,1.5400692858213207,1.5091843507507063,1.547570806603812,1.4529793871646466,1.4248384374295315,1.4970868376624031,1.4885021670687388,1.509238058579119,1.470093436623757,1.5154052182395334,1.49703236402847,1.5134813960642064,1.50043227778431,1.3720484164947122,1.5078985079840557,1.3085463887177282,1.3274744814206023,1.2714147791966834,1.2955441116120165,1.5712288881709426,1.5407131890484866
1.3954133774765538,1.2407585090218702,1.3781853016239916,1.2807357310189078,1.4570938770285593,1.2823009924973405,1.5775728454736098,1.4733785309935326,1.4854716485546284,1.5816350754529205,1.528182462798787,1.4728314443246209,1.434005860126044,1.4932279924322915,1.3617773926249561,1.4894310719516646,1.4597946039370884,1.4280725406513421,1.4628069646952064,1.4571982713580434,1.4906473951099006,1.4406295716193531,1.472453503359893,1.5535165966892022,1.3696664104781595,1.5095637594575173,1.3116376651720256,1.3540025838601404,1.294655539902987,1.3242390782349696,1.5593084473036718,1.5131079173643276
1.3127416517960044,1.1869476393355498,1.3351055821205233,1.2814992801489475,1.4700584362151907,1.2630606868256022,1.392723681207083,1.4184255569282278,1.4546560854646449,1.5186620639286965,1.474039568255933,1.4336116416550502,1.4403501246911663,1.4223964361247385,1.3179794157289868,1.4931537912063142,1.4684392312900156,1.478167025295211,1.5076013961763624,1.417803975624923,1.449054898284353,1.3985053398706822,1.408273613848189,1.4076327846466548,1.372919307226067,1.4443971761636119,1.297863663188498,1.3304193917194471,1.2650536295354526,1.2384028927546735,1.471686783490172,1.4285313254687797
1.3000214632995566,1.2213986750610568,1.2851253111357912,1.3049815389214268,1.4660131055486096,1.212403424869049,1.38928568209865,1.3978580187430707,1.4295369226412329,1.4686037478458427,1.4840501361970857,1.4444742176118308,1.4797102884864346,1.460312111736916,1.3928061318725224,1.4696884724253572,1.512547962087103,1.508188057416218,1.4723386165563603,1.4581173844033157,1.4455748231605186,1.4328377060172723,1.4283384013205285,1.3692817375850634,1.4127722694503335,1.4214343043187792,1.3411961310529812,1.3083600834145699,1.2688730966114725,1.2440114309524148,1.4823619594453787,1.4316725287460512
1.2705499360808863,1.2495117966536953,1.2246129424046226,1.224954218195724,1.4941824571562308,1.2137497192743782,1.4630975885392938,1.429547359459359,1.4983126635795074,1.406510471943894,1.4650947626320723,1.4373321239741537,1.4855713318669752,1.4741092870149717,1.4351156652781067,1.4333971421712324,1.4700539840143187,1.457655944964703,1.452149345890465,1.4264723043962668,1.4456098043471501,1.4489112690096897,1.4260027729997438,1.4169700530547547,1.4393801433888764,1.4072391002751965,1.2505050246430014,1.2431840822035274,1.2946203076450458,1.3126776940074631,1.49867732169968,1.4383276321724547
1.3199877944717935,1.2385240542302274,1.2105084708907559,1.2203287560635867,1.5167254575843845,1.2539314778433157,1.4151782219687998,1.4509708086196216,1.5350832457602461,1.4300044594491466,1.4504618566815308,1.4429717989959412,1.4264071241017044,1.4091249849708245,1.4538403864747553,1.4777524154549742,1.4284072967455397,1.461142492634781,1.418831966921896,1.4404820026133376,1.431208638677986,1.4256648138445183,1.488721707358747,1.4912663460481765,1.4717591216914092,1.4974886509736438,1.3378242216442662,1.34357335591792,1.2710457232365266,1.3182019416197992,1.5117477170704077,1.423659724105917
1.4696387878947368,1.2990610101323397,1.3426567663767341,1.3217977660146896,1.5755385770055643,1.3083692968311231,1.5732656637277636,1.540013870317213,1.474776413107138,1.555359268615614,1.5093428532869866,1.4848495494978955,1.4802026162506148,1.4991836070574205,1.4494960763927356,1.5581380301552175,1.5261319364879975,1.5166903579909201,1.5215424491443514,1.5615560754635376,1.5287690140786994,1.45658017514281,1.4593630390065442,1.494482143660643,1.3914490484450686,1.483569092363657,1.3265915453662391,1.3531484809598788,1.2402934062689959,1.302329189109607,1.5129753878892278,1.4542449033584632
1.3445849881204925,1.3070991794885574,1.3234600768596372,1.3145112429320542,1.5437032862081845,1.266674637297669,1.5284693300572205,1.5422376998812206,1.427916038143165,1.4935834002700261,1.4566418621253827,1.4697799681933403,1.4453283816048008,1.4698892330021331,1.413121283749581,1.4922085799695748,1.4996733405639489,1.4729006613701685,1.4918973753263955,1.5237197101974873,1.5125083333827383,1.4674313982160574,1.44555039726808,1.4657565388619227,1.331963655732448,1.493387057795626,1.3083162102181554,1.2975091936011125,1.262287799739944,1.2724554937011674,1.5616495879142345,1.4938400314300484
1.292374417281723,1.2387412576775279,1.3058705785687272,1.2739265110902644,1.591180050294227,1.2120866652630287,1.5115096249752091,1.4206730469829403,1.459782146168274,1.5309128956725535,1.4247733206666975,1.4542157546000813,1.4276338388978305,1.390845423509561,1.3660297324317114,1.4870897948815105,1.512406005954205,1.513399997070005,1.4854967770256347,1.537956168043837,1.5480288564959537,1.4830094201981798,1.4576029927563197,1.564913262946496,1.4416344428025978,1.4912704799734307,1.3693280515609112,1.3481350934900944,1.3145692538326665,1.2649529494322769,1.6396809503463174,1.443580781799946
1.3419707576910929,1.2207583199374532,1.3346206476135745,1.2087805117905535,1.560294343729457,1.2677618535463935,1.5107464201984104,1.4278043968339693,1.4799636341333484,1.501486824042849,1.4188074851820596,1.4585316771007348,1.470547934395595,1.4000141896848466,1.3752033994933672,1.5036873509619115,1.5084391958603187,1.5483374648378516,1.4994281927787303,1.5439519759990972,1.5422873493959375,1.5026284700508943,1.5265331669093107,1.558406109631207,1.4241347592304934,1.5007822296577082,1.2759402323445486,1.3085842358963173,1.3051110912571415,1.2207163018351368,1.6080720760858473,1.47263902276095
1.3042451282124683,1.22403182296657,1.2176161135232126,1.3148972683507947,1.5993223237007357,1.2733162872959969,1.393984368490156,1.4015576380250718,1.414750165180964,1.4591511166778148,1.4247251381447004,1.424855262404296,1.3939772369584023,1.3612499712093717,1.3781941692215074,1.4699647479183855,1.4516142959050145,1.4660786579634908,1.4869132240056886,1.4606299078804186,1.4943300989537325,1.4493159082213651,1.5450270940587718,1.5118236614023497,1.3739810900253708,1.463666491561603,1.2559783909785196,1.2478725768029109,1.2800214450807306,1.2110146142104166,1.4487072602947233,1.4662458197602415
1.2750970150608367,1.2577639153334133,1.2111193788851107,1.2839281721957154,1.578693621043405,1.2130864730074715,1.3426543284014794,1.3650282068657822,1.499036797277296,1.4848630708762878,1.4635307233873,1.5006884514602554,1.4721494051673176,1.3956163791975782,1.410406600785938,1.439280276872429,1.5072007757818404,1.508269467412346,1.5269281793942473,1.4937169064922398,1.514530251603449,1.5362084748737916,1.5474198833350326,1.540495981902052,1.3739622920866166,1.4298168842773795,1.292170057276528,1.2868259262762762,1.295235374943618,1.2753662442676088,1.4714511815321838,1.4820628875598976
1.2838240686439089,1.3439116071561534,1.2452073437497495,1.3658343176050245,1.5338084960838307,1.2794788378705741,1.5194461190512467,1.4786673125701673,1.4631823475628487,1.48189956095666,1.4363147688127524,1.4967458005808822,1.474124092199635,1.4425564584215194,1.4013085656673758,1.3503752940653204,1.400423930877437,1.4389222993695803,1.4762197259265826,1.4922539984107062,1.454186283223457,1.472345548314117,1.4146023492147846,1.4771410352902745,1.2912883025085922,1.4058336313776933,1.2596989233757843,1.2520682438701707,1.2409847852550784,1.2414849548067257,1.5407949875669167,1.4723881516937782
1.3636879547488863,1.310986374521381,1.3341142295401078,1.3518597802060879,1.5053252122307423,1.3558312788776532,1.5517997407653406,1.5032349961404714,1.4869646048940763,1.5746518551254176,1.4827181966685192,1.5073991743895523,1.501460459011475,1.4912591336229264,1.3799734631549423,1.3957266826437738,1.4693291299755094,1.5270690540774323,1.5001578282630967,1.4801969580204362,1.449545384568801,1.4735624133286054,1.4267915646977858,1.4805969482948296,1.314530749956538,1.4117864704604068,1.3434215432307324,1.2802652971621087,1.2446069330962066,1.2634246237180535,1.6268455993729818,1.4456009199560498
1.3416903934825006,1.230002285573789,1.3483320089823043,1.347686184270116,1.5740191834907888,1.321881132807536,1.5078350784260734,1.4962845656812598,1.549597967228329,1.6080397674811604,1.5351436504155707,1.510494085264407,1.5161562492746217,1.5038851985657,1.4290919475010846,1.4527975402652624,1.5682407634218234,1.5725290726335035,1.5380064061413394,1.4675808123248841,1.472224720916668,1.5038029449885721,1.4503413221908203,1.4903150254516884,1.4174753347944415,1.392798667280447,1.2679785922859612,1.301521875082095,1.285301937486214,1.3517835631284432,1.5695587437575658,1.4555934682454947
1.3301523334304175,1.2887042082435747,1.314276220476455,1.3559536772610306,1.581649116543606,1.3118074282607808,1.4204066754167013,1.5386023155602164,1.4741457932425936,1.5345798643086863,1.4678232453386755,1.4640671637711096,1.4582147248614477,1.436349956447597,1.4045447295761002,1.4721323721611017,1.5282610837558683,1.4828466055555505,1.4962315727342868,1.4651798591632432,1.4497034776955493,1.4552069380783237,1.4561365827212582,1.5061341653869853,1.4341515439357555,1.4275223310330607,1.2894898645583528,1.290803499681055,1.3817634358182995,1.3347912525847911,1.4787771036382966,1.4851732344173287
1.388059187471875,1.3178344448169832,1.308297657305294,1.3773991593688564,1.5185308556198616,1.3235732887402838,1.4241876495140513,1.530520930979464,1.4155046853361528,1.502913364649527,1.4657917905314357,1.499180306440071,1.4627384331291087,1.4833671820245529,1.4154024775287632,1.4980318146938651,1.5337983979522367,1.5296043605239669,1.4820994563193894,1.5502346628230248,1.5232616402809298,1.463071677202844,1.4590402659413295,1.5528712304672843,1.4159894825935075,1.4492925064507531,1.2814462674199598,1.3077549818219794,1.2469203832709232,1.3146941707942466,1.450956800928934,1.4261225125426946
1.3688492412530993,1.3121154476497532,1.257911690148789,1.2945085767660265,1.4031583731582173,1.254097193465706,1.3856451301598078,1.4473829981839084,1.4659813840344285,1.4996242033040261,1.4689395115792716,1.4880130145776334,1.4817426242720841,1.4734202833766574,1.3769908631276053,1.5057755108231525,1.5052977165755232,1.4684738784238338,1.4934829287615747,1.5345006557121441,1.517349268545188,1.4584829786577802,1.4437855298071944,1.5261795598118797,1.3634615838808355,1.402933015885513,1.211895126100712,1.3481551742870257,1.2342276633871334,1.2448486915296735,1.4784476449791715,1.4127676899986314
1.3234210419511965,1.3168578835080818,1.2440495322387386,1.2290367127786048,1.420512668756123,1.2255676659943182,1.367114562945273,1.3707252854085183,1.4240197823501557,1.477178548488255,1.4349914422063692,1.4882555714917889,1.4996167841023966,1.4693113937666253,1.4005157446935907,1.555799060021851,1.512614085470809,1.4897269747635784,1.48584805266927,1.4718895414011508,1.457564465477351,1.437805907642815,1.4487696789195217,1.4786996429149857,1.3210197052233588,1.3967265673767446,1.2419963361383102,1.333479345463792,1.190305045823948,1.2739779884812499,1.5272474735303996,1.4453906068494344
1.3456271783626212,1.3138415881861387,1.2476177620179583,1.379547239579896,1.4515325682474165,1.2790861973861833,1.346328064167004,1.4692526453199113,1.3955091283804282,1.4755711637484665,1.3859917973897624,1.4826346027523085,1.472736593364129,1.4813421918577407,1.3886108744594898,1.5471572530526478,1.5408210434804281,1.497412526569764,1.5144258308976593,1.5115018017806248,1.5017487998232113,1.4487585782915189,1.4801140441565896,1.4639744547206395,1.3972474645787343,1.431851163830227,1.3071339993040378,1.2919305450358187,1.1871262332990224,1.2461272029657169,1.5422236368013738,1.454663921102702
1.2308345640495622,1.2573984274587058,1.20007844741882,1.2923038272492469,1.5233513544020882,1.2397721467644842,1.2721700661148232,1.4908815669957685,1.3774476802357603,1.4293891968720591,1.3245467001110698,1.4067357650574757,1.3958121086310316,1.4017791199070397,1.3027958341379966,1.402027740816719,1.428153583451974,1.406272172820295,1.4597051232820897,1.4016690472260613,1.4569426584030278,1.4281870076819252,1.483017011850771,1.4216375011900044,1.4445895378793099,1.4556616066353933,1.2801881658102412,1.2507222464818673,1.2529437487311632,1.2030964330965215,1.4532565259788575,1.3932327797123725
1.2466167689959304,1.2020651485301779,1.241172559765429,1.302064860716535,1.5706073107168204,1.2783959460228356,1.338956841755596,1.4901848367047024,1.4891794329178096,1.4952212454106082,1.376657152775327,1.4187130762727416,1.4773959650296216,1.37395821114622,1.3396966066063603,1.444016278455479,1.4889484011956284,1.418701079797962,1.5126337232984113,1.4246258903507616,1.4968019785953859,1.4927428846199535,1.4833361399589045,1.4571804298928968,1.454757982455209,1.4244051096165051,1.2771608264283,1.312094839959351,1.2454871724562426,1.259289229180795,1.493579571691164,1.401736848784572
1.2999081387001972,1.2040258685582395,1.1803590283847691,1.3013504012959116,1.5859595159008757,1.299181358927266,1.333960084326253,1.4465123813024616,1.4872893025929361,1.4589562632303208,1.3671866585014771,1.4710443921342686,1.4433741035945786,1.3844544455020675,1.346707777089842,1.4932250381741237,1.5091263585502843,1.4887509552902556,1.458838967928355,1.463328538762632,1.4296995173814562,1.4308784044987588,1.4506766377181985,1.4135534493324045,1.3881078180908268,1.467935885313659,1.317301370124527,1.282242560861145,1.1833425806778697,1.2442066177628028,1.5467577946769073,1.4852282937358292
1.3407440952605134,1.2468593629586964,1.2450180925899748,1.28841842597234,1.4816041499051749,1.2559822950533672,1.3854491473743993,1.398283852780618,1.4490505633986075,1.4813845522879572,1.4954911363820307,1.470906290269175,1.426033084720151,1.4807745284738643,1.3856425266500372,1.5921304705094235,1.5974412666966091,1.5066698464543093,1.485302537506616,1.5321562140354406,1.479978735657445,1.4414306731376854,1.4437056466669054,1.5112640219835785,1.390542587359825,1.4436997662325572,1.3019328425459327,1.3329215470807207,1.2392423306722133,1.2981787162906464,1.4972931514098151,1.451445146185504
1.3374139459228807,1.2284650440455704,1.2935731636032173,1.3214266040241986,1.4540019177506593,1.2679215456492197,1.3925100838346711,1.3691609418195159,1.4897572210324859,1.4213545603714794,1.5293211911514542,1.4824721299607182,1.513446328953565,1.4930870200451916,1.466340185588112,1.584817037487005,1.6374519986600624,1.5157861777090955,1.482361511758678,1.5785728522095543,1.501654260946752,1.4544274320487829,1.4281984631176459,1.5498302583681989,1.3967197042044692,1.4665959487893125,1.314872816180224,1.311192169480091,1.2902309361234627,1.3133698267629876,1.5178588532696622,1.4244547066990174
1.3031197105846224,1.2181178456747468,1.2675087157138913,1.3523893946951147,1.4733233555046086,1.261546908520325,1.2502412924814783,1.3991450666113243,1.4718678114594357,1.3229368889468776,1.430154099764011,1.4680944514105556,1.4435567235595046,1.4697908186981374,1.43150932200354,1.5259076800764158,1.5559008128861256,1.4979031272857608,1.4466031349431765,1.5057359940825097,1.4398665901291139,1.4160669433727655,1.3821528468014272,1.4033857157330374,1.2833624232139276,1.3947778187113535,1.2477950523016712,1.2587094506940326,1.2233981269313075,1.2610436273424592,1.5375005976148528,1.4395888080326655
1.3466391962623012,1.2864105387961717,1.3009255197166345,1.3469292044643697,1.522312427162728,1.2076320329312262,1.3601527866895844,1.4186224801952514,1.465889878251686,1.3968500915948752,1.4481110575078273,1.4918870672143065,1.4528448178395739,1.5184318231997351,1.424614775521779,1.4701858448287737,1.5272496948189735,1.4997034963907716,1.4768814839052562,1.5195986945599305,1.5458452979718282,1.4530102045346946,1.4869706120697264,1.5461979694628956,1.3717044255312458,1.4574623899728167,1.2942989322343517,1.319235949209993,1.2359709902874094,1.2857091516743149,1.5160452861995461,1.4594425761723513
1.3769962338375827,1.3297959065968248,1.3326936199913682,1.3257141121258968,1.6045720859424335,1.2631635325251451,1.5314986144689688,1.383911300327926,1.4570962905181597,1.5219245394900622,1.4221462066910395,1.5139437326417708,1.4898531413197453,1.4974045765801232,1.3997186796473862,1.4770321944512106,1.5296431608691459,1.4865497976785362,1.4535636748692788,1.5195480390338718,1.5380314222949238,1.4586200648873535,1.4854519959464856,1.592120212441768,1.4368944253383624,1.4729074358880374,1.2844111688078377,1.3562517092434478,1.2805305571114889,1.2761806033960044,1.5124388406308449,1.446918157338358
1.326517137467431,1.2743750269664746,1.303622383478886,1.293360560465526,1.5755361562369263,1.2715190501523774,1.5413814772452394,1.351652356556563,1.4651470981635974,1.6202858667188296,1.431612967408965,1.534457374601,1.4435330024246,1.4321738509026418,1.3813175840586338,1.55586530855097,1.4848306910315046,1.440083784250322,1.403948664768236,1.4585218235985826,1.4843444210126076,1.3553495337564274,1.390146882009346,1.4975458912582322,1.3536767854697178,1.3510587632189115,1.2619402914266042,1.3695363958116413,1.3519272429408202,1.2518524661809813,1.4829890045047887,1.3579063807343195
1.3190549269769452,1.3002578469377877,1.2181040990492122,1.3181598766849656,1.5528144812394726,1.1793504668580799,1.4009787357805839,1.392050923991431,1.5122896335965446,1.5242524124128225,1.4952175459136927,1.6011447373733856,1.478435135997496,1.5574656768984285,1.4248361227956927,1.6460871218767374,1.5272377897696165,1.5438032896904272,1.4809216865797248,1.5436688422946077,1.4820739234793172,1.3855166684858717,1.410043793639048,1.3842411863712767,1.355531876334869,1.3645144341723594,1.358800453815096,1.2984627263952693,1.2615638447959303,1.2400805291061483,1.5419583876999006,1.3182513368211999
1.353667851954451,1.223864843528647,1.2862558637118342,1.3035722840569837,1.4883148734248541,1.2606718856067436,1.5091360160755043,1.4869658673463102,1.5462295610302346,1.5646854176014398,1.5734063148026287,1.6002679798757127,1.4737775812110945,1.5819816035373353,1.4382090746884333,1.581750410158365,1.441099845929762,1.5110813344772254,1.487710261976847,1.5582072848291486,1.4605838532378617,1.4788907550118464,1.5029679607619006,1.4383152710650673,1.4286066093472525,1.4469281718869205,1.3333610789588768,1.296451034402862,1.2384564085984835,1.2242137344656534,1.4950693909090693,1.4731443009737504
1.3468567163603513,1.2041866205092875,1.3802934243318425,1.3521195985710885,1.5434160246993163,1.265196614783931,1.5478887822103689,1.4933340981830538,1.546473271030125,1.5790900572251405,1.49155385758816,1.592755385750282,1.5467679366281264,1.596379388249873,1.499118361029813,1.50842692346957,1.5008028956893742,1.601057232978835,1.5764557948580622,1.578499852316185,1.5738839662784159,1.5512283103206699,1.5775613484963327,1.5455626856423608,1.4445834404638525,1.4754446456613768,1.259819660121495,1.3560183585024863,1.2383606533206915,1.2292581455976181,1.456700313106593,1.4854334648790324
1.3332822574731003,1.1759026647428212,1.2590538839279257,1.4051080331773125,1.528455043309984,1.2978113931178796,1.5065666124479073,1.4445519784349405,1.5417796818964231,1.5554357785855988,1.4294751528802725,1.5361703179200368,1.4969540261126788,1.4872648539933568,1.4544504711158646,1.4558789156093972,1.456721853595048,1.5260283480063486,1.5223988428497672,1.5119946272846592,1.5426438928921833,1.5271712576256182,1.554962208448549,1.5357441461351695,1.383992516437746,1.4687436259524096,1.2403091799586976,1.2702894160733476,1.284928997923669,1.1876662319138365,1.5329009327947882,1.4881815831279341
1.3531516599653406,1.2290807412063094,1.2414258891365215,1.346444974458074,1.4973982169948932,1.257710281349857,1.4964683253860251,1.437342201732431,1.5241247309226258,1.55245157861568,1.5096817890850094,1.5675239402639587,1.4842261223151956,1.4862238710336868,1.4098716352449991,1.4585004721755859,1.4501671338660624,1.4768733223330879,1.4928335415096878,1.4904185297510921,1.5257131180198475,1.4996945589722948,1.4906651210131032,1.447539555176781,1.3307206046139115,1.444482743459128,1.2438129622820477,1.2249246383632786,1.331989007736386,1.2130121353214378,1.60760058747244,1.4896695031541274
1.2664976894997655,1.2563357218011346,1.197432549932441,1.2834231206759787,1.4530233961220533,1.1839871238544795,1.4354828787826508,1.3885838169372604,1.4332432896207143,1.5198777303058006,1.4619886724662365,1.5018640690813394,1.4346908958371734,1.4841939588927249,1.407394632008956,1.4422811308171646,1.4165692430071,1.4975508850405406,1.5231916740458433,1.3896957164978943,1.475193425678117,1.4854999971914993,1.4767882041194706,1.433613955887032,1.374492557811601,1.4574196440741023,1.3477612132636332,1.2340565464007456,1.297911121847044,1.2602653408956421,1.549957105045429,1.416500128764154
1.2280283698904286,1.232011821037838,1.1958993687322454,1.3339123753824187,1.453239802025857,1.187096952719749,1.386892430076492,1.3293457745388795,1.4329705536917432,1.4405605360811664,1.437403658631623,1.432598729332821,1.389363258852895,1.4114878850864367,1.3728787025259828,1.456115596390442,1.3721518541972466,1.4156274036924537,1.437894324815145,1.3705009353726119,1.3774651337813448,1.4321974021349937,1.3756393441812886,1.3632478453901256,1.3504141173204331,1.4037046675981866,1.318180073245411,1.2616124171154999,1.2061367856563903,1.2608670733572331,1.4839848368704587,1.3778904555272682
1.3241171567488168,1.2776223408466207,1.2896095460525683,1.3586735207793723,1.4972836261339484,1.230108673208761,1.4110480047969007,1.4046766835284095,1.471961151437275,1.4989465723058777,1.449087674602188,1.4768915493340675,1.4486946668368392,1.4540781926487842,1.3751057831151132,1.5228952163486318,1.4376487922534902,1.4688920340062743,1.4499715786212228,1.390043828106852,1.4021031386807783,1.4277569383242694,1.4128318703677265,1.4164564269279245,1.3325392614876161,1.3804451917175322,1.2931374764426804,1.3382290141738458,1.1577288586317527,1.2889506573801546,1.47291669023404,1.3985511041768355
1.2999294249738726,1.2302476993695255,1.2755937497138425,1.3271225600112406,1.5387351293712974,1.2759744313794519,1.4291441969617547,1.4409059776591846,1.4865267657178203,1.53944514243824,1.4361968561368046,1.5043889351402817,1.4759274220388645,1.494615197252135,1.4106496160874114,1.453569855984371,1.4516119484991987,1.4797137509908496,1.4516721958558385,1.4260136565510508,1.3909260395297078,1.443030850233889,1.4361330231966307,1.4010749149267894,1.3339297273857178,1.4142062616747557,1.2672348982172095,1.2969555125264243,1.1507708196669317,1.2767373814280527,1.5326526040033708,1.4234064575393077
1.238211785506419,1.200744439926286,1.2370693575596836,1.298753529826057,1.4234205696854034,1.269274508022818,1.3786182788975472,1.3783922497431675,1.4833952655203684,1.4987430342382693,1.4001781131012954,1.50827440280688,1.4540777422427607,1.5034614717075647,1.450921694653342,1.4331382109771365,1.4505911979994661,1.4829122581402436,1.4639680268462358,1.503512403912455,1.418368969698578,1.434487144319303,1.4550493818596741,1.408946062760393,1.3600929562490018,1.4055041376215374,1.2797754317435077,1.2654680124361826,1.1696212581096233,1.2347324229311898,1.4902557575492184,1.4127958410506969
1.2763455541293416,1.2570816234952602,1.2506134203428636,1.3479197968674963,1.4691065343781364,1.2565576091624768,1.3883526134706892,1.4383043241748417,1.4978044304163258,1.5007995413715118,1.4446802565942716,1.5293872798865875,1.4607681475147491,1.4665957111314556,1.4524527177605022,1.4497924311731976,1.4469581398277063,1.45147602424125,1.4931044535505773,1.44292033954193,1.4719700303514653,1.4689515898705021,1.5510757990374027,1.4609981334655269,1.4173941015021838,1.4601911183559775,1.328828413590676,1.2891973636414535,1.2354351430600947,1.262310207619623,1.4554532026683693,1.466969839892377
1.2922113138525744,1.2485652187127128,1.2404873534631404,1.3704761116090642,1.5429882333130236,1.2535139484852507,1.4082571076867312,1.4297303066181162,1.4769394699772043,1.4845326673649242,1.4201814069077923,1.4900122489697254,1.3976953493826296,1.4067771402814526,1.381099439822387,1.429886694433579,1.4164168445917151,1.4188736235907995,1.4150727875532634,1.3840122266234318,1.4316022529446948,1.4181606271685754,1.4695335585910019,1.3987792585045793,1.3557166908881104,1.4028676241787306,1.2853073631275969,1.2448312985065524,1.2023168588197704,1.1682176324560987,1.4121385258381212,1.4342489498875421
1.3055496983320487,1.3035664309116295,1.2940971011079485,1.3747454974805655,1.5584623075778845,1.3017179954121931,1.3059529894554625,1.4559515834257628,1.5283498753319313,1.4361522693279056,1.3531525292975553,1.460711112282963,1.4691685461048802,1.4261206423211357,1.3922541572010374,1.42311013842988,1.441939877937664,1.4792248677731843,1.4783729583909428,1.5159488536710222,1.5091056706324597,1.457474235233715,1.4008536096952098,1.475401029115902,1.3558535283912625,1.4143217575920373,1.303524945137064,1.2700809113084905,1.1800096098554196,1.2505506590122049,1.4636761896193966,1.4988726971608064
1.3369283929426552,1.269123205303969,1.3017332898499803,1.3524029511774085,1.4915356468229588,1.2667922148470119,1.3329206640923486,1.4446814724080408,1.4899410630302095,1.4331818754625771,1.3722582730244932,1.4244572030357956,1.457656949718861,1.5185959204558666,1.4691365604015978,1.5584679674114699,1.6049881768774288,1.5657577332507597,1.5160243307247143,1.5550618995481276,1.5288057549200238,1.4877783294765907,1.4317601139389158,1.4736673865643262,1.3454193130282732,1.3893979730319799,1.335246101699622,1.3165833872588395,1.1652144197910856,1.2986894561586106,1.4833883063408675,1.4560342405993132
1.3793466097597287,1.2488010169696768,1.2923728968157455,1.3118738724357453,1.5618055419358163,1.2788442052574118,1.4099596856543162,1.3768963589258587,1.4170308428952634,1.4568638879102234,1.3768658502335815,1.4304520883124223,1.4316529621746312,1.490646608404156,1.4637962109528095,1.573623940231117,1.571770505804044,1.5193312912888508,1.4765040556818432,1.5153799631652298,1.5016623237812778,1.479210284628698,1.4559280367079597,1.4428036906959238,1.3958794526640685,1.4127496164841056,1.3466205673948315,1.2859532761599726,1.241626384727474,1.2923948134631567,1.5677945884807436,1.4109042135608147
1.4610354008209265,1.2858405242964734,1.3796697470995365,1.3646826793565194,1.479326388885004,1.409050737890484,1.684677793590167,1.5606832578032712,1.4483519449571018,1.6656613313926922,1.5867192543442148,1.4820846618468924,1.3806423514824222,1.4429509680454529,1.3404108292551504,1.5080853027238617,1.4980742906371312,1.4350369759572421,1.4425243694489593,1.4875697870029605,1.421998541223551,1.4188718026903189,1.3933262710222931,1.4982975052905751,1.4125849967060564,1.3681607275499876,1.3197559942639332,1.3631151606408232,1.27200081829817,1.2917428782417473,1.5240679328017728,1.3989435338476743
1.4872045623950263,1.292055368660854,1.3600285895658122,1.3399103370956176,1.4413438503357843,1.3614876469897679,1.6648669209534965,1.5173509657377806,1.529468227619075,1.6743048278363997,1.6074623975218305,1.498990577391509,1.3995174553173573,1.4946203429894325,1.4017105329652517,1.4784768980764693,1.50322129735868,1.4379485171501083,1.4721366482311875,1.5505490846587249,1.4866100085333582,1.4349879285470815,1.4299924609491472,1.5642259516087502,1.3623413714194177,1.4328466104640816,1.309438476514951,1.3622198814357296,1.2288125190026842,1.2858553218594029,1.4125238896924779,1.4084727128604229
1.2812378193333551,1.2590681034767752,1.2497407771987914,1.2734462183999045,1.4616824410142413,1.281177295185029,1.3280783501663576,1.4114387595018498,1.5102653548734457,1.4593910978268458,1.4101573648053334,1.4375433730911218,1.4385976363938424,1.428185664596673,1.383650369421647,1.4891148860536165,1.5105589720470152,1.4494945622999778,1.4647190306793882,1.4451472602117115,1.4384567755693145,1.4231191945510122,1.3745889455369296,1.3850009753206425,1.2889971042197055,1.4148883718339167,1.2805303648076314,1.2172736912599866,1.2672220524623876,1.2496769505799317,1.5048477853045488,1.4299623699469248
1.3277319487609922,1.2165773116703833,1.298433887467748,1.3184632527325941,1.4469652907421942,1.265280405127179,1.448205977079051,1.430230007349551,1.513404177547373,1.4957042918390295,1.4572125045679811,1.4888291153091446,1.5224100621718872,1.50945174555583,1.4055487846601284,1.5914459619347825,1.634970801187198,1.5513320351508846,1.5295217776447614,1.4934105527823198,1.5223985071179569,1.4973740240928954,1.4439616997377933,1.5105624268302094,1.3515687929185847,1.41103760980126,1.2906879238849078,1.2702092284325963,1.2870193963515992,1.2763789793234326,1.5206612430306914,1.4296327219197893
1.370824046343844,1.2360949031603494,1.3274034250183313,1.230724948175179,1.5074682458467827,1.2775355547138134,1.4699094104869035,1.4431529040562412,1.5810029113658284,1.5436902253501223,1.5486963792059354,1.5955943841194695,1.531029911120248,1.5132896796246726,1.3851676674271527,1.597249595291982,1.5710972100912348,1.5435106783344805,1.558821855155155,1.5747527460269786,1.5975446020777881,1.5221809007611222,1.531618887376551,1.56948865555674,1.3723586848480445,1.3831329188130757,1.2850834424341242,1.2819301847894184,1.2846395913151938,1.2154721900036478,1.494191987640153,1.4646309801558828
1.3703690805386943,1.3533693469479284,1.3416216527197267,1.3149273742522931,1.498848729298803,1.3317516059867947,1.5170073478315012,1.5293568759180376,1.6248512688553258,1.6081831579882648,1.6034693680674494,1.6503941013679775,1.5692326252043096,1.5482807830652876,1.3988414658662158,1.5989694756325057,1.525649035035534,1.574422207545555,1.5899985655275508,1.5832764166966968,1.5717864733716367,1.55218148486431,1.5491569565875414,1.5625197190617948,1.4490474377518716,1.4502961577749527,1.2228002929867494,1.2884901897928323,1.256385088679005,1.2383579284267832,1.5043337596459216,1.4694225742465126
1.3192306026039406,1.3572759585248355,1.316540643188948,1.286316289184174,1.496624706853893,1.2770885228330966,1.4795382603830964,1.4176933039365702,1.5004760064615001,1.5939873489668546,1.486900113604557,1.5520825496265056,1.4556038377866125,1.494901053147367,1.4238534323885572,1.5458620978007855,1.4752622466761747,1.4543221584628896,1.4586484517128593,1.4534449651632526,1.4722645883028465,1.468877275473868,1.473065322201879,1.525034320257931,1.3512548810449687,1.394271625572231,1.227437273513383,1.3046486636063288,1.2664989433127551,1.270110822793995,1.454276279538137,1.3992234207578316
1.3524092682608226,1.2504017417992124,1.2573255895716826,1.325675383631678,1.560392736789249,1.2942638615586095,1.4187988357987482,1.4015744718647796,1.466327224622045,1.4704670463966798,1.382050888332798,1.4517782745218646,1.4440259682435013,1.4414579828579317,1.436044981486749,1.4351012304131605,1.5213284934847446,1.4917074870179399,1.4878112214149846,1.4631855997454564,1.472127761205509,1.4638766916224806,1.4538699116355156,1.4665082703140924,1.3371145772704545,1.4467015410098556,1.247746290076281,1.2447366493317478,1.230022586923215,1.2934471091485737,1.4889264626515704,1.4759825734785474
1.4139124428314962,1.271409319193174,1.3139444468952768,1.3723832267991531,1.5350456161364667,1.3157302244079419,1.4701445712112038,1.4198800540516154,1.4814717853640738,1.4843085900140849,1.457707198836124,1.470372828487152,1.458945255075493,1.472648346307077,1.4788405936766376,1.470332676115823,1.5130293453979555,1.5116865489827531,1.4831055789985725,1.497788094246601,1.52156317486986,1.4700539751454447,1.5129895050027458,1.5191114418514655,1.3938847248824189,1.47455902710628,1.2978243716083229,1.277778202882609,1.1999410551451444,1.3008472168841223,1.5242338865505654,1.4876131807934818
1.422312708502462,1.3232002006154107,1.346821075428772,1.2645502192605949,1.5168805071050815,1.3348129813754879,1.528310608841131,1.404807518997865,1.523498164381065,1.5223382609296843,1.5024498020704187,1.5243773130032676,1.5658406889372127,1.5407858794661504,1.4945056559202783,1.5503794419657477,1.5443304034786303,1.595517896602493,1.5392880353673795,1.556234725626033,1.551931804789983,1.491494777043708,1.4886642241730932,1.5402078622404278,1.374880209867584,1.4116927521912963,1.303188653124505,1.2669446214463524,1.253693716210539,1.251917516180953,1.503896537744171,1.41901182889081
1.30724487639758,1.3055400410744202,1.3009663467437766,1.2546395808255133,1.5493024942168556,1.2587089818437298,1.4240817467415934,1.4030498022147846,1.547157463945407,1.5068089720551656,1.4471250015370967,1.4927268182738467,1.5657556424186772,1.4782305766411274,1.3911740020155428,1.5212693955857186,1.4892206494075475,1.4858365317898197,1.502201551487984,1.4647578545753037,1.4568440350705012,1.471170545139484,1.4194620208854538,1.484585879702896,1.3906534260905947,1.4304125153915364,1.2967144077447756,1.2579162150108625,1.2863008568060443,1.2394519688301127,1.4143125705325006,1.4106039111788127
1.3031149603958356,1.2665867948190435,1.2898209712752238,1.2961383676841973,1.5285071366059315,1.2930936578327719,1.3375130681452692,1.4256114745678476,1.4491949060310163,1.466274592023306,1.3971247713554285,1.4357317907003444,1.4722424682354123,1.420985301796762,1.3669919715492942,1.54053766122612,1.4284140649560284,1.442272561795693,1.4649396498193505,1.4454349088384688,1.4372553413415128,1.473385795633543,1.4202160370302281,1.4465617891858262,1.333203611430484,1.4025035987849828,1.2445740696444663,1.2531692316865348,1.2852636490429776,1.2060061121009482,1.335919918253119,1.442078989452325
1.3015725718515225,1.2902805971261317,1.288399888300845,1.3286025275843207,1.4789256490557618,1.2619329552082166,1.3440591180328925,1.4452962853536782,1.4798252356711727,1.5044546534093073,1.475282827358643,1.5138721881377781,1.5142277932311814,1.532092864205225,1.4447092437868132,1.553593145687861,1.5653716558176367,1.5541203763502704,1.5519367018211183,1.5551612547858031,1.5528414547999725,1.5347079670412767,1.4728194769274836,1.5893229454338764,1.3944241544793206,1.4065340230082923,1.2925460391154016,1.307265046578982,1.274185252180264,1.2811862326269075,1.454177927143275,1.450617183167819
1.2935483117827609,1.2578235696450788,1.2825158173574127,1.3695054510899125,1.501449704858833,1.226023718355486,1.518235276306313,1.4613093210810864,1.50806244065907,1.5743495585029592,1.548484936121694,1.5352025905547226,1.5214154314731354,1.5259826753929566,1.477982590683036,1.4494018649546814,1.598685580529636,1.5779668571727001,1.5796427487329185,1.6262504416243333,1.6072127945392871,1.532751300691596,1.5168209065921627,1.6607988418987418,1.431527002688989,1.4453115797213518,1.296015788133579,1.3610708944083523,1.2562728016534725,1.3438499662767718,1.520740094213078,1.430780999714228
1.330692403856027,1.2721521903300281,1.3062293668426879,1.3369828958793746,1.4774319516797314,1.2740775641068318,1.5423640936827003,1.4820042307872014,1.4958595071518916,1.542438889893248,1.5119209537766614,1.5032943683261222,1.4906924193842503,1.4662346250157956,1.4539332247604841,1.4942100625788257,1.526602649837355,1.5203118038669008,1.519556927042767,1.565105446011776,1.5413313805875024,1.5060513520656875,1.5348516617881636,1.558364739453021,1.4102849290408572,1.4849494920127837,1.2763376810585803,1.382855793555869,1.2685711188762132,1.3061268245152227,1.5309942092000748,1.4686744849068993
1.3026666402299163,1.2147416284464305,1.2391766435050797,1.2621256247042036,1.5201347736157753,1.2656799076647363,1.404536576364965,1.4357871592785714,1.4557409828424956,1.4898417106773947,1.4374991465392157,1.5031370388123886,1.4594978155320624,1.4891881191737757,1.4212203677424862,1.4774544072903493,1.453292208684644,1.4664811229482038,1.4861815873306312,1.461100476286344,1.4790732877858284,1.4241445428581725,1.431898470325403,1.462656296009972,1.3001101449621764,1.4420804271717935,1.2233580561817101,1.3513581736554572,1.306060272817607,1.230951107290001,1.5538201016067188,1.458058651974855
1.3437274921700628,1.2598907247883642,1.3140516723923916,1.3320426361465263,1.4797139896679952,1.273191357493381,1.5133249671505524,1.5242925325389303,1.5070808928846675,1.5831532002206716,1.525120601994603,1.5973871397681814,1.5370055016168294,1.5984463904280648,1.4986406833163208,1.49086611592535,1.546741841797957,1.5174383516846368,1.5142731726147909,1.5326371155207297,1.5247416041535926,1.4530238532548048,1.3989660074489605,1.6531912264728528,1.3976673856392934,1.4363626954557458,1.265853297389272,1.3030290330152607,1.2684500659433673,1.240912291046533,1.5257190543505088,1.455802446833897
1.3869592664064572,1.2238736299872133,1.3557207097824506,1.3634701147348502,1.5546005891257837,1.2686912627756606,1.616477911669896,1.5310654746232883,1.5163278896999606,1.6426230280998542,1.572790643240823,1.6228802527850024,1.5414315552535098,1.640221863874621,1.5464446447154032,1.580735996690286,1.6393530732372996,1.6028708396722515,1.6151702126243186,1.620065926031442,1.6508639596678436,1.5903820386344778,1.6098544359781575,1.6960673214487216,1.518365422653415,1.5883263358994204,1.3537179171300013,1.348728050599827,1.275475298953871,1.3161397978967502,1.624312326101497,1.5682487813389452
