Fp1,AF3,F7,F3,FC1,FC5,T7,C3,CP1,CP5,P7,P3,Pz,PO3,O1,Oz,O2,PO4,P4,P8,CP6,CP2,C4,T8,FC6,FC2,F4,F8,AF4,Fp2,Fz,Cz
2.4680358836449496,2.222566349323898,2.5594096795526053,2.3279833869683655,2.1259681627793308,2.42108095313014,2.161842566220156,2.2966565057233725,2.2632481478402817,2.299602452102176,2.563285100262622,2.264696793725972,2.437606530524484,2.382176825959484,2.170517000292779,2.099065646398743,1.9622846262677542,2.1770162437177754,2.3085590586785303,2.159769371847608,2.319332070940834,2.4867753036636997,2.3117226936773947,2.11055382651523,2.034881917852771,2.2934316665917795,2.2702937519651396,2.074405292683949,2.5947684524076227,2.0786972896754823,2.087875024578727,2.036318522779612
2.445101847263769,2.2219039716435858,2.2869272305440362,2.2803967040202395,1.744567770203342,2.186206400455393,2.288342369718609,2.2573441931422464,2.0392996326878294,2.2253468386055713,2.3559789530314075,2.303357207914456,2.295948799854441,2.1836783609396924,2.1862005965279994,2.2148496026535627,2.1809899380524005,2.123153062662956,2.3333275555368846,2.1701072665790866,2.322146650281807,2.3654522248157868,2.1227626485920776,1.9250232351900627,1.942154625765925,2.136469164237862,2.1609045210965423,1.8240088835885788,2.3213636490409497,1.9141528232213194,2.1250655138479715,1.9836307761819671
2.1783076971171607,2.4383065156883763,2.047427511359206,2.510129762337157,1.9640129927153815,2.232119158219533,2.006194825007342,1.9990039298417523,2.0663174281057355,2.3126210039781556,2.278289485542961,2.3225795667162092,2.4397532896982383,2.24608968441885,2.336742235279649,2.2351114679230673,2.3821258111187187,2.0605613625058075,2.149167546441224,2.257359376394576,2.1728890054178325,2.12098618277007,2.1750861219192084,2.00074695674652,1.9939078078997865,2.2076441803358646,2.300699068660031,1.889120278659731,2.5313121365374855,2.057772421831784,2.0616738949931444,2.0932277587642294
2.254816627019872,2.5508219570107054,2.0600043961071863,2.466014701590151,1.745104074220824,2.1228907873157676,2.2399220527052224,1.9772037033185574,2.0870553821027276,2.084287749421834,2.6122837750519996,2.5302716851914884,2.2866201590373945,2.507405879242443,2.350384131890643,2.2319424334885642,1.868538512696214,2.295582112260128,2.366649217363929,2.2508738951519778,2.222210834170264,2.1751988900310835,2.1380613897961385,1.925990247663415,1.9813392957402465,2.1435111898561297,2.2951504483990703,2.086534614507415,2.4994802971869543,1.9314398988514963,2.059208764454849,2.077960215412319
2.2030380208910447,2.611541325470413,2.370745918578921,2.336929559245933,1.9209562156287299,2.2547325399357003,2.095117211911154,1.9549344617297333,2.099148897304467,1.9985244256082786,2.371909349218899,2.1693797649623656,2.282125265508301,2.3584071972635776,2.2894000547225177,2.2395943551307256,1.8929308358823933,2.2859878552302644,1.9653962091236796,2.0116567723856296,2.0256983611120005,1.9566696557384464,2.1574189027744137,2.1536093291648633,2.091312558817581,2.2431128506119586,2.2208535306047525,2.1803713577454724,2.4666776942849604,2.1247071824494586,2.162572037046417,2.0783293796214553
2.4390315897551718,2.43985492154987,2.417779167082446,2.0317810645418946,2.0259678769461624,2.2166028960784163,2.1798900983218226,2.128322429960735,2.0407250969261237,2.1005538083319704,2.434901754497101,2.0338870748851234,2.121738088826482,2.4571747632831658,2.234232292242711,2.06779614882035,2.1426392834209125,2.0252943723430437,2.020793953634106,2.063938826396168,2.0281401146445717,2.324997786187655,1.9926159564540786,1.9121663743195252,1.9798760849074042,2.1284445437239463,2.370625700562673,2.0875520190789083,2.56827519301593,2.0441498880688376,2.1605640663400196,1.9324251927494611
2.3770948209014318,2.5195960889918076,2.0570543708694973,2.224418042837333,1.9959698425555668,2.43189017910681,2.2859139151826597,2.055531858446086,1.9788875576505238,2.0953137863934255,2.440699081670724,2.344974146223531,2.084630306386741,2.2425677338233116,2.4299220842308014,2.0447840946503275,2.0205351272979737,2.147045086982666,2.008341819887504,2.2104094986468428,1.9445861168268004,1.9979394887257784,1.9516859445106451,1.8295738460729163,1.7539683702296631,1.8779130716797223,2.2699940088192787,2.192459074414596,2.089014619236652,2.047943849385957,1.8289205429576234,1.9096969827482593
2.377568139908833,2.5628787022210657,2.300373496744162,2.3236790324228136,1.7951899852126725,2.214063392841672,2.0226538369736815,2.13305459314914,1.921475946578849,2.131163990391184,2.4310768706576575,2.23144338196819,2.007444105172623,2.1195401452556233,2.033709353710427,1.9053451498821363,1.761346947797835,1.9996533964165246,1.89594295459814,1.9303901628446052,1.9117129960537107,2.0401929193791712,1.9499004356312795,2.0264006910867245,1.8389197452551818,1.9755596149791146,2.0383664974228166,2.16561478691908,2.10903388194034,2.237675986579954,2.0402079541172387,1.9382797846514617
2.4507227911350413,2.2365215158240157,1.9634675473376253,2.212845574719686,1.658671396457175,2.226344444795814,2.3273775827586523,2.098588230077632,2.005800541660277,1.980676372263136,2.3428931723503785,2.119737784369587,2.0626412487112584,2.070727835907318,2.5945169274937867,2.039263226164147,1.9451550263608501,2.186325965104064,2.270035097022443,2.2983904289021573,2.124221660869158,2.2006737396092766,2.310503078643972,2.249972140354194,2.114069664017791,2.173378487342963,2.1149293618889184,2.1164206970914488,2.388844373470627,2.310146568976848,2.1755696704581298,1.9509952630050302
2.343277891525658,2.3993380834213163,2.4975205176237782,2.0976935272170403,1.7320830877984768,2.2773422491206254,2.5129694772989724,2.050738752855589,1.9988804147778452,2.142966562694457,2.344965107109724,2.2007181550173187,2.1318528964523953,2.208490734753345,2.66195615307441,2.146095240864267,2.0285569789967166,2.2083809718126983,2.1157971926784143,2.2136546592982778,2.268308180372353,2.2308403067323734,2.3259246274943446,2.4602774350105707,2.1568601346452136,2.235602408231527,2.2673944663393297,2.397264896149716,2.2770231243558374,2.7474075228079227,2.0722227247976597,2.067267395633838
2.106549309362439,2.6990826395623486,2.2923818480883162,2.1207257471254253,1.7233543652788155,2.3392046898652556,2.2055213951094794,2.0490955218445346,2.2007079845451316,1.9486468928493494,2.137585884974108,2.0390136407914747,1.9675373969168024,2.0228137628520884,2.4305605562482104,1.8987957113807388,1.8357909662899332,1.8544573168106182,2.000518992874169,1.9630210583563932,1.9948976733168486,2.116919125835272,2.3398818316219083,1.9222226686581523,2.085789878301517,2.3073827646947107,2.5461165423369017,2.389130820095161,2.3106607090307034,2.3989705808597694,1.9972062682426723,2.204978505636365
2.47493477978745,2.3440698261286594,2.5787290568362224,2.1376218953434365,1.6199440354303873,2.4217820282790505,2.1961366210327253,2.0985165404312975,2.1315890236307253,1.8886380630402788,2.317175773067205,2.3579076510449783,2.0035750409292943,2.2097744876544385,2.1837020092689503,1.9319224721208226,2.1796740016321183,2.156510270719795,2.2000103576817547,2.2875823879953265,2.332684616671653,2.1180601211653625,2.13863886191568,2.331680963265396,2.36199599316617,1.9403008547030427,2.58266083455647,2.39226699809424,2.1119794493164563,2.645578097213727,1.983922853811459,1.9131460972099663
2.253553765710394,2.4606012557115458,2.4089004187396346,2.1625347659428944,1.8618655435108713,2.292158078856482,2.3058004087417863,2.1381179813135116,2.0313700811901803,2.0022971348143055,2.283256569572749,2.1249633097336087,2.070996475986665,2.1309613415389568,2.2308874726147336,1.8106161143114423,1.8326365947018506,1.796560277491315,2.07055572567999,2.1725745435175288,2.315271420953659,2.096945014936873,2.3864421879706805,2.290745391231639,2.3729223593792685,2.4014597254155547,2.5146097886809553,2.2637952742543725,2.557013107510187,2.584703377446539,2.065281081608797,2.2568344371007685
2.1182013127517902,2.5358450260864656,2.6724715747990784,2.071645828132084,1.9462371699620564,2.1623584267892353,1.9390520320287266,2.2153418532581157,1.8597569963693885,1.942437800156989,2.0542179500650595,2.051530670978076,2.003761292637606,2.0727471288099584,2.231568860169977,2.1959341392367526,1.8823231094118984,2.0750585987782677,1.9960143358769291,1.8754940779057487,1.8338707300089145,1.9175198011692858,2.1171165540955927,1.9294361458678055,2.1212830939867025,2.01120145467876,2.1882089908659403,2.3006395432474296,2.6687951779454826,2.262254544371023,1.6918145314083066,1.9199924936450607
2.1551447803815886,2.49912004227184,2.2194337840783716,1.849176661713006,2.1477873876077465,2.4954726412533126,1.9671378285504508,1.9117016383118424,1.8315691961265312,2.024696517996219,2.3551886679138545,2.1909578400764307,2.153182728247704,2.464275509501603,2.5342625934434238,2.1754156032322394,1.99057399231399,2.115715903044852,2.224068177182768,2.147424059241435,2.170395726726715,2.1852759104584196,2.15713044979337,2.0681633278228855,2.3971715424211415,2.4111821395895197,2.664759578971016,2.1617116577638833,2.567536707818352,2.1546056965323377,2.0442572106086616,2.194029711496883
2.341053115440268,2.6016526069445214,2.35472781963735,1.8909055665895262,1.7343540391894783,2.365315473141253,2.0760714358616394,1.9821956211716139,1.9133558423905308,1.9811975151821066,1.9850128842196977,2.1280327222368003,2.126321091007189,2.4839150469370552,2.4780926740966436,1.9908399153982406,2.0644332864875934,2.170479184055489,2.3265608005771705,2.010372193981682,2.1137712824918924,2.1287535086906715,2.2909784962957307,2.03081995284864,2.2833751741604384,2.5244207840931723,2.589297619437142,2.4955491690296854,2.652083159706565,2.4530258243883862,1.8322001907632002,2.189026284538426
2.4660146405325736,2.5579502897300754,2.3891000872804904,2.0496520448967535,1.754911082955287,2.4534405961724737,2.061664535318958,2.1603770775894584,1.833847265298201,1.8575689204935633,1.9658782624165851,1.9056643610011657,1.901376976729377,2.184808363159824,2.3003180601705555,1.7928692758444678,1.9857258851175241,2.032840506603447,2.027254171569796,2.037926327629579,2.029824883094899,2.1797994389645017,2.4267733655752775,1.9364345712109532,2.421299030786029,2.4995881306040424,2.6385247173331123,2.3245565624170625,2.5776278912699246,2.1804386029858396,2.0196573043778763,2.2716210802113634
2.465841381723603,2.608693607317914,2.4146801023293634,2.3429137180160517,1.8089363687397728,2.54848641846191,2.068355026221552,2.443934868408834,1.9098550105810457,2.0476634045857875,2.052781860787023,2.1439067515281307,2.2539805130320514,2.2295362783839505,2.3048029535985894,1.9927520187673426,2.297251758397499,2.1169374449151563,2.1125988753856886,2.060745926291803,1.9785715049784742,2.1356351901444612,2.2371162377328,1.8572087540859268,2.3843009894574045,2.2006945193247383,2.161586112184465,2.413935072557797,2.5446767897265463,2.0390335943394358,1.752023988397437,2.084935459636901
1.9622534021425109,2.33464847550787,1.9274752271310265,2.272881942729697,1.9607445831585786,2.408698444104039,1.7562641936460288,2.028564627871858,2.1144332919531896,1.7261527899495357,1.8087853339229636,2.0954541699453184,2.056296534373569,2.1490023480758964,2.189187193491624,2.1856735854423386,1.9618055471625713,2.1193607929943052,2.1335280580346563,2.0545994117075925,2.070661310013418,2.2286554546784054,2.2185872369900888,1.8941464200959846,2.256489370151141,2.3466029946540963,2.2526960824637263,2.143831211613172,2.2240240191987573,2.103720367089541,1.966996817254193,2.236253680334649
2.0572142137674803,2.563655842686039,2.217766368503355,2.0221256115258712,1.7469045939300119,2.6516248104250133,2.0349760883358834,2.3847621240420738,2.1058780616166195,1.9852473747409665,1.997859998011779,2.135826472090118,2.115127199818658,2.1764895662873247,2.1665507046396,1.984967847948497,1.9599316924880548,1.9119937127920101,2.1483919476696998,1.9040372583668301,1.9703246678063533,2.247468983924821,2.101457399485627,1.881184154400831,2.3023504029835102,2.085617724575038,2.2503503010696257,2.266193008818995,2.469633644814108,2.433289912615354,1.6483264506444353,2.104012557431735
1.9477316654647183,2.819248340820104,2.420689188635042,2.1296142835107656,1.7088700238710266,2.2209071238823617,1.885622350857033,2.351755308038413,2.015655561664786,2.0506094304353057,1.8846771670953968,2.111336338976251,2.096289700270389,2.0343300469074785,2.2636645693749124,2.0067494149589393,2.015513220928773,1.975400992791051,1.959526874508333,1.7480747234635623,1.9364869863138148,2.083202814703867,2.0082629256504902,1.8680514017182142,2.256463978849369,2.16375111682504,2.4244627286979745,2.124902372056665,2.2182739883554325,2.238052792342236,1.838706937922035,2.0631123612438738
2.280189687295326,2.849634525931273,2.3301180890762194,2.299388791474931,1.8628821054200881,2.601072097056749,2.0478587947953333,2.372890159455456,2.148378539262759,1.9158776994896654,2.112984804413505,2.0399316610545144,2.036235324842483,2.1972452717506226,2.1310335091928048,2.1650471472211668,2.1101404856139636,2.015606566070092,2.093150854721522,1.87062038168574,2.0470380307785505,2.1214746283656183,2.1420503098676997,1.8139769115343387,2.219886044893978,2.328604147868845,2.5295240868079127,2.19791051555951,2.4520845636813013,2.209149253386552,2.1253249539809747,2.367207395881094
2.0736658490262987,2.7874518693833252,2.148100888366369,2.2269516682955675,1.6583404246796694,2.3872325064162996,2.061496231808625,2.27927462625283,2.1383640392987306,1.9420817658352567,2.0563844428954416,2.032150246098487,2.042393444998069,2.0112053813434905,2.1839598648476404,1.9600964887615588,2.166329179807174,1.9542263921057765,2.0397603346402757,1.8849584139909337,2.033894269330175,2.1945832655963167,2.1705704325986948,1.9465721511381455,2.039843262791197,2.2915870651850283,2.327430038565579,2.227837724242106,2.2873377065876417,2.027684281666548,2.2971857625856393,2.0995040043554205
2.0096539191802414,2.378210898152428,2.0590298004560625,2.2154041287483714,1.707858822321947,2.344587661823433,1.7340867174523231,2.0775976210521527,1.9909497811806602,1.7466224905635312,1.8935633877375502,1.8622442343528487,2.1129683118017866,1.9244726240486232,2.125626540408329,1.902829711130549,1.9945677288038055,1.9450031919572763,2.0400758003846935,1.9176712237323994,2.0699221028615598,2.108630450851388,2.1789191849905882,2.0103824010585147,2.0634566659321183,2.2025172497009056,2.1372463793387118,2.3083220706823466,2.606391636307968,2.1712865497234364,2.243368209893373,2.2963193298732456
2.3385685986235107,2.5263049862396967,2.494950271247371,2.4321118849647627,1.6946144552721836,2.520809862145662,2.1904652195052416,2.3556345121837685,2.099754562861923,2.074538794257823,2.2234729477697384,2.115181747147444,2.0490144545692237,2.2499664585251566,2.073275830967631,2.247473528688923,1.9955950611407545,2.112593616338562,2.2063472729643028,2.109699624497009,2.136752457496911,2.270349958189773,2.1870309816449036,1.9308158377486626,2.045913462822966,2.150614326624508,2.248809677107317,2.0205533086761416,2.3691960705586217,2.0122207045133416,2.078095623642129,2.0376392955597975
2.167088212283638,2.8175527800389135,2.4474239427379265,2.5178053999649888,1.6023063039544878,2.6771737914446923,2.2083201391635483,2.427774404253056,1.9901893553991834,1.9442287540653922,2.0718519262316586,2.1345846416008545,2.0911581193919657,2.0987627075961854,2.05075376509444,2.033538826410077,2.0598977528853495,2.04380930921202,1.8661129547825088,1.8996547157529107,1.8873507229065654,1.9799987252954174,1.9264380595531159,1.7932945538632623,1.9681141756483427,2.173280390259317,2.3624391976425354,2.0930232127485104,2.448705771006542,2.00909148354652,2.2016522756733132,1.9126275717626782
2.3820286044742462,2.334352654768765,2.204927042912354,2.1586609917468924,1.7283368176221554,2.342033951738155,2.0777397061642304,2.143270363378703,1.8798149941223148,1.7918357206562898,2.090437359818897,1.9303970171190983,2.185140714297706,2.0070110369239527,2.044350376289128,2.0988020419748215,2.0826663752895067,1.9859201871791834,1.998383671016653,1.9274186635866786,2.0015992098341013,2.151776710647338,2.046905868976852,1.7639615304720366,1.8927063021147403,2.0926011420551816,2.166228826331736,2.068269932694372,2.438277511478152,2.0105674376519485,2.2941873896129676,2.093037628956109
2.1700646840084166,2.2863062401750223,2.1583982824980055,2.3172512229006164,1.6377890286520058,2.718254652761722,1.9730132225585528,2.2616299388987096,2.219126879493835,1.9278208385921023,2.0788628310143955,2.2722012386847315,2.1127113357519867,2.1935799275158456,2.090040915380291,1.9614576488008877,1.9910904939791776,2.0020716471487363,2.040422286965757,1.9716050061261365,2.0186058231739428,2.12054796653759,2.139325897345082,1.9687279697826099,2.2188821277888895,2.165682760571841,2.4518565015145297,2.1991040377173907,2.317418217183003,2.0682687796267043,2.251948535279802,2.254298168505515
2.122443869375102,2.606056986323862,2.0907534586301924,2.2847062388331754,1.6400049390323703,2.4934059618570656,2.1184458554568804,2.258833215268948,2.091383855137135,1.7543954962086743,1.9060849443102919,2.122130761841239,2.3114061141766697,2.1228446092333195,2.081249437767805,1.9936853131691108,2.190222712383152,2.0714139682341077,2.3311150851308677,2.259800740282333,2.3048054583858093,2.47965509750986,2.2445103203489234,2.118320233863482,2.207975668046398,2.238071854903804,2.513153329144797,2.0881239018757896,2.437193246194013,2.3057930207003663,2.2118517661161836,2.2121328565346037
2.578203231019095,2.5229171736990454,2.214327336157647,2.432718684815075,1.7361921106388343,2.500616795700051,2.388954792820065,2.3451386082765837,1.987618401549032,1.8311334135853161,1.9638185959545482,1.9947325188817886,2.001355445599324,1.8650296505857666,1.913868785733376,1.8090900940999852,1.8962642112437635,1.9697055996747017,2.1168291916514943,2.248630646040219,2.369098656074814,2.1793547190353593,2.3120185191679448,2.2107937826276487,2.107572295346617,2.248656267186277,2.380555141922571,2.2910893585977914,2.550713652650216,2.4557177591532904,2.0330467662574505,2.150653856269833
2.313522144583379,2.6480595532089604,2.420067974880341,2.4343748168623787,1.7917793413911085,2.38619712582545,2.05963348750473,2.297050402675563,1.86060473305518,2.1633222036682946,2.325689832968891,2.0734645409391983,1.9050536064976806,2.0538546397266693,2.0292752112711376,1.9479550366708398,1.8426586734787267,1.7719368553244434,1.9914580387845642,1.9396992938550388,1.9916514487104733,1.9986917038213086,2.03152908153104,1.872058613297614,1.9838552568503962,2.250467307755492,2.4027397046047345,2.006013032026104,2.667833167683069,1.9964102571957658,1.9954927127592987,2.091975158510366
2.5752572783538348,2.450330837928469,2.4264112771678246,2.2160901360244765,1.747275686732625,2.7214055105428474,2.2626635073780554,2.2661958445700368,1.9775934967907445,2.145726915938232,2.3372092131127657,2.339661939563772,2.10985614515331,2.4196255429866356,2.085756106954289,2.1502636184626684,2.177044342795057,2.0611725635228373,2.1590609777225844,2.1928306462281135,2.4337000217876197,2.2189351643755444,2.069903891344295,2.0360948017942024,1.9711590178785545,2.256292428012825,2.6862145830202953,2.1911581131257516,2.259843271189323,2.1416569605094162,1.872082917446071,1.9957164879344698
2.1776135123780596,2.5450722189362205,2.354824430017468,2.4139158412337007,1.993826310722221,2.7435659989966297,2.193104188418024,2.1128087814174115,2.3318220131808047,2.150102555797051,2.318970337818106,2.3077204585883173,2.3351906199414927,2.3082923595775737,2.144144906011365,2.0184066576567923,2.040016707962941,2.0764242582943804,2.25132572077614,2.2479040998176876,2.350157118056431,2.33284203792809,2.097957514713725,2.036556101141662,1.9491474595169003,2.4037379608001626,2.7344707855952324,2.389203016679498,2.4156367954814457,2.353726937514095,2.0545931292267774,2.3869717312297816
2.4844533686670784,2.526843863936766,2.5771404406633045,2.1773337465161386,1.9770513218581973,2.7968938223217776,2.5186099906871595,2.1744858558787454,2.3324901617920797,2.1369133520183428,2.0405203161605656,2.088502132909111,2.245567332985684,2.209711632386751,2.0721699537264957,2.1424508964913165,2.0606343687635027,2.049031908102962,2.2536750293941825,2.1264940637697696,2.3799485646778336,2.3054311107313725,2.1153702488412973,2.1840660437143655,2.2013374147847062,2.243756826934527,2.4134404568380208,2.4610555435122285,2.4922429081429236,2.538267424052876,1.7890132419050147,2.206080709537161
2.3682933544143285,2.4847267788763117,2.4454003604107943,2.2627982491282457,1.878545922012144,2.291106403689143,2.200455454275124,2.202895314235118,2.3195940676046507,2.093404739888996,2.333560244439313,2.1701333053567105,2.222812745521516,2.038831011223289,2.0165128379422033,2.1163802849835647,1.9884807003838816,1.983960297216116,2.129696329242921,2.1434949887623698,2.3230663169620684,2.341179775427034,2.301731206525927,2.292195044034196,2.082739377624754,2.256230438161485,2.460602316108844,2.0570169236703673,2.4391234543671616,2.441763285083372,1.9467218045280776,2.3919082389279556
2.764399180432075,2.6652201996296054,2.364685068543094,2.4667374590137476,1.7070907445680523,2.7583680461605518,2.175743995296623,2.149293574338229,2.3923866368994537,2.099478134187191,2.142374086862321,2.2647432858310155,2.2109944465747717,2.1542215513445426,2.3033793587488613,2.1183862001978944,2.0216317651661497,2.0686849127854368,2.35879519268261,2.4475646669809707,2.270058832457337,2.432149348347178,2.122346061414701,2.0835278831409316,2.088277116502293,2.0138897345004647,2.1296588333613964,2.5820685953998472,2.634059911433325,2.3334410258967058,2.013620146428178,2.2503816627732998
2.373942674410978,2.670922903061071,2.5015716916562396,2.20595451352151,2.036197763594672,2.323151718761426,2.15514405162146,1.934948651015809,2.23689925903583,2.1359827364659676,2.018638092033784,2.027378063324203,2.4791495885758494,2.3207615879734367,2.16847402391994,2.0994478855593375,2.0254155438928474,1.9910813074950824,2.1106831900297145,2.183344160677336,2.2224502605126895,2.2841288978108163,2.054333898062191,2.279162400475443,2.050125271310229,2.3642011170041366,2.387336335735452,2.266160170897505,2.4954448895732058,2.1883845278512597,2.0230980759696804,2.4248109652899754
2.6453401479438994,2.556618295848293,2.5792596895270186,2.1031315433529465,1.9066297175478684,2.589415484696553,2.319133092990087,2.1594821789211767,2.039729206204007,2.0804129835557523,2.190908181492192,2.199562643940658,2.245146549168899,2.3159101222964864,2.4282181941778265,2.097050766093127,1.8832145408066674,1.9902860229412243,2.325520283219964,2.080905458062615,2.213244188320116,2.1399344472787756,2.19731397170497,2.0467197045173227,1.9712608132865455,2.210649639066256,2.526095511554,2.1181778280776653,2.159988150165221,2.4034913695300544,1.9420052268475982,2.1340753756125714
2.651698179536476,2.6946558453783003,2.69469784046813,2.325493625257497,1.9162864630373162,2.3996425866094753,2.249469086359094,1.971538503722158,2.0442168475655396,2.0876443994544793,2.1828939839868533,2.0183455183169245,2.0701270977870525,2.3185344598859348,2.434556799387889,2.237939930512376,2.1082480914301294,1.9181086641681402,2.010020071622225,2.0663263933900238,2.0899130040448286,2.1082001803131245,2.0518852004759345,2.1240700428702493,1.959224507151959,2.3301532366061726,2.7059184998655685,2.4020786079983383,2.596479635489026,2.416107083662277,2.0325290171249475,2.374662854337838
2.45465542072297,2.5259650244816596,2.413431712963726,2.5860662713449503,2.05511109395257,2.5038144369771893,2.188282761191981,1.9552763778624733,2.2282597750306303,2.0074090837026675,2.254653747468867,2.1093189508333694,2.385724043059474,2.012347660056675,2.485916913501253,2.2624054040726076,2.117628008108392,2.0505397003923664,2.113234149905938,2.1852046624802117,2.1034497600757174,2.1302308982751663,1.9598449938750973,2.03058225962341,1.881155294829444,1.9739624111786573,2.6369319093542773,2.3345352390028573,2.4848725207954723,2.1695955586516447,1.952098062738218,2.069847377329787
2.3881022090710835,2.6641705378898726,2.4838025534395256,2.2027518370093406,2.008837167829161,2.1149783295622124,2.0444254325858684,1.788201097642268,2.2036286726902907,1.7516964234456631,2.2252995106729387,2.2498249741246856,2.2059887850620004,2.2415361938370237,2.417864288451303,2.4081410590487216,2.2349911925345416,2.159125584203195,2.004583270321224,2.215964275999567,2.1330608695716364,2.2541066816292514,2.177546594901,2.150484214975444,1.8481883520699334,2.154973986094028,2.578209799051613,2.559250869695569,2.677316854989148,2.634101402646091,2.39312301186826,2.1943388797235412
2.4551964654135867,2.5108823672342515,2.159514744064388,2.350797379990578,1.9880570477020025,2.184975697822963,2.010097006251017,1.8136155815026107,2.2626300852764056,1.9603222094752324,2.1137485466316575,2.0277465032752358,1.9585709462474166,2.256569034354456,2.2869655349054945,2.047230859585308,2.0122345410626785,1.9406330870114088,1.8095149901013057,2.0046907727991017,1.9127169026333815,2.003146858860165,1.913418995186956,2.105918793664577,1.7453874928823152,2.0740399779583605,2.519771104874981,2.0831070763321726,2.4292456304223804,2.360416021614642,2.4129846608835375,2.2447340685439454
2.390468219420599,2.6663516927719075,2.4295171630113512,2.357084652231117,1.9041350548152913,2.237840263313357,2.4392789942597575,2.1375357969411795,2.302251988644753,1.9169248048818366,2.1073369918552305,1.9008912923485115,2.039300021247137,2.082182932523046,2.1781833250960108,2.163339110263922,2.146786738191173,2.0551353878076037,1.8841842122203396,2.1478828200936557,2.0670828842007394,2.199178610702397,2.0845411885753222,2.095371463480504,1.8839176304274703,2.173979300960568,2.3477111043343704,2.3958868218855205,2.59996501711943,2.5086163964826893,2.1821092413969803,2.3115384485596273
2.4312758631711464,2.329263511199649,2.268936946660703,2.224771093414911,2.0881678834835786,2.426268500449548,2.218604786401006,2.124794666092815,2.2284991421883085,1.990620970428754,2.3252905890971456,2.0282283372655776,2.028214453160356,2.4469981514823362,2.120700136301685,2.238589035172267,1.9008591135061783,2.0533899824154997,1.8851986745542895,2.1227633255625693,2.0143112185530834,2.187349567012552,2.0059468062329873,1.9616012765274458,1.7541565120167968,1.9189554479302413,2.492000997704283,2.2227411458461086,2.5118288079238087,2.367692446680177,2.1278922476910953,2.0753058101257844
2.5454228312028184,2.5184855542122024,2.2085218744126105,2.171492754292116,1.8181881558688378,2.4812505102021696,2.021083452297308,2.0188994509221465,2.1850351520437554,2.046625686714876,2.19380996855389,2.2588705997277896,2.206776704433426,2.3918499227667085,2.0732153301017124,1.8537555288811278,1.9509521609046865,2.067279195903672,1.9195455377347916,2.3371973376193247,1.9957532856744877,1.881728425710626,1.8878670824058046,2.2002187112627567,2.077725232400902,2.1369872043130154,2.6327423928897913,2.5263440418237035,2.334156223864116,2.238736346634577,2.008777583806882,1.9434369767105042
2.2800439683255753,2.200149969016957,2.3692532763637657,2.332598512995206,2.063139761650399,2.098369817999761,2.110914962136866,2.041992755862337,1.9871458465145335,1.797286171714117,2.1738802783845195,1.914980303828962,2.0229504839501447,1.940359501640148,1.8900355926405243,1.8902641792969141,1.9322987881822637,1.9923745935941428,1.9432625922617288,2.133675554231062,2.0999121828301957,2.0911461231633286,2.100240944236066,2.061412764844419,2.021699768546239,2.184053527256911,2.237847229714447,2.31970392498136,2.8320839186020548,2.5887360985142274,2.02036091444805,2.050547747019486
2.3985490823244446,2.501523946234799,2.2728717600431994,2.245391028052301,2.0281746651674935,2.383074635212613,2.3217201686760194,1.9690488088120663,2.1251022481778206,2.01434837427512,2.204331465569324,2.3100561345305035,2.0415548439707925,2.143225311186602,2.08191400760009,2.1624119282026113,2.1235658478480732,2.045375758539937,2.0860917780854384,2.2603062149506563,2.26392146019235,1.9089015142839358,2.2337184513250032,2.0257678576593676,2.07280987017575,2.062911473679954,2.508206417012533,2.398299762323823,2.3330453922357552,2.359649273121477,1.8073515419475512,2.0973947158841657
2.2652958934503653,2.432328094283697,2.066948416594187,2.321966981370558,1.7629882560700338,2.438328174013439,2.0136810497692266,2.112871396457319,2.26749764163209,1.958943127754655,2.2110141005936166,2.490859135541317,2.0331041857158207,2.2945021920970246,2.5322836090352405,2.1543797333769286,2.1159784881276966,2.1401514609118095,2.1295523380150807,2.1158848008499174,2.207747570960861,1.9439267246712275,2.208927207908576,2.191393060347131,1.9024769113682314,2.2952236464875844,2.6115030802036467,2.3445395670278297,2.7355433065730708,2.1851957291616335,2.007800422419511,2.198509010384916
2.3397070258909065,2.4261578586621892,2.4815927666140016,2.248957994580563,2.177445158389194,2.5059226151742906,2.3497297740893064,2.1745260871889376,2.170355004606758,2.232141048051322,2.0812538125317426,2.4109111794275258,2.3126412219305466,2.107029228616483,2.353008078055915,2.100082264540244,2.0031484492622096,2.0281255314242537,2.2360508429580537,2.1470874401978604,2.159960322518624,2.0309522147348757,2.213535055774914,2.3228843169068023,2.3267224993547804,2.1522560246047866,2.4491920959200466,2.5201040128063683,2.5778230728076235,2.499099634885963,1.9207016331428297,2.403097297998251
2.312914328928498,2.6090400181225832,2.4040742145588183,2.1422712518938414,2.1462434775798616,2.3294092302511133,2.0680019013452258,1.8740145905466665,2.0004962943495057,2.4281580455188476,2.158923525943649,2.3609397243995147,2.08084973446992,2.3042472467205264,2.213845832028811,1.994801391742793,1.9038903439304538,1.8800178155318386,2.0930866936003087,2.073346489460663,2.0141328541650085,1.9073933600161734,2.0277772412470267,2.41021757442819,2.188952124867148,2.148847122301987,2.4100400878494694,2.5309821611155034,2.454749606411464,2.4634755958930743,1.9870063589010054,2.180595212709768
2.552390305659422,2.5384438938343434,2.63531797638021,2.071292469230759,1.8347282946549879,2.5334577439782713,2.2129392840929385,2.3573477156896527,1.9712108204110859,2.3420429813759513,2.378691921530194,2.24575717620142,2.1367504380147615,2.4767436380169037,2.3073688666962138,2.1885187227961835,2.014660963171638,1.9065354795759386,1.8965243927137283,1.9408459478087783,2.0274934288482025,2.003944129522122,1.989014267596988,2.0887210144914423,2.4569287243120863,2.126653108741265,2.2829444957380627,2.421685351779175,2.362102676350544,2.380566699573925,2.2511289512785373,2.126246879073853
2.391713887328472,2.5885386357472813,2.3313122457322226,2.059920665063229,1.808465082172919,2.4285149425992825,2.0485737741241543,2.169366441201734,2.14649780907629,2.362041331334153,2.078794592687081,2.2691961852848777,2.26514355459924,2.2852148382003974,2.2012060851802553,2.053455444917055,2.1954221178696125,2.176455469006882,2.2079318598398996,2.4125055416103276,2.311811033807109,2.210303002297406,2.239341150176699,2.238751183795925,2.111383737701213,2.4210928546525716,2.1888842219860627,2.266197437022034,2.311268370121488,2.047842501513795,2.2272955332753197,2.284954699945631
2.273982180313588,2.4219368645182424,2.7289648713791768,2.149002345361824,2.118049456908374,2.2335514117101023,1.9739605862968592,2.3084384023892044,2.00313103576345,2.0344179116921284,2.177863659515487,2.4739534313550617,2.0595760004050394,2.5247689326550646,2.1389997526529614,1.9455822838941,1.9003584124054569,1.859997992642752,1.835995169089453,1.9568285553034364,1.9004886413266642,1.8083282354838137,1.8816219964538958,1.8687595443139216,1.9907562886451178,2.0036453727299635,2.2377352101419916,2.026570833333167,2.4318681293030084,2.2372005627620606,2.1929984234686457,1.9835031682116138
2.3995019635237007,2.530753375536262,2.4838448565234383,2.3024531670713597,2.0318368939961933,2.599815566510344,2.0855573790674593,2.21678917068111,2.1469537768979987,2.0342342715854715,2.341773789670868,2.5078243973711163,2.354890025068312,2.5277464108853867,2.2266355170374275,2.282125912061374,2.150737522039081,2.2549159410020554,2.2527082986235545,2.2799387377873646,2.2449019570567184,2.0160357349919606,2.0917049345314576,1.9718597151818753,1.9226491539404658,2.2331507430797126,2.1814561940051553,2.4936538223971305,2.158518795613242,2.335945318975097,2.2389028413178527,2.114312309500384
2.2712634269626304,2.427954054480491,2.375318181334083,2.2854453104729715,1.8866071472650592,2.3178598477676458,2.286317488825369,2.1362681293595096,2.2499362874851094,2.1446973082028773,2.3305969648342484,2.4923122194877,2.3678865968589804,2.224655447384388,2.494141617406987,2.1944722088647213,2.365793565048783,2.1646537690120646,2.1904037051526606,2.2300406641426154,2.359848360765322,2.295071403160153,2.2322845599204078,2.3928443630326233,2.203999820753669,2.2447284439485213,2.153383440575171,2.5484317798456635,2.241117661881229,2.269211291690673,2.2037781075074085,2.4368775183371536
2.2397019968069247,2.5517985523529085,2.6980039797718987,2.448005113530045,1.929086610506646,2.246805684418312,2.1847672620858614,2.4262283564350366,1.9321680196590976,1.908912254945549,1.8955530957152635,2.2695264700474445,2.1177030875434406,1.997928806110852,2.1678230317233744,2.105385722041397,2.0167994451630067,2.0693391788452997,2.0469413306279822,2.078284932969032,2.046378622758026,2.020554474675567,1.9979677185161921,1.9606068335634566,2.138870440859006,1.907673784003763,1.973457717904218,2.3871467559663486,2.258309559311059,2.0945335346529035,1.780967271954092,1.9797024589488572
2.2295872874047507,2.2922445065493235,2.400048833259888,2.5412057445381397,2.0080195039921955,2.1890556224471758,2.30228828138056,2.1300289833767714,1.955082402656631,2.0756737160785956,2.255845759543729,2.0738970640531322,1.934817160353096,2.063186139470538,2.0449915865490254,1.8180291089975664,1.9440151275767925,1.9132256319820051,1.8610512247479283,2.1486598460831625,1.952712304218469,1.857470286158715,1.939151664501733,2.223103406468435,2.2820351175608273,2.1986272875509787,2.3543667868357523,2.1769520906352944,2.0926569736245146,2.0838806885056353,1.986363237635853,2.069009749669269
2.3615714493148148,2.5169987277433843,2.3227900273248236,2.5339553708663383,1.9931335738183023,2.060510241114184,2.2791406724799077,1.9813010192869411,1.9964790279686209,1.9451567232658449,2.438135382077023,2.0842230781361417,2.0141418137447493,2.14509003231999,2.05585328679108,2.0481298308344207,2.13895369851686,2.033011988038763,2.0040725860806856,2.1385061780619203,2.0811420598602446,2.029521067724824,2.2134322595112113,2.3918476713345043,2.345751453279632,2.527524722869837,2.628936284603405,2.49753687933279,2.356725466632481,2.2492857616180184,2.0047514817302394,2.1334173614714733
2.156178491572105,2.5538008131769274,2.2203210953895343,2.4488926660421013,1.9876864221644601,2.3429710232327943,2.092572936875935,1.9740043322180496,1.9520554018070764,2.0951586561438136,2.108561677623125,2.076881661077354,2.240574893109666,2.2547524422874545,2.073143331988308,2.396603190555762,2.281636291044009,2.2083237681542007,2.2463276458749575,2.475843170267817,2.5015841451786227,2.5191420308639043,2.0519782453035984,2.2515548008146338,2.1135421539956836,1.9704938290443297,2.144495772614184,2.5063678640153157,2.4409384303336523,2.575469212384273,1.7860052628210292,2.0927283452603938
2.1308371444883756,2.0748913975327006,2.061881173757604,2.5261749426645506,2.030608971155857,2.4476881343941974,1.8928521429686607,2.407013164149466,2.102879148202626,1.9078565878177391,2.070662302743598,2.2047907786007084,2.0307840272702067,2.083794396996467,2.1930482706561256,2.0863631657464055,2.1134509348815467,2.2133802646185967,2.2315845791791395,2.4334805330272378,2.1627915076279702,2.2050437451552733,2.1491886690123656,2.1391653487886937,2.317626637278894,2.107568025705913,2.2810061571775253,2.149497962705823,2.1999084001131775,2.3687388507152116,1.757093012259102,2.213307811611123
2.533410185778553,2.5154203877346304,2.1368977095590065,2.290066523654399,1.9444419974244682,2.4266366043279124,2.2635280347026976,2.4429676116131747,2.0371001931353527,2.0122128889375435,2.2656544928837974,1.991029758444704,1.97982907032739,2.244179116017325,2.1764752203328936,1.9342314029222245,1.965814475894067,2.12147039034691,2.135225512402808,2.0230176081047673,2.293125605089259,2.046077436444,2.319642832799689,2.0916397330695866,1.9731210854959385,1.9014497804243577,2.081845536391153,2.520868347508813,2.6058592892239423,2.373301256290668,1.8490620474287611,1.9292159763341792
2.427530334679654,2.4992874739577826,2.165361819018654,2.3877235787353395,1.8429251693613842,2.1875999357246254,2.2547516939355723,2.207510679762462,2.101180782331611,1.9699241865277684,2.429847621296917,2.067669801202192,2.251815615472194,2.2875330889730554,2.233515948947884,2.096480700687501,2.2185776646604505,2.253600173185799,2.486767127418106,2.3090042847553165,2.1386262301699954,2.2944878615908295,2.136649057960297,2.099509379330111,2.3623613101988514,2.321649185824878,2.285467102997061,2.324372756686906,2.216872634418704,2.349777075545209,1.8162463971929685,2.0286314863544277
2.205352783721036,2.3153006996999337,2.4453264021764602,2.107869281827307,1.6749864381040862,2.3331777839845476,2.433863376257383,2.103844924931695,2.1328192844605938,2.0025222093550257,2.1952747964552835,2.1247491023243392,2.310134195585012,2.1949367408642697,2.3495019937509354,1.9856471451891744,2.198905972005752,2.240398283559145,2.2986096376853147,2.1941321919906787,2.4769268267748616,2.1559547241578856,2.2415669852103486,2.2847069604984798,2.404061380396296,2.241303069359307,2.494525486401164,2.2427796765917156,2.3290968419901934,2.1936586551759456,2.058862525039272,2.2366805631638083
2.2115201577374255,2.724884341944112,2.6219482620031522,2.2308926112525818,1.7066119229364076,2.284832438684355,1.9554953862741142,2.033803377800667,1.8435963244707723,1.824812924224155,2.1303255563037995,1.907224684477612,2.1408144982554767,2.0118658985044457,2.295113025535817,2.151996138893491,2.225605569875024,2.1629704106310608,2.410350934188737,2.2428341816123183,2.2098926221335757,2.038785013902789,2.0039441198267487,1.9477386777919927,2.335402451807699,2.295144650108839,2.4186312160414394,2.208093097802733,2.261302705536172,2.193890042193065,1.8897089758174626,2.203446403533238
2.1887926639235595,2.5982480073657546,2.470083463321383,2.5440749593527685,1.7315658022967206,2.5849317392423576,2.2006884171663788,2.2400973650583555,2.3535657877802345,2.0154319195931607,2.2080522290638886,2.2738368439470475,2.1279209709276836,2.197558712398534,1.9385240300970314,2.2158509900351233,2.1545345541761325,2.1766619034847063,2.118122622176441,2.005982508347723,2.3757713444287827,2.426376167165981,2.1350163565708185,2.2239383730786835,2.369239781836989,2.2853139263787448,2.6765091134478616,2.6009510877114823,2.0728212897220533,2.434715237679952,1.986326297948693,2.2367607014698434
2.165351185457056,2.479535412884323,2.375978800148235,2.266951006967126,1.6845087423570868,2.390271723506909,2.159300030267764,2.144036990734008,2.156024446758449,1.937562649878943,2.1957625587604888,2.2003975018324984,2.2391589046024283,2.0638249381623206,2.2074652590251964,2.0861882715370323,2.0202424081642625,2.0038873665061514,2.0319094833330955,2.241778071864989,1.9607459424355602,2.0383046850955493,1.9206315621021919,1.9082821820332814,2.2022929375253546,2.0488003955033856,2.125861116438804,2.194478464556484,2.322364517587153,2.230972407103895,1.6334389688412347,2.1608598821472027
2.1170909251780046,2.569639760686274,2.4908851227184288,2.337377478627188,1.6738321873010356,2.384402587181976,2.2737716471980396,2.160928543892012,2.160174659689087,2.272305825089101,2.165360447541596,1.9535560158183507,2.046698463387562,1.8542457765774558,1.8609164095958821,2.000619647182477,1.8953672323165214,2.014334426811339,1.985153921942585,2.17968404169377,2.169909232952319,2.0426721081241124,1.9545809975525519,2.2472875342547316,2.107459619119715,1.9553361991134444,2.144449932513596,2.260938636266065,2.276612225364761,2.220552228027323,2.1245443809922904,1.869296275698151
2.067696193534059,2.5080612395054334,2.27726429673694,2.015109860112328,1.6902545467369168,2.5856695255054776,2.185187726060395,1.8695945462604746,2.0857016415330767,2.1753184431293375,2.154114598479669,2.2018252486780536,2.2993801620810403,2.218466371186821,2.0542928910556553,2.0646354194738157,2.245292810868872,2.4270137250827726,2.1223278494951545,2.18287105178319,2.2236591745155057,2.1304884670936373,2.2322635418006747,2.0980195675511575,2.3903781347937683,1.9515323031867298,2.509189561426323,2.1372116427979453,2.091270685006516,2.3466258737594536,1.86143241745579,2.1656530766242383
2.1983338042439886,2.646825844011122,2.26145357143288,2.012134065108218,1.6324454086993074,2.3054394876896143,2.566952256100634,2.1164803214170047,2.32978139164032,2.103560213498806,2.360570038164372,2.293791325626197,2.113441430842551,2.2458408289816894,2.046710648326778,2.11021428695816,2.2442994043914966,2.315827134776257,2.1927037788377004,2.271016807591238,2.3790607616295185,2.1988092024645494,2.2969958459216957,2.1436791847664773,2.398745339975011,2.1949908255477637,2.3303062490979958,2.7508232560062904,2.474649307386813,2.2973089993492057,2.171774218958275,2.2717832278052135
2.3341793280842245,2.3345661572090695,2.409422414655824,2.101794011433038,1.777646526584067,2.462895119518867,2.3599215595541474,2.0002813831435895,2.3794638841675217,2.2097867554438095,2.2639487629678157,2.14517664506937,2.1561545024013102,1.9662269325822013,2.1133546642103527,1.9851130962335002,2.0595836332440633,2.201561838288238,2.2356897144967567,2.1075466807446865,2.168476603606426,2.2307895318017987,2.0136927128688447,2.0925881222595915,2.2669021142897146,1.9626334719287157,2.198839550190851,2.3400619241519927,2.550722317451263,2.0355359039190133,2.0453010481138207,2.3925384977250195
2.2249770550601133,2.1848986591629247,2.3316432956170843,2.2469478114779977,1.6190150283288223,2.247855475396637,2.504302022849929,2.032428534215979,2.1997634859378548,2.152819898390793,2.3992351555658487,1.9880318109636792,2.0070155710647786,2.131864815170828,1.815794692423734,2.10435717017991,2.043889764873042,1.76480622747573,2.0501562109856852,2.33288646059929,2.222319201338301,2.146850464389504,2.20211671615265,2.2461990990759895,2.473545283779988,2.0088788433381635,2.4945120766910285,2.5570991782245676,2.749697788791423,2.0692585011452302,2.1562062682736958,2.421785548361221
2.1469163656446133,2.2613932154049454,2.255961564145549,2.3363734760560866,1.6517764136528204,2.496159324353664,2.4147486821287543,2.220399629514803,2.4723347153114412,2.0285963849232607,2.334945347950989,2.245798790924599,2.020593116600815,2.157961514236376,1.8680411420777783,2.031913531231101,2.104612208081085,1.7294254257264616,1.8959477004431928,2.147289797725271,2.2399340328466786,2.227514462400353,2.0887649101248407,2.2150510818701683,2.2040748509454073,2.1197751944988905,2.3209992764705794,2.5114995494413708,2.9510546795059667,2.1476305790423194,1.8600895025511874,2.1093030786675504
2.150263423462643,2.4314022104688795,2.5980104737490946,2.2582731115633816,1.9695738547804849,2.359376245233805,2.580769997379016,2.066028033540027,2.1876657926943106,2.0075668827773185,2.3096330113992143,2.0168416928411554,2.1418714941398256,1.892306673733561,1.8278984631694626,1.9750825880810845,1.9959668110422535,1.7130816686540864,2.0117458983506338,2.378922757172645,2.1197382776695584,2.216887956208039,2.1820370789023364,2.239694660321415,2.4516107964492444,2.311538731173299,2.644506719736597,2.5507125197848315,2.6603733835478414,2.3382722511474086,2.182333511459709,2.3718068122158034
2.271528993119031,2.6001112356056657,2.528884850441435,2.412969777131122,1.9183667049154325,2.3104364437777734,2.1686289419939695,2.2014168589110965,2.0497562107695324,2.1964787228254976,2.4659981176423913,2.006379061765473,2.028757059503957,2.118949562540374,1.949285654130941,2.009475523652038,2.195478311519682,1.7635939965469485,2.097349564899236,2.4166459269284455,2.1506396209321434,2.144988388036522,2.280686505532639,2.1428227491289156,2.3143379226054366,2.217003929779552,2.5292357498531004,2.4482585308968665,2.8295356608021227,2.443324270955774,2.0826503451117704,2.4466768594740396
2.346945086720327,2.511862645643903,2.499470318898376,2.3725163781103458,1.6953853970571875,2.288308685030882,2.3428067842468336,2.201583442195024,2.1835826291310036,2.191624457471352,2.3582499733717475,2.0619178694875093,2.149829938723375,2.2084413416007966,2.0527356088675974,2.076846242736274,2.1054835987040286,1.844339713382145,2.083582610068512,2.4465017618555525,2.1101975594782116,2.112907577336901,2.2711129003468566,2.266263561305211,2.2639197167401015,2.44344147238785,2.5574570053679935,2.1890921492915516,2.169709839642657,2.142876731137319,2.060488797327037,2.096517035696638
2.454008846583557,2.345095536346733,2.4163564391232955,2.0468154900303603,1.658412754697927,2.4801328954600645,2.6275783499456224,2.096548422677325,2.0267200821308125,2.0448029729985526,2.4179406212166414,2.0235961642731493,1.8749728441193072,2.229328426468856,2.0740961975410204,2.005934898453492,2.1865757456834793,1.8099196050793065,2.030103759532159,2.3334118593217235,2.303108307672418,2.103011583750707,2.3135852220548734,2.359992792898693,2.401669605030705,2.416632954699672,2.521776177945355,2.129432306968298,2.70413844302345,2.2421400331711197,2.1882813845604394,2.409591872502925
2.3189327381657723,2.492929607415908,2.30840919632224,2.5441047478253953,1.6889147109741423,2.42804261099484,2.2282041475483285,2.2304557311566273,2.169706920237879,2.289780212177997,2.5446665127773684,2.144505983196631,1.993756875996498,2.2108424256963355,1.9872336915231503,1.8963826291694277,1.9215713584040357,1.9133609109212775,2.1444481797558788,2.399950321067443,2.3444832391165837,2.103599279086849,2.019452896651676,2.1414684709707683,2.1532883272369077,2.2755541264695576,2.302128035566636,2.11588110141027,2.6602301004812716,2.049097767615063,1.8482532374439378,2.172969013799599
2.202216747549484,2.2688193737050466,2.4787410905877327,2.652020862184453,1.7402253102915872,2.3481345875544752,2.047518864137083,1.9866325367753912,1.938880707353792,2.041177875459678,2.0350212874342235,1.917204410137801,1.937254090865098,1.9250488557156256,2.147216283873838,2.0240245788056095,2.126808759530977,1.8225631910131184,1.9820482987840617,2.3381937297580437,2.1242342676213575,1.9621871010026741,2.100956883099096,2.598921378142948,2.2042437848009384,2.209098199939846,2.3485064158787985,2.3501172420764584,2.2967881265679013,2.5252310705128274,2.070534561628528,2.2995445080767145
2.110893746325683,2.2738374120744806,2.3587452964712328,2.462738160606636,2.003129700857099,2.140473406329331,2.1351061093159824,1.968046711257744,2.0538268761888285,2.0394929043087933,2.432497228210598,2.3091092492017453,2.249155065481921,2.106827555578887,2.2053820713661905,2.149230266397784,2.2483169309052764,1.8165289582294086,2.1311087425738915,2.3433696603913337,2.2479706497318994,2.114023482037628,2.097917476771016,2.2779448532798363,2.1338287196465022,2.3716083323037105,2.488516290899338,2.307427227596807,2.3578288187128105,2.49387267205869,2.0487256998821635,2.051969481552718
2.2031074624579055,2.4718977282622836,2.2901665665052144,2.7221861733041752,1.777341808677011,2.279194771414368,2.0036561201517524,2.013130747646448,2.078700104024438,1.937582177334375,2.0839404384025415,2.029158971495957,2.139561908896632,2.0278261256311896,2.223434965880132,1.9252793051631496,1.8199164639369176,1.8597942846270272,2.0703487732719936,2.0719151960289905,2.4359250584233108,2.19588177080792,2.0228925562630136,2.464129825307136,2.3968811331312816,2.19324249348755,2.550032913919979,2.2842894132507454,2.6817589687391643,2.4233791386969976,1.9190866978997807,2.1098657484177608
2.4245744869174666,2.260196248494186,2.501612008146263,2.250867312223862,1.736009526391771,2.380262135091034,2.3153594698568636,2.1540400443107104,2.0308593555985657,2.1015786562666556,2.4663278509895448,2.2209224076578264,2.0148394347834646,2.215259409688327,2.3523995828338444,2.3019823569518323,2.2077241193595816,1.7611110701568624,2.0908337530178613,2.225067988205811,2.1413789755740806,2.145113475827442,2.174862577603534,2.5633952970033826,2.227836287574319,2.057223205573084,2.443751361565863,2.475215323379162,2.427262118062083,2.524366013108285,1.9545257245422145,2.0586950923242173
2.1562685992713897,2.3244028738499614,2.1717693284218997,2.4040358339259082,1.94178505396248,2.1507212406403897,2.211805526241089,1.8544819816590348,2.197724163597601,2.197668463411629,2.1263931131213942,2.0986378563105488,2.0995197775343297,2.12876956848712,2.291169152801388,2.002356124560414,2.059580808244509,2.009963024068465,1.9910488259552785,1.9624229815691567,2.323691058505997,2.1466341331579706,1.9522955196061722,2.295742375153976,2.2368102463943416,2.315541697822377,2.3789656067227414,2.4717673038946675,2.5670831717679796,2.5376060794551982,1.9310030579517,2.208617889400839
2.668290809157128,2.3976636330725336,2.4891033490042473,2.3129876152813114,1.887021355814855,2.530132395002397,2.20692315715457,2.1350735592682177,2.0932170820545273,2.1498722513996515,2.130804146264146,2.2899077390634743,2.052681607721435,2.234977361989695,2.3836599445545557,2.071173905575829,2.1466104134134416,2.067968059048737,2.2292355253011586,2.061163613942623,2.4238716910910068,2.248597691492984,2.277696361361672,2.587337219813487,2.3486477336876317,2.3574721740211766,2.253481982541938,2.5429200567627253,2.3478583238357595,2.595205427277841,1.8823674554693701,2.1492732974843864
2.3773817357801033,2.36316020042372,2.4998289187978,2.2159053628047767,1.8452154499911275,2.6498241780611833,1.9777325160051753,2.2046181352175886,2.1624678351711752,1.781113338439155,2.1007293018485167,1.963739242761208,2.00038238097526,2.0207285634026424,2.171738907485609,2.006155201834495,1.9966599422572158,1.8772388935406454,2.0775537026533506,2.136311765519201,2.388716716474935,2.29286851046486,2.157489682906451,2.477454424080736,1.9201327001622914,2.127566852410241,2.2455811613116823,2.4913064881982208,2.6126043333452578,2.573723164839919,1.679714483162465,2.3021103159114986
2.597126880201741,2.6328911385677167,2.6628338163563297,2.337066258477558,1.8084962773304551,2.693431458618848,2.168677526979989,2.1612142487648045,2.052708525422204,1.9623458104911917,2.293497148943915,2.0772748777937693,2.0415822218515696,2.123813408088362,2.334005372914268,2.174115937726485,2.2637670247016466,1.9451425416888442,2.2400323760696965,2.206343841681706,2.299383459077502,2.239204509911924,2.2160700378453178,2.410352735228684,2.249936433150903,2.2056802748922606,2.551021884993915,2.3587736069035303,2.3245766492294107,2.5721835848406447,1.729349438581752,2.1571009116933855
2.748210054320939,2.4288308358149524,2.8317292219098564,2.249916719027059,1.8859528399907568,2.4738329571778603,2.1431306209862266,2.0500749912947507,1.9308953332366847,2.1697321837693315,2.4839149317675475,2.2821114151435524,2.111106668862741,2.45258468690563,2.441069224121751,2.3175959445990624,2.2748508117165134,2.0185301863071015,2.1305571913051065,2.2449349642947047,2.0656021081563654,2.2536856833186407,2.3063583655222577,2.3618436438512576,2.1474653903339114,2.214067020696818,2.6034041803116423,2.3690821031962863,2.5088865467712242,2.7104745287820515,1.7088021079165319,2.0717550116278027
2.7183612019099765,2.2202625941425085,2.6072127071859126,2.1755271759942314,1.8056192068402899,2.2295309409945245,2.16468290248039,2.2011701475091465,2.043615682295483,1.8887892714011674,2.0702080789211754,2.0860399796236977,2.2191478259120943,2.241255763355969,2.3618936342806323,2.233588020912738,2.2799844616452427,2.2006654420456493,2.124844950418184,2.023134753222767,2.293215215919122,2.4370745211233937,2.3447857505044465,2.3156714686082456,2.2059232306811247,2.182988207483817,2.3794941332568023,2.446360428040005,2.730120253510283,2.5260027035116757,2.014069106453702,2.297177961166984
2.5398657444769626,2.629332362020728,2.7227608112128645,2.3264988129725443,1.8386734477794668,2.533735796111577,1.8929754880123404,2.2414956563572486,1.8060547128040652,1.8947669285279614,2.129302017369221,1.9544819437111947,2.2696015994594845,1.8946679212642248,2.1946978144942997,2.0148884584127598,2.0549419446362576,2.139194004498746,2.19137305399798,2.109822161688475,2.136725809668763,2.4187088955867755,2.133103107076779,2.630430428142636,2.114428944302383,2.1790967963913683,2.6634520389140186,2.3121488121748786,2.5180991659322585,2.436579108609978,1.905286606460315,2.140429539744042
2.230317952036977,2.3813895089069335,2.678032615903901,2.14161420165923,1.7694928337738731,2.316872131652708,2.086623707835311,2.354019434289432,1.9497008964937015,2.007336805519435,2.223188750630129,1.9969352590877423,2.246861717858143,2.024408891265516,2.197271681307708,2.1750260857988497,2.0837540124698597,2.1551365003128096,2.1145804376797015,2.0866860786933747,2.1684066647884026,2.2988370090739325,2.26211901505541,2.481472144367063,2.1950735365916474,2.2533261765005084,2.7139373940793137,2.142683681166869,2.20003519504846,2.6653460650242993,1.9551008322116397,2.229362582216884
2.4284441857356236,2.545018806937103,2.4109064252966927,2.2138505081466078,1.944491251528065,2.3198622760682768,2.110623268672118,2.0774167021360377,1.8514647997643483,2.200490645596477,2.386048881569551,1.976511253990902,2.044445872455845,2.1577635486026905,2.2922407699288714,2.072266859958908,2.040115436800398,2.163145755898394,2.198154549303955,2.0209703219339787,2.270092914057887,2.1474453089339995,2.1730043300553206,2.3066986409358408,2.067799405892069,2.271914153391167,2.19492266266794,2.257433154847221,2.489930166101873,2.189950684607355,2.057600134257859,2.0177256887774377
2.5966907242931736,2.7148067850707265,2.7007894563280477,2.2327240715187022,1.914069845775594,2.235343279563915,1.9633032710837255,2.4412896502178403,1.9998443839012303,1.7815317811645321,2.2350048696119704,1.8838732919365448,1.941521052705786,2.010673543143481,2.0262160313806676,2.0110858949133363,1.9122856546881648,2.0326960982434628,1.9795173591609951,2.046538339228743,2.120104227046241,2.1027247401507765,2.3155604768719362,2.2054389882898886,2.2395622231075567,2.2158395865771388,2.6047940298660333,2.3429290005037715,2.5074056328121412,2.625500526124715,1.9622979463279768,2.241043974040114
2.484768183854638,2.2940883531108827,2.3459952285354517,2.2158947308921784,1.8269129500263759,2.3265977849992705,1.897780054220581,2.2370363475856774,1.8887089670557644,2.0621975651860893,2.2063701869824905,2.1862768761488485,2.4595000865576124,2.2239930678605098,2.521009946617794,2.1836960056095305,2.153036335411807,2.2108945593348226,2.148970974759365,1.9886488523689492,2.009167872467403,2.3809946112314924,2.197691397401364,2.214892970501162,2.069711210542356,2.04102990078466,2.579777081400914,2.179300449909612,2.7443521170001977,2.143306729703329,2.1785813488556176,2.1213373243756872
2.677550890993213,2.49710361137072,2.730974312148999,2.215979710045651,1.6991827606818946,2.25857972254581,2.101017503094888,2.3481910242148665,1.9206832710614057,1.9164176445706311,2.1388119385883804,2.41049793396126,2.2652349574861645,1.9866126951626657,2.5066707205627488,2.1435409875735587,2.3040117097304584,2.11398539010952,2.0735460403984605,2.2157920845637618,2.2059373361004457,2.3612034386110174,2.213242181724336,1.947481036398497,2.074921131031599,2.0657872766139698,2.5154087740943827,2.333735779639781,2.3506205684463994,2.5376892904819557,2.0085888366392686,2.2931954359480664
2.8172281807891433,2.5054145687720113,2.689400067992275,2.2662517708928873,1.8907915066382661,2.552499676420166,2.2390111113307705,2.173023505543923,1.9094357089674616,2.0853803798598993,2.3475895059718472,2.3036669027098355,1.947780791555157,2.4594059034943654,2.0922336674492783,2.0300886708216805,1.9826052101413585,1.9725301265072375,2.0423050975389896,2.106673387365725,1.9534858345782984,1.9339163924249052,2.0023510987144912,2.1051792438145154,2.329245156972461,2.1525490985687186,2.300946045332719,2.4712526706780045,2.700298620835838,2.3750135162520905,2.313083197692145,1.960568497870361
2.488608542868604,2.699897548155009,2.66638182444393,2.404462500626227,1.8173776193933426,2.4854082086213554,2.1003729494164705,2.3237240516310202,1.9899898145408803,2.015221269431492,2.1793907210014565,2.0862921255750826,2.0621920714721718,1.9793405596204243,2.002240907068596,1.7742347760341883,1.8453201158018262,1.8380540543577677,2.0335167109085424,1.9581400475187283,2.260049780843011,2.251413343246954,2.1682202675323508,2.173885616758126,2.254143617472467,2.2020813595244606,2.6029145668354072,2.308134502634276,2.6283970672028234,2.411559196010679,2.353445115520437,2.085496690331076
2.326769813915595,2.7913292172589035,2.510445780114517,2.267427487192964,1.7855262668796166,2.496896179446863,1.9039762110980938,2.220815075130019,1.8417248610163737,1.7717240196087134,2.1301968528120048,2.0372895900245673,2.022944058695406,1.9543156393430876,2.092035704856242,1.7804216185504091,1.9871652673651046,1.8825582343328362,1.9869421470493311,1.9993810726979009,2.091374262806442,2.0611493972445794,2.262589430029375,2.07502223053854,2.0894413723034435,2.2722367965665624,2.2614217248357775,2.071048788714427,2.8048077814868138,2.1512509186120545,2.1391757841543444,2.1239556729162152
2.195789579299842,2.5420952081631683,2.17139142592906,2.1993320489745267,1.9067861098965762,2.7274017017774312,1.8148411352501972,2.154442863901112,2.0817254564669434,1.8367087902951864,1.9908840386968507,2.19480335184918,2.0237600367697928,2.2054302862400172,2.468381461961033,2.0096821913622036,2.098507758368986,1.9684366494252714,2.029869522420735,2.0350717636037805,2.1797773202211315,2.308048525787982,2.046695845074352,1.8463935709844204,2.385960760221037,2.1816536113014724,2.558299313925616,2.2672478691463054,2.419721488236468,2.421152225916872,2.2809067278768214,2.3010101248596513
2.4428220187298995,2.8799033917538113,2.302759487123302,2.1983618662789133,1.9372310016941117,2.2608571225983423,1.9766148315503307,1.8765060872019683,1.9670950479340112,1.987639956614195,2.1427723841495685,2.1214945548060014,2.2036796488813404,2.1505338180284164,2.362945589164505,1.897247077839852,2.092038254454561,1.8202733171185297,2.0636140208314813,2.0676206242198067,2.172546237765094,2.1023445723888976,2.081538757615425,1.8616336725511526,2.457898225542083,2.1476859597246998,2.6410442577074296,2.2426589715901963,2.177291469103241,2.3382146649210607,2.2278639302863583,2.270877493238956
2.5614924864218906,2.7406344772037556,2.29539550858141,2.2195063546576743,1.9281494605773468,2.5444855558424964,2.0414410772962364,2.0994970523775494,1.9453069999474377,2.037026298591163,2.1334087019838273,1.9650133740872413,2.045051800602526,2.260238577189463,2.468953256501961,1.9019748860106727,2.138250272428093,1.8544970184863505,1.8858232931943708,1.9943482779439408,1.994591417754467,2.059813826508897,2.011307605073233,1.8689835487041897,2.4376655628903667,2.452700279905503,2.409100633144926,2.1093057151999015,2.473955808672374,2.1072219741663356,2.2792698947223333,2.3611848103639037
2.3689837005877985,2.305009549656605,2.4308336412139204,2.2494861372552237,1.869907277635797,2.490555128149502,2.1429808419492002,2.154874818028092,2.013578595341577,2.0405520442073546,2.219945990574463,2.0693489548766184,2.1579590440197745,2.2481868526051665,2.427380153104604,2.012997669089928,1.9922531136784711,1.8882345876724862,1.980299447481755,1.987707970672075,2.1113671311465954,2.1585598045656393,1.945661338225088,2.0034029233635287,2.282260578367175,2.034100779195388,2.092858723239084,2.3836090597233373,2.349355123892083,2.0886040377188158,1.8372294970850824,1.986291945782586
2.3558785230747907,2.6041133870563344,2.212316710609959,2.403498030565921,1.7010552676390207,2.5307340016359037,1.9508804806554783,1.9843688386963554,2.0129481337364252,1.9803115423218873,2.2412857002952524,2.1350727060135686,1.9901887703672314,2.06229260196202,2.3650280545081626,1.876505070311167,1.9848162556742737,1.8006149899198736,1.9507598436406364,2.036208906716993,2.1761561745070397,2.111648546659634,2.1083320959133127,1.9793452773614886,2.1720513851843037,2.335667600222521,2.6418522491755803,2.3855774857300713,2.4868598200677043,2.299583102112924,2.2492793586357815,2.394505516612096
2.645562601032577,2.1860864313779578,2.5115590803136,2.157981485621033,1.9812864531971583,2.68195071752916,2.228722288082012,2.18524669680365,1.8134981422421865,2.0681708417520923,2.0918194574341107,2.024094941719299,2.134674375358241,2.0647813502677406,2.282032580902596,1.978965200428624,2.1179799919880056,1.8689990051793817,1.9266598403472235,2.0755076290479626,2.1201185129483866,1.9320611391976144,1.887743943567127,1.9120619746932952,1.9776467094698928,2.1677055489814077,2.1308883454398515,2.3419926706459444,2.59107866954896,2.363605356759342,2.2112454656456353,2.15496089378427
2.7912332865505802,2.4150939564385006,2.0698676213473726,2.3368070989729652,1.8069533329112202,2.7106619495968967,2.1864466719792683,2.1377085169460264,1.9102847558971987,1.9119274538582438,2.1403726076180294,2.140022531749933,2.1924825451206607,2.270502337350832,2.234758965502194,1.87688112579839,1.9978716626501773,1.838666771029617,1.8905072449918359,2.100557206113441,2.04679911686353,1.9717915875124625,1.9342816353863523,1.952063104793026,2.0878897806723544,2.1806615798287856,2.4246687874705906,2.381627254353713,2.757088899079842,2.434990052855183,2.0424560190147933,2.295157904419239
2.440483337631854,2.3819427176162984,2.347066505440655,2.1894793784511886,1.7316442342320475,2.6986212543126227,2.2445858538107073,1.987441731261926,1.8563141425537848,1.8157644735280567,2.0680241885485997,2.189776143448017,2.025088481144859,2.255545424859929,2.302103473943981,1.879687773438619,2.059272291239239,1.9812797815028402,1.9920047638830376,2.128977788623911,2.057672156036254,2.1477837037774603,2.266498994033668,2.018534479956428,2.4228611602591568,2.2067222010058827,2.3718808358020764,2.3336361169780195,2.425056064142063,2.3198539300543293,1.86919169460491,2.1078405444990804
2.2365850986900466,2.320422534634253,2.219850488005384,2.3736588101287146,2.0802994194663276,2.3547906493088924,2.256030041374388,2.0026605183902237,1.930498787927225,1.805005382786376,2.0373087851541927,2.13678033688524,1.9320629316537163,2.2750204710712776,2.3076460806050223,1.8743562182697064,1.8922672368268683,1.799522264148164,1.8308944027879384,1.9669538505100115,1.9112709497645224,1.9420462869518056,2.0230006492193513,1.9435279289511078,2.230810621935397,2.1453747768060287,2.433501814987065,2.311188623446806,2.115451234274722,2.516477706446087,1.9797096995797454,1.8736575866918017
2.119632945643411,2.31490908134837,2.545933148074037,2.201935309840051,2.07752525380779,2.5975950607978144,2.260298784205463,2.0995326263021425,1.9573332654350244,2.0394847833038394,1.9529399696575203,2.0382000214996463,1.8819591421670576,1.8972075598379319,2.0346488195850987,1.7949977495809284,1.8485858126131856,1.6683453678005453,1.7050213431837813,1.7313169226172826,1.6976161115520536,1.8318563958254002,1.8612678546143835,1.866586431081045,2.075650637483466,1.9251926481821202,2.230582491439173,2.41241795454401,2.60377951689054,2.657761068192729,1.979461359729828,1.8138863465561084
2.510703164494961,2.4034296793470165,2.5931583486399106,2.2490005204914136,1.9994833659533722,2.1510949940950055,2.234972245495681,1.7695588060429417,1.7649300523381042,1.752519928680021,2.0195442599709224,1.9309368169279417,1.9089936798064755,1.925142660385717,1.973583211437237,1.696837928623123,1.8406687169548148,1.6734085242240546,1.8482335233800082,1.8757260384087284,1.7958545983092538,1.8616810665336208,2.0201344594772337,1.8451273167270938,2.268863319765098,2.048334915739156,2.373557634176586,2.2940288166741194,2.705844318417817,2.3588695010656067,2.0428496545686046,1.8734796547838177
2.280991812046889,2.6052799293468447,2.525083439463669,2.2445811411146486,1.8012821533403622,2.5685845981702675,2.472587545238249,1.991745466498555,2.0800429160812017,2.0061290209468345,2.0466901918744616,2.2757468132590875,2.314865154840722,2.3306752719904806,2.223549945810068,1.846051530731217,2.126622884149693,2.064569703968401,2.09447655933485,1.9584154831689928,1.9136422004195779,2.042637597584211,1.9416309698153993,1.799104893502058,2.0105305973365235,2.0010299523168285,2.3322898768842175,2.3790217145175308,2.603120120139115,2.518238330124869,2.2378478901136027,1.9494702450216923
2.3422108650428064,2.379831483592175,2.5834757573640537,2.3489521964023123,1.950219260923722,2.556494726844538,2.4017962497268543,2.089736369039876,2.149659442303854,1.9272592936704576,2.0922401386008573,2.1851812160497084,2.352006696093442,2.3230640413011505,2.218705695028093,2.332644284460543,2.2512857646679487,2.1304221774637115,2.055514103207902,1.950622419539309,1.9570924846502316,1.9735323528539597,1.9543395277392897,1.867417747361636,1.9508444438381818,1.8768087605894752,2.205254108602399,2.524874273915281,2.5713844640575707,2.5097328103686736,2.0497742904770555,1.7767398541405797
2.5804801996622673,2.427104826702298,2.5837291436087195,2.550045528155712,1.8532834579372217,2.3459710125654936,2.5185737247832756,2.108682594874824,2.076183403411733,2.0503044163520823,2.307340600969151,2.2585076229269943,2.1748573085174794,2.0411810827273515,2.1114827732251467,2.107748368999567,2.023249270376473,1.9440509971430797,1.974815670199746,2.168135085763211,1.9246786735342625,2.3264833451894393,2.1297278791961767,2.0806042721055116,2.33715412981725,2.197080914963647,2.5034030864451196,2.5561568598986093,2.345338179584063,2.6090617111900176,1.8769290564490528,1.9557809804514932
2.573571863328938,2.320053108414489,2.5296773544066586,2.521519263643718,1.9121310587929266,2.3364650475796083,2.2384787206718495,2.062913728569656,2.0383790725729023,2.0257433015528443,2.207721224753987,2.3304632411139696,2.05313413328043,2.196292587317484,2.2101488271365803,2.2784172515498824,1.999824279727072,2.0195375401352376,2.1580971973892424,2.3202793834424096,1.8777620755019513,2.093698485334902,2.033758285294396,2.1190837563210083,2.2645197040785234,2.2713449862703623,2.5152568538534243,2.3820068914544383,2.4808430264608345,2.4555335779802063,2.106724945193189,1.9156874438431302
2.5119591506604855,2.59020431687365,2.5588642403514603,2.459475375747561,1.7505792507478315,2.1323937645025746,2.5221644474445335,1.903410725502757,2.1177973802301127,1.968033619953091,2.2240292911787574,2.459049901901756,2.116785566869081,2.0702938135445064,2.0447458255017823,2.2067969572608708,2.142271536098722,2.1234675321572922,2.0558799094413773,2.315728733307873,1.986182520670034,2.160964249706127,2.2042530808444956,2.0771435379154757,2.3631652714484623,2.3694351032996432,2.64989358161417,2.5096952864729762,2.257319493784454,2.4136763604314875,1.7289355633169567,2.058954399400922
2.4509015464682826,2.3548737806210918,2.567603503658823,2.3631030786058727,1.8010590466250753,2.31929000099753,2.0948762932257066,2.119140030907794,2.2461773616954246,2.2023058063051972,2.2660456660665393,2.360598706640495,2.157018754816677,2.109079520029773,2.1208835617270285,2.2072516793563897,2.0968876341969027,2.021795190297446,2.0249504721757092,2.0421057407488097,1.9530231626218246,2.076984200375097,2.120282306987856,2.077712049698469,2.2437288394262906,2.2104077782982623,2.3238232096574785,2.493658685028333,2.308595988815673,2.4780980705594597,1.7575169500089753,1.9326458060218668
2.5091082841514,2.1910107135579,2.481379381237134,2.3854015087332052,1.8271064615300008,2.3633846383488617,2.4824393174349537,1.8106464748201287,1.9423982183182515,2.0351799762393403,2.4251981113612984,2.1542578089382034,2.0438078645587683,2.11269096300451,2.2590780026312984,1.9891026652664219,1.8905947987318295,1.9133097976852649,1.9783637932034532,2.403740563216087,1.9668696315340934,2.1910727742094256,2.1703683055762553,1.9524859890418866,2.1633407785197387,2.3012741274636386,2.525062792475012,2.250017821752623,2.326641984353213,2.4460364208425123,1.7542053282005794,2.040418328094274
2.5224669075660944,2.1727158328214977,2.490845755301588,2.405923727654064,1.9611076281298347,2.752236290136987,2.503537575809967,2.091093718211251,2.268020201968815,1.9440895769758018,2.327946147640572,2.200887899317134,2.46696658826707,2.273393480840643,2.3217242853383446,2.1032231764963996,2.17876030043521,1.9854791743437157,2.2605473859424854,2.2155842464308764,2.1060632591194937,2.378206958332957,2.4039465600503096,2.1413206430122393,2.278535652835198,2.2198740893740023,2.2988838776034877,2.535734393732629,2.1717217963524744,2.1748557648505393,1.7031031900265097,2.2493608745398306
2.6196119318645046,2.56042960346414,2.430003217821413,2.2813868512895663,2.087161240646143,2.313673926650793,2.267048481374135,2.0370040010720962,2.286080366421936,2.1376738584557033,2.52179681395948,2.1472980943099005,2.5890497622542594,2.2356176373838546,1.983547155588271,2.2522919523657525,2.032832599791314,2.2541193471544374,2.236062410255323,2.4674716235692973,2.2202658942781244,2.5083129604712027,2.2073556653096356,2.0789043488098704,2.243043019715546,2.303184001133948,2.4085596953750668,2.187453872320967,2.262175834981574,2.5457528835181513,1.8220530904171897,2.2660579331019126
2.5133524774841356,2.446409407930071,2.5446399382677964,2.2106359798599433,1.9450230186081887,2.416255107224859,2.3525906858424404,2.1211747276863138,2.2655488273640123,2.1956751767725793,2.4154069602401207,2.166404101451201,2.162586643418123,2.237830939028897,1.9850418790281974,2.0064580855253196,1.947402806471916,2.169042799655845,2.217418968724786,2.2396432484136706,2.078244575716144,2.208241979001383,2.1949211185911697,2.4371333237949204,2.104206005358247,2.274486078784405,2.6662085919019516,2.2914783595839863,2.141127898862624,2.6805760392850275,1.9182392437199065,2.165698849403759
2.258273298440417,2.674438371378465,2.4950770082441416,2.244879172284029,2.1013391677810627,2.464625288709202,2.3466345572609475,2.050870363249788,2.196800108887137,1.947954478736616,2.5952069149529846,2.38874045785423,2.0506564388467097,2.388517839540892,2.112603902674512,2.1892734447441344,1.9220087336508924,1.9831956363692858,1.9392223004699383,2.156062653136829,1.9665309097843942,2.1377485419935693,2.1589826627984876,2.0450035642330615,2.0521950023080198,2.306436199147187,2.6787054269717525,2.4371206497322158,2.601591456364364,2.215383728056188,1.8252507353314837,1.9810258945226322
2.6012953720686607,2.46400656605567,2.558319488578052,2.307654660478592,2.082160346181399,2.4981896720784795,2.2899883409831006,2.169999778280325,2.0346669872734076,2.068760639408748,2.1826380167642205,2.042820027691226,2.064915332874867,2.336380031936875,2.1891279629712437,2.3005339626684718,2.130547670913686,2.3828734056374152,2.3662584181664936,2.081292869346987,2.225885256856096,2.237927168572193,2.341868297663813,2.1033054008491443,2.052165976481522,2.371848699970084,2.6097909305575864,2.5372142764358574,2.371737413448977,2.531044111058801,1.9301666557619146,2.0485084676401035
2.5577386870161574,2.2285278440591663,2.2589365189199335,2.3491593258650174,1.8462511111895894,2.553189456461998,2.4486467068072426,2.0047355685390156,1.9073682183608032,2.1831758553702856,2.1689139317025847,2.109026195577554,2.372417593388793,2.0622600531402684,2.1009306246748136,2.389862277213817,2.289756939149864,2.144747873304612,2.1030848448746644,2.3086532216247755,2.458770110675461,2.2182197027420996,2.1419135461968417,2.3222433740903927,2.0678798711068618,2.3462928767309736,2.5030108059747844,2.4625392983636867,2.8488226408019988,2.7270046716091074,1.9291419660713034,2.1525034676249684
2.2668075622895913,2.6091298496324296,2.364777198489123,2.032307022766752,1.8558619406419838,2.1983066692818554,2.4746997641865955,1.9242616082360422,2.0971619531198473,2.195410322735368,2.193086679373117,2.2353025667494393,2.103933029181392,2.333394762746727,2.291622353033372,2.049210591251588,2.311542716223191,2.3279881060260035,2.365418720108733,2.153831242508708,2.2988627953433105,2.229065209723668,2.3525542622869233,2.2638873378667324,2.0426540363044734,2.3825096880797827,2.5270474253179924,2.69120933904178,2.8097960158462767,2.7599361293413023,1.7715017357417502,2.211910267797154
2.4803329771481994,2.6898614386027804,2.406551830749454,2.132066318333217,1.89435061743464,2.4525890752745636,2.4831183862305752,2.098566908685541,2.079929451019375,2.2217609730861594,2.2390630293806164,2.1984762827915425,2.186332971490653,2.164667537266982,2.3351438807204095,2.314242169048023,2.3736822721401065,2.1336251015605625,2.2820105861598328,2.1150300190266713,2.4725958470949037,2.2662326208022203,2.0565431455687277,2.2173091287849322,2.2258829860555145,2.0755771807551606,2.374678930665328,2.7622976151554584,2.810349213931523,2.6083095510508225,1.7339223126555627,2.30564843013019
2.2967907158460275,2.802576103510672,2.347203484331228,2.346090707304391,1.971938160935831,2.4897054660665545,2.3262561248660645,2.012430662098567,1.9502347093440637,2.190937480452489,2.066002796739736,2.277587023133461,2.1578447340166047,2.1989047803824104,2.016043483460903,2.354224300017023,2.301944381426348,2.251761945212423,2.177284349493634,2.2982098436957523,2.3025544652362693,2.283431912983856,2.0904470086473053,2.2174602657768263,2.3609127029091064,2.257233165630444,2.4747629492460717,2.606888351462326,2.887170953159987,2.649703189432803,1.798273291354204,2.2976942278166934
2.487427252162626,2.3260802760192734,2.4792366530072427,2.2296059177452796,2.0688400650435965,2.4305031991184647,2.334730514361437,1.9439776165409788,2.026351182390409,1.8598151269033172,1.9643308026500124,1.9634542826447474,2.002436767106039,2.139368790220994,2.095031575355017,2.2879769208533696,2.339862362992124,2.117293578150982,2.3011268456909204,2.1159516946114367,2.2905175061243432,2.318505102469885,2.092180552073574,2.1818827107907652,2.363994874974681,2.1090711909216098,2.5914385778735975,2.4924041191002653,2.8123925891605563,2.338206665443135,1.810655586977936,2.201333297119628
2.4327881389556048,2.2204588692247254,2.34782252580577,2.2633223837607184,1.985752812071956,2.4384348310223247,2.2260211215729466,2.106961019096923,2.1823524652145085,1.919380492374547,2.1673387440585588,2.1075013169311974,2.138441386289735,2.334886827539358,2.3100409436166722,2.3100994672178814,2.310237909727767,2.2413218004090676,2.2913383243719947,2.233145049733135,2.204457266288001,2.3431767955033673,2.16521431402486,2.383075704024029,2.1875293011269052,2.4104957644903524,2.4165771430088014,2.601018931055174,2.5694063036997528,2.3638382730715723,1.8267800512353776,2.1382561834278024
2.405631874189367,2.8564686389500515,2.562106882343646,2.195213722988035,1.9737301033653794,2.234847292637386,2.360458597134745,1.8995161853186666,2.084411802263605,1.8619682824121109,2.026189811267955,2.00144988029373,2.0980359420903834,2.2242198712560635,1.980118581488336,2.230856383471564,2.190635303017595,2.0590417133683916,2.099867769822268,2.084509661143407,2.29293586886269,2.2677747366678203,2.1473104011274855,2.1634398334615303,2.6444104037459346,2.4281573021592187,2.5592909108291817,2.4470092228921145,2.7542814829604,2.214092093569546,1.7920629295129709,1.871113570045389
2.3137024844529894,2.758456231478723,2.4964409197221187,2.2175389840418513,2.066731450495415,2.331015417999748,2.2468430961332717,1.9530155081833267,2.0701505619519778,1.7864338996824114,2.042815686927348,2.060358821312946,2.1868813821060353,2.211663925188997,2.1792355461536794,2.2348629993496374,2.0992724472288034,2.169409089668575,2.206734753359688,2.0545465374591596,2.1462835042444692,2.2300897070514294,2.109430527525846,2.163207513563512,2.368802408723603,2.170168211024727,2.445882864851902,2.5941500320540967,3.0518512228425365,2.457286808107075,1.7924745999377465,2.0463157243796677
2.2227501106618783,2.655646416318377,2.2075889150474013,2.2940455156622592,1.882764560451526,2.5766132896687157,2.014638700789188,2.010920943381066,1.9981621358889878,1.8543416278900413,1.926542389111355,1.8898572564901923,1.8823939038359625,2.035235627174485,2.0145207070061275,2.110725520496594,2.2673726899724693,1.9108766033696363,1.9389111230405693,2.223194079935425,1.8991652564719665,2.013937215760455,1.8597289055077977,1.9267778005944936,2.4174562870105816,1.9655336129410463,2.536359147663331,2.4335412464747357,2.969051981143468,2.2669949529835804,1.8274375344025187,1.9909505811585226
2.4556172384131765,2.2737339100522362,2.420351052772564,2.0143409215854273,1.95962482850913,2.717493361814049,2.0458121203912487,2.2251493500170416,2.1168379546992044,1.953457128404938,2.288785379350472,2.399120433922877,2.1459917441692182,2.153622564549099,2.229647015469654,1.9670369354373636,2.1591845289456852,2.404624524840083,2.0175228116126322,2.3848222902200615,2.1348783118137917,2.1923434711441248,2.223677654812886,2.063977971701296,2.221908326924799,2.289335549932122,2.2046410824278064,2.6219269810869346,2.7974847131785867,2.466961550729668,2.055655761507824,2.124054677947653
2.4919980099234267,2.6389315753050138,2.6014777869525694,1.9265645007368162,1.7615458389056105,2.2177868496389395,2.261915137508925,2.1526649986781417,1.9696284422943588,1.923065095058973,1.978470930643553,2.126352898341713,2.116241594505842,1.9587334715034852,2.3504457915916745,2.0459235677936576,2.0788012076024476,2.1857978214742646,2.0889367667308565,2.329625946063166,2.050553012137136,2.2731263307311647,1.9432760559111728,1.9876710577549999,2.046445890175241,2.214767942144989,2.5271924227870204,2.484379356714163,2.6930309169905353,2.373407523327871,1.9608912177531197,2.095388421862707
2.3768711312499398,2.781328157244035,2.6855151591873914,1.9959994677954682,1.902728277886603,2.4888988401820993,2.1847567033277517,2.1398880534113873,1.9803084091890297,2.0433713277159384,2.101847068075943,2.243659587610617,2.1230589323831404,2.3047421670590227,2.3421961217681835,2.0062395490123235,2.2206250553981097,2.287256385093946,2.203983220327578,1.965305665797014,2.045115734634227,2.398210424714816,2.20404878636457,2.1086987358335056,2.447483516474079,2.511081948007446,2.405911760092413,2.1660721343596974,2.1992714771612,2.3562813177015323,1.9859180335369222,2.302341993766421
2.3506713238681893,2.6965303737656114,2.688009753652805,2.026258422255929,1.9468617779295458,2.549788564191751,2.159251955634982,2.0937725504119404,1.9899795232371298,1.867312727730487,2.2037627724693736,2.0773572855531532,2.0237378683743574,2.3549321550520133,2.5318540946783052,1.9895512849441823,2.212924575766299,2.1902298514755505,2.1630968869704805,2.167360036934712,2.0219664366045076,2.1447794072092345,2.0423422754654097,1.8977007338380676,2.0016437540513428,2.138283024042945,2.2337842261044463,2.450336020555209,2.3837925909997337,2.416731817987491,1.7561195284400795,2.2825028463996353
2.398844770314714,2.5387565334681663,2.401060571210847,2.181049879776983,1.8367945090280982,2.3648486540249847,2.2332456507789487,1.9073868705854573,1.9482624609268533,1.8373205175962222,2.363488043656973,2.062278270077672,2.1009930669470123,2.1267595140679503,2.2363635670974604,1.9669208040658939,2.1742573156537577,2.2928785778723935,2.127472287537185,2.2966851197735236,2.1416248078409867,2.116463323628021,2.307771029607151,2.0794324456607263,2.2851131653095207,2.4269580547597176,2.5211333426533455,2.4219685500032178,2.3450158907465894,2.6060390688784794,1.8865976694051523,2.2345890128501105
2.113085854503477,2.0027981278809777,2.259559998801157,1.88010285710086,1.9142583562707756,2.360755402071946,1.827633843641016,2.234978838794475,1.7720719690189373,1.6307988202644752,2.147354506084892,1.8157956800438644,1.7684896712033802,1.9734522620455774,1.9979699300371125,1.9967257556880318,1.9691677192439057,1.832404166388021,1.9266906063962277,1.983029356773312,1.866024756332138,2.008115868000896,2.1872150911897306,1.981520778675841,2.4154469369948166,2.5008669520100004,2.666245057612106,2.168397477379825,2.350788494193553,2.0655657038055515,1.8111093059497996,2.1523778840405137
2.409817865276136,2.2590063215091063,2.499908445678881,2.2242108215287733,1.902128912319711,2.4769154212800566,2.37597900519425,2.0794821884905197,1.9409248883994636,1.8812433145100584,2.274216509081138,2.2466383699518038,2.035049266383516,2.0502902405264307,2.5281344487027924,1.8905454108558546,1.8797777008432857,2.0834165931890753,2.005687499818167,2.000824428313883,2.0946614004128876,2.0524407927641315,2.043495571903753,2.0778727317966195,2.2442721497194404,2.1347259283354765,2.4085389714171956,2.5407659349829372,2.214849115774,2.6719179422796966,1.7397460630399055,2.0063745647475897
2.673542761312516,2.3073082468434434,2.662093360700787,2.0846502013271393,1.927483418514054,2.6342909423355922,1.9204224083375285,1.8293641297006973,1.9862259574408614,1.7361876731650348,2.074956153609884,1.9922953731680677,2.1891880161151915,2.212675637566328,2.5545001397371947,2.0770496653522144,2.1110439755781,2.258887846327522,2.349406702624309,1.9810409120530177,2.212597255037662,2.3340210834253035,2.213633239550933,2.170801974887537,2.1201708596703184,2.0396838942574758,2.1036260233579465,2.6282755968303517,2.2836719273802224,2.3373661044207696,1.7305975193051,2.333254239111377
2.752492918691427,2.518260505910584,2.396154405434968,2.459802445670851,1.7274869567836741,2.2061742041204573,2.137514744015242,2.1183529653213684,1.964551764695984,1.805940346317609,2.1436307552331715,1.9973314854039068,2.0372002065508115,2.2221248129587496,2.099420047582229,2.076265998712494,2.316911523943438,2.3682366162022563,2.2615410523713693,2.0081311476681805,2.0776892470099204,2.1364991907663105,2.1472681562632676,2.1000695983324493,2.13308854003577,2.3049147868366067,2.511631405651968,2.2020767355525526,2.380847379683172,2.3325303969428663,2.057808937636765,2.354365219120148
2.4741046059648366,2.3038781201671976,2.6410116769728598,2.1778200677139523,1.738863821474095,2.1836982497804143,2.1485099279670754,1.95970043079305,1.9882150992929664,1.898788909057405,2.2825505190182636,2.080837365150021,2.2551947145430056,2.0442323672365723,2.1167530036247966,1.9678094839070897,2.3214948564162428,2.2186480828979134,2.1633389158663157,2.054325883670378,2.2590028253466654,2.092678939537893,2.156167726065896,2.1501350860062804,2.3302854503910693,2.529825837804812,2.454802037410403,2.190558133059836,2.3157555782475607,2.1287139909112676,1.9440492491833372,2.2809238211966814
2.3409883871554715,2.027113841336361,2.305136834622681,2.0999128742715594,1.801244479478438,2.3795919628376057,2.0085075765632685,2.181736375820699,1.9735630033430887,1.7456953330282117,1.997863252501374,1.9349551814534072,2.286519356576781,2.051252254136595,2.0740260476503907,2.321149859663862,2.014378230065241,2.2061737554385146,2.2159755647687196,2.1034413815709985,2.1365806956395037,2.3304607769232417,1.9870712940631443,2.1599744607615063,2.100626898147196,2.1795624484640705,2.1664148057031962,2.244564220136351,2.3104694359603353,2.360423581156067,2.0123558094470235,2.2352437214983842
2.4929979806702938,2.4159969780077075,2.4617047816660897,2.559388227210193,1.8376172557515775,2.4915295777089983,1.989360526824836,1.9305673899358438,2.1556700100116726,1.7587871038603695,1.9723021260574083,1.9381310490469292,2.1809141183987877,1.8783505785298176,2.3692909827791007,2.055608418283208,1.9846455757166628,2.2310310201480394,2.076713461610662,1.9302293122855947,2.0519921987009013,2.1792621077416867,1.931526527916783,2.045570494681548,1.9981448044858905,2.2454745090305215,2.146973047805482,2.186482469993503,2.3451160525093617,2.5459088290498917,1.9828633988045856,2.5408503757485694
2.6248980616652364,2.438876026949182,2.34155930358585,2.2770486498436866,1.7835045063094643,2.505184057107602,2.002313130583401,1.9111593725968836,2.234203256535782,1.8390479169089735,2.08872913778611,2.0288712805468867,2.330656636184218,1.9929459837337786,2.381929696639777,2.256820802922629,2.1006520025952087,2.1964128440185835,2.4047489156553943,2.165171541171929,2.2811180098476926,2.3552173361418993,2.1058163014971143,2.0928950478905612,2.247941687028891,2.119642168470196,2.5128616679352938,2.098297754303021,2.5662991163813063,2.6244011853226135,1.8410623085958497,2.2459412671405667
2.3873320855367135,2.269400994060136,2.5357842875729606,2.3670980407668156,1.9792213487008286,2.607191955278157,2.0475536443266247,1.7931305841783673,2.2914028864391103,1.8043174680139762,2.1406862667977617,2.0655940073534356,2.259811952831421,1.8806381448757155,1.9218839560061387,2.0477412611191665,2.2218280934325123,2.0301944627213806,2.1726165638526784,2.2493402935250524,2.2617732830829267,2.3581044848999704,2.0671179692544546,2.24688026086881,1.9154320661302222,2.255492450659339,2.766321803730501,2.170266066228044,2.513269217850701,2.4640205911728335,1.8741658467900988,2.3631899122498856
2.56804705010827,2.1374018425782544,2.4956120491654405,2.502368504332777,2.0294570270823393,2.3425201087248375,2.062894824285093,1.9182700996128423,1.9890164701769795,1.7683468996302896,2.1134345058366737,1.9191206453436742,2.127106078045916,1.951648813536622,2.226123274315889,2.100382460244815,2.0979856373884855,2.109651396344164,2.2435185951606016,2.222913181771376,2.172826905534425,2.077493118643548,2.178434823181591,2.107892790697488,2.1930132291657767,2.330969677331825,2.483154450142923,2.1868955640309213,2.511565725655016,2.2727157796887982,2.088180309449432,2.212674313473403
2.2658824547783363,2.303979995673051,2.462276933476533,2.6533477789404523,1.7425485554019449,2.409540100228662,2.0285359345625897,1.899280946865718,2.1788394144816903,1.8188328678280927,1.8972565709847204,1.996471600310159,2.3306391790409884,1.8869642359890066,2.2953895338076937,2.1474345624192424,2.150538479425786,2.063822027039782,2.303102983301004,2.166562820723263,2.1847631394305727,2.2143900621087096,2.179693328914087,2.027981544806986,2.3732424802670686,2.3479865384677656,2.6451101511066857,2.0127478107261467,2.241904548609228,2.2361085014779647,1.8341060789065313,2.1576334036858724
2.1233437269818385,2.211206862542042,2.2956947957772367,2.518461279377185,2.094361354872318,2.658166459511102,1.944098965022655,1.7980809562190643,2.05439513546727,1.7803850617677364,1.9721050886927127,1.9090936107864347,2.1153584779059877,1.809434405367165,1.8712765500260535,1.9738864862705903,2.0386567799220887,1.9158378717391336,2.1003376477571183,1.9711013684095584,1.945058768982768,2.181535045543512,1.9947674760632013,2.006553347436526,2.355042728010398,2.361081145294273,2.274328414297515,2.1054156121391374,2.3827190991068234,2.3038433188332195,2.380330298494568,2.3932179262754154
2.5185389156293883,2.4317890225927683,2.501578874333657,2.347701178089274,1.7996642099185964,2.2082816891469546,1.9679712217116803,1.7326461081046545,2.0557333658353576,1.7597814518384045,2.0677266716717027,1.9710050543453892,2.1848793615907107,1.873753088996406,2.0342685269716654,2.3034529582499337,2.176891934463428,2.125434455965385,2.112538679516569,2.05864019575819,2.2767758849296387,2.3013881948329926,2.1441407396167,2.096561370856812,2.1529235763622725,2.272425625042321,2.759901519937951,2.1405442097529797,2.5102660768925067,2.5271795366539442,2.3326938766644227,2.373179778209392
2.240743996354264,2.576456728166594,2.4713634212645226,2.2415316688175158,2.035042479767575,2.3552393219917676,2.2944388828693265,1.7655444082308593,2.0925314737884966,1.8405375594303268,2.002847871613297,1.9374213331523047,2.111962520872217,1.86635743141874,2.228465205237647,2.107507293796977,2.1246218819739737,2.0664180687838356,2.1734315179533654,2.2001837798531914,2.269721042347373,2.2518718066067582,2.2894089961005304,2.080669532228605,2.379303016729869,2.361882781251512,2.633827825383612,2.3941665617880847,2.4414020805063386,2.1146418220142067,2.249848867837341,2.290427972422545
2.2376505665674706,2.613898225987549,2.629512004735556,2.506435623690192,2.002890804988324,2.502417545370973,2.1858134351156586,1.8828874851093143,2.0922474189671085,1.914294146414189,2.010561126959109,1.9443926492639911,1.971860765278948,1.8666308955622766,2.261745452875677,2.1862613928634294,2.1671777997524533,2.0688146043387072,2.3766871788205033,2.1313069728000453,2.2726073892625425,2.4416055377921704,2.153790046092966,2.184397195014723,2.3195434615325143,2.1847776119783595,2.607060805528068,2.379454331006588,2.2835049795181677,2.4010955843943504,2.359356854220479,2.0757122156428105
2.1793004440434283,2.4195779810340565,2.537168693815529,2.3256971497759973,1.9037346136674418,2.266551364876533,2.0457954760258805,2.05429412693562,2.0975445975151845,1.7628051655133847,1.900189532187364,2.0041016068225366,1.9864917498778567,1.8509747883964704,1.9071586068381023,2.0339474512179847,1.9575407148261386,1.759648109576075,2.079586661516997,1.8250836768364038,2.0081070473170217,2.369285675159114,1.9959225233754951,1.926401306345493,1.9956303365899162,2.1474993243603544,2.260134488200281,1.9602236283044887,2.323149019227458,2.263092716946085,2.3071245009585057,2.082459283129831
2.675934218211623,2.846245519906834,2.7305819452167346,2.1041037049029603,1.974845444443564,2.6843243370559233,2.3868757577772106,1.9010687886641804,2.0327370599952177,2.072698209787986,2.3131336347917224,1.9291346196177543,2.2403175042475687,1.8541925244225106,2.083219422233162,2.119076433296337,2.269347638142221,2.0682261533742845,2.288269935093962,1.9776717351510014,2.1843029609112965,2.1672445678489445,2.3219507714947896,2.362526917588929,2.3108932274271883,2.2359479594844953,2.3140096908210706,2.382276603158416,2.5598438915739505,2.3682342638600256,2.0138201654960994,1.959283205788018
2.4958567910863674,2.3751779489357436,2.699351802464733,2.433289266846846,1.8457067093884914,2.484284812352423,2.3311877663521816,2.3768872402735677,1.8198142744737802,1.9732549577438996,2.1142367633754633,2.088740224281318,1.9726566139466253,2.0404670643914873,2.1537806398697854,2.0746699527952472,2.4596574904213924,2.000370592545508,2.189080560695848,2.0693921673356144,2.193516683278046,2.3138009856893134,2.3191870352674133,2.178988950668396,2.505435442962433,2.3920699996257406,2.520940084363012,2.394090683339608,2.523941815607987,2.070597762725184,2.0906744369949624,1.952008653369267
2.2548325088481773,2.576837915046919,2.4583036448204996,2.2169677504421887,2.141396604915401,2.486249665366774,2.293517550722415,2.425164468722722,2.026287074781344,1.9292577654269534,2.400980105808074,1.9203624063882418,1.8853203207832143,1.7710750786564033,1.8420138217980206,2.0556990689608106,2.2444837577923384,1.9536095860607086,2.2074744763561496,2.275518772055415,2.2627664160685077,2.296263181710033,2.3529447737416107,2.0553372753965196,2.310271686374085,2.2435057688058286,2.3139660866608067,2.4041198126476253,2.311945459786415,2.253113145095345,1.9122741695856142,2.1371014437785263
2.1845723375903963,2.904437797552175,2.7000064004987334,2.2867682906437303,1.9113378863334776,2.673590753982516,2.35974089651096,2.234496216136814,2.1347196600041753,1.9908790154191838,2.3772463274663087,2.0920347733370295,2.284264139551035,2.057574966119982,2.1792677757015744,2.146748423108815,2.4197744615025596,2.097841521015862,2.2316107340664804,2.165657730407487,2.1943756419556255,2.351213696010135,2.2314680928632584,2.184163049979421,2.2180101068158837,2.0416071747117552,2.0613415454134714,2.3363400848535565,2.4068912957381823,2.0664982967063135,1.9276787263668114,1.9327062034725864
2.436764747531015,2.824780511851071,2.6561488944150735,2.3336588536783367,1.9460478945646207,2.351239067562757,2.505195409243027,2.27841006021155,2.076372530795513,2.0434852454325885,2.5287919069729115,2.0924588422849584,2.1027665337689663,2.0257025658107524,1.952961714460625,2.0119694196610163,2.125005959666885,1.981203472726163,2.1276861090443484,2.106538846430462,2.1390954603774173,2.2657188325249447,2.138012194831664,1.9538826144143173,2.2898897818593946,2.1975820858559225,2.3009190008258438,2.484393890258851,2.6655161043163123,2.7426262128057535,1.9988594345180537,1.9423772232537333
2.356542072999258,2.809054949603884,2.339566810117003,2.4187059079579885,2.1079440397170583,2.3266030765276873,2.407453801554002,2.4386439274564577,1.953753788283919,2.131090434858081,2.279294634501205,1.922554974553487,2.078107596818666,2.1116579480957776,2.012898260329639,2.0138909135745897,1.9513586160356637,2.179303522910109,2.1091894173922823,1.929914768563057,2.157574139930207,2.3073021301795613,2.1699197028428383,1.9477810451746098,2.149789847075333,2.0829501498101157,2.237472726871587,2.4024473429031556,2.720540079176135,2.42851236360307,1.8390625819727873,2.0611684346909582
2.447020309984192,2.337228516495284,2.4962825723651516,2.4714633725191355,2.182736314125441,2.2044056398983383,2.3750538001566976,2.2796968791678385,1.9578732620258148,1.9456650005905531,2.2221373280678076,2.214682370737057,2.155964605192777,2.022292403323743,2.1486554460328735,2.145918590652033,1.9554919079438902,2.209423903149556,2.033734841328722,2.064003673393178,2.088072347184208,2.079391238382317,2.1034627521833666,2.251048752595144,2.3939469518267456,2.0734416664685242,2.4652356033537295,2.4196694721224086,2.7153188802255324,2.6069352341466203,2.14400362485201,2.08847533663133
2.3009217168850506,2.644971249091265,2.621257942034187,2.1858987936943315,2.0804440516174854,2.280552692495106,2.0884069289183294,2.2503823444429716,1.8195237776015634,2.055746263808846,2.1537187230290744,2.268645463114296,1.9309696034631556,2.1042043322902346,2.2916815848847008,2.2514390936667406,1.9567805298623382,1.8218357195177637,1.886192727957277,2.1278600036647415,2.0882134266997494,1.9651781863130982,1.8909257926315688,2.073638099760345,1.9495605187820915,1.8804956007156586,2.3320911867367196,2.127126285079815,2.6849050083670063,2.596593003073546,2.010187619374646,1.8997664297102759
2.157603103989889,2.669759408317539,2.343458559408918,1.9531606989249433,2.0716981268419445,2.601835761230011,2.0337040403482494,2.144592636548079,2.0588794313815066,1.8835439729977124,2.5577621887631676,2.098980061345971,2.1638982969034233,1.9570140072999285,2.0666410293489137,2.2920835858293347,1.9370085836450897,1.8676613730260925,2.2502428575918425,2.225147234059831,2.2348052851747116,2.0504479162721116,2.077994800436618,1.9971237219048583,2.29600354736758,1.869270191470092,2.296343159425895,2.3931768653620478,2.583573364460434,2.479369481425213,1.9696445806133067,1.9591020082289208
2.2895840410326733,2.383629286893134,2.441426539891087,2.226766609109647,1.85089653590885,2.249531211172511,1.83755316336987,2.3147263885574394,1.9729421173680555,1.9600670011042551,2.048589565332422,2.1635112440465236,2.095691177061368,1.9154133004435203,2.0178879178397677,2.1214890893388105,1.9226024324296707,1.9824613510335898,2.204798594982616,2.155604620251892,2.112349723542708,2.369904852810951,2.0800331531058758,2.1862441872858116,2.20457430873162,2.217664587557285,2.2905648000999608,2.591740436446052,2.371032718160209,2.305095367444713,1.9907300862983417,2.3132180759948424
2.413853776515125,2.5767390429636206,2.5890653761251357,2.2904957226713436,1.8517855951486881,2.3184375515798523,2.1158441980949005,2.37926304454203,2.083225450268986,1.9765740416236646,2.3956155486317003,2.2176674127401803,2.309724546325488,1.8934397219651682,2.1941681708010954,2.06722290790715,2.082272033920278,2.174482588229642,2.1700092171196395,2.1684750896631133,2.2578649289990196,2.2316156655800716,2.307816177751511,2.3637760852628817,2.518474881653715,2.3199498909927665,2.875957390480584,2.2556722922090495,2.3217482809174554,2.6600749717382532,2.192652023201249,2.2808631971707016
2.5080361455647218,2.1422918918711136,2.621259548820534,2.3070017269769414,2.1756608065368894,2.495427502464399,2.0812218344178377,2.086620103041738,1.768826749112833,1.8491994844995847,2.3464262286572595,1.9734634855724795,2.075536442576808,1.8962993484660833,2.0545245682100703,2.115579877997073,2.099664292249566,2.013082751298295,1.8768544073196882,2.184278659586833,2.089171496311874,2.080580144854055,2.1984485858961764,2.0840461945385282,2.5698423262557037,2.2301338445345467,2.4092987409354905,2.0913603771457896,2.3541798576536146,2.2923875129756794,2.1881054902524384,1.9250456713869044
2.153973579977759,2.30988530807376,2.487330748282173,2.218479040346587,2.237134797619278,2.251204553442117,1.941640653808658,2.288661042748673,2.25000834581643,2.038237678868312,2.2797680178730757,2.119813205158683,2.2082624917417775,2.160171251644571,2.234847654823601,2.17409290714285,2.02684522708433,2.180437793130266,1.9271598846411175,2.0975819680834924,2.145012057834154,2.3164921382070824,2.24163415936686,2.1056812248986927,2.3164619590718907,2.2441459663022583,2.353171451278549,2.4612787798447093,2.518720130000646,2.3126079721705204,1.9861747970319816,2.3089159391153626
2.4984715139856424,2.494569144835681,2.613870911460225,2.2843650463441754,2.1361322716893256,2.449276674489712,1.9600904301680715,2.1353222591155903,1.998175287850793,1.8693079896970453,2.0727764713555943,1.9977093106974924,2.152456529445692,1.970071407156509,2.2852112252580645,1.9640412819495743,1.9172625312292995,1.8868906814457194,1.8757793006482648,2.0548989525599652,2.058567439999135,2.2576264620857787,2.285957938740751,2.02126916224479,2.5390817962879275,2.4009896234155947,2.321202651464313,2.4207031670537402,2.4481153030095912,2.5065029730775907,2.0850963599810086,2.1829156937367404
2.400199464924301,2.387467119977075,2.2748447885072554,2.2345222434960816,1.8271231687865965,2.5418451784220393,2.13797321148252,2.158456710379805,1.9922156645383922,1.8996438876852713,2.2989793499461606,2.310236184286288,2.063469643312212,2.2453448280421604,2.330320005243259,2.135881450443706,2.150974622446525,1.9643085906086633,1.9898791687229296,2.182244995654848,2.0103371418227507,2.186849660517948,2.062035975539167,2.136868049742351,2.604937054801143,2.1448939082436103,2.376820740090023,2.4623660554314144,2.1405255971094586,2.571777788224109,1.9546112474530344,2.141073250758473
2.0611009886958245,2.2466367218793857,2.211365456177887,2.0934329883694858,1.9924672843219453,2.132809392226889,2.204902535763804,1.8091645626822959,2.237101714835631,1.8104447864143622,2.1483471714366047,1.9121905036367188,1.9546091284279854,1.884729363382123,2.2080987897323547,2.0794227927835216,2.0096678236664407,2.287824071968244,1.984095795312245,2.1209569364723806,2.0337667712265817,2.147131235153825,2.1966945193126253,2.1534595338633005,2.497005494188223,2.2998747594319617,2.54364289229864,2.2606846795158604,2.463562672087205,2.3311229847101056,1.7737984344690465,2.0005900588606553
2.5007924112028257,2.653669550994498,2.4346264379840425,2.278044112503729,1.9475136478500399,2.2231408656235487,2.022761424535705,1.8394000916503737,2.0912513359234763,2.018909974005332,2.1934483773015243,2.026206018990883,2.2975787417558737,2.1838861122340627,2.2580440832793283,2.069954883799771,2.1521371165278773,2.241225795093783,2.1298029607014386,2.170955508918936,2.27548684804282,2.2827208908575907,2.072346565299357,2.2478742425566165,2.487037980475416,1.9399860832794895,2.3070986583561632,2.35722564590608,2.484121285197093,2.51355193084261,1.804291917212793,1.9262305098150239
2.419368994549347,2.3722028797362538,2.5102118474470694,2.1871957439338288,1.7918025582811097,2.6289776705724113,2.186142156885913,2.0757643696638355,2.2390127049280233,2.1148903278188818,2.1910605136470402,2.2503970666958355,2.192632927304665,2.151089288147998,2.4593506015379853,2.0923136305017564,2.046051735086364,2.316668179792098,2.1055197975514783,1.9606048947555677,2.2984585007677016,2.4533201324448237,2.4509595749047803,2.072547527012948,2.362248132422509,2.408995115553039,2.54120965920594,2.0999323298098727,2.4747060952183735,2.1699448768961935,2.184904815128233,2.210816200567219
2.210623431684321,2.6021209861268493,2.549199663285696,2.4510964922206124,1.852147871887181,2.085437021709185,2.2090477334254612,1.8545492739166518,2.0985064999869016,2.00292669902559,2.3124909405834124,2.161561854325608,2.294274949479075,2.0425511529898297,2.3240708712043268,2.199170283416936,2.298388486269437,2.1499080169345506,2.1714552319063825,2.1680953493150885,2.1868461531644434,2.2004509882740475,2.018864443221284,2.015864681087295,2.127768893176125,2.0922772975431108,2.3529465104189726,2.2160922846141258,2.590136173404384,2.5173792249738773,1.793287287116485,2.0321265076902377
2.370546457080102,2.397993968759542,2.4579733047819783,2.00500190544626,1.9814018402350047,2.12418101778458,2.228385987839116,2.1392587919635555,2.0973804178266606,2.2697625435780817,2.459686761049781,2.353133135053338,2.2239228538445666,2.082924062005359,2.291672168276997,2.207251618943799,2.0025781135756704,2.0559013124052474,1.9979735519362296,2.0588560026788776,2.0223416796113454,2.1552301207584867,2.061941884822727,1.9880538660745168,2.1180140858451066,2.3650031581744546,2.4762524024673245,2.400163326480606,2.5514272945174112,2.693774245003831,2.1349677720740963,2.2180369812473844
2.1865114532817884,2.657294575550506,2.6498604699694415,2.0117786792660097,1.8884430316496985,2.1306275076108463,2.2376696927261372,2.0919142378741746,1.9813160176875069,2.3213989112303692,2.1851019208521634,2.2380604695308906,2.018607852264761,1.9578697303040542,2.2078727817447135,2.0931817421998513,1.8639583657744705,2.0640402313200927,1.9686929772039696,2.0762445145441806,2.125731901557151,2.1868112627641123,2.3964257251373,2.03615124554517,2.2570839538647407,2.522683687267111,2.455711236901041,2.157243820260838,2.4418021072892686,2.3371509930210075,1.9618246777661041,2.2085676371064733
2.568872600605328,2.746332867286474,2.709830467292041,2.2227346831509007,2.049812189472132,2.1728938808582012,2.03652247112444,2.1661410174050353,1.9835300335787458,1.9572677730563866,2.4392347454248173,2.2573581629080897,2.0643341162553006,2.120542782078922,2.1047439584866963,2.05049049720235,2.021035297231699,2.043898889033902,2.0640325031808135,2.03096213066563,2.1242145667358012,2.2814651745739436,2.4643034626790667,2.1344246665767628,2.3384548121187594,2.524475566083024,2.349515727682531,2.296119272862832,2.6452073988054083,2.280165200894965,1.889734927271692,2.17223500099101
2.4324718920200206,2.5722716132332275,2.6816420249558357,2.282539899586793,1.9728185946482617,2.176600809793131,2.258967943696762,2.1272312174680876,2.386563405030332,2.0488782510766743,2.153857271249701,2.2434058109598607,2.211949243965503,2.3332818511765128,2.207854866389522,2.1278077377920535,2.413899811543344,2.4799740037509492,2.328344880667015,2.08793820943988,2.248401641591724,2.279446103993523,2.503339699174461,2.1995612258269337,2.395786050851668,2.572529416765317,2.8653319109395388,2.4191894849701794,2.7441204566191044,2.4988014974173804,2.1365518385315534,2.270731548969934
2.4825764563355985,2.644200897227283,2.2279542628030375,2.308016075375816,1.7907792417047679,2.3051305264612623,2.2701267358581196,2.2217828856889517,2.219758948804283,2.1788754067631055,2.1846329082217752,2.2421294062226664,2.2185275276183125,2.2169724563532425,2.4289208192421063,2.2518567304515584,2.270725854232357,2.4522463866127597,2.128575002602708,2.1011187759389314,2.203723664748845,2.2127709372471336,2.36071279724463,2.2253232109390515,2.3141103990359366,2.3281077478454724,2.380772210004677,2.4147472535349017,2.328809675044192,2.646045797476796,1.8281475332160453,2.3200605809129002
2.57466198782966,2.504596079377966,2.3341565423673374,2.147961326154669,2.079973836134007,2.2356556529691973,2.2547930570046595,2.008343743315159,2.138487708308434,2.275828385024877,2.1364072577822113,2.072357425922323,2.4609970826741234,2.2819513561944365,2.2919232410639747,2.1021651019793706,2.2967543874456395,2.4216998086305717,2.3005557766600453,2.0887579303814836,2.2760740149889203,2.4720395561059814,2.179515037156621,2.2766175510498363,2.259375492365512,2.371789003886607,2.8631422906607327,2.5026329517509343,2.3392415922704446,2.634050253273326,1.9444361875086356,2.1883265784449604
2.0954826179221153,2.39958956456126,2.172733486769904,2.0690080248570237,1.7854949628198389,2.110350306687362,1.9280870550626719,2.1159211634952917,2.0115661554549336,2.04647425861154,2.0529164632815466,2.1755252215637495,2.2005675449520936,2.2410928486024577,2.117366440762731,1.993743823011838,1.92974767359507,2.064228966986451,2.048834439706244,1.9518499552601551,2.142915764647927,2.0538090947489964,2.090901659168831,2.108018544031904,2.1005654069266706,2.243025503354687,2.5898832272302204,2.2197134438035393,2.1416431680141916,2.1274003644710793,1.8087174595791247,2.0997863006657447
2.5531307649505353,2.464605221182649,2.2562448455124637,2.156402990012304,1.8440126944290567,2.695077924992439,2.4131285400062765,2.1954842223596875,2.3487193249822162,2.1127992189965465,2.283054537505165,2.401583299983199,2.2940818077778498,2.274087994550969,2.556928300850181,2.131973645496433,2.119968971345872,2.2771519102060935,2.0669193996101525,2.386497445039575,2.0910647000844076,2.2953059106991827,2.192129815584954,1.9529139940213802,2.220018872983207,2.2656851141231042,2.2789851202564986,2.279112412244322,2.825561127962703,2.5244571015783297,2.014030059713236,2.2539121956481356
2.456446978272519,2.391990909974769,2.1440619470697198,2.024003329263468,1.8581647883218377,2.3602548611495404,2.4150493350852456,2.344918376453056,1.9576760918877762,2.021994054595795,2.1471531180428,2.1297993621706253,2.0091753802853316,2.0927635944232845,2.2865129004521303,1.8317632391952088,2.0259686468632294,2.1033386302449886,1.9564336088946177,2.145911751442404,1.850548294607576,2.071204197484578,1.992174781465805,1.9847764488137767,2.13689603213317,2.2906557311918716,2.3942701487752425,2.3445375086931377,2.7925394948555375,2.3096430590154045,2.066702298813929,2.2387409312200663
2.568816002669841,2.464644866588553,2.37822215363098,2.1573734129248763,1.788748931699804,2.123385138655677,2.3083571483802126,1.9009338735745018,2.297841781376671,1.8630423318958198,2.225806054900665,2.247999490937711,2.117774339989673,2.038698431116537,2.435002813844155,2.0279282366728117,1.8779450478745126,1.9945339385574068,2.1317829677844315,2.1619637134643748,2.015814354947898,1.9517844735180883,2.2115611749767337,2.1955943955056396,2.436769794721333,2.228632672913377,2.5788529489859164,2.4287915451073734,2.481525734140574,2.272493922054585,1.9193952876253453,2.1174190149937053
2.674824522046344,2.2624589062359513,2.3733554960386143,2.372770441921593,1.9369910865025377,2.868847896274274,2.1944244482501465,2.1577784110657245,2.155392558116838,1.9844048618613523,2.145999130680145,2.1450020306218964,2.290677688491817,2.1870162044896486,2.2883207730533863,1.9380054416270451,1.8816031778327993,2.2825498553503154,2.030491417651475,2.074020548641947,1.8249865082350998,2.017055403454288,1.954750083878335,2.0435340727715006,2.3120493115011613,2.180677841629673,2.4400851057146262,2.7570923469295128,2.443795890005032,2.330848164543377,2.10179045144866,2.003941084962448
2.556824770493021,2.0902608669064535,2.3029026339405565,2.3379443543140304,1.7547766430689784,2.871810988255865,2.177055185955241,2.143161284288761,2.115891009597744,2.1247534536991886,1.8675978797369894,1.9570926098005859,2.1657963786574888,2.093495924503694,2.05534353349579,1.8995200550103972,2.1471718895064122,2.087738303589291,2.1430135609214584,1.916745050364822,2.139096667763715,2.147047261116212,2.093018957845228,2.121159713836523,2.3178983135512556,2.4964987497057156,2.69333378289374,2.503489130661352,2.225733721727733,2.4325043388396903,2.208822269724412,2.075290407964762
2.620621656721825,2.610908356543441,2.5254319971825647,2.2644321499018294,2.2373259516026365,2.677859148209722,1.9916049084527527,2.2993715743570258,1.9435786385137543,1.8538528211374405,2.198671852205068,2.0828006609312184,2.1610138059768245,2.1548803051203187,1.9630276324776261,1.9782841862017522,2.0559672059830976,2.0947291199282922,2.2112075956046944,2.0536573330368935,2.0804186156965785,2.1139678330927687,2.0797141852527274,2.1370500458167347,2.39217659597565,2.220406330224203,2.5698356390579935,2.520059478721148,2.8563532672776977,2.1818358595291265,2.121481810210496,2.0628077868746004
2.8120948364037432,2.475122256987021,2.4268261040498444,2.253540013694178,1.8982139895959615,2.769528446520113,2.404450790628841,2.1265509314981084,1.9977628831551952,2.2447483559029515,2.270027381233461,1.9962989197262961,2.0504986891555084,2.1757873813671478,2.014309692426396,1.880687258893027,1.9863387684585367,2.1040449480740313,2.153969300601484,2.0745388716953124,1.9906591195178884,2.1378984673981507,2.1085405323730324,2.3192523698260517,2.2298850378061714,2.01420878181306,2.7017819485684154,2.586927739873614,2.4639444864012665,2.3700805368413964,2.201926525597663,1.9948508132428786
2.3758822919203406,2.305898032249277,2.424578795289242,1.8903263544984765,1.9113317133551908,2.50092578767134,1.9892063483854516,2.2193409572546736,1.9901996928599248,2.220171503858525,2.116992993044728,2.0033266297334538,2.1284108657807583,2.169493175485767,2.0058254825557955,1.8694229085094862,2.0092733762057744,2.1236371796564293,2.132485746864426,2.087436742875971,2.0850553956543085,2.057042841323154,2.2630959359384226,2.17260474253841,2.409856630473199,2.140112180903811,2.287185887404714,2.797046838215337,2.2738077580620306,2.4186612656152056,2.229304935921071,1.883070587889815
2.7413057095735747,2.058737266721449,2.5411711846718545,2.1676213437177183,1.7619722792463506,2.6675128296925537,2.254784902801724,2.1319549081421263,2.0927233379898937,1.854549029941985,2.137914042172413,1.9271228448367015,2.107790631541751,1.886510965694084,2.0651057090485834,1.9560434130938533,2.079130391823737,2.0853508164367196,2.139785215608261,2.1327473885284625,2.0062948116141923,2.0577805120436183,2.068281326345909,2.1505796475256647,2.34096518131486,2.149147676173202,2.4767892761344443,2.7212565278058647,2.7704559027078544,2.388266896209856,1.917143132789359,2.1006087504160527
2.133596983572387,2.24710836075544,2.215457987304983,2.081321801388489,1.9071286810787793,2.3577429764676654,1.8834789193709625,2.0450120310033024,1.9282311904879263,1.8574701521124024,1.9451788947510535,1.9294071865858695,2.012763245662228,1.8206304475481443,1.8392641467681072,1.7110142007232674,1.7131584159385191,1.806952428005925,1.9438707585867199,1.9830922938517195,2.0317485484719815,1.988359039205421,2.0320179012292154,2.231471802999326,1.9085740229788537,1.9954194781992982,2.067208101245175,2.8675828458584567,2.625585232421192,2.2828539504561687,2.048084895044725,1.9234723546746229
2.2784189407471955,2.330521533168994,2.2751538308259103,1.9690112065623786,1.72375179852026,2.5591331698863193,2.0711483111319655,2.349184531584092,1.8972253841058742,1.7331624109418848,2.1250552449975575,1.9776031309488171,2.0557650677464694,2.0966625387695887,2.0168788673082445,1.936940370617499,1.8332186848824723,1.861622516254843,1.88278749353339,1.9254756238578457,1.94390470729088,1.9500864436966066,2.08549977462225,2.0799089787770444,1.9757611754747684,1.911234585252905,2.1015003729243347,2.428626112455547,2.5066328055069516,2.4473806304742896,1.8777328260831887,1.7571831809708476
2.3250608884617394,2.50453012743644,2.0931171464037095,2.0773331489872846,1.8149207800628095,2.5159525707910775,2.0255007523553914,1.8901971942905254,2.190662186906678,2.0405362917315566,2.1668411329502244,2.19403987644487,1.9777381339596674,2.2468096251692105,2.197243169124676,2.0515521867308926,1.989554892084185,2.1084614716673644,2.224667478237367,1.8790277679659988,1.9832559531075378,2.0974035973748144,1.9514174281889085,2.2067419073606658,2.022281388329177,1.9548049958111322,2.103144602666328,2.5190306067020187,2.3980996202332086,2.4341003167114006,2.0639946696103597,2.053550395199425
2.602217717463014,2.701366171515411,2.391183590596503,1.8518649421451518,1.9270517295104246,2.4668982789542047,2.0806927101686696,2.237971359721756,1.9115095782429135,2.1165488269699297,2.1255278101608868,1.9462610727395921,1.9656005790073083,2.014108986572403,1.9893669495943065,1.8236866848948974,1.910348853096508,2.0447664285493774,2.2251935859352945,1.9318305872574904,2.133354747049209,2.2483708711205512,2.208829470626743,2.2448378188808045,2.1354289978084315,2.1971533897547086,2.31731206510067,2.5988430957512385,2.318148348735344,2.2527131803080596,1.8247263165815781,2.1508106031270646
2.614217312541241,2.526363384134039,2.35480426250844,2.072999053055408,2.0403832498850196,2.2791732448617705,2.1756669428546256,2.3224062647561023,2.1891585353968774,2.1034537919296405,2.147713261275066,2.1866882113359125,2.0608055725607084,2.2253413057025484,1.9240076113405702,1.8880393302704495,2.1501212641079848,2.1945466195474257,2.149843543925897,2.141310286071839,2.388181027991516,2.1936046424660165,2.2644131181023788,2.1489247511597127,2.031754551042614,2.2593226766032712,2.0224198177661084,2.1824255125610272,2.709751945066562,2.2684584981048928,1.9628997049359336,2.194269970207756
2.578676445455138,2.4289030130261833,2.5447596351171686,1.85867532371433,1.9789278759230278,2.373081817168674,1.9949846398484254,2.007540926646655,2.106502674093685,1.9747088161654274,2.361447585167565,2.247234591594466,2.0209735768626893,2.352166217052866,2.1623083669288716,1.9119812173119168,2.1940019545262532,2.0643753637512448,2.2642538135133305,2.171322690055168,2.408775314050929,2.179240761716954,2.0962790635877075,2.4301719395804358,1.9733184511468762,2.0475595702709324,2.132226406713877,2.525552812298894,2.751062776298,2.6768509836371166,1.9667883376103072,2.326161240320581
2.4373933219371873,2.5714286062158442,2.339608089594937,1.9683497766604268,1.8758462187783924,2.3748477108573343,2.256860778809377,2.2002758779318796,2.184208212522703,1.8936718534879948,2.212093771031416,2.2907838412725163,1.8567181679852918,2.113004239152802,2.1058692252821016,2.0803360262219903,2.2929528638058017,2.109095725765422,2.035979981508643,2.2522412878798663,2.1688016176888296,2.0505351218917673,2.159990903852957,2.285898556765212,2.0343106855081703,2.2020022079258443,2.243061870796542,2.3077249920550744,2.596108804651045,2.7366390566350303,2.171325356883399,2.1968950937402223
2.178274229436458,2.472966287598272,2.539403378348285,2.110949492681136,1.936347026629549,2.3731318063465494,1.8903829780937378,2.05009974213996,2.0384049259946804,1.9461945713942994,2.18192105187704,2.023970739699488,2.0302942791903096,2.290510650341425,2.0221735673834904,1.9048301248707513,2.089808172813714,2.092450034244133,2.175264255187086,2.305125096054628,2.3725615486835703,2.134910379415922,2.0272230864638163,1.9938904331763174,1.9267175276048996,2.0678089681152345,2.4781317910339586,2.2591916204647733,2.761990401644076,2.356608311212627,2.1443631108459513,2.2714842756192515
2.3752948612470277,2.6355113792897344,2.4813736113316276,2.2889287383577934,1.8743033995355378,2.5224253648690933,2.058906962027695,2.0836452524207862,2.099641720025705,1.9525068997101893,2.2918947578478766,2.3136147154299995,1.977604805153856,2.142376275039199,2.2235638269536886,2.383594981991477,2.3634865433330376,2.309320016007562,2.2447584388331276,2.1471263728627643,2.3582331233328166,2.067656662992425,2.342444700124687,2.3037254754487333,1.963487184672046,2.5211049483306773,2.3337382797831308,2.554148245678399,2.428992860213985,2.349058089687203,1.9667403474763108,2.0996379353494787
2.2566755653323685,2.572958929782789,2.5589999119254374,2.1105365328380254,2.1128462778129258,2.4001205740814067,1.8129579483374054,2.1365921246376254,2.101857670632757,2.021976075786941,2.407705675464602,2.200732864864284,1.9430836681656147,2.1393817088481177,2.2338074581162517,2.321150940044793,2.1277460124717344,2.243521320250144,2.163564451159726,1.9704781955352189,2.2297496608518865,2.063764347092592,2.180073817463111,2.299981987551027,1.9825135081331728,2.482012985807196,2.527543006272556,2.5767248965712435,2.6455674353329353,2.2994894857976655,2.0953670508814075,2.0123192283219336
2.1552782975869276,2.9024225958043006,2.4356071901114804,2.11128792806567,1.946800322607986,2.398435754648728,2.0352937857441815,2.0922843145228507,2.1006400693911806,1.9941597456479885,2.2057559378904292,2.080087301934508,1.8741394453099296,2.0944255432126675,2.2734598255762917,2.2463287869476343,2.0962809982673547,1.9913524810174763,2.146880727478623,1.9078902109173776,2.1228641371015766,1.9131552598307344,2.1091043989252665,2.274137248502029,2.0726467421869734,2.1572952292611225,2.5135469430950135,2.3342229027328316,2.5683028397277936,2.483114769585178,2.2074503330617423,1.9867783986956447
2.199826675741694,2.9127122976788473,2.581991162894664,2.066810674071748,2.117288883240637,2.319890693437386,1.9401498511649466,2.0865343000221634,2.03708655180599,1.8657714899071383,2.1378744730129013,1.8776453244019757,1.9909140834291628,1.9127335438415638,1.9656169744443912,2.0271386922287724,2.004055870563838,2.0458974431377923,2.024386601684606,2.084358637813825,2.1698220954831418,2.1309715281178945,2.403214928960105,2.180208205684358,1.9654028982277496,2.285167731548467,2.471875542045569,2.3497779702014494,2.4797356179259484,2.544985871419552,1.9761717459704686,2.017111511424018
1.884226604922054,2.334074119713432,2.17393654871434,2.3894122998554295,1.991299949485425,2.5551658416082486,1.7957811489655922,1.8593294836808445,2.0632312131858925,1.7636516857337168,1.9971620268972774,2.326312839515588,1.981869396663859,2.150612373958151,2.289810153348232,2.0231554877824123,2.075640744351142,2.080093452462867,1.936553941010974,2.1143037781904006,2.1443026876625413,2.0278685866522124,2.2406517475596823,1.8930727427889174,2.157904699135926,2.43124677744306,2.5692496478900684,2.333166631508106,2.7151312252093684,2.23090084234971,1.9663868010085683,2.1396631533876724
1.9478788684280357,2.3227935747919193,2.2329879903768792,2.50792098857366,1.8906410350890999,2.5386256604197635,1.9157025000992758,2.0223114682572705,2.070265748455362,1.9480327979948922,2.2618356338517116,2.2278285389885903,1.8749854373051307,2.0792897860461204,2.284831582139943,1.9895990587272518,2.0875930598995125,2.2007723041152354,2.120907389494664,2.1368716037778426,2.1053210084106078,1.8860930498719093,2.253545244325034,2.047983753981379,2.3813508601237063,2.0731674701378866,2.330028260799734,2.150116244140896,2.3773937074394222,2.421360670120082,1.8228463545619236,1.9048804865341191
2.2169583035577496,2.5737880507841777,2.394155727423302,2.616346438048663,1.750216290628576,2.144382609781472,2.399250944997384,1.984646122256858,2.2042027735356653,2.166836968564426,2.297542511174279,2.040278633880566,1.8821946554742885,1.9579804572292936,2.030545399267532,1.820924085100685,1.8482229971061097,2.1106444178953385,2.1065270376530005,2.086871535086089,2.1661175483637742,1.9166520816498092,2.1115113563165613,1.7469832781875392,2.1414476277714116,1.9808527382507632,2.451551403090552,2.2700865081078114,2.2859266043538007,2.389246702778538,2.4317126900881365,1.9183002873831783
1.9813690398046515,2.519574599972384,2.407803862218999,2.473586577642657,1.8850260696401657,2.0627511109898147,2.2040928356071334,1.7865719159420728,1.9845915291171214,2.0208756322149117,2.465074728509369,2.0736834746189325,1.9235184850502023,2.282893152492407,2.4653994509647945,2.181661947298587,2.1773724126776783,2.1749441922407144,2.0442607757242053,2.25153985590124,2.1527941164255036,1.8779435463242866,2.064754941930741,1.946088987645988,2.1687222327178435,2.5649970354682954,2.598886165663497,2.3568498856923137,2.191539046530835,2.4647827724742317,2.3911251637281734,1.9937477952542095
2.1647381476469976,2.745603136567397,2.6965233080770576,2.5849777705070136,1.9807079729966404,2.858964524903346,2.5923613210852263,2.088537222564757,2.1167858867184743,2.1110001315177183,2.4203925436721843,2.0113592359751884,2.151177603498412,2.542542532680698,2.5500561914871516,2.135922286780004,2.033376739330738,2.0693814849092314,2.1313112023546736,2.260988205571291,1.977111378607276,2.328558834460785,2.0778063793189365,1.9414442374285341,2.367729676415049,2.211004028053697,2.32834961471415,2.557922309892181,2.521871614445912,2.5630366806159244,2.0532586440178013,2.4422961711922846
