Fp1,AF3,F7,F3,FC1,FC5,T7,C3,CP1,CP5,P7,P3,Pz,PO3,O1,Oz,O2,PO4,P4,P8,CP6,CP2,C4,T8,FC6,FC2,F4,F8,AF4,Fp2,Fz,Cz
0.6140371475763597,0.5834393013676826,0.6325010137125568,0.6249132585230197,0.5454913489910624,0.6266790284837627,0.5895892069393036,0.6270166213211357,0.5917488859087245,0.6123394319444904,0.6110544939078628,0.5890814243264026,0.6012964769964353,0.609780020565835,0.5987131405565411,0.5961585694752185,0.5973165143705961,0.5951710794445697,0.5781300642229179,0.5917025399308713,0.5993564956615445,0.6170338885596176,0.5387955488080101,0.6070816987802452,0.5693265144794846,0.6045626698784705,0.6170170203051666,0.541906175121682,0.6329301204237026,0.5744835347461144,0.5786451666714738,0.5873144450284125
0.5851481930964928,0.5802223213257935,0.6316518064045016,0.6030147433476185,0.5100749422021269,0.5878512398896492,0.6085565750153101,0.5713501212870402,0.5635031339521883,0.5862997156914513,0.6464741256979436,0.5922053192866472,0.5853249027248149,0.6191893838879907,0.6049000050154283,0.5867290696540066,0.560306066810413,0.577714560553515,0.5636277900885842,0.6034504737060145,0.5775979447488457,0.607729246962045,0.5818383631103368,0.573934573183966,0.5723919328934883,0.5682242826253536,0.6205855493228922,0.6030695024839359,0.6341317911314763,0.6227001305271855,0.5572621680679659,0.5574391006145012
0.6189616076420599,0.5710319797812655,0.6256064384284752,0.6030756200905589,0.4770340311123866,0.5580254732565764,0.6060847785183827,0.5919532511462431,0.5523007106247206,0.5755992537972623,0.6251073229431436,0.5961506961744196,0.5854960986619866,0.6076890978402743,0.6181513846060409,0.5754980665669294,0.5787191789923574,0.5913616987894792,0.6000232155718268,0.6053090275288366,0.5777588521103212,0.585824865566138,0.5934099013048733,0.5965348503872341,0.6076863990282817,0.5817190791630873,0.6105796413565829,0.6186058057671677,0.5638930201716579,0.6271913140126202,0.5475231470918231,0.567040497647346
0.608417544463014,0.6042851549149098,0.6336456170997686,0.5877999208629423,0.5322938209269328,0.5942565439685357,0.5578006885854867,0.5895284794279436,0.5655363661258406,0.5474666763428675,0.5904053371805897,0.5866339202628148,0.5862552175544322,0.6190166028135562,0.6367762912999164,0.571495612205541,0.6034376732509341,0.5606496585237237,0.5910189005007651,0.5657972146174792,0.5874054475414461,0.5740091748175509,0.6015220231340841,0.542708728538762,0.6130977981519692,0.6025892769882817,0.6034593942534152,0.6098366953058165,0.5830185023246917,0.5864228592485143,0.5117056441291163,0.5720759341465289
0.6354002746883611,0.6119947882437269,0.6389169212228225,0.6038498152744376,0.40350807107180486,0.6025362035811068,0.515561232238396,0.6197558196064064,0.5764928528030033,0.5344723298289202,0.5750172627577963,0.5778201315305083,0.5860487025355092,0.5969185727201181,0.6123913652777766,0.5467080768843089,0.5644422320004181,0.5551096152668933,0.5836262421966736,0.543498340436904,0.5426705088744961,0.577440071821584,0.5914640180233253,0.5215326442258208,0.6183393650074205,0.614417004611103,0.6171567830181326,0.5990534561061636,0.5912094056890518,0.5915999464200015,0.6042376901145126,0.6092992987767705
0.6016875517798499,0.6287942952914163,0.6224827974894418,0.625304236692358,0.36635193783633646,0.6315087929802803,0.5664132587125712,0.6318134100901358,0.5480234142489064,0.541445629877205,0.6022608597403276,0.5952186447621841,0.5904718443697266,0.5757710414839865,0.5938737195469836,0.5930585789903411,0.6064036250343361,0.5654046810220268,0.5909318000587493,0.5795321620288685,0.5893339309288099,0.5961700801790273,0.6136083597159896,0.531079834464284,0.594021973997449,0.6129922302204869,0.5878665586843144,0.6254124886862447,0.6135054175415844,0.6023719822780613,0.5966551881256863,0.6017621536531341
0.5697179827880037,0.6194378526337783,0.6364892693903634,0.6007315117103662,0.5532141299218387,0.616376627088659,0.6080613942303432,0.5933918634312167,0.605247904966443,0.5968930115971034,0.5900530943995892,0.6041222313788581,0.6111781684365232,0.5646332956662219,0.5889889013992393,0.6097445838939248,0.5938398250536463,0.5945500637306376,0.6075689533267932,0.6011640484886809,0.6219547439806137,0.609195306468564,0.5882461341119471,0.5928524059363998,0.5892892343107485,0.6300162810205832,0.5881549003432114,0.6354414703304787,0.6454372932656351,0.6170479604646766,0.5611014056861459,0.5981637802034445
0.608927891000183,0.6212661436088571,0.6417688231971725,0.5740252795521092,0.5443248307416559,0.5981514527174774,0.6106108633066465,0.5787964033700126,0.6301009500388806,0.5919360274542007,0.5753612746288956,0.5942367760344367,0.6164194975445887,0.583327040371056,0.6136504663313267,0.588220443393825,0.5825872577243012,0.6189434459570227,0.6037066960249562,0.6015230417621433,0.6286421719855642,0.6070749961326123,0.6170672234523988,0.6068117805193665,0.5882393090967302,0.6058319035094022,0.6203566674132017,0.6255209622031286,0.620811027637687,0.6351877800461554,0.5777644824032158,0.6207273408432386
0.6200341185877969,0.6015334298991535,0.5936524645027159,0.6171540008149088,0.49868442852890604,0.5720040343078798,0.6113966173697563,0.5732246190084065,0.6100620810555291,0.541299705557198,0.5857178864189398,0.6063186016420281,0.6043325101196078,0.6026204142146483,0.6341380117197128,0.582564378854598,0.5991802106823383,0.5686294180205267,0.543984742433461,0.5940296701640131,0.6122364455303448,0.590949056681203,0.5568889154649108,0.5940432785974794,0.496685219994911,0.6031151514711866,0.6307021211178108,0.6362063335758621,0.5973906885490714,0.594919294576274,0.6312339559698468,0.5955608377968438
0.6142060883875438,0.6106412441880682,0.6234254344984693,0.5988280566690571,0.5050097703605156,0.5821380248810839,0.6239877100775701,0.5874763977986719,0.6006361803592362,0.5421270528122286,0.6038966399014383,0.592095066007182,0.5959362297794883,0.60423141156115,0.6144647159863181,0.5799717900047496,0.5724608013647758,0.5770971012132269,0.5824912391337889,0.5832108946039325,0.6031921604769392,0.5889503910871019,0.5822349765494761,0.592464348928627,0.5747332237879381,0.5693247003297199,0.6245348142171125,0.6431716330017081,0.612443074844292,0.6013708341146162,0.5856986330161096,0.5801258536620533
0.626923642050369,0.6043084330696944,0.6159341919708208,0.6406686708044149,0.5580940565650732,0.5956564043857875,0.6487068165976062,0.6194658943147884,0.5983547265089482,0.601201985967807,0.616047809226894,0.6104804039042313,0.6052146236181737,0.6042459448361823,0.5945369125511184,0.5935506814188045,0.6068830278287423,0.5890807615330473,0.5994668223109691,0.5808451995873334,0.6050087466852347,0.5898083852271903,0.6003790104208764,0.6016286729449196,0.6368325479205477,0.6183755396182056,0.6055469642995925,0.6226321861661548,0.6175912117927229,0.617143787169733,0.6054465422487505,0.6152272042287867
0.6367790458598894,0.623568269807178,0.6310778950447578,0.6174006595582027,0.6030552074724063,0.5982601930477878,0.5979695080314897,0.5992336152455029,0.5956743031009419,0.5833531083374699,0.6365716183445054,0.613974753512124,0.6106202224421686,0.6075054003279798,0.5842401062756308,0.5759241452934263,0.6110251925071988,0.5898348094661263,0.5951185209482963,0.6051231484367761,0.6079251055116481,0.5893181952237239,0.6116881497923856,0.6030216677600242,0.6368618241762016,0.6350032138183894,0.5933605177215164,0.6262432962357694,0.5856435104548026,0.5971758830358955,0.5867504425238526,0.6108071773817434
0.6099929831974826,0.6090598265336955,0.5925664796824677,0.6117246970979,0.51654414345971,0.6025240842455721,0.6127187370868898,0.5728862222908555,0.5834461219553222,0.5807919985974537,0.6118872964063691,0.5853710760055746,0.6186618289603207,0.6289749043340738,0.6021133450433691,0.5814238484736238,0.5972333363717128,0.6074332037960768,0.6163016953710239,0.6197332496079553,0.6083632090992328,0.5955074579111077,0.6083365359425561,0.5749433323249558,0.6178391254605549,0.5877586917484692,0.617501176532266,0.6451191808399193,0.599410166782739,0.5990959988765328,0.5181147039847884,0.588894808390696
0.5984531058167653,0.597770384204686,0.6312111749595526,0.5848099925266443,0.3884809186249245,0.6076017552960287,0.631063418850363,0.5908219302957041,0.5945814101392695,0.5688140241663291,0.6220004924878606,0.5900939394900866,0.6028462770390712,0.625199873413889,0.6119611011335531,0.5946433118866139,0.5684157040239546,0.5968634206281291,0.60591640174423,0.5815322007344967,0.5996331105592008,0.6197790749858969,0.5937139649384364,0.5658035533989398,0.5793559779009878,0.5911111475377631,0.6270146734037629,0.6369493614075381,0.6183544032291137,0.6064955862129859,0.5568233254345065,0.613495184533821
0.6046276030586952,0.572299794849584,0.6064178467080978,0.6095561773219949,0.32433347407730784,0.585531046571691,0.6149836823978032,0.6297568513020151,0.6033757089584131,0.5902478225605732,0.6583215154733715,0.579200211142874,0.5949409636474887,0.5931838651501748,0.5775885737488684,0.6033262460693551,0.6001309702227648,0.5452484512076561,0.6040531638897035,0.6113992689552301,0.5946226312869372,0.5971764245017095,0.585680417218184,0.6130790757540407,0.6215522406900447,0.6444668353775396,0.5825809298460944,0.6088034458862279,0.6170562298340561,0.6050093349204713,0.5951189619399528,0.602301682148477
0.6240151323102578,0.5730322209626237,0.62589041205795,0.6093008855803657,0.4660604675882971,0.5802522915353823,0.6375781248960788,0.6263250990777678,0.5863385769663356,0.5979165812832363,0.6223500297621958,0.5967868501233045,0.5827037465785656,0.6092379418860028,0.5873903484517249,0.5746654395894946,0.5786538822599687,0.5227970531618169,0.5946313369938538,0.6272061604733747,0.5962732456643818,0.5977712869246941,0.6220160550018163,0.6147751049620327,0.6177988399781023,0.6332327027662585,0.6067423172568587,0.6103370290353807,0.6303745651800714,0.6230492943050505,0.5596467888199723,0.631199112144873
0.6205851493158687,0.5970668525315368,0.6352890043061681,0.6320068037582232,0.532224430852732,0.6103926598449636,0.6067323754702656,0.6073466943563823,0.555064506749972,0.5989246202404037,0.6344754184497337,0.5925244860324357,0.5879651739206393,0.6158565615379854,0.6277275258425683,0.5852647611178692,0.6232699287636376,0.5785300003176164,0.6023741847584647,0.6330071312617789,0.6466171952193007,0.6252348329943,0.6039390656976269,0.637311831033665,0.6322161871436918,0.615310219710214,0.5998610618881095,0.5951342341429533,0.6070742641490496,0.6089289037745411,0.49405326393951254,0.6034542659463598
0.6112680474293977,0.5895063101228506,0.5989316761277252,0.6183197344619042,0.48104816186621724,0.6123238028822242,0.6036027035827569,0.6117166679812485,0.5421002449537786,0.6049033343627879,0.6327942150437167,0.6093953936516003,0.6061400144528637,0.6136774503119549,0.6131276942816868,0.5750422239556143,0.6074681492205278,0.5983265239082289,0.604190667456816,0.586370527339894,0.6218757674354269,0.6007376186844193,0.5864690273463382,0.6264866828726068,0.5670243356427926,0.5970523252136033,0.6242265117974863,0.602359600322198,0.609267418834659,0.6202585893288828,0.5130342917995439,0.6053672897155673
0.6102324175842115,0.6032560452278202,0.6043413415646484,0.6141374458299063,0.495346396209015,0.5936062280001555,0.6023384166439869,0.6055924161779442,0.5890559027087616,0.5700137801820819,0.6284184354826401,0.6055539059637405,0.5960140023562155,0.6150896198183982,0.5974236490004605,0.5896318926573261,0.5987693380290775,0.6082597038102557,0.5838960991514104,0.6288143334313041,0.5966092872442994,0.5948412506954757,0.5792874020663099,0.5909794271291773,0.5465355729231458,0.5896064753366446,0.6025703461116056,0.6036563556172236,0.6204766427120179,0.6239174764354494,0.5622754796903817,0.5957210433986861
0.6241219612070101,0.6047381173791013,0.6181546899496406,0.6371222439368438,0.5184353435262068,0.5892722330932476,0.612102431482652,0.5964652426985309,0.573598109198096,0.5619937295017459,0.5992570869628482,0.6077015088202398,0.5774296819787987,0.603226271683027,0.5896496267098508,0.5845870025875208,0.5784475391544972,0.5343978919853467,0.5283572179573692,0.6154813516280524,0.582054258004228,0.6046441887502101,0.6101323125538629,0.5612649941401315,0.5919613404521473,0.5764202785082104,0.6114384123811027,0.6217426425430319,0.6118052277830492,0.6225462746359707,0.6037237073903547,0.6032244968326106
0.6300144593550745,0.6238247157316477,0.6030948148790949,0.5984252605673936,0.5202242028948043,0.6009810665228588,0.5922128465088172,0.5900951749481003,0.5417116669264872,0.5124524590751869,0.5894317449615021,0.5909862868605762,0.5415491128231422,0.5596592332617685,0.6104301263604652,0.5094312344669158,0.5604915768467311,0.4863700094711052,0.5178478416491519,0.5843975132223709,0.5638779852533657,0.5574572574426742,0.5846291323067621,0.501668974408914,0.6272932345392181,0.610247610988869,0.6054643482793352,0.6064975651729605,0.5934382450739424,0.6055362226717751,0.582238195997121,0.6141447004330902
0.5942014197861059,0.6197571560596957,0.6092417355915498,0.6052846038255164,0.5326862089252558,0.558935018555887,0.615345240513336,0.5755476675109135,0.5297230368795081,0.5121358422120967,0.5887947551928714,0.5721993725012924,0.5537653983897086,0.571826737290257,0.6153824528207035,0.5243932669816305,0.5819273315396183,0.48419254781689425,0.5450279718896933,0.559001865595584,0.5624344003182027,0.5621839675260301,0.5841517673322212,0.5214306054965756,0.6105734395206799,0.6044568256136453,0.6228278446180764,0.6148024096868654,0.6270140593826765,0.5945212392735422,0.5442885858045314,0.5707288889713706
0.5773843677844397,0.6548829199117954,0.5770381179529398,0.5873876865774457,0.4965483298175388,0.6039881490228622,0.6195927095612892,0.573681284238786,0.5899264589615618,0.5680132253453407,0.5822831278538882,0.6027857185504768,0.5806185101803161,0.6110818733162002,0.5998290690799801,0.6056016425872297,0.6177151772685114,0.5673677332664435,0.57671600202187,0.607347730016043,0.5788852299650067,0.6049788625533212,0.601421257643747,0.5879122801379797,0.6272371278817159,0.5990425827851866,0.5980741527893607,0.623818583227171,0.6363341508656055,0.5665659466667128,0.5010738745751473,0.5638503669457791
0.6162628716943375,0.6288463210041169,0.5740536210672413,0.6242218840559897,0.539235120282973,0.628155503569856,0.6193449287762651,0.583204765070314,0.5828788649991274,0.5876670585068644,0.6222615868267787,0.6176080478115078,0.6117471731196749,0.6240463326960093,0.5935256409148435,0.5965374341619305,0.614051129361699,0.6130716824002329,0.616667422865107,0.6388355711262039,0.6215070074916231,0.617749838497438,0.6212778848328688,0.626672562604992,0.5866794348023805,0.6078650315711767,0.5779871618821639,0.606373265371877,0.628983837153474,0.5794455834321539,0.45421580398135397,0.6178752464343806
0.6309200597389464,0.6426334977019805,0.5849216362634957,0.6289666455411287,0.5624415742910052,0.6288355467493849,0.6315101797948435,0.5638002138241718,0.5755067523354702,0.6288795933678819,0.630147617936347,0.6112421191811928,0.6034974382884486,0.6197595037572188,0.6162398825273785,0.6052199165536307,0.6282242178376056,0.589569937100368,0.6192610839214963,0.6403780138635229,0.6273766801839527,0.6333951701297997,0.607628794453841,0.6054748457196966,0.6047177599564049,0.5947499287124045,0.5879106279001469,0.6222480715746803,0.6037732732713179,0.6014597112215849,0.472059918634542,0.5949640856113203
0.6054947816872929,0.6324308361038757,0.58458530333542,0.6205514710874187,0.571649414989253,0.6054125270346011,0.6093650435838871,0.5765437067868566,0.5806926191753599,0.5579453835173158,0.5987651380554149,0.5932181302495221,0.5899354056880357,0.5996159130370438,0.6030187027326015,0.6179679955619437,0.599043427016634,0.5848768503449748,0.5966433592628451,0.5855489314231828,0.6318806231250877,0.599046199164408,0.599814874318084,0.5903770347730979,0.6104646856521252,0.6140216851128968,0.6085582687062856,0.6339767068238484,0.6085654065372306,0.6258264820814654,0.5719988870234336,0.5927064680311944
0.6082459400551974,0.6448072619546581,0.5874129475576493,0.6107675720207597,0.520302940858187,0.5865026268178237,0.5869446128251292,0.6142188264159714,0.5608161070229838,0.5171944785177129,0.5923228888167524,0.6011939102947759,0.5670328661124993,0.6067546938145738,0.6064801350045923,0.575431853618781,0.5989881403506776,0.5800927229583586,0.622671282164418,0.6191437180762014,0.6089947974866461,0.6302266875065783,0.561717753390846,0.5764181027919775,0.6105374023246006,0.6175015502305645,0.6150108696576528,0.6199238725170146,0.6152704546648664,0.5921563516970481,0.5042448651082769,0.57587908300646
0.6362977374575922,0.6039080233257232,0.6030395628535157,0.6297992797764476,0.41094327331909497,0.6164476321869059,0.5837015755648278,0.5692775706593864,0.5779787065769995,0.4538738654163197,0.5882958402556295,0.577498899318226,0.5858979348685329,0.5993701013660551,0.6314526281687587,0.6067461783194474,0.5953371105622804,0.6093279793311512,0.6176035838304346,0.6179702793518231,0.5734872056755576,0.5789934515709692,0.5598549504070878,0.590983862362843,0.6052506813063285,0.5891747080519947,0.639727786128061,0.6262847058922585,0.6156864173867165,0.5796361708725439,0.5081528473755812,0.6063533489451505
0.6467788298909993,0.5969460292904989,0.6143567606918707,0.6091468171848606,0.5314288815096577,0.6106259893066306,0.5771320910969275,0.5383040509354591,0.5851427539845955,0.46880588864307704,0.6044166433447535,0.5574550268094551,0.6146645170974905,0.5546826193043151,0.6178500671623772,0.606176835218633,0.6163912383927919,0.5879003419252227,0.5961412670598496,0.5968454662807727,0.5615090734581281,0.5981802313445086,0.5807768082725953,0.6067625334154889,0.5912662860563054,0.5883599265264596,0.6427789391434562,0.6061528297216783,0.6461760539470265,0.5967106407961071,0.5427515458396996,0.6206017091979823
0.5956568751155418,0.5917595869045118,0.6011894485896536,0.6356569330094377,0.5327312191311657,0.5909734046316846,0.6136004156236816,0.5478641046509503,0.5999308707600375,0.5156451400921154,0.5915823647530511,0.5567741333790828,0.5911978183856577,0.5689748311221159,0.5786632327188781,0.6015960753437168,0.5809507660837303,0.5610510825516117,0.6113446693115305,0.5873067743292664,0.6130580109726518,0.617077125052071,0.5885336535114001,0.5916119077489466,0.6414355116549495,0.5862103229822098,0.611448094721676,0.6004847962040212,0.5908485127856542,0.5881051095434695,0.6126003360286614,0.60557673624271
0.587733980661449,0.5963842301193658,0.6280072635573766,0.6463967023297457,0.5448705726327212,0.6067799675300405,0.6282985431782584,0.6069056127980086,0.5751599970701395,0.5383667850071796,0.6384900921675554,0.6015664435685442,0.5830466342204019,0.61990424335916,0.6283400729672555,0.6157745786277524,0.6020331773246279,0.5920212377135674,0.6346407775261027,0.6144281190513627,0.5935395727297323,0.6189651145843675,0.607422170708273,0.6109558802800223,0.6196768819823806,0.5815441161852419,0.5849722857700894,0.6114678920229788,0.5770065347043536,0.6084797100747918,0.5494845598396849,0.5670188397864293
0.596432711087076,0.5822116543440985,0.6127222457117307,0.6102800807353979,0.5824768536557894,0.5891578711163721,0.6040750058501914,0.5996347104919657,0.5968637802502217,0.5683407543144852,0.6248287328329094,0.6349129700133567,0.5962300880951852,0.5927312009371102,0.6328416777237105,0.6099325167800376,0.5672188875850206,0.6025259889147603,0.6281885818287001,0.5975723046219632,0.5922598112290562,0.6086083627290018,0.5977294302829605,0.6190880233090583,0.6269418412888341,0.573836988755644,0.6120558085222205,0.6126416188922126,0.6043075054593512,0.6329598155852771,0.5555174984575357,0.5806277318130109
0.6089613730935071,0.6102326350538942,0.6027460271323095,0.6256245298641172,0.5749123320628486,0.6071277908716008,0.5580844807582048,0.5886564033092974,0.5962382353579061,0.5253627358826631,0.6075326614163736,0.5841815544484659,0.5869075445069156,0.5920965469472952,0.6284194350107031,0.6001646119576423,0.5684392917336245,0.5542068235366919,0.5640566529367725,0.5716337292143483,0.5894654446921215,0.580100342437706,0.600589570191179,0.5961915308010033,0.6468540199178716,0.6297143884535665,0.6028936461722618,0.6110421528755237,0.622578635332744,0.5823500595533115,0.5740747977082625,0.6277926285567843
0.6111812891662969,0.623991566497549,0.6147668755510676,0.6132119366741855,0.5256592882227533,0.6005261330384273,0.5944575746670884,0.5887997072125315,0.5565612597952692,0.5768438470421406,0.6054596750983321,0.5825182786973468,0.5864123479477232,0.5992526067352739,0.6207097420184873,0.6329528059668066,0.6081684293958118,0.582391367488337,0.6104527973792271,0.6084812850995904,0.6313220369419583,0.6060590106708612,0.6199204677554708,0.6060833628292044,0.6478686479036537,0.6451953546144247,0.6000715948273827,0.607603302856071,0.5875593030968318,0.5807960817514952,0.5749868875008923,0.613960654556398
0.5998242541715584,0.6201931018456159,0.6087314313521217,0.6140853623232765,0.5091749848352589,0.5911698012940265,0.6387935107399336,0.604553765565766,0.6042847478587543,0.6139622660097794,0.6173487981841692,0.6117757755993773,0.6041250323265146,0.620088375367212,0.6324278088887247,0.6060723943829553,0.6318657783974961,0.623522498508803,0.6251692458202052,0.612208837106671,0.6000061785968689,0.6089266433273468,0.6167378851033098,0.593368429911135,0.5825112166848783,0.6318176905875861,0.5964259685164968,0.629705044206204,0.603656724746207,0.58604645538523,0.5545635143133341,0.6198692913100428
0.6123878884419853,0.6341508938118734,0.6094591218462702,0.6080273592547081,0.5323251527744186,0.6165075919980274,0.6367531916741029,0.6412551728244953,0.5870964988969138,0.5934699738726836,0.6121255114699702,0.5901198125147631,0.5946125016919068,0.5992324417838537,0.6279022169393831,0.6098917427361532,0.5970253110977111,0.604158796066717,0.5780160230832014,0.6087218258090106,0.5850676643442609,0.5986491729626646,0.6175788581102326,0.5738906243292452,0.5886875014526738,0.611153962859146,0.5796859934583067,0.6427144486254663,0.6081547970715362,0.5668474675509043,0.5558801265025615,0.6119769861928632
0.6088999203209564,0.6317185732844344,0.5871751295557663,0.5955023201841811,0.5293230982496406,0.6110458355796626,0.6057772681835671,0.6149175220553218,0.5676261861181509,0.5705073807243313,0.6245559493403463,0.5870162939321357,0.5613952490553098,0.6106534757321218,0.6135911333864899,0.5306078654433795,0.5691380793463212,0.570219060115317,0.5826641631497478,0.5683475251523151,0.5877413869487591,0.5548809726227741,0.5726258747352646,0.5904661164979235,0.6264619086116818,0.6005752004043279,0.6193269802050998,0.6189679950798355,0.5863795780169534,0.5818862488158429,0.5696672522059836,0.5394625987463395
0.6095121081199908,0.5999212098881457,0.6049941580447267,0.571358233272178,0.5522286273831898,0.6103326530188813,0.5585230415251292,0.6288436761607126,0.6010763558709975,0.5613889094539943,0.6020013950649119,0.5784259219973267,0.5809475994671169,0.598343295114363,0.6076738607035193,0.5546652172050637,0.6113955136860145,0.5914803427991,0.6074678076152287,0.5679059181704265,0.5977746374626687,0.5860037460276484,0.5885938617894455,0.6159152823707519,0.6101672034105099,0.6076221108450639,0.6194060346039434,0.6230569632376928,0.621545649084335,0.6181079158508656,0.5951834915517571,0.5842082287808963
0.60847176868735,0.6149157294876866,0.6252695912441903,0.6012772725130984,0.5592434174606784,0.609648627772434,0.5522167576723782,0.5906775494998184,0.5903873739449694,0.545928568987939,0.6041872696763946,0.607691410377134,0.5789213794613404,0.5672222437695518,0.5676861188661761,0.6063573386741852,0.6132888576594628,0.5994554210702137,0.6183345706472259,0.6095912753855388,0.6070036417392353,0.5704297153987397,0.6093599094540352,0.5920797932051443,0.57039753669511,0.617626165518578,0.6134329699430308,0.6290278015943587,0.6252184010705442,0.6140328034168916,0.582141643908221,0.5912983342074081
0.5852792208957345,0.6234421160960903,0.6310053048548769,0.6171416218917116,0.5606410903900341,0.6135454255738515,0.5766596596552649,0.5745621861629115,0.5828292089963338,0.5480468535694105,0.6427529536537269,0.604691765772583,0.5708682245489558,0.6083773415674618,0.5831634557326439,0.6067782484538538,0.6013906622085341,0.5790195666095634,0.5721598770288927,0.6230206072492139,0.6085798358865362,0.5774924284679823,0.6302657327460746,0.5943606954603857,0.6189600097700843,0.6225435516142768,0.6090651442182016,0.6211442104054772,0.6206955056595369,0.5845264471505711,0.5503759665725334,0.574060610763456
0.614905648070426,0.612175633086804,0.6234201441470604,0.5974806643266355,0.541932581220816,0.5846942285319376,0.644833484404367,0.5970019850884083,0.6037805974278334,0.5511455823414493,0.6033370613102731,0.6047687895686535,0.6110764197621887,0.6051090708244353,0.603314941755984,0.5770314178587306,0.5827020823981579,0.6002743390867296,0.6100076780818862,0.6166216955035373,0.5763467773869229,0.5940744120915631,0.6156064071789906,0.544099401670783,0.6440419116747145,0.6211049876518326,0.5857842196001779,0.6117810465707589,0.6145193652041061,0.5642997999232078,0.5925756596905263,0.5843026428243396
0.6229110877166404,0.6048486891770031,0.6349426350370013,0.5716605458176924,0.4955616960129223,0.6107220861997273,0.6105313554632898,0.5950896700448669,0.5830424835216572,0.5671455071260545,0.6145378336627862,0.5706192631653293,0.583999974829843,0.6373295391069154,0.601216127830734,0.6109643239972762,0.6032362668591666,0.5880766514940925,0.5856356089651809,0.6141556425928476,0.5909424980652194,0.6051690182319898,0.5985651936295602,0.5399445074534386,0.5910552483276406,0.6206294306144735,0.6099486296734229,0.6138163888448052,0.5761814726417169,0.5982363993855988,0.5948591462531012,0.5761134587921415
0.6096073835319187,0.6058250540430845,0.6135155602375582,0.6017094308903941,0.49885977568749285,0.5696430147163536,0.5839744038245649,0.584220789994482,0.5992966867966261,0.5969347813335721,0.6400669259096148,0.609420104238489,0.5901010621455978,0.6028216730713032,0.6106053692516373,0.5781330356700107,0.5862000187709033,0.6086719166997399,0.5884796093441964,0.6027349825586685,0.5933166400108485,0.600879405029636,0.5958661009450728,0.5801876882468182,0.6241274302009305,0.632169319230107,0.5903888781587745,0.5951114760079488,0.5891413956993716,0.5780463754237495,0.6109469261971316,0.6029456237911823
0.6011540583625274,0.5849101148320415,0.6013598184313222,0.5977299077548324,0.570221303198498,0.6018153654686103,0.6099619358444408,0.5980077827280308,0.6004880597217377,0.6213565472344449,0.6183856295853007,0.6089024067934927,0.5855632294251096,0.5927977468666019,0.5992758640106985,0.581591130844358,0.582688720381892,0.6152326605975809,0.597052063924584,0.6156847497645472,0.608130800821229,0.5922906210855605,0.5896702525798845,0.6250049572807947,0.6176204434831356,0.6165324968395187,0.6121488747356842,0.6099906648411646,0.5882429840165013,0.6001588927974884,0.5520027868811721,0.616227037009772
0.6322467192625991,0.6072209245952238,0.6038917428120412,0.6285116378459148,0.6013936141029177,0.6104353666175641,0.6267364147610288,0.5947571797527154,0.6192372877072536,0.5896795842768863,0.6064965548226828,0.584949090181285,0.5989148047361299,0.592460980425952,0.617456873068901,0.5677127304053444,0.5810477681779362,0.5938611276872554,0.5994704339802235,0.6241280300456507,0.6256500069113957,0.6479529864051807,0.612754458831493,0.6228368223546532,0.6263091685539015,0.5928833102789737,0.637289804822105,0.5761008353472761,0.58183152535775,0.5848482202460819,0.5462262063730252,0.6187625471202791
0.5945234064882579,0.6019137309056339,0.5667147948060678,0.6171161388541533,0.5892156081224251,0.6104824857885083,0.6180508420492123,0.597598594491044,0.6060818248273403,0.5351683742487681,0.6009012736077444,0.6071353220892091,0.5895268269225529,0.5961580757680074,0.5984590005502719,0.6109240296185643,0.5670358505937356,0.6019138648241618,0.6036997530781809,0.5829559747770503,0.6182550541066116,0.633373148011803,0.5865278923377071,0.5853315679205804,0.6366948655847531,0.5911326401994037,0.6201309622229401,0.592065811984738,0.6201020426214727,0.6005480906181107,0.596335348227528,0.5684079873673418
0.6017969644317063,0.6212446463070753,0.615674989979401,0.6267061569713017,0.5454299517274093,0.5917047844601844,0.6196400943379037,0.5609406354403936,0.5855804262736855,0.560547059374294,0.6084842896195326,0.6081986782716107,0.6053861526247082,0.6015713016172279,0.6133200359495561,0.6011076850114407,0.5799457388720968,0.4804028069439821,0.5835891612428425,0.5643496065345963,0.6038960517396728,0.5658133289423226,0.5912351657407844,0.5815230870338182,0.6122852753618986,0.5839017989472706,0.616886150388471,0.6089561050743302,0.5956523244586513,0.6152445495532133,0.5879313060008422,0.5476839990884272
0.5973691479972336,0.622899300685376,0.6106538155020713,0.6208234171591354,0.5720190878006353,0.609575057679939,0.5887611395189398,0.5829208790255391,0.5592877813484392,0.5882769134895312,0.619912332210625,0.5741026968933531,0.5734116550275785,0.5945895225267543,0.587445298753658,0.6033864192695564,0.5870655146274761,0.46395894201563026,0.6020481552311452,0.5596794680909425,0.5949597203399337,0.5764540214768563,0.5788878381505556,0.5702175448331883,0.5764877117146554,0.6077764744371099,0.6013354149992285,0.6368806266008726,0.6105312653142834,0.6316416064654691,0.5566779615749176,0.5758751803675364
0.6070743028776784,0.5977130220817339,0.5913203634591064,0.6023838411088902,0.5384625960729466,0.6097185410191326,0.6071549473061673,0.6285942134151745,0.5636609538541841,0.6154066404692258,0.6186731430147754,0.5991145866147796,0.569604944398991,0.5856409810852878,0.5807612501047021,0.6081166217567637,0.5982962038238142,0.5514934088521111,0.5920687672467335,0.5755483124629941,0.5992279491796708,0.5902242118839145,0.5986865391927996,0.5603495637836211,0.6192188727118828,0.6159939009395514,0.6189622001647739,0.6395627287980181,0.6028172366321995,0.6124472101723302,0.5842671101809578,0.5931617278471921
0.616436717402626,0.5800839158533102,0.6241519466371539,0.6008498695944686,0.49551443294296416,0.615614727855152,0.6188373161698726,0.6051501700497104,0.6058876363293106,0.5764178466062169,0.6104986375608807,0.6093835704902593,0.6081638670273657,0.564956801912547,0.589418821540217,0.5799301571666544,0.5862888714192391,0.57844206958594,0.6116667483561433,0.592100797119568,0.6012178987204653,0.5815568659153296,0.5908980969392461,0.5943165961833898,0.6040255811105792,0.611363143145558,0.5939450707711189,0.6062100362721567,0.5636707420793927,0.6040396348980375,0.5643370784562523,0.5892606799480262
0.615893478936993,0.6140906500087921,0.6102853484436968,0.6044796929063772,0.5600470073895463,0.6310269265639703,0.6035680307543054,0.5855982009638505,0.6031244473067332,0.5860504395531874,0.6182567642226284,0.5977965779403331,0.577957061689975,0.6078864400763444,0.582453835876588,0.5747565108322834,0.5961990323294608,0.5794290362260877,0.5911480801377587,0.5627019833336151,0.592148925693806,0.5731995022114735,0.6166330545926448,0.604432253702011,0.6004600826879907,0.5831028110242493,0.5816152251431337,0.5966273642524418,0.6013765282615173,0.6157252103681081,0.5505097224064026,0.5988147714355652
0.6188675492318638,0.612812619068948,0.5856292944679504,0.5838670857848487,0.6003474781841756,0.6139157180978723,0.5530981675647597,0.5954123675633736,0.5760554570896987,0.5515723251582814,0.608720631171543,0.5980660831809912,0.5899168892686601,0.6149245655541828,0.5988145527116338,0.5736899562348587,0.5914420870015213,0.5948038080620544,0.6050235329017442,0.5492800951713632,0.5829479526848176,0.6102158020958521,0.6225148095881958,0.5823495555858695,0.6099978158552806,0.6070826289581737,0.5806183884557692,0.6290067062710398,0.5940082233020556,0.6265152016262001,0.5694906835968525,0.6228433140420422
0.6042693898653857,0.616390431163861,0.608107830562524,0.600293590847802,0.5842740789547309,0.6029373606669926,0.5796119423724986,0.5991376911765158,0.5788424960973817,0.5493755479706959,0.567717856051861,0.596060849789064,0.5831298351134113,0.6103658274693018,0.6299830750770425,0.5725344943351471,0.6133978705715935,0.5929793722822714,0.6045837682974908,0.5951366086281547,0.5789202920872252,0.603842840003427,0.6306293093833757,0.612652173829582,0.605532865216388,0.5936811278283458,0.6093781309237323,0.6190140711287153,0.6289424590910255,0.6100911269981961,0.5716577453591927,0.5823874778095237
0.6211998530742244,0.590298718724616,0.607450434261859,0.6235717596076777,0.5360279489205051,0.6114017065055837,0.6095882610932501,0.5733335362521852,0.6172744649356705,0.5872315727678923,0.6021054132081058,0.6168341582236132,0.5762384812150989,0.5887024707223918,0.5928719706352643,0.5896095816596736,0.6483053932080387,0.6372495247025629,0.6152409320980072,0.6105007378487737,0.5835771278391761,0.5911312279146173,0.5986541864411179,0.5807166039086558,0.5850937750829659,0.553746329299496,0.5925463743788488,0.6150241312686298,0.6038824830521983,0.608162388319033,0.5888391626131364,0.5553511024991673
0.619026680010009,0.6150130447146904,0.6143740221160847,0.638983629430645,0.5479025347309219,0.5893761673544153,0.616751765909211,0.5660929515992597,0.5907258190935614,0.628926257981091,0.6000130928210554,0.5931647358029073,0.5465042268969542,0.6048070376310215,0.6034939632760099,0.5651257587328908,0.6073722877615038,0.5791588552503546,0.5933174446983989,0.5962286649626654,0.5792639136287061,0.575115395789755,0.6284154643630115,0.5911366349555367,0.6065705704276385,0.6000363353582787,0.5923732763231677,0.6393807822500448,0.6038006573231862,0.6159581014745514,0.569574208377289,0.5891956951919606
0.6069602366005604,0.5674027266570572,0.6047400828826341,0.6451344970965169,0.5487048857568633,0.5863824024371627,0.6014727137257201,0.6114041058185116,0.5662243578553983,0.5497785776911637,0.6113443985126894,0.5723917417270923,0.5679614869054621,0.5915950790473197,0.6174981261079351,0.540446071784416,0.5191023959458985,0.5307497121305915,0.6075579459447296,0.5868212990632666,0.5999396717016925,0.5682244804214691,0.6025896068564873,0.5941970196602933,0.6152951789811749,0.6002570183271816,0.5729817070497547,0.6249036141134998,0.620469260987428,0.613179389738435,0.5956737470835538,0.6223339498118801
0.6127769547863808,0.5898671404687974,0.5915623846553602,0.606267149271754,0.5232367400824107,0.5922224265488585,0.577173542350176,0.5826007738106722,0.6016620722433306,0.5448098862284794,0.6213023097373371,0.6033195105412301,0.5606352048787691,0.5887253840190976,0.5997716072979586,0.5537693507219479,0.5649608529429688,0.5794694723474243,0.6095364053200831,0.6075065963401718,0.6082476169224278,0.5816351475408958,0.5709341093634017,0.5807254896105465,0.5894113444072118,0.5999156340021012,0.6060845514296807,0.6362878945500023,0.6135059978436357,0.6240190339344833,0.5956363250338867,0.6234580177779367
0.5866349971368696,0.5770332996844969,0.575739913400247,0.6095042958201304,0.532449751441018,0.6011885726064379,0.5876211265013791,0.5794574576321216,0.6030791583307398,0.5220003151093229,0.6324977729399057,0.6018632841056188,0.5893791347877135,0.6029292682454996,0.5901543695818763,0.6080882234662108,0.592600814076917,0.6056306817834018,0.594014610752355,0.615118736959646,0.6086423204735119,0.5659444184168012,0.5834133393993808,0.6129174641510398,0.5902516846492265,0.6233736622594463,0.6255762840733761,0.6512301707167443,0.6065805034193765,0.5933176454707203,0.604222722611031,0.5655734948948341
0.6039075005958896,0.6008291614557066,0.5876387711724051,0.6235752810515094,0.5588885980708227,0.5909359814736361,0.6080608021754408,0.5933748259617251,0.5851471771708443,0.5461823484432005,0.5994223855007763,0.6052522794719892,0.5984319812422987,0.6012262029739546,0.5890203716166162,0.5928750188086243,0.5885753664844562,0.5799339089111308,0.5768548222735586,0.5803974281944768,0.5885945050243859,0.5792784216214493,0.5676938957278503,0.6142665861250576,0.6080981902159368,0.5794748010583004,0.6003261106403328,0.6326734645638252,0.5984690832303046,0.6101637838555742,0.600281994985735,0.5675988230429061
0.6238331273800286,0.5955475240417551,0.6113366164766334,0.6111494485267688,0.562915065073236,0.5746683046588719,0.621958966774828,0.5703561517718163,0.6186928950264234,0.5829214996149048,0.5996252454378541,0.6030512989510823,0.6086669342465258,0.5588266097382015,0.6079500195826135,0.5642864983043969,0.5741651014901086,0.567846222460374,0.6165881032824974,0.5882701486591033,0.6009735869786668,0.5923567899748154,0.6186274975912185,0.5952003160411787,0.6238943074822942,0.6253800656472275,0.6068139607245184,0.626065740798031,0.597471576280868,0.6121347571915154,0.5795316455257455,0.6135401567632259
0.6223679793301273,0.6016237306092758,0.6108960152499288,0.5805255460359691,0.6022023483377095,0.6183138269426935,0.5980119751832524,0.571738677790246,0.6188496322325565,0.577789854907611,0.5970046668643922,0.6074152413416609,0.5998494307708313,0.5797800097593888,0.590977871320491,0.5400548558922424,0.5910746242043414,0.5510976381658184,0.5946494841888383,0.5801961975518086,0.6005348157056067,0.5858575358933686,0.6053660739251199,0.5771584404689127,0.6004419356475785,0.6151035756037158,0.6252760330636615,0.6173454143479882,0.59056409740126,0.5953917850856043,0.5571326015594642,0.6378640280985217
0.6341281620845014,0.6058724719684565,0.6175426894666765,0.6229882272967262,0.5371861305818886,0.6079456921453135,0.5856112708818553,0.552753804083594,0.5947908116240055,0.5781699703296379,0.5924290444308178,0.5832136849348459,0.5843759242116411,0.599133534776263,0.6051949185103762,0.5317069999847113,0.6006102117085845,0.5812480051167603,0.5874246071684528,0.5465107827051114,0.561443460285032,0.5859355263834409,0.5823972326338973,0.5503745351663683,0.5385732192647357,0.5903820117688827,0.6106785162841266,0.6165598890391579,0.581747534968919,0.6081527807995801,0.5502713974291633,0.5808624039045345
0.6228139618758539,0.6204364755792384,0.6272855534002231,0.627857181420997,0.504754999290701,0.5695886380705679,0.5782566894406242,0.5689278549737598,0.5867611643730526,0.5737501335595123,0.6284082508927287,0.6036777925604091,0.5797399615803758,0.6081710186317162,0.6082681963500973,0.5526819662816482,0.6021458666223292,0.5854620856280168,0.5776486001267802,0.5583983477705035,0.5582724607137113,0.6009265085398341,0.5576761363210672,0.5412070967749085,0.5639130866586988,0.562747149500864,0.6099545650433114,0.6193359784636621,0.6033714226031046,0.5960167786562929,0.5400476650423607,0.5983740929354249
0.6272443401056123,0.6107187657784636,0.620913266100708,0.5938771334397717,0.516564996943166,0.6312723567458232,0.581267953138767,0.5970777403585465,0.562619621933333,0.5925628716808777,0.6346099451058804,0.5854445447686834,0.6092884292777772,0.5994599068640305,0.6140762201654706,0.5753036903233362,0.588773789211785,0.5440375504193828,0.5697879039333844,0.6161779996572685,0.58454280283848,0.6117131823860262,0.5685971281930811,0.592101605024459,0.5836466434064711,0.607986283503005,0.61604257558982,0.6372804191894752,0.623191733322427,0.593935806585391,0.5977818213085362,0.5736601886210697
0.5906263955214324,0.6101244591654473,0.5935021878043663,0.5947169039582683,0.5023257881383683,0.6301885805933027,0.5985465849505034,0.5347554673326309,0.4930899916560034,0.5926012658942836,0.6240516657426465,0.5474034718814207,0.6130309335321185,0.6032736148216378,0.5938431934301227,0.5996905205048186,0.5635178600235262,0.5372644908436559,0.594619978227735,0.607206911764874,0.5966419989143636,0.6199741671347332,0.6015737128838086,0.6035229982724979,0.5663186154976341,0.6047660754711495,0.6102010669461628,0.6531937048639751,0.6139218005002993,0.5999868667966473,0.573043713646503,0.5499945933820336
0.602417735677439,0.6205557774805941,0.6333068084714006,0.6175087346072141,0.5476935965039424,0.5965267914373054,0.6083552590672516,0.5143379781205297,0.5081656673694317,0.5705501620056896,0.6168897026074815,0.49852471273449384,0.6023498323654137,0.5993480479345692,0.6172531151593388,0.6164395336957966,0.5641215489731497,0.5941891409741049,0.5881724817040275,0.611621682360751,0.6194944866696632,0.620883530005039,0.5836130694515624,0.6102987792486587,0.6452194607690633,0.6211587955564126,0.6172245011261732,0.6464599264402944,0.5942825596092152,0.5811117992535455,0.573101773051186,0.5894148759211726
0.6257961945594874,0.6196223830727385,0.6075900994138288,0.5927131471045661,0.5207602865043759,0.5857108959405024,0.6009358235164011,0.5945935128817506,0.5151622791253536,0.4922046606974444,0.6005791473303241,0.5058694003766986,0.5479132258633408,0.5612841047934825,0.616745667166557,0.622661437839028,0.5859937873304997,0.5538297601508066,0.5486931466387768,0.582120378198371,0.618569659531981,0.5749009035954158,0.6045350697358391,0.5879453598994946,0.6183462074844832,0.6080257742047475,0.6061675925235384,0.6290948260740956,0.6117339742186552,0.6172551850300598,0.5680035739330185,0.5618131670834723
0.6216319027823505,0.6155653310472,0.5996639541734985,0.6071737264923551,0.5211341427098226,0.581117024531475,0.6090164753186857,0.597925026699532,0.5964786528584174,0.5442880374526795,0.6266234123393,0.5779324974560707,0.582524763918852,0.5939231652951258,0.5877284435971037,0.6044233475181002,0.5857700802733139,0.5694126634739138,0.5487059400835674,0.5725470199225704,0.6060438667875654,0.5924036446611516,0.6077991745814524,0.5915277165503596,0.6240395192251604,0.629001361710698,0.6070255178126498,0.6130152255494044,0.6087141954768023,0.6221265827507807,0.5979935114442712,0.5563060011597418
0.6243601815187434,0.607521182029271,0.6081936919325264,0.6526747826087846,0.5823421726845623,0.586966533319857,0.6119441086376636,0.584675866969552,0.5990031502690867,0.6097812875253377,0.6327145910040004,0.624724187117935,0.6044530625078157,0.5950597583738255,0.5780931404113767,0.6076625162369313,0.5652458676923819,0.5680351315657459,0.5909769332734616,0.5917952703850733,0.6074650086503683,0.5877549712819601,0.6104117138810472,0.6217730404606527,0.6229399062500622,0.6171948183665217,0.5925542985985635,0.6109662594908629,0.6078117608821487,0.6000230621005431,0.5285729557378436,0.5774410289402567
0.6165711751752774,0.5955946038402167,0.5975454234642905,0.6479662724901014,0.5464276784636799,0.5750000305873737,0.627485728770683,0.5822259163652208,0.5900620589138348,0.572928106370707,0.6153315439607328,0.6054941245313108,0.5872994218674124,0.6195633077109437,0.6047397490382944,0.5895295981870241,0.5402127230471936,0.5784478346363149,0.6072026559111925,0.5759469410042932,0.5662895456381629,0.6005419829885419,0.5978509174489162,0.5920471055187586,0.6337307068301765,0.5947897553241681,0.5862181153411434,0.632262687676111,0.6064880960559025,0.5967511714113005,0.5316650892483441,0.596203494328976
0.624975915021929,0.6045107061688371,0.6326842843452942,0.6245115461813926,0.5938433098207634,0.5848341499825769,0.6265428560853845,0.585628381789046,0.5977961108107337,0.6308239251388894,0.5857051129236703,0.5909293952077408,0.6229610416414544,0.6078558786292318,0.6311701215697627,0.5404270685419794,0.5863898578843831,0.5882472533936376,0.5716938709617052,0.5896828167853023,0.5763809407194342,0.5684026017856918,0.5725380086428475,0.5540784415122784,0.6213906343822275,0.5865443473057694,0.6169714995414459,0.6351547516219092,0.6141978165303579,0.5990340036390545,0.5824568756693105,0.5484873610430516
0.6296527950476483,0.6195483817319065,0.629901198891238,0.6194782379763617,0.6017874369320264,0.5779723189212271,0.6076253234106277,0.5679662471356268,0.6192891093683635,0.5820228609391229,0.5831972149682394,0.598807311886961,0.5943068830940033,0.6266733850954669,0.6304504074605894,0.5612549536102382,0.6124197070600546,0.6087062553109979,0.5880652712949219,0.6035376993358241,0.6045645470644669,0.5844198028397316,0.6170803991019209,0.581568468983102,0.6163358685537652,0.5962959899969063,0.6159708305338647,0.6404340663619941,0.5837012965970767,0.6219131210203597,0.600668841370056,0.5963732285010859
0.6461714507964733,0.6231646724579067,0.6248204061744649,0.6305576719617143,0.5647239625249827,0.5833731645504634,0.6089446671095953,0.5933547166883248,0.610664108632827,0.595032962416135,0.6152160730515055,0.5911063655004622,0.598760773063058,0.5956795414646567,0.5999866089384644,0.6018643882876478,0.5772661166977078,0.6071985981880443,0.5617218152767198,0.5921765785104354,0.60058977785225,0.5877883410674825,0.604029506009391,0.6301081400348392,0.6546428240783455,0.5866341739010075,0.5852540748991841,0.615321381173958,0.5951120355336736,0.6283620542851631,0.6305996035799106,0.626275775959098
0.6304842526183978,0.6294622201327167,0.6290397263305527,0.6342399275948778,0.5769483709076209,0.6178867553794398,0.564321928855211,0.5824954048411248,0.5980849350095383,0.6253411452782598,0.6249268750726795,0.6162193064633672,0.6126870782072986,0.6095221939922588,0.6206388251293435,0.6067078116033477,0.5754338886668888,0.6283528257533684,0.5874830085211435,0.6222071077542695,0.6050314266842682,0.5916821350415042,0.6031797719612904,0.5919890003294546,0.6318531574976736,0.5594394912391043,0.5992015577380463,0.6122559665330645,0.6371884721938388,0.5846915729742137,0.5958604504212786,0.5918609998179143
0.6008188685577451,0.6032735700882141,0.6158064641369543,0.5756977228950713,0.556811224582725,0.6126857005861313,0.5868619817556544,0.5620534617384987,0.6023393496406948,0.6135095764164253,0.6052437621710656,0.6092863811163012,0.5891266473050134,0.5805799015920039,0.6398267857836859,0.5865375108631445,0.5904708341578515,0.5950799778766576,0.5871585397774437,0.5963707709729511,0.5908493013407967,0.5947688053243483,0.6050332322407797,0.5924782864266782,0.6269305731648855,0.5516387408536643,0.6259279930298098,0.6185159446866653,0.6240188185832451,0.5661517201816113,0.5848132198618177,0.5700596251277408
0.6014395208352097,0.5946382240913284,0.601600308051049,0.5665120332693916,0.5778154644729816,0.5880138866722824,0.5802718100354358,0.5564597984807653,0.5644000582046549,0.5838769913379127,0.6031844421542383,0.6106737851952198,0.6132708800517404,0.5758105994657212,0.6322785251228629,0.530516178037348,0.5656886939316168,0.5401015219216139,0.586308363257793,0.5757763387480561,0.5748497861806632,0.5984762400052079,0.5624523248932807,0.572014938322472,0.6233322428487149,0.5914647432699676,0.6026478827910013,0.6244272284988268,0.5988799921976979,0.5961612548037909,0.5936117417069067,0.5890455461484905
0.6060737536629959,0.6090356918183795,0.6175147278745978,0.6018339724097519,0.3916021570809676,0.6111661357701808,0.5827585981419303,0.5217749193657264,0.539741195852347,0.5433890967836601,0.5850938249479745,0.5669275708183044,0.5896682597128371,0.5770611236384853,0.5860217833779884,0.5254185354734431,0.5484737746592749,0.501151190271611,0.5709531978104456,0.568053404643968,0.558185029721904,0.5869914617662952,0.5979328668983386,0.5407238174100106,0.6073851650061575,0.5890967428711233,0.622498842421054,0.6333748339039023,0.6190409100802179,0.574934968288273,0.5564643040123771,0.5729361093941239
0.5950078777618919,0.6088452864477656,0.5871303193914383,0.6165169615808543,0.3407467132982407,0.6161131206418151,0.5691212544860123,0.46870244869801025,0.5664209900287447,0.51566825410129,0.6003146817998326,0.5774673258933825,0.5612366455074813,0.5627942066527214,0.6401646710928404,0.6037332519178564,0.6165019482743612,0.580032521357102,0.5679156399510417,0.5877022528101552,0.5653636811064242,0.573238240268684,0.5826255218372327,0.6390668651377465,0.6033116482363208,0.5920213260652827,0.6172674230527817,0.6279964333548911,0.6384323237502989,0.5878579035154465,0.6121255824093597,0.6027068612191995
0.6057832774761964,0.6194693765711174,0.58774627460387,0.612611525753096,0.4494396131801053,0.6019899226715579,0.6106033967806992,0.5399401607344085,0.5948729679190836,0.5251608778961989,0.5868899550064088,0.5773045516746955,0.5830730797795236,0.5738340982816674,0.595529176115539,0.6107476874306461,0.6043302433028948,0.5933510481734023,0.5442252049795879,0.5996041853643539,0.5635123514563563,0.5980113894967247,0.5693486210137575,0.6226075969508442,0.6179641303630556,0.5968107519428889,0.6367748325818172,0.6376025450958589,0.6211986568715346,0.5982628197841988,0.5543912750451154,0.5948255561818363
0.619186679950781,0.6090121016195322,0.6067864636924463,0.60995080122991,0.5249269505002441,0.5890688867578278,0.619745781004684,0.5915295413911243,0.5890462147815279,0.5694917820740777,0.6309918608474332,0.591207284003036,0.5880745317927643,0.6113943083374656,0.6190886287731807,0.6179937424460626,0.6224928074007519,0.5933430772418777,0.568305457783048,0.5608751793389741,0.5987456077597004,0.6216317580987938,0.5626795273216341,0.597284604544102,0.6163991002340308,0.5795646452153624,0.6302442631785463,0.6034053288322556,0.58855665905832,0.5828279506721454,0.5313602876579524,0.6003589033744277
0.6289629587335481,0.613300975657729,0.6274023894196312,0.6051839712769564,0.5609623409300069,0.5848611318125956,0.6017353430687833,0.5982953201953962,0.5554935025195009,0.5956429452468921,0.6177729072123741,0.577644781114727,0.5884540109488672,0.6016305561438462,0.6178684325810777,0.5932750892586789,0.5869551504629582,0.5793946540713102,0.5954447521758657,0.5640065275397252,0.6109200223816496,0.6054194323625772,0.5876013981188013,0.6219973180232885,0.6053766926014301,0.6084842335303571,0.6363852483281631,0.6268073250965349,0.5864745187710874,0.6445350389234741,0.5075563746230953,0.6323274633062499
0.6168914690463922,0.6196538201641024,0.620511429078459,0.5952470803634173,0.5858849559543531,0.5817175725070021,0.6121616512536923,0.6238185583139715,0.5983943384761434,0.5894337800761957,0.6141562159532401,0.5944929561171257,0.62903589374366,0.5591100094001877,0.6053209022290256,0.5669346668450852,0.579455178594328,0.5820365982411011,0.6223250811912471,0.5374002752350902,0.6089405880227297,0.5944411503860563,0.613456577823694,0.5951429431799777,0.6044819948405249,0.6149613262466991,0.6283897888916896,0.6223253390153825,0.6209244850189326,0.6646935821650457,0.5447194546788934,0.6057390866131653
0.6226016153072633,0.6114589345491299,0.6165471607900792,0.5644487965045832,0.5634281095251703,0.6136590177771453,0.5946146753541939,0.6085639458418615,0.5715447692469184,0.5981485020356567,0.5864413315535786,0.5770396772408897,0.5965916225845596,0.5759952664347567,0.6140292662161895,0.5887079105908684,0.5881007221965895,0.566732137034061,0.5994127202643047,0.5607628398379094,0.576616005933789,0.5919709893744405,0.5984604644683342,0.5859627149653894,0.5938146684193333,0.586254099241664,0.5957211523511221,0.5950169959869949,0.5884972448521091,0.6169737462122451,0.6014087502469931,0.5757186049201413
0.6261622219819141,0.6050514336589226,0.6162418327392469,0.5998834629806669,0.5644680024078301,0.6294221706180627,0.6021652141510758,0.5814164015350469,0.6022771255100032,0.6000945641857629,0.5751033312552951,0.6018406515229389,0.5996581099411147,0.6091623275045293,0.6179970655256515,0.5778449983120351,0.5870618693977634,0.6012827649642722,0.6184982177977205,0.5881321037362373,0.5863383266948778,0.6041016896131053,0.6278799224593627,0.5554782803604028,0.6082512161687594,0.6075636450310449,0.5950350576670664,0.6278273855563414,0.5921341140725849,0.6165402146200649,0.5614686541462817,0.587730873765723
0.6118528205613321,0.619326339290593,0.5987083208367205,0.5933510231413179,0.5268340615957916,0.6123368399081994,0.6016025532076967,0.6009901951632206,0.5108315055969088,0.5758656083116187,0.6046341899202403,0.5797846077171149,0.5938018891886929,0.6225065278664719,0.6188977776657101,0.5672663852134812,0.5629428900787272,0.6054715989572017,0.604739478389861,0.6038429284251712,0.5866788009809052,0.5939224453171126,0.600043504674515,0.6056434572185969,0.6234489910843193,0.598363913961399,0.6080619282449371,0.6365252992583823,0.5909431578600595,0.6150062304167054,0.5711046484639324,0.5993943249893157
0.5978342446419287,0.620660533851666,0.5945399084343257,0.5795148990736001,0.49112311282872945,0.6020663595233011,0.6063723037824698,0.5552751012609138,0.5669961964030446,0.6005170713084098,0.615972834344579,0.5915826152206249,0.610601513645256,0.6356526918623686,0.6130706921617111,0.5380760832641234,0.5938501091114063,0.5735734694008667,0.6153956189954819,0.5423284252151075,0.5965872125445406,0.5949955571702228,0.5911917840992857,0.6257194648839621,0.6121547669099905,0.5904010237514257,0.6171125168965794,0.61799819227212,0.5719132632282742,0.6021637151585661,0.5762216150073294,0.6000213721494072
0.6224335848365588,0.602662885691648,0.6442041424908216,0.5813700386513716,0.46123800877861765,0.6001329194020721,0.5720564753407098,0.48401551124164977,0.5687588860637769,0.5970978765610955,0.5937797703551069,0.6298413809336285,0.6161905702151644,0.6188775947291578,0.5906315948423186,0.5638474092678352,0.5831943597362446,0.5826947479445082,0.5711271440979906,0.5722955756828703,0.6389024017708023,0.604343312557929,0.5959262217669763,0.6076449094268104,0.6141883578234899,0.5865958786686414,0.6218901525024805,0.6218143416650053,0.6267854956619696,0.6340447064758834,0.5353452396264142,0.6024649212020528
0.6318444564587988,0.6031577023767825,0.627095393448672,0.5982839264066362,0.5427627547864704,0.6138611342320122,0.5674934420590443,0.6001345552070081,0.5812138539143441,0.5855876481361499,0.6018114503847047,0.5784454034224229,0.5998713832930389,0.5450907697774783,0.6042983511863165,0.5946194695301372,0.5827891738935023,0.5956572500500035,0.5912950784471502,0.59067097986597,0.6253860455007603,0.614400393519706,0.6394533725975777,0.601977440191447,0.6235548569423037,0.6231076030571723,0.6294732005096542,0.6513433783802864,0.6276263710322305,0.5973840953739074,0.5714365648652362,0.6311027816656769
0.6047039226160491,0.6262909632526807,0.6229008205240465,0.5905789791578004,0.5383355406239092,0.6273738986703865,0.6085490102239723,0.6200514873134084,0.5419918757466617,0.5908071273416571,0.6010048408052993,0.5762489326103668,0.5856844822281979,0.5764853805298511,0.6206112936917565,0.6185854872878971,0.6010571514834431,0.5874908979846225,0.5422145444840392,0.5946132492581602,0.5812340949657551,0.5841350430285095,0.6028214900713089,0.6020946031654599,0.5961724564180444,0.6108210351268601,0.6143900977533834,0.6283502943897346,0.6220010823381257,0.5994002124635682,0.5875733976887916,0.5566727138913814
0.603715063608091,0.610775509434252,0.597837414269474,0.5778576048358506,0.453501493097074,0.6112895895708226,0.6241275289890833,0.5786670531509879,0.5154158328061276,0.5467069529232083,0.5836651612154538,0.6006824452032946,0.5803345385161118,0.6049169442930982,0.5880032506995052,0.5690293506695472,0.5798729438448089,0.5750657973903874,0.5232278197378677,0.5748505012080445,0.5759234974938452,0.5914432738161262,0.6124818089978548,0.6049112804907151,0.623935295647045,0.607983969298354,0.6204275917758104,0.6042868486830981,0.6329568731694755,0.6062008934940026,0.5657978273405124,0.5310317575883157
0.6090124871964844,0.6235592036255042,0.6064569747780162,0.5720737626886874,0.46994828806358635,0.6270461226059556,0.5922687471358117,0.508746484081473,0.5776839862663716,0.5091685764850755,0.586657168315071,0.5844554199455798,0.5988675096173521,0.5669141204008796,0.6056522342144799,0.566591243292339,0.5908817340456354,0.5696819236075963,0.5927719329048937,0.618954270521852,0.594378124534177,0.5995234669946328,0.6106582837947157,0.6013381525171742,0.6146066163500539,0.5978928695453165,0.6398923236367215,0.6207050501654536,0.6241667604595138,0.6191990656457116,0.5541274011038948,0.5813210981233459
0.6131362166910108,0.6333562607793053,0.5960005559252721,0.6066967525403228,0.4379683987505807,0.6305173896752954,0.5984180233988083,0.5629404337423063,0.5727543821528953,0.5574045551797941,0.6052910084749126,0.5963591397748838,0.6210273282433953,0.5980094482517684,0.6098667936059727,0.5992493894190272,0.6095844524341096,0.5664898710255164,0.6338788450626884,0.6057810140165372,0.5987020104843475,0.6142646405750147,0.6258139855318081,0.5638508042378692,0.6228232301638572,0.5934260401383753,0.6131526270276328,0.6025490198542558,0.6433376656225174,0.6003269395483763,0.5880322003903178,0.6050697238840934
0.6232308824196746,0.6040396881096823,0.5914113674899104,0.6195526576574344,0.4171303102523152,0.6268494456783751,0.5511990731719849,0.573819564358589,0.5879958385139403,0.5645579595157084,0.5749434863500422,0.5684588963068005,0.6030246651490496,0.5756038955026166,0.5973673689426042,0.5767206861723886,0.5890086841427458,0.5725867388185941,0.6047962048640891,0.6093757856783859,0.5792585848989034,0.5805933288344409,0.5853813067064721,0.5590199006008816,0.5667601759577541,0.6040153437088658,0.5925864014133855,0.600043128102902,0.633816219080567,0.5971334650644877,0.567287211848166,0.599926163908703
0.5926031392048805,0.6192956136760941,0.6043086665246298,0.5964235143219976,0.43964334040442576,0.6004817460383816,0.5569783222974691,0.6116092430686177,0.5885179139740062,0.5875514307189316,0.6213414062026184,0.6026910094577489,0.6161641413258696,0.6107836531252233,0.6293861284577527,0.607117288538908,0.6255403229909304,0.6083174670138312,0.6159876300563569,0.6138753947625091,0.5751953166984225,0.6017787998964463,0.6077279357263499,0.5472368246291235,0.6069003360254048,0.5834824448339644,0.6208663152907228,0.5726778482397425,0.6440858644381682,0.6039314278460424,0.567704410984982,0.5936354896967151
0.5726709990112613,0.5929098181566852,0.5690200085700874,0.62111484198177,0.5456327277020074,0.6030089922682547,0.5620438502403968,0.5850354466630594,0.5801823545216962,0.5851322125910392,0.618460053749402,0.6332673816319971,0.5972886661886432,0.6246737434705287,0.6231990891795003,0.6258815228045727,0.6194586741632238,0.5980874494075556,0.6274645548960978,0.6247433676531107,0.5821899958178869,0.5696928832536368,0.5998066934325319,0.5016930935566015,0.5894380580802951,0.5947846270809176,0.5989386212259071,0.5755577644063394,0.6033910996694067,0.6259719466520499,0.5415347937209116,0.5860572645873932
0.6050140712517895,0.6160324540603246,0.6297597390537888,0.6225122015505593,0.5584562897131145,0.6115756216256192,0.5925298910895038,0.6001607744915858,0.5659605953607962,0.5644921458069754,0.6182168833328343,0.560614972549839,0.5829476950292625,0.5610473459850849,0.5665289233836992,0.6028021297699975,0.5978964950740817,0.5572579975552774,0.5919316514214139,0.6097263400615414,0.5891212871192786,0.6005331758561878,0.5968599456391601,0.37522966894796195,0.5993657183015948,0.6198481416626378,0.5952376617405082,0.6229861028830941,0.6090191348962843,0.5931395007272204,0.5823947208820335,0.6170880409139539
0.6010914264301492,0.632469246164943,0.6007594848950353,0.5972147977498139,0.5430890415372858,0.612939101256111,0.6000487154300025,0.5612364577261744,0.5762537297949812,0.5803745188753586,0.6009240890583976,0.5742484289676244,0.6054020578874431,0.5860256847137246,0.5970093900712228,0.5654238665010056,0.5564440741012624,0.5256537276244635,0.5729442325030458,0.6204644165835393,0.5763911545599543,0.5717529599765538,0.5952993671078599,0.5711959013554031,0.6201040698592113,0.6193144174087384,0.5917175660841507,0.6396506175264629,0.6126361720459794,0.5996989352496569,0.6173970724628419,0.5810634223002813
0.5927971363313689,0.6014043497542136,0.5920405853670081,0.6113525161779814,0.5231586494821965,0.5990411654959975,0.5885859014530279,0.5457623357603114,0.5984020700622028,0.5636805492713939,0.5924066826873391,0.5949222334530004,0.5712475211832655,0.6036061154000238,0.6078907245491836,0.5639056647794298,0.5719391924198551,0.5711103388831247,0.5989178852980048,0.5918333741879556,0.5959587929453507,0.6136185922604525,0.6047228308797248,0.6045178747530895,0.618924867859441,0.6159044167150944,0.6188365900668638,0.6326909532088352,0.6012597315612576,0.6076369353943236,0.5728292600479428,0.5646587753269201
0.6278675483594918,0.6079154451350681,0.6121937941363469,0.5959960919399729,0.5452590806187398,0.5877620615790788,0.5786338156469935,0.5561342997191625,0.5866808479011478,0.5233732977233325,0.5986478427809856,0.5997684912525152,0.597789103871111,0.616026462601702,0.6094344431957901,0.5767244863163654,0.5655637091490999,0.5674456906929279,0.5860230382702794,0.5715768159154271,0.6062791874831603,0.5944402822557944,0.6058356019833142,0.6085927293821474,0.6372572428568772,0.6290989780682277,0.6087938224603184,0.6310737506754203,0.634053891038898,0.6118385098624879,0.572639966999529,0.568801867777847
0.6372498873119303,0.6248246154889743,0.6164084494889579,0.5908657363125109,0.5770747646923637,0.5921879853083056,0.5596863104525105,0.5591777147437611,0.5260396490799124,0.5724323903466848,0.6059711927331102,0.5795705074934112,0.5589264038093895,0.6035210288083515,0.595794302282509,0.6244394579585522,0.5749622300440764,0.5875439164248464,0.559877586467667,0.5714056525430298,0.5843644540600619,0.5830366819966954,0.5989963055198531,0.6030805771001306,0.6213192637231577,0.6126082966360293,0.6255359325384475,0.6291139362290084,0.6315964876371378,0.6024744125478247,0.5584437846282335,0.5330698032993184
0.6429027917696852,0.6024516900990404,0.6215132934303385,0.5908923311712542,0.5828075163866901,0.6119690669296269,0.5815413664744336,0.5520340053473238,0.5693979672465423,0.5613260097362116,0.6187478063146652,0.5913004194793845,0.570394015924959,0.6054731282895136,0.6323264487568525,0.6189407430474363,0.5899667933485753,0.5837605912521506,0.583569001375591,0.5884197152662538,0.5988802160654827,0.6127965204660204,0.6384483645799381,0.5694524819847584,0.6068964829429473,0.6028415331942734,0.6142441502499385,0.6367681580092017,0.6254272402290568,0.5990757392519295,0.5292301998422952,0.5386560476868363
0.6070107131101952,0.618526277667987,0.6072918768287425,0.5889960065820916,0.4826303349868599,0.6197395650606019,0.5775368452912097,0.6155316548476315,0.5822768277317403,0.5773181536834411,0.6004577191648108,0.5887487006262511,0.5836977499541587,0.5900926078309974,0.6154194176358394,0.5792258511286228,0.6059116820991566,0.5771362771936048,0.5941497812386207,0.5934999057050563,0.568243218252781,0.6158899773752493,0.605743240185701,0.5716125944030792,0.5998054977663072,0.5915114511014141,0.6040713822862442,0.6268218749618666,0.6192922352030319,0.6032476274362155,0.5647006167517148,0.561935737599454
0.5938109365557898,0.6376356379068873,0.6149350804242197,0.599211399025589,0.45574529779020967,0.6434420068558038,0.5329645801084202,0.6115200076510878,0.6037556116153104,0.5443556545378194,0.5823518435610335,0.5968049651451581,0.602903004119586,0.5375261716030004,0.5925594919557606,0.5536279845000958,0.5651646669504204,0.543360874744411,0.5692038780524356,0.5368501962884724,0.5644170611037591,0.5853025574238382,0.5668637627860118,0.5270762299244871,0.5800191630121652,0.594694659106501,0.5934554427724721,0.625253484665242,0.6390628196619841,0.6180298887612894,0.5910688959306283,0.5988010639754004
0.6283365270898829,0.6390409032645046,0.6074022813381066,0.6095029653475814,0.5319727250744166,0.6403483572886199,0.5306267297861171,0.5747950871807217,0.5938952444095524,0.5668681963761566,0.5924289890689223,0.5989490740225638,0.6138771045498634,0.5992251829783042,0.5992211980443711,0.5600230809644313,0.5790280234250815,0.5635915747187954,0.6089405262545893,0.5884069089398838,0.5872006761996564,0.5706454387801561,0.5829414463530265,0.5501629472658647,0.604581832134012,0.5971951546721299,0.5883854077043882,0.5941371513523497,0.6292249581999965,0.6298832524518243,0.5282012898449375,0.5984807132315226
0.6382959209689467,0.6282887000507023,0.611020769316732,0.6228799635813487,0.5560775123981516,0.5949313850001237,0.569018785455119,0.585170618768573,0.594487426306423,0.5708169841397432,0.6039203493656342,0.5616970112446684,0.6006502152522639,0.5936999447416542,0.5796392740333545,0.5743411734643651,0.5981349330868593,0.5950365652950951,0.6028249701070716,0.6053572892632508,0.6224215734445364,0.6114058356647503,0.5911044885586403,0.5684437933918596,0.5820077697169865,0.5893108744751774,0.6151785720389458,0.5760454419016381,0.6079900627512367,0.6123330351462357,0.5087638858833903,0.6072825683555667
0.6291506855327458,0.5927733546090841,0.6056575970289919,0.6084540500113182,0.558294815032327,0.5911728443435513,0.5691902794091104,0.6046818144460433,0.606346507937011,0.5488611932580532,0.5942043180420744,0.5719801080122808,0.5779206890601487,0.5741866770447177,0.606208785911452,0.5662919724032265,0.5850409293191308,0.5732197929642009,0.5596185232184165,0.5781151898136514,0.6015640265079027,0.5972807868679126,0.5660536827245863,0.5416456903572326,0.5681248193525303,0.6054291159899279,0.6210912340977695,0.6292958033123632,0.6064233410642781,0.584947906164258,0.6003772060746764,0.610252334143615
0.6154582061689378,0.6146725531966903,0.6087963128639178,0.6108697791812601,0.542298126642824,0.6172933890743462,0.5887945369533978,0.5785360488045224,0.5402478089813538,0.5567088409880245,0.6029916833025406,0.5748283503763307,0.5674515183341491,0.5661634166229486,0.5975737258052027,0.5959508511970526,0.5798861117116361,0.5472686807911038,0.5785814480961102,0.5635985633377407,0.5883245156361023,0.6142160074107403,0.592664950395827,0.5762375917130518,0.5721842050319448,0.5748926230980853,0.5880285065023152,0.618913947791814,0.6145307313766133,0.6030768755799176,0.5208026745792824,0.5945066015952722
0.5887833833172573,0.6088188063164695,0.6480877318506368,0.6209580412592457,0.5681298835459754,0.6130542743999814,0.5877960506541369,0.5946112058870288,0.542438296407393,0.5391815999717884,0.5602824712023002,0.5818145811042945,0.605554811067968,0.5705144386790209,0.5766137661962754,0.5421818381827643,0.5563292169565335,0.578718916792806,0.5937381814416001,0.5704014909473467,0.6000473530063641,0.6012287214733001,0.5577951047305811,0.5711992348727977,0.589246000867965,0.5646813899142984,0.5832835100070883,0.6144355223007247,0.6199191443316105,0.627613789984518,0.4738020777023588,0.6049062989568492
0.6014769581194859,0.609718443182258,0.6223114017509777,0.5918987972114396,0.5781866387500627,0.630710511819351,0.563725415296187,0.5496716650655351,0.5481132220218141,0.5473032533969735,0.6087013828388033,0.5943839419964605,0.5941176332460527,0.590655324635474,0.5690570054892756,0.5302245247070738,0.588897432322089,0.57187244377895,0.5909457197796213,0.6080073636667089,0.6048393773631342,0.6150292185155917,0.5843973310775743,0.5944976267423221,0.605759652185355,0.5760739219092765,0.5852174197975901,0.6203052349718567,0.5824374600923385,0.6393836217637343,0.5372120068046935,0.6035552805651698
0.6451166739676317,0.6029467071182437,0.6347273939517857,0.609767743676056,0.5255400998335205,0.6329425722612547,0.5882286342438907,0.565049786957927,0.5561485906734402,0.6259119189947167,0.612982656306988,0.6100747586400899,0.5848784946231045,0.6001352643975797,0.6056133907891512,0.5638501674785505,0.605811779015665,0.5756657561616558,0.6043686809922915,0.6008651815367752,0.6011647234918298,0.6007333299982864,0.6178297652510176,0.6219828568344288,0.6054266160741579,0.5955473333924508,0.5856584892193446,0.6129414107461035,0.6092865727033616,0.6091316250384442,0.5429446174333461,0.5828633560415506
0.6199144798623202,0.6109156590884304,0.6059019581885807,0.6037288743367109,0.5535064409760242,0.6141743192668252,0.575514511870383,0.5925011533116566,0.5261570488400409,0.5824573421600534,0.6011373648914775,0.5715263476538777,0.5916390098592683,0.5963379089340588,0.603372097260892,0.5918452768339386,0.5868423027308598,0.5748339579856694,0.5762482337464383,0.5866043873089044,0.5887253395260639,0.5879109700412464,0.5977671603501356,0.5785413266230193,0.6110033558150594,0.6141236211757679,0.5938691004451324,0.5770927341990979,0.6270203945571087,0.6144754989761778,0.5649558305993052,0.573980555690746
0.61085954100664,0.6200024014740384,0.6003892963240709,0.6374778179789611,0.49316293253391796,0.6014387361067932,0.5909233778086311,0.5751797619454879,0.5446760417839229,0.5872006613088008,0.5794676182496095,0.5453957881994791,0.57102575173657,0.5573639159420298,0.6188276747623283,0.5917984588688712,0.584451192308189,0.6150041809372286,0.5873424456127818,0.6122203099636834,0.596123635579946,0.5998401784454521,0.5840325155700827,0.5947081177345712,0.5993890280325993,0.6086557232639973,0.6111058976593569,0.586420387469905,0.6219552991583117,0.6010253514595121,0.5506913799552287,0.5714234434992185
0.6272418656961993,0.5960185342212347,0.6277732197920627,0.6280396028136184,0.4947544160797741,0.6300055134131743,0.5944188171571536,0.5765924522319099,0.576860286564139,0.5316636785991049,0.5832324780765088,0.5918077284468701,0.5995371669142009,0.572344713224759,0.6083278825346881,0.5553069937172461,0.5920205163518255,0.6124857285434651,0.5972140941205017,0.5805425211426649,0.5932811359733914,0.5800990546580373,0.5841313452166519,0.5619415903021974,0.5656839203228663,0.5671850517177965,0.6080056303201853,0.6117548596556879,0.6312627344361808,0.6202850378523004,0.5782594378162824,0.592350632057546
0.6030310247000914,0.6258662200781613,0.5990903905983931,0.6078110551062328,0.5277636198411226,0.6114202513060683,0.5730307498985225,0.5482271897981486,0.5694657358414035,0.55981605951597,0.5967714063879113,0.614942918485168,0.6042926350304612,0.6219446134444544,0.5928838309686135,0.575533909251233,0.5665840705621763,0.5606753075754058,0.5832328894150978,0.5406855823991004,0.5734539318949099,0.58864196323937,0.570206300778243,0.5380969733458638,0.5640218475928278,0.5869464596807754,0.6259342956588783,0.5808045050293176,0.6055411042796859,0.6328859328334091,0.5942689228073732,0.5944500682481104
0.6124552417000633,0.6093292014170428,0.5887065371393532,0.6034900618932064,0.5052092723064114,0.5843942236333799,0.5893044694113381,0.5795996432276427,0.5923901316652245,0.576907495296926,0.6119726365818954,0.617991561040828,0.595537706513884,0.6221191068300498,0.6154318665093581,0.5986333277342641,0.5527570435013276,0.5514404796386065,0.58686188496171,0.5309610069138753,0.5743450844173443,0.5927258685711694,0.5938660413696568,0.5539820134413134,0.5976480825058981,0.599602117288359,0.6235941338817002,0.6025383762853238,0.6181136760894503,0.6155802556597152,0.4758593332319907,0.6079328597099902
0.6110348664568646,0.5945849626238155,0.5914882385384113,0.6450383743170232,0.5176033381355758,0.5778389006474831,0.6128898352047734,0.580949440600564,0.5870826099894599,0.5293836084298746,0.6128308548659773,0.5620893831018869,0.577724641464278,0.5654704537929196,0.6189238915529134,0.5389771996379995,0.5468258139348054,0.5058372932907256,0.5581647024240675,0.5196331959854152,0.5257079798696047,0.6256165336458124,0.5962502900290638,0.5470291004014203,0.5674181748351561,0.6243985367134579,0.6293222345715974,0.5969960045334308,0.6279138070743739,0.6138091085574473,0.4761308737986152,0.6100241665139334
0.6070477937804433,0.6006980385563265,0.6197641806764684,0.6279153103511215,0.5535562112831269,0.569431540688333,0.5766071178472298,0.5636203202710699,0.5911995499226723,0.5029981395914476,0.608259376742116,0.572505094069069,0.6002557420759254,0.5942302232156482,0.6138717842897239,0.5381672567902189,0.5765863471829289,0.5816387087264387,0.5922410265447433,0.5183758083665815,0.5618476962022791,0.606343226244558,0.588072409621553,0.5806786172912366,0.5943126041960984,0.6175946518687527,0.6203942557221427,0.6105291337693304,0.6102233413234832,0.6032456040175083,0.5679475332083928,0.6358806278863463
0.6296311311744853,0.6034487295351187,0.6257063883435983,0.6217774708469723,0.28516090439054587,0.6203151850320867,0.5359525081716998,0.5167917489286737,0.6027427256709972,0.4920319143042584,0.6032200481216901,0.5903884417699206,0.5925942856286035,0.6096591571638257,0.6085100442841611,0.5789920503341284,0.5783419969131387,0.5809028006696644,0.6084615066771124,0.5850005980930075,0.600129887873158,0.6075806402065926,0.6024449776662641,0.5713184484203313,0.5946087373510358,0.6047667321259205,0.5907168969188965,0.6194588909857148,0.6118973244664674,0.592143890791232,0.5896235451626781,0.6042630410548013
0.6324407570166759,0.6225455299577414,0.5880561843941647,0.6055698250281312,0.27113201682865995,0.5875972369950557,0.5806657159877351,0.5677722799336675,0.5800190083806109,0.5571904599608923,0.6234569761004134,0.5484374214738206,0.6194812894229753,0.5927769996477648,0.5951086980608822,0.605570841339198,0.6134816042198721,0.5872525693219539,0.622629926736491,0.5908369362921966,0.6124896256226107,0.6120214477040355,0.60792094299073,0.5660709854653487,0.6117521955465093,0.6197467117682822,0.6214178676709778,0.6130126879842681,0.6015754787518426,0.6430702564607524,0.5555213327368755,0.5989165357497961
0.5827643880883464,0.6102453847119054,0.6167013656840301,0.6206830575999374,0.47602181681587563,0.5803637484801243,0.580704479246203,0.5682570346206428,0.5869755497406146,0.546069675266347,0.6061597477975873,0.5442303969525186,0.6082168303873439,0.5879477029627629,0.6276184506672373,0.6019324313109102,0.5977666296629933,0.5929027040379995,0.6220583649335536,0.5644798043397161,0.580946867007047,0.5960976079838458,0.6091390647879971,0.5873112708250954,0.6007598200416768,0.6107463346818438,0.5994085854291327,0.6340805591054006,0.6054742470398016,0.6046364176151946,0.5726528759136498,0.6039173360272616
0.5934341064417104,0.5987681175869106,0.6257983968083081,0.5831531638435354,0.5557591605862973,0.608364106705277,0.6174632959161452,0.6145382277224045,0.5904565886822959,0.5204727770390987,0.5872663893451184,0.5746664685322354,0.5924876007155642,0.6118514627472895,0.6251326491571265,0.5838672319757907,0.6056420445941795,0.6005473308402824,0.6059891778611659,0.5129558716162093,0.5803022321781386,0.6052328796926121,0.6343294795060146,0.5950717796491203,0.6037722258675049,0.5983332878041852,0.6074590507247888,0.6324187036928066,0.6172833657328178,0.6045786878286221,0.6152296149725003,0.6123031805126917
0.6087160757464658,0.5608077364942377,0.6191787054259468,0.6162740746750388,0.5711835174563284,0.5989039211965652,0.6116766338317143,0.5985055381581388,0.5960542986669006,0.5137499490211108,0.5880098734160328,0.5754231893855404,0.6039525318552674,0.5827567605227522,0.6264864623168735,0.5831169652546309,0.5799290702456354,0.5890741064254277,0.5993193342807936,0.5591445267461812,0.5966300840067267,0.5764003565110518,0.6109209040473074,0.5601490461050176,0.6039023801935488,0.5944158386775733,0.5960622803468887,0.629867727965201,0.598702243361871,0.5912470884967753,0.6091629599808446,0.6097293903971495
0.6491821554230199,0.5928505627353964,0.6228931036369301,0.5975267255496712,0.5432425446374287,0.5666264875940246,0.6092912128650152,0.5935898003796187,0.5950650601151084,0.6193469770003599,0.6151854647049091,0.6251514009659016,0.6007888197837921,0.59634792257051,0.5989798191842786,0.5609450183592974,0.5994955060054732,0.5857860957621348,0.5946056718643278,0.579077836628338,0.5871217471682733,0.5725696053294826,0.6055672893803132,0.5781345453391382,0.6068131584279572,0.5975179781923465,0.6470070903483993,0.6200265938678884,0.6022435731878617,0.6001460011352391,0.5820597378427772,0.5828446740231619
0.6287324088486614,0.6106935624660705,0.5853413497936146,0.5957117046765199,0.5598261369422701,0.5971681231039003,0.5831602119644668,0.6050723230337685,0.5942239444436801,0.5553346350555057,0.6156260381913321,0.6299339618589634,0.604256611510507,0.6023099437677857,0.5939450991129833,0.5940134655292626,0.5931300985775958,0.5722379527924488,0.5970664050072325,0.5950636113084413,0.6029161481212424,0.5923719794518028,0.5954683268129486,0.6133750528453659,0.6215041607275413,0.6360982995258899,0.6137611615579042,0.6130797482747412,0.6000357349629168,0.6027055656394493,0.5796822430547199,0.6115893957604386
0.644997920592814,0.5912355780011942,0.5832879204087504,0.6098391715263172,0.5826611578220455,0.5701261245757401,0.5861844254873287,0.5949795696247921,0.5898062760043312,0.5248737820169875,0.6002732709394647,0.5839132584298157,0.5990958056185711,0.5976314693972298,0.6087630815895584,0.5312695325988277,0.5871284552845668,0.5938455895702437,0.568879074832632,0.5714171316682068,0.585225585762617,0.598568719324605,0.6198558721708864,0.5673756213504109,0.6132655669348948,0.6097551078268495,0.628325636915462,0.6054084352635103,0.6304148716712104,0.6123165953061447,0.6150790444590086,0.6177827073842646
0.6075989532663648,0.5973717750839809,0.5735461129078967,0.6310041670275361,0.5558132295211662,0.5602416218964059,0.552283724733754,0.5621065513529468,0.5622617024225884,0.5459220859221898,0.5779117169911294,0.5511532479207601,0.5905331037097916,0.5864973000466294,0.5929849758812415,0.5603596760189506,0.5595087912815022,0.5803407493100083,0.5649515615768577,0.5465156008487866,0.5746997215180012,0.5760044845263845,0.614800659258226,0.583756581177902,0.585720331824104,0.5691748578201152,0.6026039679114708,0.6160931883644238,0.6208330434340801,0.5934524829371273,0.6025856354479697,0.605580819011863
0.6110626597735167,0.5752299721015932,0.5994748782711712,0.6215371672257439,0.5219243316947915,0.5743172547492232,0.5855688268077488,0.5839968758687188,0.5600197809808733,0.5317403190729291,0.5860315898343043,0.5734437142993598,0.578796987017506,0.6057709652113643,0.6139309117291916,0.6125365740162514,0.5912172837038661,0.5787032903646185,0.5769714869714688,0.5600643401704613,0.5839806077444725,0.5641785634985839,0.5873991447353188,0.5951099313542194,0.6134686151288289,0.5743869496006386,0.5852702857524883,0.6222133360080817,0.6347036391570033,0.5936736910985498,0.5547827587041083,0.5654771756978803
0.5983984124798791,0.5831894306104637,0.5999015175017717,0.6048392283431769,0.3721712410781062,0.5915771440504889,0.6347527094590948,0.6086630478503263,0.5877793240244182,0.5306487253653414,0.5957707344777989,0.5852015063151015,0.6195931665588184,0.6213597821734069,0.6356414391066068,0.5965467499010955,0.618696598531991,0.574486286371116,0.6090001264356202,0.5945953888839366,0.5898495317540937,0.6184272564714126,0.5858592738301596,0.5797493938241591,0.5984108829955983,0.5722132244954206,0.5932144768510561,0.6265124147674928,0.5917157660935999,0.5860655658378406,0.5485379416969804,0.567876591465279
0.6070210154848477,0.5687673740425816,0.6269369748806151,0.619587645905602,0.4569345822218205,0.6232118809560108,0.5858176778385977,0.6009924582557291,0.5870522841079486,0.5787904648702393,0.6008021564974979,0.5835315326798054,0.5698586418547738,0.6211891164933467,0.604908483948214,0.5963098221162229,0.617343105590535,0.5673619628105411,0.5873969877451395,0.5909146239907677,0.5608250399021304,0.5916611729043577,0.5983107790846733,0.6123536796653033,0.6020085539523636,0.622242956639099,0.5896468338619738,0.6243361342641629,0.5959330941096557,0.604907621752651,0.5482796462635666,0.6168296257446197
0.6156440175651734,0.5883475352267564,0.6286458010346934,0.6236278004212887,0.4540708579614803,0.6042844742878963,0.5637676905796116,0.5832298740831976,0.5928515142814037,0.5451649317850986,0.6105363509403201,0.5772879742515045,0.5501145623542496,0.6016197416687725,0.5918417747611562,0.5785677030264358,0.5797546921239083,0.5777549379878866,0.5471785103202449,0.5656870092857207,0.5833763986907612,0.6046447751445432,0.6072024638353337,0.5823000013446809,0.6176856821403591,0.608984163656924,0.5895502836052446,0.5991061838833533,0.6095599869761315,0.5917343382726696,0.548817922874246,0.5964831843361305
0.6304420674206477,0.6169423807377004,0.6127765546037258,0.6360051654249057,0.5576426155786463,0.6148361028432583,0.5820908347185689,0.5608015904653798,0.5837860916253406,0.5000156781201901,0.5681053329015446,0.58141292881476,0.5698841632908591,0.5799414962495275,0.604069687346076,0.5751684441537415,0.5683564166804271,0.5799024802699377,0.5728351704421013,0.5936747004998306,0.6149096170654036,0.5893174366170935,0.6042339738974274,0.6019697764697836,0.6240400109961932,0.6127709580035323,0.6002835234825223,0.6256221662263184,0.6232451575545257,0.6181577736397323,0.5939701241222353,0.5945965497343244
0.6225707297532415,0.6149761066135637,0.5906930593190558,0.6248679112603286,0.5729802107750888,0.5957319164667774,0.5768767970891369,0.5785571448658566,0.5593264729929195,0.5145856629934258,0.5873685801391604,0.5865809087799678,0.5858071302164491,0.6205043259452214,0.6296720504402624,0.5550144915490525,0.5820409143357517,0.497521107831596,0.5846164092588522,0.5733124502211688,0.5872145070884045,0.5957775454473695,0.5941692421899512,0.5846015697876856,0.6213493259774094,0.6119230753561049,0.6091576328700308,0.6116591852325008,0.6128961247747866,0.6061076682086326,0.5904376411417451,0.5886033492182006
0.6141819727642153,0.6256436643121264,0.6261924983314713,0.6284437873291666,0.5561755233759018,0.6165252953996982,0.5816766035952292,0.613427476897916,0.5550035870742507,0.5045255806183024,0.6028397026581951,0.5831443273373988,0.5480165563620076,0.6304374756327169,0.6139208692070772,0.5656218746905748,0.5624866645561837,0.48514489759557033,0.5891113866683626,0.5697189593774472,0.5738335998439883,0.5744269728876623,0.5923314143334593,0.5806212358116549,0.5964702338316865,0.6162695755191718,0.6434626646141615,0.6312402342194701,0.6008545297106553,0.6108515075783028,0.6051319173546901,0.6018748002545888
0.6130144820460193,0.6236452309221536,0.6144900323649796,0.6051432845821796,0.48939439436753673,0.6118033983317424,0.5859207740617691,0.6066834803466024,0.5821409717828518,0.5789580013015541,0.6428574282633619,0.5911275295957452,0.5926956203915679,0.6100331857932448,0.602899973680227,0.6233432703782622,0.5767394084521231,0.5825689050717413,0.6034045262912207,0.5851654522786403,0.6108601818194237,0.5877612918829818,0.5955185870324833,0.6159041352992274,0.5978865216089502,0.596103706228714,0.6400967268988542,0.6618404601587993,0.5942416247401603,0.6141267603471645,0.5543010243672577,0.5969952863627581
0.6129188548008013,0.6148452463347893,0.60996230328379,0.5758691055232172,0.4444312724476567,0.5913679179366618,0.5805024346812888,0.5724053134532223,0.6019184518125109,0.5785016412327764,0.6050814837983705,0.6044687662831758,0.5972065741138053,0.6222421915316563,0.6325065633764861,0.565190565370441,0.5691495480570712,0.5809105511939743,0.5935963336923433,0.6140142930221315,0.5933029500548521,0.6044486356861722,0.6114009542938459,0.5653262852145824,0.563109287222189,0.5843544972897905,0.6059022470167164,0.6005745252987076,0.6139526893008549,0.6286974695230976,0.5808191022096412,0.5876815468829077
0.5930850448475131,0.597111852054836,0.6127339785524581,0.5784566595228249,0.4392799162439873,0.6092455288836733,0.5832112354395442,0.5749777891209433,0.6066118945689647,0.5963712744644236,0.621894046505866,0.6142285008864161,0.6002577977482493,0.6171928335887329,0.6044193172247825,0.5369926899925779,0.6049505807960074,0.6119295680201824,0.5814598530754029,0.5977900684116637,0.5874149051463364,0.5906635461832908,0.5787327684364896,0.5823283157073735,0.5660711436070218,0.5827665835771509,0.6111845392453659,0.5761220977924442,0.6149679124393086,0.6065669739497834,0.5944161289967931,0.5929355859745908
0.6138054587604156,0.6005410145903141,0.633833091389377,0.5862024361737563,0.3926928200848483,0.5980710735744057,0.6139492935021331,0.5932310210999052,0.5888700590368807,0.5916750992266673,0.618725069407335,0.6030404580505873,0.5831569884940584,0.6071672679486757,0.5937100023140389,0.5611450680048118,0.5671105748663496,0.5868426738862791,0.5767911203024245,0.583403796824705,0.5692747669847464,0.5904009498225595,0.5983014025857214,0.5447992099671741,0.613611137856799,0.5943628168874473,0.6110583728803238,0.6130352058154411,0.6310409589766595,0.6185393321221779,0.5497689132215471,0.5870467317310046
0.6383559809072348,0.6163124877984325,0.6307928872278188,0.6040450779182329,0.41985075725977294,0.6159490479537286,0.5578190913163379,0.5806005729509631,0.5711091662725378,0.526732574405715,0.6014920374951656,0.6239324448275299,0.6296954059301765,0.5640143856249082,0.5834832859873811,0.5809217546746468,0.600304069276759,0.5899156756895576,0.5928379960961432,0.599692739513304,0.5920538118184702,0.5808496408210848,0.5737603821362516,0.5275028994485886,0.6014873778193577,0.5781926200372078,0.6123808288281736,0.6006493419332486,0.6284818907434464,0.6171920728368612,0.5722178681112942,0.5700197553469173
0.6099631792305864,0.5980325992346773,0.6093605936837809,0.5836474831867826,0.497636394110625,0.5852225588875228,0.5717997370717374,0.5853995686204936,0.584055944315732,0.5748657525579635,0.5729976280048947,0.6058515040462868,0.6318850915726095,0.5871392725666214,0.6144764166568915,0.5617895959233321,0.5763841712332818,0.5906931647044051,0.6149840171220227,0.5935308240562338,0.59488914645934,0.5938021420694448,0.581635896918069,0.504593091846036,0.6013334294806625,0.5742121192576297,0.6102557082956301,0.567060936934042,0.6346634486907425,0.5935073398048836,0.5627707609724477,0.5429210451733679
0.6311526554207538,0.5873147864676005,0.6131791253331418,0.6265972103318682,0.5398449894874955,0.585905572839243,0.6037678648540639,0.5943207002526276,0.5791557461752159,0.589667090252779,0.6162298916899394,0.5850637211756844,0.5963301019465712,0.606178155322012,0.6005532326789793,0.5819257689430821,0.5693117685126969,0.598505189177311,0.5668502573104388,0.5945168576426929,0.6013685729084526,0.5894273591874963,0.5965153814748012,0.5033657426767109,0.6048062770939411,0.5799772117523339,0.6067102911496813,0.6098063412448766,0.6076112614104461,0.5715919983040014,0.4979322592668449,0.5706776818200106
0.6002245694828328,0.5951831662716716,0.5969459564024233,0.608046057978131,0.5742274971069983,0.5891047610811508,0.5870773972232604,0.6276460517045983,0.597863458521978,0.5807487871022934,0.6053120467502917,0.6089971472497684,0.6157723532420687,0.5886002927813005,0.6162630457067868,0.6109762129345429,0.5813153855006825,0.5924954478939775,0.603954258796966,0.6074000545737461,0.6147761486326795,0.6091453909726643,0.630462753744673,0.5928441609408752,0.5915421035265669,0.62043463171526,0.6027602132508183,0.585679600457135,0.5802414361265384,0.5719418467207089,0.5405601336262054,0.56970622845507
0.6208401425008869,0.6044993227127975,0.6080059893018235,0.6342197574862176,0.5299950213638192,0.5936448476914951,0.6002202481152423,0.5942544246325014,0.5928569065305549,0.5770340677821739,0.5963866422717441,0.6066861340830836,0.5814936443361396,0.6112965723847732,0.601703213529341,0.5597940549178033,0.6097158397396942,0.6125685887910728,0.622310163849412,0.5869586707231886,0.6213340767896285,0.602034410362049,0.603662289762076,0.6206399478879376,0.5579201784811723,0.6055487341116308,0.6022391938191158,0.6042792781105781,0.5848161912791068,0.5719079086004761,0.5823666420272269,0.6219677510949277
0.6081589907081923,0.5927324133194607,0.6213098607893639,0.6378912246984254,0.4725424875221451,0.6088915569263302,0.5678270104194172,0.5725408095035882,0.5987774162124606,0.5367433541425779,0.6201474810362728,0.6003604163094987,0.572280987161915,0.5921711002599008,0.5585914101821339,0.5428385438847014,0.5838696384308384,0.5947709454336509,0.5496620932671061,0.5995918557094653,0.5978799348344084,0.5599671947428355,0.5909897131634274,0.6101925971722775,0.5810001360303292,0.6051153353374814,0.609043746058052,0.5905277423981792,0.5907330791015157,0.6219942789965707,0.5884398191333582,0.587828583246782
0.5975920685595519,0.605080830317434,0.6105520411769709,0.5965931335994674,0.4877537023896048,0.6038241404914952,0.5838450460764464,0.5406412646429573,0.5940988450676365,0.5566533248556294,0.5608742612552988,0.6100185208654789,0.5926534605242777,0.5484348446450196,0.606493572585999,0.5280051211063008,0.5569993280802459,0.5864180338640446,0.5431323209246646,0.5808605054731206,0.5909394632548315,0.5835203371640851,0.6054655697028575,0.602003216291044,0.6146283401877897,0.6339989491579643,0.6225084092946505,0.6274010071473257,0.6001528949344013,0.6305688212305323,0.599401055600155,0.5866768827594968
0.605251303868755,0.6103639965284797,0.6040691762786619,0.6085128899208536,0.5124432053800403,0.6147833134486791,0.5868363293728565,0.5810023329071972,0.5915366196954523,0.5694678122699792,0.5937025803666911,0.594623982704455,0.5919739858945281,0.5656580499531083,0.5702420092695046,0.5695764848210714,0.5768679013210467,0.5732065604481487,0.5742860896763418,0.6046222161369017,0.5953056125285823,0.6272915142124114,0.6031749439541674,0.6099353344823677,0.6101808530486497,0.5956127610656496,0.6032201630646856,0.622564609322267,0.6273696889482077,0.6188303226524439,0.5864401048981116,0.5950863278271905
0.615729341364252,0.6166547610262154,0.6091179379754981,0.6139958384149389,0.4654846082220585,0.6282715151977256,0.5959413124788062,0.5971046538401068,0.607171674899436,0.5555742295073833,0.6136272307593931,0.5911941250942259,0.5999312594255555,0.5880351617963973,0.6284822770586831,0.5867720093005016,0.6153535649435149,0.5454367064813259,0.6201817872456385,0.5872346345038455,0.5992600815999838,0.6039262008088779,0.5904548759881845,0.5953329994811489,0.5997756869605433,0.5906396879649365,0.5608133460154123,0.6097703449368432,0.6254806693576218,0.5804548673028802,0.5694171473516381,0.5905844577386863
0.6007657896971548,0.6098888471406205,0.6043852630006477,0.6207037405795965,0.2864269589672861,0.6115083452391477,0.5488449757835001,0.6043157465807258,0.5850446860122429,0.5488941403752214,0.5963134482188899,0.5857079451068237,0.6150189618101378,0.5997450628611292,0.6286260397011145,0.6007159786174725,0.6003673256841431,0.5649470051832219,0.6107802345030371,0.5977598494163043,0.6023750215232226,0.579297174305017,0.599691071859012,0.566398519919197,0.599439430001385,0.5771502078121213,0.5889981020424706,0.6265601984546687,0.6148713842925084,0.5929488377926075,0.581393731039459,0.5860467996247798
0.6127263466872335,0.5755587476020172,0.6127167151674877,0.6222484436991382,0.31187673909406355,0.617229257070778,0.5470529182140833,0.5373192167877656,0.5737829027546111,0.55240575683202,0.5951012721772675,0.5790035586042142,0.5819676637664806,0.5804162565074473,0.585338101695521,0.5801597845889046,0.5743445476904339,0.5767315255956973,0.5784525226749055,0.5839139844111965,0.5617248830503367,0.5791481850290818,0.5578460661151095,0.5882954415375945,0.5963362768193616,0.6017769321106758,0.5853028093876995,0.6378356626688944,0.6126655348138508,0.6161934442891575,0.5983076190588252,0.5168614354386105
0.6202716261980363,0.5986371381714557,0.5947938377611917,0.6156438264475357,0.543149306386002,0.598484706638061,0.6042779065637172,0.5340446759321429,0.5513091005795201,0.5713993800746113,0.5931650718108408,0.552785792852958,0.5743310349988753,0.5948734660105099,0.6344684143477854,0.589109897648957,0.5641045889138452,0.5870848679068525,0.5705728786851223,0.5920406218492609,0.5920817348515004,0.5806130672184859,0.561738563881971,0.6040208479392999,0.602945447282039,0.604251018659399,0.593330582751272,0.5941786212092839,0.5949647409521845,0.5909422189546754,0.5872889246123401,0.5543941092228191
0.6335948225367543,0.5926555786435963,0.5945296818967587,0.6018545315979709,0.537496160157704,0.6275634927337483,0.6070340210524532,0.5814960445341448,0.5820383303544863,0.5947627786853387,0.6056580151007176,0.6089668531410926,0.601223390857152,0.5620927923955406,0.6045749921253512,0.612300146504797,0.5998308052791388,0.6048512586335719,0.5838082778459843,0.5874998319551477,0.5886525539808201,0.5695263467201102,0.5946149204636564,0.6354208220860817,0.5864606680622195,0.602299455426659,0.5816000691365009,0.6157380813562217,0.5928694423446417,0.6187137934099818,0.5752584989260159,0.5695330247326003
0.6324538787634353,0.5836545852485475,0.6213983754507852,0.6180047344168154,0.5688280362851477,0.6230043948585533,0.5639969133735021,0.5439211079803306,0.5404497603763332,0.5637662850738976,0.5859407309583915,0.556378405831639,0.582662961198205,0.5706655558701614,0.5971302088104204,0.5801002463684322,0.5776227601463026,0.5580786798613366,0.579307104365459,0.5729902124464594,0.5845450312458711,0.574095257461241,0.5620154850503862,0.5887785622843364,0.597403953294795,0.5819504976567802,0.6194971274578442,0.6396625002526317,0.6058804453097539,0.615966322440197,0.5416778410019956,0.5458156308417754
0.6118423772179233,0.6022381869999869,0.5976864089280047,0.6054974719857369,0.5487581761250868,0.6187520005327589,0.5908039269366947,0.571818121185709,0.5122892208503291,0.5440038905518114,0.5793007631283662,0.5274359904104631,0.5842255932618681,0.6023764221954546,0.586590143184929,0.5941045526327451,0.561238263137831,0.5455711180125844,0.5535284241116489,0.5817404730758562,0.606148626328507,0.5949887847054911,0.5844655998558239,0.5835133255220839,0.6056701121613788,0.6187678450447378,0.6254004952394174,0.5771702928969118,0.6287704520644342,0.6140074783342802,0.548249645920003,0.5748488296427521
0.5975933465166019,0.6157670039599985,0.609175823779927,0.6116107745628172,0.5480331737655857,0.6011100909056859,0.622520663940898,0.5697471951271997,0.5974020018535788,0.5481836002817873,0.6248076197489087,0.5950466191146808,0.5978113505008502,0.6118978719423711,0.6008003301275404,0.5689307453284203,0.5931902270087686,0.5823928457246397,0.5827261130444681,0.6102324389129805,0.5968255157610849,0.5975303616197132,0.6218963186784707,0.5610166487466164,0.6357938049152279,0.5729162419021234,0.6256949616649328,0.6083078199894327,0.5896556006759344,0.6303549045867158,0.575206818345976,0.5950451262305392
0.5939943200525315,0.6142233472848342,0.6045732335897296,0.601891597544522,0.5642421834313955,0.6052553979580702,0.6099969977545245,0.5644364257577665,0.6211873834867547,0.5731229063311405,0.6045764463176737,0.6115932203255285,0.6091179225786694,0.594071888273791,0.5952196324283494,0.5769085872277184,0.5737913343447887,0.5920094996328253,0.5884016888710524,0.5795598331823508,0.5875641373147134,0.5934678674157441,0.6113199980894741,0.5711840341107157,0.6084132985398027,0.5643263996213044,0.6163854373949587,0.6185907393995085,0.5781308901682527,0.6448275166382849,0.593232029375824,0.617693337632478
0.5988318955194623,0.6065545930264893,0.5954828184285899,0.6365495817759408,0.573688079008114,0.5742777351972452,0.6218325165379324,0.5543551555126367,0.6046729464300804,0.6196685023066086,0.5939789837657652,0.594825013181012,0.6042708482941386,0.6066659120048636,0.5971616331874183,0.5186659206438029,0.5858966010606701,0.60674680679523,0.5988157949817796,0.5798421467109667,0.6057991221846848,0.6253170182824896,0.5861004983577871,0.609231127575041,0.6285486725049174,0.6043150122080347,0.6221350476897842,0.6000112591457203,0.5873722348529862,0.6273056070772243,0.5974728111657672,0.5873577910357888
0.6112614019818743,0.6006084985543372,0.5723450537904808,0.6137633592941825,0.5656676746840441,0.5998166230176691,0.6135089510309943,0.5999145800531798,0.5884044672935071,0.5588618075151537,0.6202085223954796,0.5722951545258455,0.5894079263363139,0.5774036273386449,0.5843723613405278,0.5259145077029093,0.5972137488653262,0.608327384549141,0.6028376972729097,0.5959410968925307,0.6210210873335762,0.566024202509356,0.5766413248634508,0.5917127012665948,0.640101810422466,0.5988921010826367,0.6402580601613681,0.5840775178657238,0.5925425511864457,0.637554378193407,0.5683444601314012,0.5999792114418572
0.5918935061403379,0.6075548733985152,0.5971653764845697,0.5914376090350562,0.5753733068313642,0.6037422091894453,0.6269930429643402,0.6064250706074032,0.5977655814680469,0.5853420875145026,0.6014948100296764,0.5851107445086541,0.592636471761379,0.6189218962328598,0.6085290328549631,0.5706419953710404,0.6073684980146199,0.6145421059309437,0.5888214029327976,0.6062000573550255,0.6128061671457306,0.5888561250442508,0.6202550340402255,0.5909225954032284,0.6200016386981049,0.6087888129412335,0.648103242381258,0.6189282268067857,0.5768891155464617,0.6303676535847713,0.5525980373677877,0.5684325444734029
0.6228868532382368,0.5963889516040846,0.5646934588625983,0.6178502738989224,0.5299077475722078,0.6119249714567703,0.6168863402579441,0.6102879253073694,0.6054932229312655,0.5392426177577136,0.6103976804402107,0.5933838670448841,0.6030718769799837,0.6071413155730858,0.5815312097265739,0.5807862452283397,0.5884806698840865,0.5738712403238311,0.598155643747571,0.5744554731453659,0.600283660598254,0.5904036177153213,0.5839932506024588,0.5908752823910515,0.5804243248008629,0.623456819462346,0.6276223779699834,0.6121925617886013,0.6065065786163419,0.629742350402362,0.5818213090815312,0.6074012609462902
0.6222613919443951,0.5919668483159524,0.5879626597170784,0.609154827091412,0.43235702548957233,0.6250709757596598,0.6421739214715219,0.606927384091061,0.5763291557842005,0.5472065306118226,0.63056000079707,0.5862904584999478,0.6020407471098701,0.6073145711203618,0.6095223119907276,0.5844350840472803,0.5472995154651268,0.5420606939091721,0.5866899171849584,0.5435973706094863,0.6119185496034651,0.6138123813961505,0.5943228928872433,0.5559638414319084,0.6206517560734572,0.6055736182558831,0.6127174022059596,0.6161224233389238,0.5927236330328398,0.5912715723781821,0.5790428711398294,0.5842942117683627
0.5809346892990188,0.5971249656931974,0.6089090724002428,0.6414578199986045,0.40643031353528913,0.6203671802299016,0.6090061344682733,0.5970188181988494,0.5931120499986324,0.5815318005788694,0.606727312871743,0.5615873790484329,0.5552240565343838,0.5822244348360011,0.6235422705161495,0.5557299816531129,0.5508622970100712,0.5608928338115922,0.5606824986666692,0.5520764556515578,0.5690750803920106,0.5923066444271612,0.5831453101944764,0.5882642002732923,0.6216960198000807,0.5805174850944126,0.6009071843440688,0.6287364853211028,0.5745797380532038,0.5989785474192564,0.5478609269317243,0.609783187560522
0.5936914171357932,0.6010680824607495,0.5907200308547633,0.6175629206993221,0.49770585229387043,0.5819564124115613,0.5886109873363217,0.5960572373607622,0.5861257516109815,0.5710969604641822,0.5869484643781995,0.5908265660019412,0.594835830857674,0.5830889984945338,0.5978839813916466,0.5661112271096989,0.5681562237581059,0.5964905511646403,0.6014769366153176,0.5673200497137891,0.5978864738153571,0.5730921955934325,0.5811597817408036,0.5915626676165915,0.5888310788454572,0.5845541802980843,0.6060828652110768,0.6402508232852369,0.5678266478275553,0.6095392728585782,0.563734026508552,0.5905251150651836
0.6105087452336879,0.6027185696491788,0.6184629603862044,0.6354937421542477,0.5344816176893556,0.5814885630432336,0.5854586039102774,0.6039166452084093,0.5609204484725598,0.5885587172684263,0.5908320067119828,0.5973199753820135,0.6102333177975727,0.5582787473134276,0.5638781921968228,0.5994877087737263,0.5633255040049279,0.5913779123446488,0.6083284004950631,0.5432867815747011,0.6149658912565013,0.5967351521804121,0.6100238290234903,0.5856575109382707,0.6203567407168791,0.5905608015176482,0.6015305867490714,0.6204636196453617,0.5841186031713574,0.6265413977665064,0.5770718588181287,0.5734605694378856
0.5998398372463254,0.598876481801911,0.608013330610568,0.5799747829581618,0.5848741024677411,0.5700272429958844,0.5779577486101206,0.5998558463155654,0.5669706786649211,0.5946571440330479,0.6016814294936697,0.5871642807609274,0.5719443807152071,0.5621129498669086,0.599449072753329,0.6056338549647111,0.582855593887583,0.5985942038745256,0.6032280514009818,0.5126647311103101,0.5891990236077618,0.6006723027866596,0.6028152581792621,0.6026391506165907,0.6411239588718498,0.6244791589042418,0.5898499775467725,0.6041314222892851,0.6015478298174317,0.6205548929358775,0.5687835906660643,0.5400651587525593
0.5909569694219265,0.5989828342726939,0.6103712461055992,0.5790282785741732,0.603773789519698,0.5772238742746403,0.5984352294888278,0.5872444529493821,0.5788067474874614,0.6043346725401801,0.5983897086006369,0.5805059179287175,0.5771664723562306,0.5857013855810003,0.6230335375588876,0.5991439138838652,0.5878521657241111,0.6121186168760651,0.5901104724635502,0.5534567736178198,0.5902626238247417,0.59945762589056,0.602902775835128,0.5745011934310882,0.6042873364421077,0.6300830184095627,0.6023661701853018,0.5860834339031267,0.6431006476859773,0.5836543936625893,0.5687708432484548,0.6125800187617987
0.619703614119441,0.5951307517799496,0.6082641564306508,0.595119875596037,0.5532048582860165,0.5948240368662376,0.584630087225197,0.5972869310743465,0.5569577342180874,0.5504571728618983,0.5984229270276544,0.5937553504632249,0.5638160499720439,0.6042446196477913,0.6452470910881014,0.5785516936693087,0.590621440827455,0.597583186783762,0.5891117756945912,0.561042057462465,0.5844841558060061,0.5964545026136574,0.5987870115193026,0.5934297998581135,0.6065951708638044,0.6283629376390492,0.6106166501291637,0.595211655272482,0.6202273273075223,0.6100773742320231,0.5406485533610756,0.5932798757109898
0.6214255522074192,0.5921002875225554,0.5847955508168718,0.5953106168929176,0.5262365623754279,0.6050134285274127,0.5808559302915839,0.6226910960223808,0.5609036721140557,0.4916879306811195,0.6031441065443626,0.600580790645048,0.5734005101725734,0.6065971345208259,0.6015553228083372,0.5396521648847337,0.594630152707718,0.5568980921271423,0.6175798511410591,0.581609005964081,0.6085643979246278,0.6167317379256341,0.6078764468003905,0.5794301225060279,0.6179411419595011,0.6178011384743729,0.6192217613134461,0.6084249412950102,0.6099125265644183,0.5677071064610391,0.579759138134019,0.6130174385355911
0.6021056280436241,0.6158857387317078,0.6294167233244705,0.6115809255091813,0.48146201657700693,0.5829395206507626,0.6120176374060473,0.6109099885390736,0.5884484102022975,0.5744198983888467,0.5760655556118035,0.5553914325218705,0.5945599206955179,0.5958582476169929,0.5873111564011704,0.5593556047225539,0.5979898108110131,0.5114007785783112,0.6007241483173225,0.5689873335398805,0.6043325073203305,0.5953312782134867,0.5985197435761211,0.6035954086582471,0.6251877581736238,0.6085747495147817,0.6046400128073035,0.5981601264162193,0.5948064743615862,0.6087385444188746,0.5542020465275894,0.5855075647418704
0.6249585673205851,0.5955059926399144,0.6140655607022873,0.6188880685298361,0.5261815316764804,0.5902993176857017,0.5877954602483966,0.6033555895932667,0.5646931064411995,0.6040314130502518,0.5679035624333104,0.5933101616754239,0.5677700215188191,0.554519840938895,0.5926320655228383,0.5466066102540252,0.5726588527874634,0.5222983435060975,0.592830462021797,0.5817449658835172,0.5758655634724006,0.556512112809715,0.5973200022502949,0.6074201765612246,0.6136561609498186,0.5821492761624332,0.5936143635648343,0.6088311509473683,0.5914315193779811,0.5668430035565439,0.5446563555230535,0.5577257859592528
0.6265559514000678,0.6056544211172494,0.6035142985747175,0.6240012562403714,0.5785242019516916,0.6052620257635084,0.577887581857282,0.6050943370830333,0.5350117465191011,0.5724444201568555,0.5917221884991499,0.5988647866961307,0.5913846673000971,0.5652139315783975,0.609773647157863,0.58751370222453,0.5702531834843056,0.5880331934538092,0.5936504221698762,0.5852315271965871,0.5973913798544479,0.5732126897728267,0.5931885678478808,0.6050765792483386,0.6070099867670704,0.60583609038251,0.6442435172758603,0.6055792621180203,0.5879121461384917,0.5701431836785611,0.5711959909440405,0.5661652249092328
0.629888964312431,0.5865080605672905,0.6016845897902559,0.6076667669106426,0.5882264391083218,0.5926532898622554,0.5954382745974853,0.5791886601593061,0.5637065103887853,0.5793673793507463,0.6131725376903101,0.5792949207380684,0.5976769043900707,0.5842725262050217,0.5924648835073603,0.5958886349858541,0.5786173723004584,0.5982854370841904,0.5768862120109555,0.5982055233564361,0.5917020924182914,0.5777849414151857,0.5925296797197714,0.5834653620869772,0.5966427558036109,0.6038431276697445,0.5932206090078194,0.5909479615708686,0.5802531365119807,0.5829087497005458,0.6008735624061465,0.592211671131174
0.6202780747422363,0.60131557556937,0.6262449148588107,0.6207223699936502,0.5840920345408094,0.6070915856158114,0.6111022657278,0.5650879285908226,0.5853204409927719,0.571348794074769,0.5935342868539655,0.5654906721630049,0.5903810384241619,0.6030225854052804,0.5915191794964967,0.5859567130268575,0.6108778049566066,0.6003075194678815,0.5947983099168406,0.5942062070409388,0.5903777316360004,0.6004330971581218,0.5929827882067897,0.542214157134397,0.6164637785345777,0.6038067761323984,0.6243908334442061,0.6052493764881728,0.5854181772141431,0.5862955495877968,0.5982072608709466,0.6060960886707303
0.6254910177028745,0.6214794858275781,0.6216895062603789,0.637380901352461,0.5760492737924259,0.6093039576814072,0.6058346447699905,0.6087272845167901,0.5475742908027588,0.5822681786239388,0.6177911453706253,0.5890128613993642,0.6054174071611484,0.5765275382570358,0.5885839361288276,0.5752660900956741,0.5838686654337892,0.5965074303324567,0.5992222580967073,0.5577085454477597,0.5773950188974473,0.5987901302949781,0.5989821731789338,0.5497894878829808,0.5993560156724471,0.6001820175244905,0.5950429518859437,0.6600540685131104,0.5852312540365618,0.5900706729615495,0.5676634782142402,0.6124240323881107
0.6305409854997905,0.6325925229937517,0.6052613972549206,0.5980279284787593,0.574416719717155,0.5962395454064255,0.6046682287796488,0.5722395746931266,0.5711180143772956,0.5888038511606859,0.628413184907139,0.578897634047848,0.5973283529758162,0.5819872541566422,0.5966590106204066,0.5777152158670651,0.6035919672967647,0.5730728383991499,0.587278149510218,0.5587280528659133,0.6222776400046692,0.6143336022312362,0.5932076504851724,0.5806438352218359,0.6138715280441449,0.5818933760389036,0.5595396419285454,0.6330015143860197,0.6098363345358555,0.5812379644793721,0.6048408431497228,0.6001758492831701
0.5927886712576322,0.5946273458164493,0.5987051135312242,0.6478745724023072,0.48430794782923625,0.5852606268776221,0.6039044090504757,0.5814087492546278,0.5804493792887131,0.6055444746461385,0.6101260601418463,0.5565002327494231,0.572022207375178,0.5986405507192489,0.5886769110148471,0.5606440155784056,0.6102422423726104,0.5778150798382526,0.5590793681104751,0.5878922536379316,0.5983301432185031,0.6004372998780338,0.6109379090760338,0.5805866819671115,0.5686506686886039,0.6213076887974682,0.5892203288449771,0.6086461370512732,0.6028703639186919,0.5811501758848037,0.5848695758070868,0.634015218141823
0.6323756594092154,0.603782028250321,0.5833966874922005,0.6075946959676632,0.535144869327342,0.5991135362263473,0.6118488929528514,0.581617236028177,0.5622825999775589,0.5550409873537605,0.5971445081613278,0.5717096018270915,0.606021306121149,0.59742958082819,0.6098331477361176,0.5761957429220388,0.6002123406189259,0.607310202947962,0.5616998318757238,0.6124366535694814,0.5932893499332241,0.5900142322996262,0.6133522299629095,0.5900197327744916,0.6058706509647274,0.6193185126102279,0.6169692147524546,0.6037765950737861,0.6210118459782468,0.5951585036639528,0.5726180279268718,0.5933367045680318
0.6116440871551165,0.6290301284147564,0.5557322186778024,0.5974002586176383,0.5980236308838127,0.5800213928424731,0.629214504086399,0.5925342345341451,0.5715834473019625,0.553930517215985,0.5739038050552683,0.5698614017199195,0.6044017209040491,0.6023325214049895,0.6200201519658228,0.5926969446380683,0.5611784580529084,0.6025916307132286,0.5848724898606901,0.604460090856981,0.5960784192585122,0.6122096101627883,0.6109999184373041,0.5953883168983491,0.6409802303625787,0.5937757483492394,0.6212493097842087,0.6270734297793452,0.6144284924859922,0.6012557436180366,0.5994332344761832,0.5974680140086015
0.608436142778602,0.5939634478679965,0.5740777123102996,0.5990777478039577,0.5566001727041541,0.5839427679979274,0.6180331032583819,0.5905653427692994,0.5786527471523164,0.5862228979820898,0.6022756960779523,0.5493760554100553,0.6029971588112422,0.5643415934143485,0.5757487312433822,0.5691258831233412,0.585082750614871,0.562931846435951,0.5919462890470637,0.612376488784022,0.610534126743735,0.5893146554295976,0.5834028287597381,0.5974931265219561,0.5884508123763865,0.6124181504259147,0.6205307001054194,0.6284042342970637,0.5918954853209306,0.6008555523963626,0.6219093409437577,0.5854173423067479
0.5946281054744573,0.593696096137283,0.62123074834913,0.6114826793342085,0.4825354617935398,0.6005876457847319,0.6141863126943159,0.6067573205537786,0.5709218114934709,0.5633067685258726,0.5972675571764561,0.5410827484349379,0.6092901194263542,0.5667053886109481,0.6128969388219931,0.5891084724840834,0.5919228996943819,0.6026580251472073,0.6015613227909102,0.575734992328214,0.5954360000520706,0.5845063523872072,0.5887544048361866,0.6060750545876368,0.6231033315633856,0.6088637641163248,0.6196618549644768,0.6192039265213087,0.592462803785998,0.5551327283467344,0.6032646265632104,0.5746771223740712
0.5992826007889787,0.5706783340540174,0.6234117090308562,0.5980579453343857,0.5232676361510378,0.6195457200288152,0.5982503699200423,0.5767714057953746,0.5280388291650078,0.5813920931468353,0.5968185431878301,0.5655246899013981,0.6154275521565986,0.5730072025481165,0.5953417205016143,0.5578916595924985,0.6024214527304332,0.6043632646381685,0.5691477286501572,0.5856608127331722,0.5835333779997898,0.6003026812395289,0.6111978458449498,0.6054722648069752,0.6245747787814224,0.598298266787741,0.6182757463963058,0.6129402002058995,0.5968472727682785,0.5981592207964157,0.5952645904638261,0.5639829506029446
0.6112527470496278,0.5788152789363732,0.6107192341713517,0.632364351656661,0.5819514282255498,0.5898119289994095,0.6050003963758366,0.605954688707087,0.5747979568687787,0.5879211296134206,0.6062443634141323,0.5824956390374907,0.5951050123958468,0.5979936565833439,0.5899357302914936,0.5273014820179807,0.5863801921417093,0.6132848682513425,0.5732988027552373,0.6055254830535488,0.5910954310025187,0.5574108220869096,0.6005426440251358,0.5947967928266746,0.6016704674440922,0.5935531852839322,0.6001245916253737,0.6283462786779817,0.5949307022418817,0.5926514398109282,0.5804780977410458,0.6120181113772611
0.5899116648911531,0.5979593114580566,0.5835988649547184,0.6258375786038566,0.5669907878327605,0.626358926494953,0.6055035798190014,0.595068197019335,0.6123443521209055,0.5605393098687408,0.5718258930519711,0.6018094429854637,0.5865884605681329,0.592221071918499,0.5891823162489533,0.5033279882283481,0.6000207864767528,0.5700985050285432,0.6000132251126535,0.573566090901863,0.5702365942281937,0.5731929533362972,0.5881757021286886,0.5765948667299234,0.6182777272487927,0.5691035827673718,0.6010109016470553,0.5991040760123698,0.5891307093180562,0.6044401663368753,0.5978731586352546,0.5910494941065201
0.5726523844472955,0.6056396708441749,0.6031212129916788,0.601809779799753,0.5905299161368815,0.5939452553270601,0.531444082819466,0.566286158651629,0.5941461729486184,0.5056172294252139,0.557925969331766,0.5724679060362869,0.5750225050475053,0.5999121577558277,0.6233231945255233,0.5905513466876742,0.566033136216761,0.609697816815792,0.588622572820166,0.5718696877262444,0.592782268019997,0.5531892990543619,0.6169193842614127,0.6150198591895513,0.6153522618530554,0.5907173763130227,0.6057116006282501,0.5927017732329873,0.6124153972271276,0.5956947861626212,0.6133916644847406,0.5868420330687742
0.5998026344574039,0.6112557254843014,0.5992084436013916,0.613209518206256,0.5909317329319115,0.5884926607899543,0.5140367998270996,0.5575010731048384,0.590385643825694,0.479478357915188,0.5387300481791648,0.5705333296335997,0.5914844530690768,0.5953795637689132,0.5968898139254355,0.5803841563563568,0.5201872614581147,0.5974093314442288,0.6002744824268453,0.5700097196286311,0.6080355997866858,0.6020848988125409,0.6231062047163536,0.6004488877895136,0.6029708993798439,0.6085391330748049,0.6259338706969491,0.6370483924872925,0.6165495116045441,0.6434738880931374,0.5987741251786991,0.5957381433217774
0.6139005048774977,0.6111792307505013,0.6290912791809005,0.6052225814975434,0.5861064091283028,0.5956323945429252,0.6285104527869811,0.5076499951589053,0.5700854991596946,0.5501141786950905,0.6058406921276522,0.5715235284384979,0.5828733471746772,0.5966793930304193,0.5504187306003745,0.58212567610726,0.5486139968137871,0.5717921092663238,0.5848331951250585,0.6047846889962587,0.5817735494576857,0.6127456706206154,0.6045675124936523,0.6146163717778172,0.6041213341405087,0.619140136733439,0.5891670868516723,0.6283851211679936,0.6090041607851968,0.5983685490552033,0.5492293489260378,0.6046468656758663
0.6022853624574003,0.6113262964037856,0.5740888431883051,0.586059789607948,0.5398835727520921,0.6114002335910973,0.6136655811352703,0.51261804551969,0.5728272846856419,0.5800548715941121,0.5951675965568994,0.5598826715664824,0.5857744936786311,0.5987733839154017,0.6042016531463981,0.5834165351107967,0.5865386799517638,0.5700359347026085,0.5804098396535835,0.5589277498009322,0.5935641801302203,0.6062307864825129,0.5824644770053737,0.5921108563915634,0.6103646372368092,0.6086609910977905,0.6106274578176398,0.6051984400719048,0.6055491629271335,0.5807537413827051,0.5548764830587674,0.6052682231174984
0.6057615540115684,0.617980101192209,0.5831102328626905,0.5907941348949679,0.5059302386399498,0.6125667019172165,0.5971337096200182,0.584157561247959,0.5626699434232321,0.5717701226406877,0.589579417792216,0.5855940330152829,0.599269861880388,0.5856401501749038,0.6189495604459063,0.5508796431975296,0.5996327529269467,0.566494717718252,0.5636769337107759,0.579898379381973,0.5730317799864091,0.5966815110995101,0.5792715764288472,0.5626530066983295,0.5767563868381891,0.5964618117818676,0.5956085021833588,0.5958507496061722,0.5931758501099886,0.5858138186275208,0.5719148412384465,0.5808135822587017
0.6149129305177934,0.5962113517848615,0.5948510848703363,0.6388710006445093,0.5701692785297086,0.6305293839388839,0.561742023001564,0.5709425644368933,0.5823212184929409,0.5464551344972706,0.5597461405872943,0.5907676635072767,0.5947540646128111,0.589750149519189,0.6094700617913942,0.5470390116142685,0.6027589761576699,0.5757820587339375,0.5794070780940954,0.5713705843703685,0.5838237138065505,0.5871715288785424,0.5952700596857512,0.5673401748598375,0.6132232095176953,0.6049941905318512,0.5927798114349536,0.586124183790115,0.5883893719270521,0.5775629553162118,0.5681576676224331,0.574579542110313
0.6028533895493235,0.6049798024328696,0.623020705724473,0.6227102743811406,0.5225622055700079,0.624455230558493,0.539252312357267,0.5682030659796555,0.5616838324590021,0.5423609269029246,0.5753364965129362,0.6195667042739239,0.6032922712562394,0.5895832992800258,0.6194451141006914,0.5807398659057994,0.606836756393828,0.5950916955928109,0.5977697127505803,0.6008326660371393,0.5975423933138875,0.6290030314343142,0.611301329229982,0.5843812073281622,0.6141470284953234,0.6070629127522391,0.6049962396879374,0.6060575544024727,0.5942994827753489,0.5664200710224705,0.5760639639540099,0.5966592154529118
0.6080211650020981,0.6132354427860003,0.6389216325889575,0.5723534694485322,0.49546077308399816,0.6015447320832616,0.5832604954687168,0.5999474887842293,0.5866844383104621,0.579064569474689,0.5935257081319127,0.5908131397549208,0.5945837799793274,0.5932393806239085,0.6053322432082267,0.5533517934594863,0.5797329333150878,0.5782995298563236,0.5879741300944237,0.5776342042973903,0.5772413447888605,0.5938946536550977,0.6010666150143087,0.5727114604317021,0.6251014020152135,0.6041255055387853,0.6463831730600096,0.6058269872640505,0.6263763268017888,0.5975889304097093,0.5894263932515473,0.5993080698058022
0.5951171846120658,0.5909229545866386,0.623404081682978,0.5613161627160381,0.5678930001364932,0.5713650101191194,0.6136078900005764,0.6024414817394552,0.5761103152245197,0.5797650734811719,0.6062566230848088,0.5825647076820482,0.5643974575416362,0.6086706371347792,0.6101963386660381,0.5705908802767232,0.5742501364970929,0.5718215550166201,0.5797452558320644,0.5763480343565233,0.589325141488712,0.5630693278603696,0.5866915056182762,0.5879946498936608,0.6122779050971645,0.5818400763097076,0.6225345479024869,0.6071973275507307,0.6528952028136725,0.5984230901876462,0.5462078064398868,0.5837336824613066
0.6154567715295385,0.6152801209895675,0.6184647369881238,0.629129017654448,0.5888635104762718,0.5597276795027248,0.5851106565205217,0.5918468889596125,0.49613842923513696,0.5767608596338833,0.5841064654486687,0.5778018907443054,0.5145301672371261,0.5478317042293539,0.6042908464859238,0.5645608415466254,0.5702484307927169,0.5704765438804906,0.5707428370699388,0.569184798730046,0.5975865920244146,0.6088313716588547,0.5866383121255261,0.5978845733378413,0.6099123374373687,0.6062804730779057,0.6151207672828818,0.6405808419388266,0.6135332230357533,0.5868887561353517,0.5570851661544229,0.5915009295782205
0.6247984471739061,0.6025933247450941,0.623080810799538,0.6151179509803351,0.5485193931291859,0.6167583089953252,0.6081383807387044,0.5997383861296912,0.518435518453296,0.585811826807094,0.5780030499590443,0.5891606881932314,0.5578526808390785,0.5630027734640186,0.604816959327223,0.5547230428167809,0.5426350004908418,0.5923560300053086,0.55789758756432,0.5744440057698155,0.5761832663259527,0.5906915249861342,0.6017862471730577,0.5644729673765725,0.5975525992746786,0.6003589292072502,0.6102613010499445,0.6506065549487539,0.5972231176773657,0.6108587240275711,0.588299057330286,0.5968223247004576
0.6155651962911257,0.591551564670096,0.5991756614119028,0.6050706768225527,0.5292243595273649,0.6175477188182636,0.5926673615380782,0.5907528594310514,0.5876932094676408,0.603897963727011,0.5972935341686076,0.6259360942896852,0.5742577031196556,0.5746967004815842,0.6075429349764407,0.5941486341888909,0.5842426346713308,0.5976428841141241,0.5671084041931436,0.5667813893509672,0.5854772162887447,0.5913840453980233,0.5960951400317569,0.607137249046446,0.6219843590291219,0.5969488988149356,0.5838463129907474,0.6223113839284022,0.6037573906224871,0.6076194143446512,0.5960783277098538,0.5863560279384346
0.6207787577542669,0.5756738775572914,0.6032345267181598,0.6023450870078637,0.543207905943659,0.6207420545674496,0.6090599664073162,0.6010695701092703,0.5964810913535246,0.5713681928619923,0.5587000008832317,0.5911349317860188,0.6098842807351454,0.5793191759916878,0.5959300866063892,0.5764181627334417,0.5529594023127298,0.5906950896908958,0.5886457035357746,0.5433866215281684,0.5690323299326634,0.5857926353501419,0.6012621366459148,0.5422658297010199,0.6195480330023995,0.6047232829481293,0.6376858800693421,0.6300089551937433,0.606915492278127,0.6119798048130569,0.5922264934631318,0.5554393119343302
0.6164929989008323,0.5915215039727539,0.6335287533456793,0.587445009703147,0.5658370904267196,0.6141841276801951,0.5643389412548792,0.6061400736119711,0.5902334061265009,0.5195404289431638,0.5805889901881027,0.6081576859229982,0.6201567347630155,0.5780382478800088,0.6238478347297063,0.6013757340512171,0.55851788286886,0.6057950942638151,0.5913588721987897,0.5574507143070111,0.576223967030316,0.5848539797776846,0.5583393716401845,0.562041521255471,0.5852224465761586,0.6082451868102239,0.6229031072155875,0.6090585382420661,0.6197609995296594,0.6039471003019292,0.5679464045613742,0.5488490401004222
0.6191508319735215,0.6210393748976708,0.6218563446519583,0.606892006846333,0.5526178002890099,0.623815436906487,0.5700059838346476,0.6172332609177609,0.5403302125245513,0.5304983855422294,0.6078544549661618,0.5757720499097276,0.580309161561984,0.6139275274011422,0.6067183349745773,0.5645440631365122,0.5450272427912615,0.5815715039807978,0.5634147337342266,0.5610994084343641,0.5647095664181689,0.6247802993578748,0.5771634398770429,0.575844398830546,0.5895648968331946,0.6115946579822937,0.6033334096617837,0.6050785606159366,0.5974462528513222,0.5872960723192513,0.6096439770173916,0.5609098396883954
0.6111188192984511,0.6012860282988699,0.5679269963444793,0.6035929979627692,0.5715739516914349,0.6327481935031667,0.6007050231043709,0.6036033207870806,0.5720593980308806,0.5487922109685415,0.611116138634098,0.5595184621743776,0.5700048194992036,0.6015970433416036,0.5793188413923263,0.577339569887382,0.5888070818917561,0.5715176127390298,0.5774475483775698,0.5896255909823487,0.5922619759862617,0.5997864689880701,0.6108434154609088,0.555645248148624,0.6149473935095418,0.5960622276966574,0.617883146962106,0.6117901248123774,0.6185812239555686,0.6191839111239141,0.5761235945177607,0.5666577672027047
0.583633194772545,0.6197130025543176,0.578142963053732,0.5936108583252038,0.5484355736059752,0.605594468344067,0.5908114673668812,0.5888572239092653,0.5873562797818992,0.5600013496230076,0.5909877519401756,0.5499859436575845,0.5544966183294671,0.5482146380523676,0.5691028515124024,0.5945102691749846,0.5977969090919335,0.5553646984599507,0.5724594639467062,0.5750886373514299,0.5882521762897261,0.5901823368001109,0.5941525999069635,0.51908250233181,0.5779541117478728,0.595599204510544,0.6325928510173879,0.610270577057038,0.6152406193099789,0.6048329895492972,0.5306249717616169,0.5992292290466028
