Fp1,AF3,F7,F3,FC1,FC5,T7,C3,CP1,CP5,P7,P3,Pz,PO3,O1,Oz,O2,PO4,P4,P8,CP6,CP2,C4,T8,FC6,FC2,F4,F8,AF4,Fp2,Fz,Cz
"(0.2730254166741952, 1.5268790809893442)","(0.22656078669322774, 1.8591846163886014)","(0.20368569438091158, 2.06220255399941)","(0.228063995464463, 1.7639738257999227)","(0.13990832503200912, 2.3889807630466278)","(0.25220200412744154, 1.6896233003451087)","(0.19493689218516666, 2.0944896958797483)","(0.11771493920534529, 2.964495377970412)","(0.182691693868168, 1.8867545942266803)","(0.24070550278286212, 1.5865323596009544)","(0.20723045078433083, 1.8110253545291173)","(0.11085791528206015, 3.090696097393618)","(0.21077402513051044, 1.5670303685623395)","(0.2106133673782678, 1.6823730206069478)","(0.22987001829671647, 1.6781441581637067)","(0.21145778947144564, 1.7766377326611424)","(0.19841723585232535, 1.8011474425323102)","(0.1644903007028119, 2.065914689065905)","(0.20308225770303526, 1.778881784749107)","(0.2587528724638819, 1.567484861348681)","(0.25915958267464945, 1.5093227626601236)","(0.18734818445499088, 1.8433657603560363)","(0.22778495816826308, 1.5544013109481798)","(0.3018565686276735, 1.4258172562064326)","(0.23912748156539157, 1.679817304562233)","(0.22270165305865122, 1.640733743634255)","(0.20953229642983273, 1.8330251311466756)","(0.20220470634695203, 1.9953911965598488)","(0.28608409440191335, 1.5112705569007867)","(0.1830029659665682, 2.2036191880590317)","(0.16184721081830375, 2.225583568075512)","(0.22617581813272467, 1.5989143973382616)"
"(0.21820298759030188, 1.892480196845388)","(0.2355400917098012, 1.7973885587008738)","(0.17282915148912928, 2.491606067094233)","(0.2016003417243809, 2.0021005945945105)","(0.13001486861270217, 2.635270258178945)","(0.21755692195254683, 1.9732410156997202)","(0.19852357635461568, 1.9069936802865293)","(0.131946752920389, 2.5821958599272086)","(0.1753191587587005, 2.0591010220071313)","(0.20284973502335252, 1.8683314392949089)","(0.20182276099642849, 1.8353955825004034)","(0.13585961177475556, 2.5437219415466696)","(0.210886823497823, 1.700332137664334)","(0.20465860710581152, 1.7329516466405748)","(0.2455149222321488, 1.6015424639521958)","(0.2445438483155131, 1.6261619430827243)","(0.22911877116903318, 1.7036367034317739)","(0.17573788150214875, 2.0472353870453555)","(0.2447397307215489, 1.5178511977724036)","(0.2678269344639449, 1.4886231883989747)","(0.2834920012258402, 1.3896764069825516)","(0.22985848714451737, 1.5886621276335902)","(0.23904715676161792, 1.597824144404164)","(0.28434127347817206, 1.4556237163592316)","(0.2521945781006505, 1.6497291043054387)","(0.20721592408258618, 1.8175223998259085)","(0.22836350749687057, 1.6870335754587076)","(0.19095996209025526, 2.053215508713179)","(0.2626125369392403, 1.6489011532504274)","(0.19885705504492562, 2.0180521487586014)","(0.17272380921294003, 2.134761467994482)","(0.20564100834353238, 1.7816566206164148)"
"(0.23211502921242053, 1.739565891363882)","(0.27485499877215147, 1.568799258597712)","(0.20628218382197613, 2.03902837800711)","(0.22190484757502657, 1.8219572251892213)","(0.1724242970116308, 1.9748237116668486)","(0.25279452528511526, 1.6768605762371214)","(0.21661640172610136, 1.7694736647259204)","(0.11947479246348736, 2.8347064039907113)","(0.22927502916890719, 1.4711979986824195)","(0.2183243787585512, 1.7411752677160142)","(0.22145588277905812, 1.7602374943066308)","(0.20032316421947896, 1.6993009201742493)","(0.20993981784390445, 1.5574132045559466)","(0.1929240949681823, 1.7902592900623624)","(0.2231420863180138, 1.7481280189784008)","(0.24195382164219448, 1.677757790058633)","(0.2312571236161151, 1.709234713212322)","(0.18450027885389264, 1.9289403201916544)","(0.21521862912539405, 1.6397178113046758)","(0.2650328975575251, 1.4871786012222536)","(0.25417859382025015, 1.5023301123659987)","(0.20985886359786518, 1.6855254214543973)","(0.24181447637641285, 1.605259628671416)","(0.284365409028712, 1.428032671066584)","(0.28152154024754983, 1.5296604817331545)","(0.22376973544672035, 1.792539878806352)","(0.2566605073656473, 1.6349997395395532)","(0.23221823591481375, 1.7063547127418162)","(0.24822547081525217, 1.570217713160031)","(0.235777894695008, 1.72906816516786)","(0.17986812698372878, 2.056450041969499)","(0.2029138053542485, 1.9336525320156437)"
"(0.2406674267004696, 1.6244395331353607)","(0.2962238721422964, 1.3666314621867455)","(0.2119743171155105, 1.9390084797937284)","(0.21791107268032925, 1.7436498720154474)","(0.191900124263537, 1.6312197305790954)","(0.24809386966363117, 1.5781160748013128)","(0.2384081500200056, 1.780867348020519)","(0.11210551704684826, 2.9558205651115688)","(0.19396197564922565, 1.6043597322416374)","(0.23437550268016297, 1.6068708619582683)","(0.2601322710374378, 1.51720129433388)","(0.20751606403334838, 1.605088960249923)","(0.2149853832490364, 1.4938435440186415)","(0.21049986547752156, 1.6285915676825753)","(0.22880971843854372, 1.6725917850386651)","(0.254493600307044, 1.5476655854263979)","(0.24356558408652093, 1.5374474591824179)","(0.19114255337048572, 1.8008533181352009)","(0.21387573042878688, 1.5826364735253935)","(0.27497968561103225, 1.43317510807554)","(0.24170939431405225, 1.519460642819883)","(0.1981200635895639, 1.7176064233919113)","(0.22597748718159036, 1.611492012253896)","(0.2904272041001551, 1.3891999805321853)","(0.2616301945949757, 1.56387846575545)","(0.1828495572077804, 1.8648994784697241)","(0.22088363603783295, 1.7731049092078117)","(0.19487195604444063, 2.0255856890195116)","(0.23131062915153366, 1.709881352985947)","(0.18962044283783897, 2.1183787570292933)","(0.18587793714908454, 1.8280315781986172)","(0.22731866923789798, 1.5956326900910187)"
"(0.15102169223349407, 2.6771040769751977)","(0.25712622437850513, 1.4849784726124342)","(0.1484659871148834, 2.7107771998704338)","(0.21524205757233983, 1.7358648952761586)","(0.17169108747891204, 1.8840732976385322)","(0.20351476835678015, 1.9486046180224652)","(0.21829229052293633, 1.9013195258201125)","(0.1811599900640854, 1.8220024199045717)","(0.1969371728062165, 1.585991571143181)","(0.23712554831358354, 1.5198350608243067)","(0.2447913699153316, 1.5295828968250507)","(0.23040579162299585, 1.429561653901829)","(0.200234995614231, 1.6370907833048784)","(0.23270094227689014, 1.4253131357975417)","(0.23774149885809165, 1.4552522963187238)","(0.23311753897806073, 1.5127608722020751)","(0.20597664580983568, 1.6655602726237713)","(0.1688218472258255, 1.9485781951871335)","(0.1885782484351694, 1.7394174438844325)","(0.20968959645560417, 1.8231943294435127)","(0.1841812357631043, 1.9780653131612895)","(0.14570876885879944, 2.2702723131539315)","(0.1481250511777571, 2.29509183488563)","(0.21325730194754727, 1.8145329602182632)","(0.14212649100196267, 2.723255325416391)","(0.12947399037577312, 2.5246907555943294)","(0.12487558265913001, 2.949019093767553)","(0.08729850320043293, 4.373209661682067)","(0.1235874775841173, 3.3526863180093214)","(0.08591527092663759, 4.243010713664574)","(0.12753352868207968, 2.6809763259290342)","(0.14835876698125536, 2.3445932608528715)"
"(0.2027650455912135, 1.9800812948193194)","(0.27275597884548647, 1.5108570001178752)","(0.14654464391465183, 2.848384732153713)","(0.21761263733023936, 1.7062216905562333)","(0.20912480307820394, 1.6209668708814238)","(0.22050267630321077, 1.9652488104130064)","(0.2027951468299836, 1.982910103212209)","(0.19618930694145492, 1.7794679559229845)","(0.20720255976512697, 1.563595031600957)","(0.23415469414446705, 1.5327823711005186)","(0.22709295678058158, 1.6555594453933622)","(0.21850784798775585, 1.5174421443684047)","(0.16890168177289475, 1.9716463269393745)","(0.22222101608382536, 1.5373056254640602)","(0.24563738000617852, 1.4711574606969005)","(0.23150586842948095, 1.589617737086139)","(0.20422280017811184, 1.7740155276027039)","(0.15922822275347048, 2.055180156253524)","(0.1754946919796555, 1.8567100125423337)","(0.19483768858676606, 1.8723348909520492)","(0.18280463372840247, 2.0087096053462425)","(0.16730353463230524, 2.033299208377245)","(0.16912076551906777, 2.1713600218893085)","(0.22434023136843034, 1.7603569943037962)","(0.16635718164012525, 2.447334055980169)","(0.18243602686548402, 1.995395660846264)","(0.15609727673525986, 2.367533323619014)","(0.11629308076757906, 3.362590436878314)","(0.15048176095819438, 2.741827017192045)","(0.11972645859186197, 3.253870151830295)","(0.16148780334653967, 2.154882399131887)","(0.14734135807566295, 2.426758450936957)"
"(0.2939727560045614, 1.3887548586326552)","(0.29316229251227693, 1.4740016139139807)","(0.24458032428881804, 1.7772097953773769)","(0.26843131603168335, 1.4908163956884746)","(0.24934820391024812, 1.3286199997859014)","(0.3137105118618788, 1.3895026572072477)","(0.23710364324560218, 1.8057241602640621)","(0.21344585194781837, 1.7301128164643262)","(0.19425403829931015, 1.6674583093541298)","(0.23434887690969508, 1.551953475780727)","(0.24237179603983935, 1.6593256841745)","(0.1970209461610663, 1.6745759916676117)","(0.17348736061993855, 2.0058287408472357)","(0.18225138308243313, 1.9137133614763635)","(0.2115371905403391, 1.7680662093763801)","(0.22991971164768935, 1.6918091281624268)","(0.22152754638888175, 1.7764313228864952)","(0.1857634761589858, 1.8395697204758341)","(0.19942241560770144, 1.6852682671890462)","(0.23089708784701207, 1.5962454283973229)","(0.23035357040030785, 1.5764247788628152)","(0.2270734616387426, 1.5542646766855388)","(0.2463378917323761, 1.5577851393771902)","(0.28368515921030585, 1.4308076788163637)","(0.26992932130336916, 1.5361077776510819)","(0.25586676706648875, 1.4323723111763849)","(0.2530895831873027, 1.4515126827367135)","(0.23377799684708045, 1.7217955775460765)","(0.2652511254608795, 1.5336893716773774)","(0.24027613040165113, 1.7330608281267104)","(0.24303207575483027, 1.4356923882439394)","(0.21970276381858153, 1.6487904132664384)"
"(0.2709997074318668, 1.5426774538013237)","(0.2814837759130239, 1.4395187484606995)","(0.28216899026862957, 1.4122647488865632)","(0.27849655366013587, 1.4406532037945676)","(0.19077185969688884, 1.656217419000198)","(0.3350159579194852, 1.2588344686372737)","(0.27236267305863343, 1.5605591926092341)","(0.24061557259232802, 1.5945718601366223)","(0.16589157545478547, 1.9550631779215284)","(0.237070782862927, 1.5495382814448588)","(0.24512713106999187, 1.6031221458185378)","(0.1871440358990245, 1.7387529916153357)","(0.17182172342818777, 2.015920951274107)","(0.15061498341314594, 2.2707289993189654)","(0.17071408082347592, 2.1747716237172012)","(0.20429821758085978, 1.877961652556621)","(0.21042188969254402, 1.8650941776677823)","(0.16654603763040657, 2.0051887854471273)","(0.20974179558942074, 1.6453589802087276)","(0.24239821711253537, 1.5986928310986903)","(0.2606147045269317, 1.472926409687337)","(0.22599822277986653, 1.55066172764462)","(0.25043667978387124, 1.5548476682887236)","(0.3045315385452918, 1.3357884261956268)","(0.2787854465762024, 1.5223057425089495)","(0.2205447543924684, 1.7158191898159745)","(0.2297997103113316, 1.7351079088566985)","(0.2286539670768243, 1.7269724593113207)","(0.26185497848761674, 1.5653602882974553)","(0.22205995971926784, 1.801134197889584)","(0.20857969204446974, 1.7704943956157422)","(0.2028606484725405, 1.7761222849263265)"
"(0.24171704265728772, 1.6880389787417078)","(0.23900547424762436, 1.5093255073384262)","(0.2068415203252007, 1.9619901010113094)","(0.22654254150954575, 1.7969264678891335)","(0.17492860150259112, 1.7730483407138136)","(0.2582214301212537, 1.6330979967831203)","(0.21367737390408037, 1.8479696334893825)","(0.21255945331312007, 1.7084283606344417)","(0.19789673566900665, 1.6066312977251251)","(0.2266955535870519, 1.6313669370165649)","(0.23420696968467347, 1.5701846380402615)","(0.20705505049969516, 1.4924060895015299)","(0.18260801331967833, 1.7558724821185252)","(0.1778239837103803, 1.8512076517701261)","(0.1830001774288231, 2.005623245936824)","(0.19886920799987487, 1.91488658047315)","(0.1970722867246396, 1.9212861086067596)","(0.1676453540245489, 1.9094874417856098)","(0.19279907535636076, 1.6735063443930889)","(0.2354752607079849, 1.556757436014377)","(0.24499718267678933, 1.4851723685126412)","(0.18158005096648014, 1.8043530097954277)","(0.235347268743852, 1.5305237305810773)","(0.29140520280394144, 1.360617580552336)","(0.1779842454011166, 2.3772435013868076)","(0.1899147836618133, 1.9685213517454008)","(0.22103791375903514, 1.745044047217312)","(0.21153661192200662, 1.8413949228130482)","(0.23904357463614548, 1.726223255623063)","(0.21075634934628437, 1.926780893003291)","(0.21523063842367196, 1.64535677747548)","(0.17665768938142523, 1.9665027961235046)"
"(0.24860471252492233, 1.6364743908344281)","(0.24707009659416965, 1.5570464554556953)","(0.16901881470736865, 2.4786969858139822)","(0.23397778609403194, 1.8388795013342982)","(0.18935963911760495, 1.692656904042599)","(0.22690676403025803, 1.8938536036280056)","(0.1925444565401876, 1.9966966536477733)","(0.185622639685011, 1.8930245150653477)","(0.19713450588807221, 1.5610859091386802)","(0.22332053159577483, 1.6056230084879473)","(0.21879113461054317, 1.7176209820709472)","(0.21884334928801824, 1.394269458325281)","(0.19564540274389677, 1.5703141516779895)","(0.2008977254541444, 1.5928951371690692)","(0.19997822558667314, 1.7831378933562434)","(0.2017404289872872, 1.841127309614734)","(0.20133848303145188, 1.8158387375590843)","(0.1845618799035505, 1.733937192906095)","(0.19587399810894984, 1.6779319506215697)","(0.24309480160802857, 1.531921765647494)","(0.2452185228952854, 1.4806054298155256)","(0.1777742023305701, 1.8551416692636211)","(0.22370983267593303, 1.5249606676666732)","(0.2885065586315645, 1.4302951734769305)","(0.15931970372589843, 2.582139719858028)","(0.20120265723625227, 1.7519729233975874)","(0.2541260995536091, 1.5282773916104968)","(0.2828060147965644, 1.4538679913515435)","(0.25553506842762796, 1.5728859445496552)","(0.2790661163059984, 1.4762945756785937)","(0.20877638710144686, 1.61180012093244)","(0.21320298568391954, 1.6217048983640479)"
"(0.2553143194872266, 1.614454165836681)","(0.3036357151735168, 1.3289498078126485)","(0.2585192503067139, 1.5425116512144337)","(0.2779336595055243, 1.4213836814682963)","(0.19976924829708428, 1.593765570858676)","(0.31962217014649563, 1.3118496251659606)","(0.2625020208339731, 1.4408646163361232)","(0.2178896972873345, 1.702987515525845)","(0.15407818663827283, 1.938066441378618)","(0.23789261376635082, 1.397940145323588)","(0.2561049295179847, 1.359492596971582)","(0.21717094601065048, 1.330294016027283)","(0.1850500139449138, 1.6852302373808545)","(0.19908804129557137, 1.5445293241499698)","(0.2317707194179091, 1.4701352230461686)","(0.23138582427396792, 1.501731626343932)","(0.21898337952126998, 1.5777601271784434)","(0.19118933315926648, 1.6814881802716397)","(0.20608401612975258, 1.709078140399611)","(0.2629277653324041, 1.5671754279739214)","(0.25319376045665615, 1.5488443297789871)","(0.21363962021736527, 1.5573275904660913)","(0.24322733444042463, 1.496538026695063)","(0.3017601583366534, 1.435806770285299)","(0.2674192862251587, 1.5181878494760384)","(0.20284763762547758, 1.6961459718364273)","(0.24217132437127742, 1.6114377313880617)","(0.24272203101993534, 1.7313614473296584)","(0.2496090176835246, 1.6428079272027305)","(0.2265352267827312, 1.730983573818594)","(0.19454874232855843, 1.7865497228174219)","(0.22174566698881268, 1.5283494777194693)"
"(0.23964050956093982, 1.6141516794061863)","(0.2904407769793124, 1.4047823045036798)","(0.2382475803448108, 1.7232721427383149)","(0.2671278100599807, 1.3603713559479351)","(0.2159398000212874, 1.4727322927295357)","(0.3156630760405526, 1.2838897229839175)","(0.2596151047646462, 1.523636561643532)","(0.18645847753736575, 1.9778365097515318)","(0.2015231282266529, 1.5738208284310564)","(0.2450626167709141, 1.5187127220609589)","(0.2536823044729692, 1.4553286039577877)","(0.2194471046865559, 1.4139586021987232)","(0.20087147328633054, 1.5808065022211868)","(0.20373113626418163, 1.5369618201491024)","(0.2040166737539834, 1.6329958002658476)","(0.21540647660897522, 1.578193851947295)","(0.21664686930741284, 1.564921644609393)","(0.2037703076186232, 1.6122778067291115)","(0.2001732946794377, 1.7152620823455775)","(0.2365903022461155, 1.6921930350181282)","(0.22427094862409078, 1.684190701742119)","(0.19860713721946338, 1.6613132407984286)","(0.22421619800432466, 1.5951245782892554)","(0.2633786382130159, 1.583032847007994)","(0.26314491450173216, 1.5128178831921122)","(0.21948511828083603, 1.6008044141610713)","(0.2476974633866426, 1.577251873622433)","(0.18073641424809908, 2.1767082073449604)","(0.2507486191964279, 1.641112757374096)","(0.20735357828974954, 1.8126267993942253)","(0.21790386352316715, 1.58818550427581)","(0.2099172284728072, 1.5927794448647592)"
"(0.18739927689466024, 2.12268823576469)","(0.23708558579819775, 1.7827222446727504)","(0.22078166380185701, 1.945296074742677)","(0.19721592313976952, 1.9700189925053837)","(0.17213023880755093, 2.051497282285525)","(0.27238715919810363, 1.5194361338001277)","(0.25873444109853183, 1.5801129148240585)","(0.17931056513278026, 2.103128275175596)","(0.16758348854254182, 2.0188966682181952)","(0.2641351749561776, 1.5244852678350325)","(0.2619527660128901, 1.5004990857993545)","(0.21220543749412482, 1.663130917752541)","(0.17449594115125389, 1.9406218178717773)","(0.19452478246244392, 1.7435695521868682)","(0.19973156774050432, 1.7724902105561464)","(0.2154287483010037, 1.6639488297174188)","(0.20464888685464697, 1.7242275083665166)","(0.17044827799949777, 2.0267921615377475)","(0.21522519205394736, 1.6236263551812475)","(0.23916064379200344, 1.6019121445744047)","(0.21468872259698796, 1.7131278755451222)","(0.1786230347449059, 2.006918891621216)","(0.20290609241196947, 1.7493377194677142)","(0.24597950683601652, 1.623404911748377)","(0.2320083577077613, 1.7185837249823892)","(0.18424561177447574, 2.089241895694495)","(0.2178276294310119, 1.917679102164942)","(0.16183670863074948, 2.545272224765244)","(0.22862383525203034, 1.8450420383804789)","(0.16793752265256973, 2.369759850449121)","(0.19595518977727638, 1.9437758474385305)","(0.18819640726801112, 2.0104370920507693)"
"(0.1884811294291253, 2.140405125423822)","(0.22410507442580532, 1.8747691441920964)","(0.2333639030015089, 1.7548968592807321)","(0.20061478678412664, 1.8895007200754246)","(0.14670936902748402, 2.370279342078034)","(0.2332312264197511, 1.7550234318116298)","(0.2573108358837695, 1.5786626594859825)","(0.1629657280337489, 2.1167390085522015)","(0.13550079159979317, 2.4433538007068845)","(0.24688838495488358, 1.5632389791619636)","(0.2651429637902708, 1.4593104754658341)","(0.2037450069922521, 1.7515844073559446)","(0.16389798658116828, 2.004265921531426)","(0.1987125374312707, 1.8075836098539537)","(0.23030994781074146, 1.676234409896371)","(0.24300318012247757, 1.5908731424449756)","(0.21456022987173368, 1.7085804038775896)","(0.1780877362133922, 1.8386186956046047)","(0.20706736540488238, 1.536278304717227)","(0.2614331076138825, 1.3629320032190007)","(0.24266024807595532, 1.4078774714302433)","(0.18249245811565296, 1.8160332508969657)","(0.24481351308126842, 1.4089704320858858)","(0.2667463805821935, 1.3790894173067891)","(0.2628781395406115, 1.5052079680798722)","(0.19436041954351949, 1.9625221035117768)","(0.2373213678422284, 1.7639494592216343)","(0.19095608196783723, 2.0733175421480876)","(0.22957848843842057, 1.8190914338601292)","(0.17663060452723, 2.246575123413898)","(0.1686159719647649, 2.2532122732992637)","(0.19008167125081846, 1.9826944581641692)"
"(0.20836305049991066, 1.8995053084445783)","(0.22882173424477473, 1.737450935861257)","(0.24663498719630086, 1.5614632084661515)","(0.22913992347011283, 1.6166832233782535)","(0.1588155929072043, 2.118152087312856)","(0.26019845512937995, 1.6175588601754076)","(0.25461049142230874, 1.641180782145353)","(0.15092251646585825, 2.1650329101815884)","(0.16626043899266288, 1.9688185325928427)","(0.2685200281380411, 1.3845597359474515)","(0.291021379457415, 1.3494925741915047)","(0.2112810797006705, 1.6625975851079058)","(0.20960075513696796, 1.5546173898338764)","(0.2449590150708666, 1.472727881232405)","(0.27463705357808355, 1.4351488129566656)","(0.27966128830339926, 1.4010329007113083)","(0.2594391826123648, 1.4434544224853523)","(0.20680410610097064, 1.5791527457599728)","(0.22805490388108385, 1.4308954305913208)","(0.28255251640910917, 1.2779002904161247)","(0.264707458486086, 1.3327541127316895)","(0.22390622997270543, 1.510038923457943)","(0.2373884430511682, 1.4730048578318857)","(0.2931159067901817, 1.272868774684379)","(0.2815220924780586, 1.361155475493864)","(0.21450617995530702, 1.5924770547587792)","(0.2500593004446363, 1.4853715757327428)","(0.20806316818558812, 1.7903993638499027)","(0.2425762165365146, 1.6271770377832626)","(0.23553412003084725, 1.6155933068917065)","(0.167776048430801, 2.038558902752886)","(0.1900416615994474, 1.926886722342766)"
"(0.24244394898738097, 1.6918444270847612)","(0.2572473596568726, 1.603869919991124)","(0.2445557785238676, 1.6351971418807498)","(0.24957442492610502, 1.6121445591900347)","(0.20611507237522148, 1.6373045944528795)","(0.2932172117744795, 1.4744572067459198)","(0.25671854141947614, 1.6350636291965932)","(0.16777918926739543, 2.128744327459593)","(0.19465587994356462, 1.7924493510740969)","(0.2857393844094383, 1.3625145554531395)","(0.2642990418034656, 1.5454725873014585)","(0.24221024463279991, 1.4917899063108948)","(0.22442991481354002, 1.5383435398250602)","(0.24529752053960113, 1.4745378767159323)","(0.2719714461917176, 1.4148082862201956)","(0.23793518279372874, 1.6076910281280103)","(0.2230561357628476, 1.6522524785057402)","(0.1810695895838234, 1.8240615071917416)","(0.22428865664899658, 1.5383332127197753)","(0.2598259148387291, 1.458380601237588)","(0.24630663143942194, 1.5213936734689677)","(0.24406362899997372, 1.4839943456922409)","(0.2321460849452913, 1.5597217212084338)","(0.2779811092575801, 1.439141827561106)","(0.2632709906830476, 1.4454465064787954)","(0.2215067385092937, 1.5397331892455859)","(0.24261408608157026, 1.473534970757283)","(0.20564273980291237, 1.7750977356548532)","(0.2455273143369401, 1.607740424577953)","(0.2293328255927977, 1.6044560376235506)","(0.19936966470804632, 1.6855622759305755)","(0.201180388120595, 1.8330502545287277)"
"(0.23898723025270316, 1.7313217468068351)","(0.2520071174675412, 1.6799456365746497)","(0.22589473417271558, 1.8360777313809558)","(0.24378519761382517, 1.6900258839103284)","(0.20289081006095858, 1.6392049131636808)","(0.2854047297751557, 1.449990945243093)","(0.2741880280484627, 1.5026020997462157)","(0.19994776603811235, 1.677267702828375)","(0.17858604694155708, 1.7506593830791566)","(0.26336896776767516, 1.4546072596008064)","(0.2538524715732645, 1.5953164746305242)","(0.19258415753001687, 1.7468165553272745)","(0.17027467009553676, 1.7741035619920646)","(0.1860496777386428, 1.68942889315428)","(0.21160814614241918, 1.626290032110021)","(0.20600321241245675, 1.7008537556862522)","(0.1989780824160989, 1.6963610362964767)","(0.16508242962865632, 1.7320380983589272)","(0.1908952233494243, 1.5748571128156366)","(0.21100435147419028, 1.6809307902736597)","(0.20376666684278172, 1.6846953288869542)","(0.19393531539903125, 1.6315367585859857)","(0.19710595570952646, 1.732782397021612)","(0.2268241763675854, 1.6580119833623108)","(0.2321663524350463, 1.6563583493415748)","(0.19535672286112693, 1.7473304435075308)","(0.21531334130785396, 1.7475406238178086)","(0.18031650308492755, 2.005057014828263)","(0.25417348985743876, 1.622768602820851)","(0.1981181943570475, 1.8891320050886158)","(0.19661130768819374, 1.705190408193155)","(0.20697467120110677, 1.6896771952227618)"
"(0.22602287907591004, 1.7628749852123136)","(0.2254579907340188, 1.7736708814310005)","(0.19681411725349932, 2.002418793757979)","(0.20138408948114275, 1.9805579767435415)","(0.1467385163191632, 2.08788799511337)","(0.2626010938686776, 1.5825708148102686)","(0.24393426043758384, 1.5585080043829938)","(0.18556522428097433, 1.829054985169999)","(0.15811415134840906, 1.8428086125501635)","(0.21681885538461745, 1.627240348008422)","(0.2342127090751614, 1.5973280258835167)","(0.18112812801756248, 1.7421267962469065)","(0.17961438145553335, 1.5961269922013643)","(0.17721851719279957, 1.7054669901124564)","(0.20412892277716746, 1.6643113873215425)","(0.2108330642151266, 1.6390637522508076)","(0.20809708376376215, 1.610319777855854)","(0.17375529737923143, 1.6357338447939347)","(0.20060922247458515, 1.4762582550809933)","(0.23394867733303507, 1.5151299112996313)","(0.2241211343932327, 1.4996535839715637)","(0.19191179487681076, 1.5811333591870564)","(0.2110457899382394, 1.5412342360740867)","(0.2702863447867936, 1.4630959058230937)","(0.24261233880156957, 1.5246578884495325)","(0.19037162514541492, 1.7050743517859586)","(0.21638875105017236, 1.7108186207886222)","(0.19931580039554708, 1.7830529035142901)","(0.2611058603028377, 1.5899345864974004)","(0.22097225425871803, 1.739067877843501)","(0.1722301520495939, 1.9218354340043933)","(0.1909528128034745, 1.7470253247275582)"
"(0.22955428214653398, 1.6592344411733717)","(0.2299539323440721, 1.6681028671700517)","(0.2368341976838613, 1.6835270904776296)","(0.19600639799244077, 1.967675370642658)","(0.14225269268660176, 2.049370388188956)","(0.28318832360127, 1.5143509115039389)","(0.2112264373649963, 1.6562647743689927)","(0.16256419688309118, 2.0865471084716662)","(0.13862636112385274, 2.363618354873051)","(0.2111788797242915, 1.7095705489594748)","(0.2369791522475282, 1.590611898455933)","(0.17948657798591797, 1.9398778437339605)","(0.19366067157725303, 1.6311102912603304)","(0.1916870682465319, 1.857959766051044)","(0.21939097955390757, 1.741462600745371)","(0.21888650182110908, 1.7332511415827128)","(0.20973637014130167, 1.7166387272991879)","(0.18697005679305298, 1.720003461618139)","(0.20803898763543202, 1.4941164986671303)","(0.22546136803163555, 1.6080201688672175)","(0.22453443424103522, 1.5180323015905732)","(0.21470422239212772, 1.509286124959596)","(0.22057263542124608, 1.5164055216746828)","(0.2728669290688634, 1.4864307527530394)","(0.2544981467858846, 1.5089864578065042)","(0.22976793637521012, 1.4372143866602085)","(0.2359451983934549, 1.5674207755865084)","(0.20107800632520267, 1.7437216492305752)","(0.23562637942022407, 1.6163822395340919)","(0.2163923242861952, 1.6764747454152338)","(0.1862269606750987, 1.7510266795437797)","(0.2127786151486145, 1.5312653628394624)"
"(0.2339361197482455, 1.6489082189670126)","(0.23409394221732568, 1.6176412097041766)","(0.2674162597486837, 1.5594140671793386)","(0.22302295159423272, 1.798323717335254)","(0.179074980266562, 1.7248813565819665)","(0.3077752092162393, 1.3858465096246253)","(0.18034087432223453, 1.982298284931305)","(0.15356533531350605, 2.064726941099817)","(0.12537589073517244, 2.595300207528336)","(0.2005152039841256, 1.9095959849002964)","(0.22552473436562512, 1.715677472135001)","(0.1528883766664688, 2.321980458428426)","(0.1425589838825226, 2.1684325123744133)","(0.1631954582623281, 2.198284205259839)","(0.18780482819602212, 2.0463875874190514)","(0.18659761805426592, 2.0652943137554187)","(0.16389156954041897, 2.200090151290156)","(0.17546476160807975, 1.8636074497157158)","(0.1669069804404951, 1.8626447506653958)","(0.2030492220867284, 1.8321154417889456)","(0.2016775283107726, 1.6544656837148792)","(0.20347972360614036, 1.555550777740011)","(0.18801754099356652, 1.7149164224342284)","(0.2472760086150052, 1.6035095663276289)","(0.241084158322731, 1.5924220372029747)","(0.2078208603230306, 1.5671507709456776)","(0.21615650349103296, 1.681029393999309)","(0.1911388471729643, 1.8378079762336998)","(0.21757434691468444, 1.75259777672587)","(0.20844209784342393, 1.7273065564707253)","(0.19767667596322244, 1.6278037011535875)","(0.20293387776886795, 1.5782474117556173)"
"(0.23970791893443275, 1.667673210693494)","(0.2795285515462203, 1.4889333904724351)","(0.2977162147502223, 1.4747833241466133)","(0.23982823186558663, 1.6245847661162334)","(0.20681127652237458, 1.5252683077846378)","(0.3092943056725005, 1.38173920542877)","(0.21009299914257734, 1.7566311988429713)","(0.19347552762148118, 1.783874680006893)","(0.14925086429411277, 2.0646363853875154)","(0.22148184275666993, 1.7075060395561015)","(0.21169210362440624, 1.751107050289157)","(0.1709839888533028, 1.9626923858846612)","(0.15846878435289163, 2.0114565707965073)","(0.17327253505979653, 1.953399252315937)","(0.1816664873648943, 1.9818785424782337)","(0.16907703231576096, 2.0755154266373474)","(0.16184068706446203, 2.0857190727561923)","(0.1697353610610062, 1.9797173543498021)","(0.17897501576675098, 1.9087907389251046)","(0.231539973245676, 1.7652200037331918)","(0.22268797518585742, 1.6503650149073474)","(0.19591986167819295, 1.6721974109344866)","(0.19122633942840778, 1.7794790078953617)","(0.2906377058104364, 1.4799453967132807)","(0.25964504074407024, 1.6075090103108645)","(0.1926096226369939, 1.86583831746685)","(0.22275637233234857, 1.6763654848165332)","(0.2394858718615189, 1.7065138146545635)","(0.27289659438943176, 1.583337423969485)","(0.25598924993470773, 1.5610096565391065)","(0.2081916328628836, 1.725681953293264)","(0.21867868982991195, 1.6125826017149878)"
"(0.26384189755700693, 1.4605752200436997)","(0.2929783100963509, 1.4495458907078849)","(0.28541412497021723, 1.5030396348223918)","(0.25669824669311797, 1.5216576345166624)","(0.2013807029204845, 1.5536587970445173)","(0.31906066053288384, 1.378704114583024)","(0.23536035501088112, 1.5998093019191686)","(0.22937785319971218, 1.6228511299588926)","(0.20471017580118844, 1.4958445209220834)","(0.2584625659799969, 1.425755793476736)","(0.24215947981763206, 1.5029663202019323)","(0.22410420530852215, 1.441604644506256)","(0.22876007846101395, 1.358021673418036)","(0.22511161933752596, 1.4546489836595276)","(0.23650486620794434, 1.4824536221363793)","(0.223645433893141, 1.536140662106955)","(0.2173472854796623, 1.5579733754677212)","(0.21121992466609676, 1.52169584591531)","(0.24931877192306062, 1.3240586447467175)","(0.2842179857817392, 1.4309736658918337)","(0.2688317319122424, 1.4010329672097668)","(0.2150338013506892, 1.4161963625343383)","(0.21606516686453486, 1.5878793154725943)","(0.329878164354664, 1.3394054671122253)","(0.3160967375801146, 1.3943830769180456)","(0.2194550129619692, 1.655000764627385)","(0.27151135742933213, 1.4500817060548703)","(0.2947094686058479, 1.4419601540116993)","(0.3344237427148973, 1.3102848923089607)","(0.31591725622745076, 1.31021776038615)","(0.22100133480067732, 1.6231108423676266)","(0.24287394695817358, 1.4271378365518985)"
"(0.22420798582830007, 1.7662819121359263)","(0.23980739646542648, 1.7327347630909036)","(0.19891976692977859, 1.8746669587166926)","(0.20855426440880395, 1.91196543978799)","(0.15663182787262278, 2.0479710324544262)","(0.25438615050173186, 1.6639425424628875)","(0.22853355557389463, 1.7142847242921093)","(0.20604096208075384, 1.8839586601047142)","(0.20732888113567713, 1.5419560200387747)","(0.2467447807518424, 1.4961373282228196)","(0.24158973129298264, 1.5083659471518307)","(0.20450629501445783, 1.566848954253965)","(0.19304580621162667, 1.5719269528313011)","(0.19038649231303942, 1.6800634228469844)","(0.20956257852314147, 1.6764885177623667)","(0.21988902930040016, 1.6703838980706687)","(0.21495048408067713, 1.6615365203454882)","(0.19360220517021892, 1.660948956553947)","(0.22061113191248177, 1.455835811601864)","(0.27561020262289015, 1.4067182467146615)","(0.2633684816551024, 1.384423544266541)","(0.21532052048564373, 1.4268182323393868)","(0.21067641872582513, 1.6224168164152453)","(0.30525129686821123, 1.336387220514408)","(0.29045802104184826, 1.397261516512461)","(0.2120656242789904, 1.6679448497089855)","(0.23763364358394845, 1.6771939202540114)","(0.26670944323301216, 1.5218364002087557)","(0.3096026175498309, 1.3633542244069528)","(0.27097657444485307, 1.4833928744103049)","(0.1901921713510301, 1.8729906955793334)","(0.2243554916629318, 1.5279125948222136)"
"(0.23749366050537965, 1.7184188943857528)","(0.24684584392369946, 1.6228160541015955)","(0.21611928123139026, 1.699001710388351)","(0.2140921727869598, 1.8005020749790566)","(0.1709508238691245, 1.9371932642682292)","(0.23173690064984312, 1.6031901496090961)","(0.25192506568293443, 1.5872610467146087)","(0.21375237050696563, 1.7374686634465868)","(0.20003246041521508, 1.7263993171304535)","(0.2263592033905902, 1.6197854712316968)","(0.23386797426383157, 1.6139141185852106)","(0.18927010018516527, 1.7229005507232977)","(0.1834325707060132, 1.7770711565768167)","(0.18016820926651692, 1.7525843820583924)","(0.1977658311150216, 1.765986106026543)","(0.2357943668549007, 1.613589875939293)","(0.22357181730768177, 1.647040315826869)","(0.1767114631782256, 1.8168947400866395)","(0.19839662814788367, 1.6382699235347897)","(0.2499574193039028, 1.4999720792640066)","(0.24840441977586702, 1.4516396307975934)","(0.19493644962454312, 1.7347619527619123)","(0.2179887577956174, 1.584055205266247)","(0.2958053874386494, 1.3141441107205836)","(0.2709725088625234, 1.4101950698638324)","(0.2168380831967062, 1.7028209439042243)","(0.241244853110763, 1.6242919109068832)","(0.2579404933092873, 1.5448851699882051)","(0.2961627346974583, 1.428185378332803)","(0.2434591391978166, 1.5879411033992468)","(0.18765310592182355, 1.9979590006115961)","(0.19396156419017643, 1.8675655873961325)"
"(0.2920769591570329, 1.3851866528132222)","(0.2631452354857613, 1.413754129097924)","(0.24979128480859136, 1.5296686980241592)","(0.28783417060507543, 1.366647168827974)","(0.20970318753807612, 1.542627577229583)","(0.26836228088600195, 1.49543623546354)","(0.24173693459594575, 1.59703539319045)","(0.1987991200660803, 1.775510006337832)","(0.18507686787793243, 1.7213007693999391)","(0.23224648806798207, 1.5554734943736097)","(0.223434951054273, 1.6847522962820605)","(0.20957293456426657, 1.5011338304711672)","(0.19799161405985202, 1.5423800963425536)","(0.18464549414591844, 1.661542215692198)","(0.1918481675878079, 1.7240482948617661)","(0.22030729972942145, 1.658823747504308)","(0.20416044195437894, 1.7137956067741846)","(0.16781831090734226, 1.6544443613250919)","(0.19692566624416757, 1.501318623704181)","(0.21867744015873, 1.537882277107019)","(0.23383835692954508, 1.4643798165919413)","(0.19264547067905208, 1.6438686370366893)","(0.20977705914302933, 1.5811571029582876)","(0.27432721257095977, 1.39883756398442)","(0.23077828600944925, 1.6203204975734147)","(0.217753719990994, 1.6201606709479472)","(0.24635651532295247, 1.5825893962780309)","(0.2254307281978907, 1.716633984524945)","(0.2669201249544654, 1.59432805845783)","(0.23743572151797965, 1.7201331562592066)","(0.21230113233067752, 1.6538049490737463)","(0.1810203966599741, 1.9034241426594178)"
"(0.23994984542490091, 1.7097907702059045)","(0.2200293785390417, 1.8064062222338229)","(0.18946134624843416, 2.0108697021896593)","(0.2080148221883267, 1.9119579089623917)","(0.1407960639185841, 2.361410121374859)","(0.2050478354919304, 2.112807440881768)","(0.19554027419552059, 1.953480695839483)","(0.15880949649785447, 2.436041142807537)","(0.1797334581893375, 1.903612615905942)","(0.21646915607757625, 1.823124237636368)","(0.22051389159813015, 1.757418201684437)","(0.17257667304440819, 1.935062822896105)","(0.16827640014728099, 1.8893709019878546)","(0.15302009890592735, 2.050109595240495)","(0.16134032750059668, 2.044363139800403)","(0.1591518582125145, 2.037182706251716)","(0.14391080786033608, 2.0361168035520043)","(0.1375967826054865, 1.8848311221470384)","(0.1637986307032468, 1.7936722417966247)","(0.19567606463756598, 1.7403277619374107)","(0.21139781754799264, 1.675280516800724)","(0.17538939733991574, 1.8495755581427962)","(0.20610996591318767, 1.7976704629655595)","(0.26457585484660484, 1.4908047228201717)","(0.21203732390577837, 1.9108274545708397)","(0.19208726273049453, 1.8865823509149053)","(0.24153453665296454, 1.6989533971994282)","(0.22706861222570307, 1.7355933381138622)","(0.23324089612763485, 1.6932415686119322)","(0.21916487798151502, 1.8461409992497129)","(0.1636204906682185, 2.122199424113404)","(0.16944914105995473, 2.116548487108985)"
"(0.20717559443266734, 1.9438949631181328)","(0.20603515544840917, 1.9965068763831217)","(0.19605938690125035, 1.9740012571431782)","(0.1857352664805885, 2.0435673857718033)","(0.12089794721263343, 2.701807693056089)","(0.19951007686586628, 2.0208824691623373)","(0.20165562382574773, 1.957273933417213)","(0.19206995426520782, 1.9391313610180523)","(0.16102853474278694, 2.201734716557881)","(0.21219006070436117, 1.7859347110156127)","(0.23731102130393197, 1.6331455870081013)","(0.16938728937618325, 1.9499888741890206)","(0.16777399375172808, 1.9497121382912477)","(0.15539709547981562, 2.022761942627)","(0.16708283846274885, 2.042460783718167)","(0.16258119910548982, 2.0698164603633393)","(0.14206356072358986, 2.212324285001085)","(0.14072179052724987, 2.0906926356087183)","(0.15786909021609852, 2.013423816101732)","(0.20033547239354313, 1.8564837382234665)","(0.2104248863390208, 1.7928133056227638)","(0.163540752774295, 2.146256440655575)","(0.2083730087900467, 1.8574728998865055)","(0.2705335642960845, 1.5142701092986357)","(0.22296978312213372, 1.816780220232929)","(0.17994560068603555, 2.108466852867064)","(0.22727849251268292, 1.8053011613340797)","(0.21625322415793521, 1.7421584390227502)","(0.21687231071734167, 1.7889642435216313)","(0.21730686705400987, 1.7947773953976165)","(0.14270612377421846, 2.537716355016177)","(0.18002818900569298, 2.0390784934742103)"
"(0.24573800469135648, 1.620958719900909)","(0.2638077969115598, 1.5666505174452443)","(0.2653512196009008, 1.4762634389425404)","(0.24231654505653183, 1.6601377040678496)","(0.14003944218455297, 2.39829752484673)","(0.2843947111692031, 1.42898824355516)","(0.21128258097005842, 1.7417269778419286)","(0.1961972432757316, 1.9170340113222493)","(0.13344306069308032, 2.5886340309408737)","(0.20692238864875045, 1.7716446838790563)","(0.2164866025618253, 1.716064912599524)","(0.17112416270833386, 1.87491183488221)","(0.16237990467260136, 2.026781196984395)","(0.1637794836214962, 1.9892255085018786)","(0.18940892209292856, 1.8948489914479631)","(0.19411982451279347, 1.9036422345269788)","(0.1817522174792377, 2.018823419655029)","(0.15012343751481305, 2.2946478024726065)","(0.1761421567266596, 1.9537668144697906)","(0.21262125521452427, 1.7850814689394037)","(0.22795853364226756, 1.682999107802026)","(0.17346385104610695, 2.119733681447979)","(0.22469681068124497, 1.7269702411381784)","(0.2780441321534472, 1.4783363610098643)","(0.22304732966401974, 1.7164372240153576)","(0.19999191762685312, 1.8096129686768538)","(0.2365579685698434, 1.6383764914548269)","(0.21434358034919024, 1.7366858685170126)","(0.233760527023726, 1.7212260385929736)","(0.24570749569805347, 1.6272574730090632)","(0.16200475512652857, 2.1996129293966065)","(0.2068357477644898, 1.7851526054921198)"
"(0.26048473573638314, 1.603926524775972)","(0.28641007096699084, 1.4612938560596684)","(0.26926814789618053, 1.4827150653919994)","(0.24658128950720207, 1.718502501304412)","(0.14925482217725305, 2.2966689022877125)","(0.3057316146217657, 1.4070307333689427)","(0.21075038938298843, 1.8011440930458262)","(0.20597917704444482, 1.9823876080792553)","(0.11333105326169458, 3.1616086278733726)","(0.2169264293289199, 1.7690240208699508)","(0.23812380714311165, 1.684722197713754)","(0.15693573292811014, 2.2320613176911723)","(0.15893719005709836, 2.1239897757825092)","(0.17107938545153165, 2.0551617402600804)","(0.20351850082371006, 1.8783210998833064)","(0.204516839618017, 1.8047300078731325)","(0.19975842066310065, 1.7808917263396682)","(0.14818206937093248, 2.194205279521339)","(0.18499045960099386, 1.7941608264344373)","(0.211473511599437, 1.7325825890896573)","(0.23092185749565078, 1.6646487612009448)","(0.2090543573082839, 1.672809953233768)","(0.2326816513319422, 1.6457073596602971)","(0.2724698589990236, 1.4619923484150976)","(0.2252060847439495, 1.6963643766672456)","(0.2147444933815462, 1.6327477116952815)","(0.24720286836458263, 1.5489147462375217)","(0.25490674906950866, 1.5449315996284614)","(0.2838020790146221, 1.4728263678934586)","(0.25917214430508906, 1.5272408045852195)","(0.17980146315862272, 1.9600150663939813)","(0.21018269639452686, 1.761144952846601)"
"(0.23280160604435787, 1.7210299922097945)","(0.2565445028374649, 1.5754292589956356)","(0.22697350995790497, 1.7093647683746562)","(0.20511199078300005, 2.0218624201379614)","(0.16627591474281708, 2.0902559696923477)","(0.2927424996635823, 1.5043236775225333)","(0.230875658488969, 1.7537527011639507)","(0.2541695811510446, 1.6171238912326356)","(0.1365701164715295, 2.620971214330913)","(0.2592769603633245, 1.572496482510087)","(0.27291927714825914, 1.4743746957121524)","(0.16654584816874432, 2.2035085180162524)","(0.20350648265649063, 1.7720973673869596)","(0.21108274407752614, 1.6926628468081715)","(0.23060277963174136, 1.643190793499732)","(0.22672201199832634, 1.5811690057484966)","(0.21293539692687205, 1.6301099838903577)","(0.18998855353483696, 1.8133677474156111)","(0.2323442190499402, 1.5767459814434832)","(0.26267291257700554, 1.466682973774848)","(0.27677507281202407, 1.421613036315487)","(0.21137462599627724, 1.7166323814054105)","(0.24174087451911727, 1.6041124662024935)","(0.2879754981833852, 1.369180899595095)","(0.26589803134816065, 1.4828957486277128)","(0.26561390022043535, 1.4913034846015587)","(0.2881626226637838, 1.374241029169062)","(0.2581980985308352, 1.5162939785127996)","(0.2655910573583462, 1.5298549614496884)","(0.24802098426299743, 1.5452417036436097)","(0.22401752814577264, 1.6878257846726674)","(0.20953036841173228, 1.90967025707846)"
"(0.25637728649863833, 1.5301938135684137)","(0.2396857178267658, 1.5557581845372255)","(0.18694720511821766, 1.843816947695146)","(0.2171935477184037, 1.7879513348865086)","(0.1673968311760166, 2.042621214879082)","(0.24062747962119205, 1.6837403018838266)","(0.21176041752674324, 1.8005014436295896)","(0.21148142932732258, 1.8486910165448243)","(0.2038497426694333, 1.6614580377015968)","(0.22903322566167497, 1.635526002990832)","(0.22663244999524307, 1.5637744589260218)","(0.18772366929411746, 1.7323339745557722)","(0.20440043644468778, 1.749559893123473)","(0.19726157016716486, 1.6405904365057533)","(0.21416819042261528, 1.6255605175521104)","(0.21023264698908037, 1.6750557503260288)","(0.19681535464251726, 1.796701628161741)","(0.18684036271670534, 1.8735054117389904)","(0.21945652231985152, 1.6859535162429022)","(0.2512069637087017, 1.5177917553804865)","(0.26202750413298487, 1.4527101885754414)","(0.18434288563777024, 2.0085322919026947)","(0.2342914516647146, 1.6347892929801824)","(0.2798126686428902, 1.3782825335483462)","(0.25944937809212226, 1.5444924296013278)","(0.24285408952812917, 1.6013615800790384)","(0.27080209762345503, 1.4311869052317754)","(0.24481834571962954, 1.54626067541294)","(0.2463333893625829, 1.5973386524049138)","(0.2526826246114066, 1.5231682192805358)","(0.2172132846827445, 1.6993594067363598)","(0.1887065044897389, 1.9930653522724588)"
"(0.2358710770806144, 1.5922054600690287)","(0.22685225120785166, 1.565170382902465)","(0.1861001593473538, 1.9062632456712412)","(0.21816015803859912, 1.6856864521286488)","(0.17519119249360068, 1.83195253994009)","(0.21416417381604363, 1.8338990133477213)","(0.180459140389884, 1.9413004992836678)","(0.20002876033233744, 1.8817275713834893)","(0.18956772504072003, 1.6434554438603244)","(0.18336759507239875, 1.865484915658189)","(0.21278332713029188, 1.6531130302945598)","(0.192221787723414, 1.6064552705173039)","(0.19339954402027473, 1.5700836020850606)","(0.19270817209631091, 1.5848709705363724)","(0.1988678510685189, 1.6357635684905525)","(0.20060922708690174, 1.6769379932835444)","(0.19090762211130602, 1.7413876502336583)","(0.1786701512499582, 1.7026368583350457)","(0.1860797031034401, 1.6839657392598877)","(0.19485340629272338, 1.794179669290611)","(0.2073339653277695, 1.6842725782806487)","(0.17200867204754622, 1.911513194502278)","(0.18296176648495924, 1.7748783903930259)","(0.22748871730432743, 1.6097752478380039)","(0.21505662866651165, 1.801945240870176)","(0.17917692438407448, 1.916649391136622)","(0.2076707041692431, 1.6780277898356464)","(0.19819158741135387, 1.7315806487842191)","(0.2076453412236695, 1.8580082121061443)","(0.20073261829667055, 1.8393486045535783)","(0.16894641389752563, 1.9944177694269771)","(0.16612480673945235, 1.9559818377416351)"
"(0.19565420153840238, 1.7974924347713268)","(0.2133155145771326, 1.6833742143852495)","(0.20502675714400623, 1.848272735768692)","(0.19791911341973067, 1.7807936169799223)","(0.14315224944854646, 2.0088408161462503)","(0.22870434949459578, 1.7734291843642926)","(0.18348779473437646, 1.9098327680639746)","(0.17906454043793643, 2.0407872209650972)","(0.1429501469435497, 2.174928482940053)","(0.18949133076210523, 1.8760961243951713)","(0.21822445630514842, 1.6576600116202933)","(0.16303592225551217, 2.03866238090263)","(0.16798640485773778, 1.7601608863124214)","(0.1781992631309924, 1.8314430375503294)","(0.1927927527857867, 1.8021098819963979)","(0.1984379887190768, 1.7235403901535318)","(0.17392273563624877, 1.8564142988221763)","(0.16819821168731197, 1.705395513049953)","(0.18127748178095998, 1.6157040654390353)","(0.17960887006499135, 1.9747101325795524)","(0.19009084804403564, 1.7615877281424646)","(0.18633664048179685, 1.5764870257634545)","(0.1866779570731457, 1.6361247928187688)","(0.2079147006900422, 1.8650777262241511)","(0.2047489015340927, 1.842103564711875)","(0.16754044798385845, 1.8506851189433964)","(0.17368336033161869, 1.89127473945338)","(0.16340115144287448, 1.9899768145141237)","(0.18287103550553133, 2.0915432105406375)","(0.1509199572110504, 2.254608984522124)","(0.12559901016354494, 2.384397841920651)","(0.18067223885289385, 1.6833512112115245)"
"(0.19990735364865864, 1.7795578005382575)","(0.2126952167610577, 1.7694415826811751)","(0.238525451103372, 1.617846092551985)","(0.20646494002641388, 1.708919217010314)","(0.141520373521282, 1.9796855899276984)","(0.24605715743223497, 1.5423754751843648)","(0.2219901178660569, 1.6400244836670268)","(0.1866243232203168, 1.7468512602040849)","(0.13509754814434213, 2.208076602693841)","(0.2098180373639161, 1.6994837586956846)","(0.2380639825655753, 1.5422816301574347)","(0.171056464546105, 1.854986333752493)","(0.1563355046434624, 1.9301760776210135)","(0.17254319513490052, 1.9147711251510229)","(0.195612896629303, 1.808954103678689)","(0.18637346467263127, 1.8397550844130992)","(0.16864942324409624, 1.9480074421816833)","(0.15894521027457675, 1.8334165684549801)","(0.19673306042931263, 1.5465928428161788)","(0.21009862129937207, 1.6921911659058455)","(0.2018310746830333, 1.6129256661888252)","(0.20151363899278335, 1.4243497355419767)","(0.20242762227087344, 1.5237193615753974)","(0.23136923258542208, 1.6280672824506355)","(0.2181033328491347, 1.663402876085286)","(0.1845412932685928, 1.6682474359431159)","(0.19399230458772393, 1.8098487826584668)","(0.1775666318182458, 1.9406097289356241)","(0.2066251477792481, 1.8803238931170623)","(0.16855468106710358, 1.9983581169772895)","(0.15063389669465896, 2.041359645152816)","(0.21130272884278947, 1.399024364977257)"
"(0.19635737162739272, 1.7093798234769038)","(0.2056895262475356, 1.7436962261975268)","(0.2544023429707403, 1.5549496060616685)","(0.20536991249006994, 1.6529146781191448)","(0.14573906978030188, 1.8984134972929207)","(0.2729249494284611, 1.4130566406286729)","(0.24508679856398113, 1.5262116431103727)","(0.19167760296108183, 1.7417008669899754)","(0.14857802322855546, 1.7920685641542118)","(0.2174738580455996, 1.654973040730164)","(0.2370697399344008, 1.5212713601695638)","(0.19569348052880883, 1.5142421702885729)","(0.16888172301410248, 1.659372166934373)","(0.2243178268353773, 1.437729107464231)","(0.2619584730163185, 1.353071611186677)","(0.24314553486396884, 1.4582633026232377)","(0.2554571938202955, 1.364873260388923)","(0.18929575287899617, 1.8514227751652104)","(0.24813199782378192, 1.3433048003750765)","(0.257489561323473, 1.3939860360957548)","(0.24394710239916853, 1.4522852589548805)","(0.2170916387622215, 1.4739827336285782)","(0.21625517581564832, 1.513338506141442)","(0.26534477804759055, 1.3558884470945596)","(0.23992133738828433, 1.5306183280907142)","(0.18054609070561445, 1.7064250018852303)","(0.20826940204225167, 1.662600365793509)","(0.21158576303488186, 1.6235967450768285)","(0.21681402376124628, 1.686071981294705)","(0.2030369041235976, 1.680368582069373)","(0.16622604406409816, 1.7999485790060346)","(0.19420670848176833, 1.5853203459474476)"
"(0.2055718531230178, 1.7781877940629742)","(0.2286804593735736, 1.6089027895433718)","(0.2480747567135356, 1.566906870458367)","(0.21143062599398607, 1.6403541932821692)","(0.16207852011022547, 1.7936932916628252)","(0.25311552228136264, 1.5137654170394599)","(0.2190517810262707, 1.6915276726559594)","(0.1499302183805622, 2.3391212935794785)","(0.14376090165594962, 1.8464485384206943)","(0.1940548904187745, 1.8079758671346584)","(0.20262473315738444, 1.7075317940387218)","(0.18659638567012807, 1.529840921577867)","(0.18501332459146383, 1.488038701404627)","(0.21433066383904736, 1.4704331187960826)","(0.24048513047514336, 1.449057037199178)","(0.2409870141481008, 1.4143772004614912)","(0.23708734704785359, 1.389229949071593)","(0.20260095932737868, 1.5473685366520902)","(0.21000239688260833, 1.4626986806412332)","(0.23069346866362844, 1.5205652272914176)","(0.22321322204425267, 1.5715050636909442)","(0.19413147123264565, 1.542738430294611)","(0.1916412080454928, 1.6425194608011093)","(0.24898257084876474, 1.466321243402162)","(0.2220215827368227, 1.6801364688616731)","(0.17150760651476396, 1.8178934271668152)","(0.2208414955026228, 1.59671290203487)","(0.20897438861126058, 1.6817769970830885)","(0.19774481877262765, 1.8129018455314718)","(0.19811899979050784, 1.8488004821294952)","(0.16275709982332637, 1.8179527865354326)","(0.16278777743709366, 1.8915239276723717)"
"(0.22961793777188763, 1.6836063418649443)","(0.25471939025448065, 1.546805601329743)","(0.21112537984711255, 1.7945748102944228)","(0.2140502164132247, 1.7123676488543405)","(0.16547308689010579, 1.8400562644633747)","(0.23608045654468024, 1.5976792539723468)","(0.18352355788303173, 1.8279834475170107)","(0.196921100952036, 1.6253999106978891)","(0.15007613539764214, 1.9965392221774139)","(0.18416694553909327, 1.7865079265834019)","(0.18849199822367457, 1.8762897869018842)","(0.15926118459479516, 1.809576913091215)","(0.17564505418477597, 1.59490779075073)","(0.158761822077654, 1.9078733073023317)","(0.16489164945127374, 2.0033845564505097)","(0.1846084665559855, 1.6948575996673)","(0.17743827098534143, 1.6635932842602035)","(0.1694648965609962, 1.6245543516666616)","(0.16799698065726223, 1.6832325849315135)","(0.1854371242949868, 1.774715659841119)","(0.19083230105353824, 1.7334654939227996)","(0.1742006259200171, 1.6768378275056257)","(0.1727074223129677, 1.7460626627194715)","(0.2232431804248644, 1.6410504961614092)","(0.1957328958543482, 1.7747871138391818)","(0.1785451228418276, 1.7299555716740984)","(0.2245395693672397, 1.5674132266606824)","(0.1958917126706893, 1.8136424138786515)","(0.19849936918622593, 1.8743312924653657)","(0.1970207546259644, 1.9186206066151175)","(0.1760501014827872, 1.7328470417959898)","(0.1603548063637886, 1.8270349386386828)"
"(0.23843910598964896, 1.608144659728052)","(0.2326642232879042, 1.7126886035842979)","(0.1953276455001545, 1.9432646744583175)","(0.20897243262569257, 1.8293146303411068)","(0.17972643178760858, 1.7503981212206674)","(0.23540132511870734, 1.6730501712276518)","(0.1973966783789263, 1.7235982152763611)","(0.17015600493805427, 1.9246043711797265)","(0.15044614528893152, 2.00954958724479)","(0.21212151569502735, 1.6680659176979906)","(0.19992897733840329, 1.854533892119966)","(0.16446663598382005, 1.8771285589249778)","(0.16342968070028907, 1.8066566679180518)","(0.1562084817967855, 2.035207132314511)","(0.16515044176046667, 2.0678519465738114)","(0.1817548825345565, 1.7860433723862463)","(0.16989208933409689, 1.8075422066526325)","(0.16131470205001233, 1.8517467679972528)","(0.16591516493496536, 1.872586115311713)","(0.1852110509636199, 1.8393663575975367)","(0.19986436893789367, 1.7508954463784514)","(0.18689726937535542, 1.816209430360794)","(0.1839455042158217, 1.8357470725207508)","(0.23821521608886606, 1.603204628128078)","(0.19634584664807678, 1.820651258950025)","(0.20686402414214258, 1.6258249158998395)","(0.21463317459223932, 1.6316141296889954)","(0.1818012896175176, 1.9657181266000163)","(0.2205805884412766, 1.6672863683120656)","(0.20037092962417877, 1.7454404950258577)","(0.21248682431782062, 1.562328191584065)","(0.19817157539680932, 1.5938243901729874)"
"(0.23517673675176665, 1.6763075900741427)","(0.22868433927798712, 1.6972083805092804)","(0.23878979425737, 1.6260377542889384)","(0.23763085207241785, 1.6128556448639)","(0.2121686028824574, 1.5536856639117524)","(0.3030486115200751, 1.4088102815428174)","(0.23676557123674072, 1.4899984668959807)","(0.17923465496605123, 1.996011390235146)","(0.16499834736283045, 1.759082440955417)","(0.2557050358680128, 1.4122423602574943)","(0.22260663082490192, 1.6402706121118549)","(0.20367549709926702, 1.4985409326147958)","(0.19437697609572807, 1.5511356772361515)","(0.1932530467997336, 1.5908933526371478)","(0.19634848736719906, 1.6799081745389097)","(0.21547819968496268, 1.5278116561822481)","(0.19779070126865028, 1.6101933631001097)","(0.18764588709387206, 1.6820783123501106)","(0.19679263301390676, 1.7194067778776485)","(0.22436687089724033, 1.6771295323714994)","(0.2451693877636141, 1.5470357081784976)","(0.2168198212661628, 1.6655440839543572)","(0.22902733322176505, 1.673520971991458)","(0.2809527505710118, 1.4646679079507177)","(0.21993223850969804, 1.8481477225330813)","(0.24876550106182588, 1.5365157080724927)","(0.23635580304251155, 1.6596893580311896)","(0.20325318418214133, 1.9304195327969256)","(0.25047939167005107, 1.6177913695881572)","(0.19784378963957694, 1.8859785272936356)","(0.20308448203730883, 1.7267679655228958)","(0.23103235078989573, 1.6074847570560684)"
"(0.27231986342950204, 1.459615692315822)","(0.2720238888930136, 1.4225799342270717)","(0.25507299039869896, 1.4761837966970999)","(0.24632847291956753, 1.5620459718704625)","(0.22495313744010598, 1.5507838145142119)","(0.312255834862847, 1.3787671009702664)","(0.22852125829083184, 1.6882369148168224)","(0.16942564975774613, 2.111852785910404)","(0.20131945339109877, 1.5531621961279973)","(0.23185053638939565, 1.5572825321213835)","(0.2232353860932562, 1.7187846598227203)","(0.20837767538092755, 1.5404739017250735)","(0.18980160433695362, 1.5906633443231768)","(0.19017749333638834, 1.621931588689002)","(0.19128186459629104, 1.7107649607365591)","(0.20831513596347787, 1.6086722586579196)","(0.19741699084530817, 1.6095770720679063)","(0.18272979039691942, 1.7088538460454614)","(0.19334935141308637, 1.665146505341314)","(0.2304605437951976, 1.660135279982463)","(0.24950578706384177, 1.5324087040337988)","(0.19894028018428545, 1.7127287357322685)","(0.21684433772743278, 1.730556326154901)","(0.30408005918920017, 1.3539316354366433)","(0.26632083247012084, 1.5417864738756302)","(0.2637054160110957, 1.4093346857863993)","(0.2763141656088192, 1.4055608152344576)","(0.2701413495033563, 1.4684850201340267)","(0.30277281934369377, 1.3288506662540278)","(0.24885475008206911, 1.5766324261814677)","(0.21376348423563407, 1.6563485194904304)","(0.21300765545372613, 1.6667224215078518)"
"(0.25449323193663803, 1.51583749383086)","(0.250504716132731, 1.6118010911811906)","(0.22235111655789264, 1.7824105218801825)","(0.22373591972056123, 1.6554315807122755)","(0.2015747149597285, 1.6717199734490291)","(0.23156106288761819, 1.6601871216250157)","(0.24360694157461274, 1.7117657638780748)","(0.15803576255608506, 2.2311698317637396)","(0.15767056851674488, 2.1954136911669844)","(0.23496421938705295, 1.6825763869698358)","(0.2469249176710371, 1.6108929830407777)","(0.1979227506300285, 1.7991739318603046)","(0.1742235324274589, 1.8337871177419)","(0.17643054959323523, 1.966224261638943)","(0.19030195575408154, 1.963710285351416)","(0.18991415493418018, 1.947169386026238)","(0.1907652597253843, 1.8512527686675804)","(0.18171978686925946, 1.7615304328583123)","(0.1980562604488147, 1.5341620588095959)","(0.20781655274157956, 1.6563234402058329)","(0.21781375032054598, 1.5605038513594798)","(0.19060281462598175, 1.6318637295106164)","(0.19745073402569743, 1.78086504018064)","(0.243854825822095, 1.4585049045475547)","(0.26954985812163185, 1.5477971649544817)","(0.22145464014362898, 1.6184121598850048)","(0.248724649389737, 1.4981723299402412)","(0.2412815865070245, 1.5793051395504647)","(0.2799664177166998, 1.4470271494919504)","(0.258206248762754, 1.5342476045297497)","(0.2341911761803832, 1.5270490277835551)","(0.1924435852875038, 1.6930035067459557)"
"(0.2365298158738096, 1.5434854460415028)","(0.21092053959953908, 1.9111245559854417)","(0.2132054716210034, 1.9088673022353444)","(0.19916811733312978, 1.830259700911324)","(0.15131124369494878, 2.0774012323507542)","(0.23460118698193683, 1.6894280659678222)","(0.2542344689293363, 1.610694924016604)","(0.21243369180558402, 1.6707959934018453)","(0.16838528285973225, 1.935479877145169)","(0.23196966996047827, 1.6308454261504157)","(0.21750431849063967, 1.6513406474003713)","(0.17114397046544239, 1.925386821633345)","(0.1613744869123118, 2.016817273262137)","(0.16942187535684852, 1.9868605120163614)","(0.18814489414548022, 1.9537182322953974)","(0.19259972754350252, 1.9889630265821003)","(0.19078418287530066, 1.9028725539076232)","(0.17614151602012598, 1.8560575209255552)","(0.18962449305236992, 1.6025334655482768)","(0.21817839033587344, 1.5593844912272343)","(0.21169171810911802, 1.5493336854583766)","(0.18443967355634214, 1.694569222727582)","(0.21498375238090614, 1.5698629683496015)","(0.2457019009813874, 1.4806018083139705)","(0.2651597241639511, 1.5354118023860839)","(0.19667238471362647, 1.6714900728603812)","(0.21008759248729103, 1.6284665466229546)","(0.215100679384809, 1.6978345796766956)","(0.2722979307323866, 1.4842508999952928)","(0.2365244140901276, 1.6528116288812902)","(0.18685385788330672, 1.7264134749644156)","(0.20054673383252186, 1.6343767069671178)"
"(0.23437096379686076, 1.5423207030649673)","(0.2456487532233053, 1.5344129828483768)","(0.23342934283152766, 1.6942612415450593)","(0.21518060984641668, 1.8174044430260385)","(0.13645729246187402, 2.3974450049401477)","(0.28114240237131616, 1.4813934869434162)","(0.25049785950909076, 1.612947526766864)","(0.20220639509576416, 1.8112742938941364)","(0.17319059955356117, 1.8592890357489757)","(0.20776710691270747, 1.7433709697498645)","(0.20854369346613522, 1.8597113839148796)","(0.166693602500664, 1.9687178267668477)","(0.16151094962676368, 1.9883055235212996)","(0.1666820979216696, 1.9437302239767533)","(0.18353050897985795, 1.872064929287559)","(0.18837093175317507, 1.951192811824922)","(0.18418732144782382, 1.9283230611335278)","(0.1678785297424738, 1.8996252130577247)","(0.1768694861500664, 1.7832510624796252)","(0.20094870526457215, 1.708930509496774)","(0.21526364987554428, 1.6639444903466691)","(0.1750336129580765, 1.8155692925089588)","(0.21800702863923113, 1.611043673526256)","(0.25080317011364694, 1.5225067611226872)","(0.256347223412544, 1.5603235178707917)","(0.20330754866775935, 1.6507971497878728)","(0.21246904018786247, 1.6962726938868478)","(0.1776329772444154, 1.9464014602914734)","(0.2669169536083711, 1.4672910260463952)","(0.20465483596696166, 1.8704027513317238)","(0.18202701020113926, 1.7315059085008049)","(0.18902477636013523, 1.742257897160522)"
"(0.23994137550771572, 1.5935566858945578)","(0.2592615116486925, 1.5286628558324624)","(0.25103963932281836, 1.5159959311120046)","(0.22637258148766232, 1.7114230920193174)","(0.1300493079604936, 2.608318479631255)","(0.29634484037531694, 1.4138029269468484)","(0.250245368603844, 1.5904981205971842)","(0.19310732683600945, 1.9690509326230952)","(0.17685018788401755, 1.9135833108836044)","(0.22695475966353906, 1.672276013012957)","(0.21422927350724408, 1.8142887722021486)","(0.17017749144083544, 1.922685178360411)","(0.1697206576679398, 1.9002208453073428)","(0.1636496882901279, 1.886175193967694)","(0.17381098583733695, 1.9165054242844153)","(0.16847975168546453, 1.9957055290699353)","(0.16578337777757618, 1.9842574880254935)","(0.16060694902177344, 1.9720091131458883)","(0.17657212714293657, 1.8425163136955278)","(0.1944623151828014, 1.8424829133102174)","(0.22738299810708476, 1.6761637154799256)","(0.20159410955459095, 1.728639837497873)","(0.2419478143876933, 1.5228055567232823)","(0.264845818182065, 1.5034207249857263)","(0.2703243556332351, 1.527449541122303)","(0.1916397475774509, 1.895362260944598)","(0.2204486131723478, 1.8043039002748582)","(0.1869523123431162, 1.9882186838677638)","(0.24319276414092797, 1.6584430985623806)","(0.20138453476112242, 1.8429401526285798)","(0.16408902264343822, 2.1557010814154984)","(0.19827464452905777, 1.7292347499535257)"
"(0.24496583335166106, 1.5860246421755573)","(0.27779282995861, 1.5306163730965057)","(0.2364840524679372, 1.5852513424912391)","(0.24539917845179046, 1.5808176374016545)","(0.17893835998807892, 1.984840463596611)","(0.28615290738222693, 1.4854140020645403)","(0.231096666000878, 1.627922004305839)","(0.19745955243691976, 1.95199973737395)","(0.16279307818070649, 1.9497170728686875)","(0.20516347028953402, 1.8270252862448564)","(0.19572638469611167, 1.7365040261542575)","(0.15580660207508013, 1.9345101428974671)","(0.158412394996622, 1.9197931160342903)","(0.15014644555384685, 1.897261009103573)","(0.15682475860890205, 1.9490647891484436)","(0.14771589978678867, 1.9297508218631483)","(0.1375231461690647, 1.9965993302277545)","(0.1369683316144345, 1.9989756529932619)","(0.16847810619127787, 1.830434339078542)","(0.17328061270362916, 1.9655205473416877)","(0.21292234392513323, 1.712238935209532)","(0.2114322502309405, 1.6398994362809098)","(0.22324624302691684, 1.5938443401810682)","(0.24867690049113697, 1.577571577483828)","(0.2528258383152287, 1.5809776819334966)","(0.20359292606126442, 1.7666513616921355)","(0.2544562548307567, 1.5849715557094495)","(0.2232378284808926, 1.7350660055680807)","(0.27027814063081645, 1.5527962228748624)","(0.2362840248077137, 1.6695512264729713)","(0.18784333074059098, 2.02494449828879)","(0.2504741514170533, 1.3773869712965927)"
"(0.207411232284285, 1.8728135092550555)","(0.2435018426283597, 1.6737828045331071)","(0.19233761450583917, 1.9512447142455764)","(0.2056798618786589, 2.0155013231176233)","(0.15195041332646964, 2.328819037565877)","(0.24238641641311, 1.7497520615283826)","(0.20928814528602835, 1.7436429823826565)","(0.18297000984535636, 2.0399125709866825)","(0.13456766821947702, 2.3137929711851855)","(0.17631201731467716, 1.948480242059857)","(0.19013449114524397, 1.7792875183036991)","(0.15191310307945338, 1.8972047333954836)","(0.1600621892497555, 1.8726519228446858)","(0.15155421608173128, 1.8984724598262963)","(0.15757291698981873, 1.9380785590280092)","(0.1523021830643913, 1.8956918677348364)","(0.13983576007094922, 2.01489325225395)","(0.14547596180680472, 1.8034336940126883)","(0.1694971843776067, 1.771834916834419)","(0.17459780592402763, 1.886650341353146)","(0.199552458837115, 1.6915598361362112)","(0.18386775691042487, 1.7145008216149813)","(0.19691761666520793, 1.798180426281004)","(0.2523521023837785, 1.5018761324293117)","(0.22993266654451078, 1.7231269678947339)","(0.18612718115640892, 1.9862821060602518)","(0.2198402496200074, 1.8242312654385646)","(0.20633077532467903, 1.8498685633275243)","(0.2462333827636793, 1.6880795682189873)","(0.211420331276135, 1.9330852767649762)","(0.17551277262428744, 2.1338231437395563)","(0.17549652154419443, 1.9555441276554315)"
"(0.19696356849097, 2.0080336282378526)","(0.1915078559914355, 2.0025933048797557)","(0.1622190432730437, 2.4585853724401883)","(0.18714509039629904, 2.21132234448534)","(0.1458382257893075, 2.3266995324074426)","(0.21507212145116827, 1.8606088319161511)","(0.21723055051833423, 1.770316519941239)","(0.17684555419045414, 1.9513486537704945)","(0.14930484957526685, 2.056282525336829)","(0.18824403998634834, 1.8552282479729105)","(0.19774823662012436, 1.7438952788673774)","(0.15187458381278302, 1.872866552282214)","(0.16847575491953606, 1.8699913376312831)","(0.1558502711872576, 1.9145477614097683)","(0.17580913957857627, 1.9474231263611153)","(0.1818650205809265, 1.9519560219208492)","(0.16991764292072722, 1.9472629532906907)","(0.15720478484663383, 1.872541653871673)","(0.1839107557091532, 1.7152332319983081)","(0.20454504355910888, 1.696654469614377)","(0.2177711331863994, 1.5915430011567828)","(0.1925143387998717, 1.649008749180623)","(0.22490050763629288, 1.5585884214208927)","(0.2868805868417354, 1.3613149344312117)","(0.24635811064749366, 1.6216873649357195)","(0.1739553436923912, 1.9889137327850621)","(0.18055156849143295, 2.144576443848262)","(0.18747782162280557, 2.101090834506855)","(0.18654613089320707, 2.1893354036072843)","(0.15852105154506654, 2.523586864705593)","(0.14526477682344768, 2.383850600325125)","(0.18256671421040654, 1.8276464383042106)"
"(0.22860673462554285, 1.698445648315061)","(0.19616942156725817, 1.949244032884219)","(0.19244176823753145, 2.1542725112499412)","(0.20528076047316082, 1.94264434385505)","(0.14855174354431178, 2.0969892800186707)","(0.23413108148081427, 1.6628694304164187)","(0.23873947660899725, 1.613758243182752)","(0.2049442284451717, 1.7689156736621436)","(0.141435206900598, 2.0806452510164695)","(0.1794541958270784, 1.9592062153955536)","(0.20827379106007934, 1.6944777856268667)","(0.1542617119572002, 1.8827257773342265)","(0.15222405248421012, 2.135751515218913)","(0.1527090939850376, 1.9372184891824036)","(0.16607327453108933, 1.9757092133918424)","(0.17515368561127465, 1.9969281209921894)","(0.16677388854929484, 1.984575881560004)","(0.1415180693415437, 2.248530021255611)","(0.1749163169642477, 1.8418126945080309)","(0.18901304433973515, 1.9286236776783874)","(0.1977633018102065, 1.8205297279580042)","(0.1777167152961654, 1.8046711664791855)","(0.20564125336222838, 1.6446201151829292)","(0.2554392888497906, 1.5388203980493211)","(0.25399032045485676, 1.550863982251731)","(0.1517579246851515, 2.1194284210765324)","(0.182944945087044, 2.120831554304919)","(0.16979367299242826, 2.364256566816477)","(0.1913931936462422, 2.1153849879800415)","(0.14542836730157424, 2.680747149834512)","(0.15149584104686611, 2.171673654349421)","(0.18691292897263165, 1.726156417669805)"
"(0.24041192883138862, 1.603353423586071)","(0.2288977147208121, 1.6921507826780073)","(0.22785029093783063, 1.7868350071591375)","(0.1977277864566518, 1.8320946671811797)","(0.1783109267143334, 1.6354937688973545)","(0.27885399659454596, 1.5492921762308889)","(0.24236995521111993, 1.5885132293813726)","(0.17717167160571237, 1.9868238741623814)","(0.14035498072204344, 2.0845770832069004)","(0.18983955087585155, 1.825869777718574)","(0.20630339650746055, 1.7299525880028443)","(0.1658408019714108, 1.776878696830058)","(0.1632629896346183, 1.9760802967895335)","(0.1691320325784201, 1.8251280721784415)","(0.17460567855665723, 1.8693016381651204)","(0.18896617449269382, 1.8056113719693476)","(0.18322005589633192, 1.8213764138338482)","(0.17165315627727626, 1.8475473305381498)","(0.1839401340961265, 1.728835056211499)","(0.20800440743338594, 1.7157152100735147)","(0.20784529330734883, 1.6846759257268131)","(0.18279067246624914, 1.7822436102104022)","(0.21066501339560345, 1.5911209351749755)","(0.2516691842974443, 1.4864725516938968)","(0.2392969176824023, 1.5620794567097296)","(0.17001429823657774, 1.9634517363340929)","(0.24225950655634976, 1.5789570809656566)","(0.20498457921636526, 1.7886234677557806)","(0.21967541928634088, 1.7920996277632226)","(0.18450651789689634, 1.953701393366246)","(0.1825122290686572, 1.6961669616622654)","(0.15292088304101287, 2.105648268448151)"
"(0.23335626844121352, 1.678758379771395)","(0.25398082026067076, 1.6246076607854605)","(0.22455729044055936, 1.8360015082430894)","(0.21060982071598522, 1.7530568002795128)","(0.1787833243152262, 1.8596312038721179)","(0.27962945837327763, 1.5425761890150327)","(0.2652263391906238, 1.5623470946457227)","(0.15105584642114472, 2.3437303377863454)","(0.15330927987056164, 2.0461882164245724)","(0.2333233892873796, 1.6043682278993014)","(0.22842712044151778, 1.6347459913350408)","(0.18183974970015293, 1.7126347348544761)","(0.18308159691022682, 1.8599708170167961)","(0.19486103845828698, 1.6583282580250323)","(0.20853875699331317, 1.661116911748192)","(0.2096368267832799, 1.7239486362564642)","(0.2056069153101462, 1.7447717583322035)","(0.19420147106490737, 1.713533771245804)","(0.20651541610553006, 1.651181816751999)","(0.2478652051901384, 1.4391253647431665)","(0.2441962056237189, 1.4975422083433267)","(0.2003232062263643, 1.7899008226993154)","(0.2292246901023329, 1.531713848271351)","(0.2750714605644207, 1.371141565151617)","(0.2502688560003252, 1.5367753714295476)","(0.21308192413431395, 1.6476965630789737)","(0.25160934662420686, 1.4739059120501505)","(0.2360282078255868, 1.5739038950836546)","(0.23641535186784435, 1.5890773713286703)","(0.2308418577064205, 1.5900345133294882)","(0.20750681750874164, 1.6752119790760764)","(0.16662202711443855, 2.1253746348258)"
"(0.24364908539383212, 1.6370964402330357)","(0.2738323478313784, 1.524552069395979)","(0.25873285900962684, 1.6214173485489043)","(0.23566194698494686, 1.6304290656827118)","(0.18539260752817058, 1.8778798631451032)","(0.30356880090592536, 1.3191732849775974)","(0.2953079382133951, 1.4621156577537666)","(0.1810974247040076, 1.9126681086881854)","(0.17789977857880698, 1.777979483918594)","(0.2620483478985988, 1.401664096156379)","(0.26663290753376007, 1.415423137904909)","(0.1846651633695039, 1.712234572844828)","(0.1834657153131078, 1.8137749443778468)","(0.19779110649623152, 1.6067267369346425)","(0.22389441792432382, 1.5585104316472593)","(0.2221064197495121, 1.6788509195623376)","(0.1972073308833664, 1.869410153550367)","(0.1905916136754702, 1.7657986466559679)","(0.21020637964176467, 1.7209971504466017)","(0.23970250403564436, 1.5385619905723729)","(0.2481037291641527, 1.5254036374288593)","(0.1826667063739384, 2.09544722682539)","(0.22312479718833594, 1.6614481107337908)","(0.28214185635003375, 1.3771454824898182)","(0.25582943639868816, 1.5726569590627382)","(0.20493325255479047, 1.656817309813453)","(0.19712320534539973, 1.7430815507458666)","(0.22274926418906166, 1.6750517889408678)","(0.23343204117378397, 1.6618254981580116)","(0.2323211870793075, 1.661480320901135)","(0.19644493043078626, 1.8212434665921473)","(0.20482750382698917, 1.699682732299704)"
"(0.2415935110926448, 1.6505116940989328)","(0.25317539721293325, 1.6388146607132266)","(0.23479744795377078, 1.8009042597097356)","(0.20445193618908108, 1.8617703970564294)","(0.2011231190374695, 1.62162475091589)","(0.2606460837225324, 1.5669932036748373)","(0.2903422444406908, 1.4488073941712256)","(0.20170542085976703, 1.683895298830211)","(0.17900170451002284, 1.733153568580416)","(0.24285272565349547, 1.455631794119562)","(0.256561755416365, 1.4575123684211737)","(0.1705829373384196, 1.8011956439170296)","(0.16818012028384544, 1.8136520344166398)","(0.1750438434697177, 1.8243409512615643)","(0.21283847239370146, 1.728827123712317)","(0.2115857023385344, 1.7599404715291218)","(0.17683236037671607, 2.043903167550631)","(0.16547643424937689, 1.9467731683751457)","(0.18643234322808627, 1.8598753226215876)","(0.21525399765802322, 1.7378461313963447)","(0.21532850949850119, 1.693403340770465)","(0.1681787768838145, 2.097466408291945)","(0.22098807934485176, 1.6833746391147069)","(0.2567848920790014, 1.4550388883186518)","(0.24466370840980473, 1.5996635924089617)","(0.21511530562002548, 1.555448983996903)","(0.23976400507855794, 1.4588405803456517)","(0.22236438564808517, 1.5904604106583848)","(0.26361044537284584, 1.5941412877976295)","(0.24109543770113367, 1.586051048216794)","(0.18967207484404397, 1.8003677142161723)","(0.2131738820640491, 1.6156286040767116)"
"(0.21204964435879947, 1.776548895418518)","(0.2488219076740145, 1.6546043270143314)","(0.21541508968005788, 1.8145850995349715)","(0.19581198468789882, 1.8744445355809611)","(0.16509661104949655, 1.8312337674400962)","(0.2502320527522203, 1.64138239523618)","(0.21564669348710896, 1.7343532854769972)","(0.19613646445192567, 1.9142431383898184)","(0.17658686892310557, 1.8467679291369492)","(0.18432958483462872, 1.8500612472554658)","(0.19658258190619352, 1.866889639716412)","(0.16336917105937762, 1.9035272657112885)","(0.17200783787284954, 1.8213810159995072)","(0.16354032616116948, 1.9658913534163887)","(0.19034828190926653, 1.9044311255124746)","(0.19093524925446276, 1.8795909297908575)","(0.16883321462636244, 2.022393886400345)","(0.1387659914113028, 2.2375158949710254)","(0.1706492996407594, 1.8911494689629704)","(0.19782532045816592, 1.8873581040974918)","(0.19532502115857278, 1.8381219394525412)","(0.1796853971342869, 1.8718031281549077)","(0.19882387618943764, 1.7828586032514615)","(0.23217766828826927, 1.6332587521032667)","(0.21796371532646372, 1.7465603874582305)","(0.16646525949026594, 2.0588914082468186)","(0.20509025061959366, 1.7014487801486016)","(0.210735188301653, 1.7067433885271113)","(0.24765942357346934, 1.7268834002585038)","(0.2071998318620728, 1.8835984715966914)","(0.15152217216324448, 2.219916192863573)","(0.16824280293365942, 2.1019366098960592)"
"(0.204498876908228, 1.8066056091257525)","(0.23926706788566884, 1.6651948478767344)","(0.19821468314350132, 1.7792228055487098)","(0.19414076281119227, 1.952463172313896)","(0.171736963564275, 1.8392065485177735)","(0.23684384655708826, 1.6854630427659627)","(0.18286924053189763, 1.966627920702708)","(0.17800818021240097, 2.1395960518095265)","(0.1957183686469199, 1.6132629957672755)","(0.18404755971633946, 1.8151616080192212)","(0.18985663504479913, 1.901082182550537)","(0.17593753411240773, 1.756748097547595)","(0.17635563588727018, 1.7288410317951413)","(0.17094124272555594, 1.7913390964237956)","(0.18570467412176325, 1.8155574649617723)","(0.19578229296010308, 1.773245088362378)","(0.17560128334212613, 1.887682973655358)","(0.1351893943971121, 2.150173226507886)","(0.17281978150306232, 1.8125426861018712)","(0.19605119432437107, 1.8868697843390028)","(0.2029136321176023, 1.8196383882264575)","(0.17841305453096376, 1.8434616423470398)","(0.2040304780721449, 1.7715673728480077)","(0.24759512257452446, 1.6348776826757332)","(0.21129897378711082, 1.7996429471735635)","(0.16222234236557043, 2.175200054501815)","(0.18992990224992792, 1.917340321978157)","(0.2037434022695903, 1.9382874088902227)","(0.20731313377504437, 2.033570381071592)","(0.1684859949436197, 2.2816587338961356)","(0.15743462504476227, 2.140257268369852)","(0.15943822247978226, 2.1391339315758238)"
"(0.25698358990131037, 1.5570625778807492)","(0.23229766054488657, 1.687007880660892)","(0.1923580567745908, 1.918755713273818)","(0.21845710057048648, 1.8165227190920705)","(0.20195474470254426, 1.7648121494105087)","(0.219269690325527, 1.8793932737012042)","(0.21557635138862205, 1.8540189261556976)","(0.17581112455244327, 2.1492128310411074)","(0.1960111027918758, 1.7268896659512816)","(0.232809900795134, 1.6880370802731826)","(0.224752684829708, 1.7476367110160078)","(0.1898498633594411, 1.7405941197077577)","(0.1731040891301173, 1.8285113301467857)","(0.17440292306538793, 1.820229811615533)","(0.18310945554817304, 1.8672243759908405)","(0.20316079286756286, 1.7886245289402363)","(0.18538907859744608, 1.8832466887887114)","(0.15522487916986627, 1.9651449946028001)","(0.18395973927489195, 1.761959311704567)","(0.20866261723363022, 1.7512325313157193)","(0.2291935418712189, 1.6339666516583458)","(0.1849357410939484, 1.8410797336221212)","(0.22949018073570915, 1.6392166782874396)","(0.28947862783757977, 1.414252329991447)","(0.2530953293119354, 1.577312354892776)","(0.24065191479730486, 1.5664283229255942)","(0.2770272737571386, 1.4542795629084238)","(0.23762355977824862, 1.7140457625446237)","(0.2554340383097927, 1.6400599997248158)","(0.21136633856088075, 1.7923621631842201)","(0.22624630729711773, 1.6328980372319533)","(0.19466186196121701, 1.7390438153066172)"
"(0.29406685899687207, 1.4355867250545689)","(0.2403945395558192, 1.5930098138080944)","(0.20434522998003307, 1.9146261724472255)","(0.22993279846721337, 1.6756006310831537)","(0.19344510335792384, 1.8594885849233063)","(0.2557794243213772, 1.6012547594699797)","(0.24260330310735947, 1.5533724822763746)","(0.19802827768117273, 1.8682810446563245)","(0.17299245317213022, 1.9154682364863609)","(0.22940100586036846, 1.761307727119352)","(0.2129661308311146, 1.7748618070860716)","(0.17091336854291742, 1.8597849771085526)","(0.1814695699293309, 1.7924385999084116)","(0.17094239253115062, 1.8355929120620262)","(0.1726071257405494, 1.9090866596731935)","(0.18567159587017293, 1.8556866527308542)","(0.17419542092046095, 1.903361843125428)","(0.16956367918997606, 1.7889455199301356)","(0.18881623438885306, 1.7044089163966263)","(0.2078465357634936, 1.6818206365032953)","(0.22968887452280973, 1.578439833466834)","(0.2244464398277233, 1.498783487914172)","(0.2332976224216009, 1.5288801530817897)","(0.2701718315237347, 1.465077681328044)","(0.2656679071806381, 1.4496973765372965)","(0.2508692557736906, 1.4916957132396658)","(0.29738210383500996, 1.4033865173296527)","(0.2531377874694614, 1.56740056783575)","(0.3031985320882008, 1.3955838935050584)","(0.2685995993432404, 1.4459105491536945)","(0.25235156036811107, 1.5111531041422601)","(0.23276653146257692, 1.4273287377018662)"
"(0.2799486819284938, 1.4585831811653154)","(0.24968682705184292, 1.4702889130345604)","(0.25216942421346367, 1.577453043895409)","(0.2609089118362747, 1.3911697746804086)","(0.19602012491442736, 1.7948252336585073)","(0.30201011795054367, 1.3602771233582618)","(0.2595871826294673, 1.4616097920095314)","(0.22727220489263925, 1.6467645045845767)","(0.16428263448434485, 1.998738350568503)","(0.2412743148190628, 1.5780365329158952)","(0.2041981020643216, 1.7691609387839684)","(0.1815451013009264, 1.8416197202297104)","(0.181047588867822, 1.8388354400000162)","(0.17111964352393777, 1.9254825846814865)","(0.1696341254691677, 1.9822484603505648)","(0.18526708785567045, 1.8936001070736725)","(0.17208735417347662, 1.982556337671611)","(0.1609740807120058, 1.852726033119314)","(0.1802114006953768, 1.777134644640136)","(0.20438493295273724, 1.7912208883096907)","(0.22820855821461544, 1.6291379102241401)","(0.22251054023156805, 1.4982720391899504)","(0.2403205997201547, 1.5179435085991122)","(0.26940478646082155, 1.5421009710225893)","(0.252500416751202, 1.4705861440413486)","(0.2432879291751431, 1.5256414005203558)","(0.2802900695008333, 1.4167281982579774)","(0.24147122133697402, 1.5865215133535202)","(0.3262596993099356, 1.2994516205294475)","(0.26430721253840983, 1.448166371144812)","(0.23700603687700086, 1.5332948621093543)","(0.20664842675690098, 1.5928062816247928)"
"(0.2559756384803668, 1.5735638480161889)","(0.23690140115202188, 1.6772092828178276)","(0.26258592158743094, 1.6097630732985961)","(0.24606599237281696, 1.5419010286330426)","(0.23132719155686687, 1.6135929951828483)","(0.270738057653432, 1.5427901745974093)","(0.27524408004154793, 1.5370227974322312)","(0.22149655278384392, 1.606616524102913)","(0.14722772733640838, 2.1913338327207126)","(0.2623437812561679, 1.426992350753359)","(0.2404316655992287, 1.667450566863854)","(0.21882643902247623, 1.6226777637878669)","(0.19689699066807778, 1.772450932943812)","(0.1943956937399834, 1.8681260003599474)","(0.19825149204420864, 1.9103397999629588)","(0.2155770624967317, 1.7903371948053988)","(0.20509149981299601, 1.819890668305505)","(0.16356631148202752, 2.0125801691959087)","(0.20302629844898856, 1.6759008778599898)","(0.21984833534174847, 1.7251613158228434)","(0.24406257122386366, 1.5385532570131073)","(0.23029240272569365, 1.526461160514335)","(0.2535527241074065, 1.506310893014024)","(0.2802655633802329, 1.4815666297453887)","(0.26595209950213045, 1.4960504075000676)","(0.26468272198683296, 1.432542526986384)","(0.256917147461031, 1.585536813758612)","(0.21763187455970162, 1.7627545658258332)","(0.28201581378637985, 1.4866812836771637)","(0.23482594021225875, 1.6454859296706248)","(0.21171752051417944, 1.8206589434534597)","(0.22350641537993834, 1.5338359727025117)"
"(0.24584763032302198, 1.556170425114672)","(0.2318004661061636, 1.7551083750017353)","(0.21369001736923393, 1.9216927509225694)","(0.18755182996378425, 1.947992508297929)","(0.20460569810520418, 1.6849854062031713)","(0.22100039560241047, 1.680068815529234)","(0.27420604417437405, 1.5324808339117946)","(0.17447439674042117, 1.8705209894197654)","(0.1758064278220159, 1.7000581848672018)","(0.2175040069734218, 1.7502754267351994)","(0.2569746479944885, 1.6439365185584895)","(0.20278594457778207, 1.6835387409020535)","(0.18461415012082802, 1.7375920596069105)","(0.18787531603036944, 1.8633323120555154)","(0.2024247592425253, 1.8751998182304492)","(0.21143293184788903, 1.8137627189276233)","(0.2064490637919368, 1.7835827305623981)","(0.16916399757820763, 1.8870691763603737)","(0.2024746085579192, 1.618759399190082)","(0.23426465949758563, 1.60316526378475)","(0.2402706962687049, 1.5045906913465497)","(0.22706657344545153, 1.4998786239061104)","(0.23093637939763115, 1.574671777205698)","(0.2716298955062015, 1.4902502688128292)","(0.2556185197261744, 1.5208195588253854)","(0.24731355669813296, 1.4529652470174377)","(0.25167527964229286, 1.5510137582802488)","(0.2093942961493857, 1.7165413419935802)","(0.22102713871596547, 1.7871566124978766)","(0.22088821902797473, 1.650361735969257)","(0.20500008022355382, 1.7760611182350325)","(0.25650657191532256, 1.3290331772241895)"
"(0.21333499430693278, 1.6974349967492457)","(0.21746277345231615, 1.8361165197430422)","(0.2328430900933541, 1.7457569707123592)","(0.18590999701080688, 1.9857981424739801)","(0.1601388167282454, 2.000316532698527)","(0.23678292444495705, 1.6378759825256035)","(0.2616549337887141, 1.5088734739336032)","(0.17008397093194025, 2.1356962870651808)","(0.13672814392377872, 2.4830850236536315)","(0.2124090897951136, 1.864014971899732)","(0.2475412353520719, 1.6332022588570034)","(0.17574541704206656, 2.0174767162370677)","(0.1649469980245113, 1.9357794979237484)","(0.17971046419425657, 1.9270319117766876)","(0.18656791339836606, 1.9428744595084182)","(0.19105301313742332, 1.9128206782356534)","(0.19042303808335118, 1.8863244291646388)","(0.15571976914486416, 2.105099196331861)","(0.17607731660132897, 1.9110212378965843)","(0.2298769337745869, 1.7028777840651186)","(0.22422045613467598, 1.7089114070485942)","(0.1958078535790129, 1.7860907699599076)","(0.21367384151154564, 1.7229154858103826)","(0.27431366076949354, 1.5407644187932108)","(0.23285471790426268, 1.6368659089601845)","(0.21146644944438256, 1.6491900582693468)","(0.20948796413284804, 1.7913428545812475)","(0.17945218982964634, 1.9963983288138136)","(0.19360989086497293, 1.9100009290775797)","(0.21188489286907028, 1.793464234113153)","(0.15904272164982963, 2.0382025053346395)","(0.22123023334117925, 1.602822497538143)"
"(0.20322489771983254, 1.9287907324329305)","(0.20098779802163894, 1.9369192442036858)","(0.2426010643597621, 1.7061445124270185)","(0.17873661058467752, 2.1429482082484927)","(0.11782091168619889, 2.9390017427859645)","(0.2652341096497479, 1.5769312150901356)","(0.22944387243167114, 1.6815566698807853)","(0.17607246166624585, 2.141119729394222)","(0.16275074253778637, 2.14477916249407)","(0.1888884184092599, 1.9981635580772377)","(0.20830534848964696, 1.845658295268151)","(0.18074122512935714, 1.919333643125114)","(0.18100023366985513, 1.838858332173564)","(0.1915643529811545, 1.8072355953893495)","(0.20404522875973533, 1.8064028764461075)","(0.19599967523327638, 1.8948578949090027)","(0.20180006166657402, 1.7993076660776957)","(0.16337383523389998, 2.145357550977207)","(0.17444966558452077, 1.9665641855026696)","(0.19502310078535046, 1.890560125233818)","(0.22630209264583095, 1.6542808250134793)","(0.200764826219144, 1.7657232717184213)","(0.21680263505929362, 1.7208270606360836)","(0.26352025531033163, 1.5075302434892206)","(0.2360226448969498, 1.6693644563508372)","(0.2037593104433966, 1.8241795211136351)","(0.20889303633855164, 1.9745615740358202)","(0.17914935998439047, 2.1579429937838768)","(0.19964600474641583, 1.9562204481954244)","(0.21685300273675048, 1.9462829694347366)","(0.13343016832851667, 2.61680169104691)","(0.2151303038542512, 1.6771887828294865)"
"(0.24106097466857215, 1.6922159135330168)","(0.23310783191788256, 1.6564351652214757)","(0.17093330701827417, 2.1584856342728806)","(0.20438622549264693, 1.8784119626911135)","(0.15210281012462118, 2.1946176111487365)","(0.22570518489599775, 1.8310979951659068)","(0.17918964852908653, 2.0305271471932715)","(0.1567760558198094, 2.374971517968834)","(0.13540321462404104, 2.414263243476521)","(0.155367706981003, 2.271322948138987)","(0.1857533351628212, 1.9018659639294515)","(0.17578862755309688, 1.8459173064072814)","(0.19111558195230582, 1.641947393869098)","(0.19126425537297892, 1.7096931004072897)","(0.2184335718977115, 1.621189994454943)","(0.22593416025611857, 1.6283879731279014)","(0.21497578388879587, 1.6333495448901352)","(0.17772888205101542, 1.8364327846705157)","(0.1807321729361686, 1.8515617195632343)","(0.2202744841954338, 1.6222858946251784)","(0.24921210482729134, 1.4853422319672394)","(0.21012350213474956, 1.6315312864255511)","(0.2521666543982881, 1.4505758647736362)","(0.2815956183320829, 1.3622460321061025)","(0.2805567314567262, 1.3862394847102206)","(0.2207663227499276, 1.642447270664399)","(0.27861641493843886, 1.4499249936734842)","(0.25479577684613974, 1.577673207022101)","(0.25090361410882245, 1.6572421159703208)","(0.2628710755467489, 1.5688676539392452)","(0.17146531309094815, 2.091035065547721)","(0.2012998903901519, 1.6759682611593998)"
"(0.1901030026876148, 2.2329803220686615)","(0.19480986930690972, 2.0056820565884648)","(0.14531198982967378, 2.5016247626830843)","(0.180466218598666, 2.10188956694521)","(0.13242926165517627, 2.6542767641792953)","(0.20247221584314498, 1.9826572598562284)","(0.1622619149286016, 2.1127284079757724)","(0.19000566925271062, 1.9640476375710003)","(0.1553286796687866, 2.135877187338618)","(0.16702873671656948, 2.077578986454857)","(0.18529828973352958, 1.7911858364130893)","(0.1796225912634626, 1.8088073122810149)","(0.1899362161113198, 1.681820599669066)","(0.19340189170494246, 1.735517038787175)","(0.20311239635920775, 1.7670537720870976)","(0.22465487380402493, 1.5951384824567754)","(0.20647262185628043, 1.6765994607682684)","(0.18670996085784378, 1.6511280014080398)","(0.17917002877846805, 1.8130428748962608)","(0.22316007800796234, 1.603591618816893)","(0.20895283435853346, 1.7647623626862023)","(0.18754174311353664, 1.8027414551763783)","(0.1887571589037381, 1.913540332166398)","(0.23634447628888183, 1.6128130013319197)","(0.20102137341597318, 1.9605289994421702)","(0.161222103710397, 2.3139341055792144)","(0.20287567004935483, 1.9848944316469317)","(0.17459838475658743, 2.212832184293453)","(0.21760901538684088, 1.9022674568408968)","(0.19409322477810054, 2.149367564750122)","(0.12737896624192177, 3.0632291535893676)","(0.18255256518102175, 1.9127859110979715)"
"(0.20086587829012967, 2.0158932802930214)","(0.20695927419237947, 1.7886158590500745)","(0.1576793619858632, 2.296560816320804)","(0.1708624985319817, 1.8621590854573016)","(0.18023087207493013, 1.77042626109883)","(0.21958616040111223, 1.7929592739209752)","(0.20255874314348468, 1.8601926742504689)","(0.19907426281756826, 1.9000729151381466)","(0.17108563433014132, 1.8181397836323852)","(0.20409494824543353, 1.7830980647583161)","(0.21815623767444964, 1.7198248471948954)","(0.20512813492757193, 1.60595703584044)","(0.16355083814344548, 1.687516465320667)","(0.19601079375780942, 1.6486702822154389)","(0.21902450896847445, 1.6243275678885372)","(0.2031632782035043, 1.6562121177385585)","(0.19679831739571974, 1.6312076831534854)","(0.16669510979401553, 1.7313232651668329)","(0.18799213282585253, 1.6221218061355025)","(0.23314910866862615, 1.5361661305772392)","(0.22374623236664776, 1.6406514358689321)","(0.18836180377403924, 1.6026651948755055)","(0.18996639599820858, 1.8241478401866444)","(0.2433243051382456, 1.5421472776572904)","(0.225138789256018, 1.7203298844075605)","(0.20235718489631935, 1.765848899389273)","(0.22668841289328182, 1.7402022937406527)","(0.19838128903445063, 1.8726135301022446)","(0.20678339530717463, 1.8880753774845325)","(0.204887156823241, 1.941448344749325)","(0.1845014849142623, 1.8623869101368702)","(0.22150487393361862, 1.5844514768133369)"
"(0.2136330626366732, 1.7908072350438513)","(0.25248696239515234, 1.598414744115739)","(0.18722864886704368, 1.9384979736472145)","(0.18533669751296303, 1.809182317929607)","(0.18456619885705233, 1.7291486843787878)","(0.26182639577027395, 1.566647071477975)","(0.23115707780362035, 1.6780903373553047)","(0.18643909205152762, 1.966504877108889)","(0.18158694188344163, 1.7094283544383853)","(0.21897912619558083, 1.69110445590434)","(0.2304507047780776, 1.6670215267173212)","(0.2048495165442396, 1.6185599006609206)","(0.16113880141049644, 1.6985942582740188)","(0.18737849909709867, 1.8081742200874835)","(0.2059758128226065, 1.8125470493972473)","(0.17537857364584714, 2.0027725987192837)","(0.17274608299759014, 1.8935342105557125)","(0.15145096147673212, 1.8775263347699847)","(0.17676842332383697, 1.65736981726023)","(0.23213912179900886, 1.5955931367510372)","(0.24178951069516008, 1.5221291657270062)","(0.1843507020787491, 1.578281197549937)","(0.21638446467586894, 1.5763373670246146)","(0.2790531641027149, 1.4009594606557076)","(0.2602773871263035, 1.4706209275156448)","(0.21774022494758452, 1.5228674277942607)","(0.25674913009074013, 1.4901532312882702)","(0.2219826277825101, 1.6717384197508203)","(0.2187072132908414, 1.7602582470477075)","(0.21400000198529034, 1.7473115566021538)","(0.20570173918921422, 1.5515771605400255)","(0.21571157688011072, 1.488158406821663)"
"(0.22613030926280162, 1.7504548074564719)","(0.3051162277651264, 1.4356281676972305)","(0.21236437671031647, 1.7339090947054816)","(0.2329779607579252, 1.661465047617856)","(0.20004030558883173, 1.7742035664795237)","(0.28075153341507686, 1.5380413981765146)","(0.23781652863399674, 1.7455586610653198)","(0.17325888530440953, 1.945035361746796)","(0.17881097209930769, 1.6306131803458987)","(0.21015771693351332, 1.6355043523723929)","(0.20496599968060464, 1.7140202565743088)","(0.19099358144388476, 1.5940133682299584)","(0.18318874287979792, 1.5067047497907788)","(0.19461115786852753, 1.6947681048082057)","(0.21501983658350482, 1.7282703568095346)","(0.20487083303140222, 1.7780023348745098)","(0.20561650778361978, 1.6652722634602295)","(0.18570147639986936, 1.5529574734332923)","(0.18642398232239416, 1.4585676519839454)","(0.23273127919775427, 1.5142476349177953)","(0.21382524772088898, 1.4947474689246127)","(0.18611074391225488, 1.4783817473765684)","(0.21341646644838738, 1.4377490764318241)","(0.26140092026346173, 1.4370349227790282)","(0.2499169925868826, 1.5142136297468132)","(0.2115211807763999, 1.4885020382814749)","(0.2366930906701142, 1.5518487835791823)","(0.18920691499548795, 1.8311831361574673)","(0.2106487506049159, 1.8665975044333278)","(0.2109238728574274, 1.837072334667479)","(0.2010977129551748, 1.6841852805056887)","(0.18197215072986322, 1.6019262709061153)"
"(0.19664732483617361, 2.000230115167593)","(0.2559453030249751, 1.5775546304214936)","(0.19396234028849688, 1.7554943665426925)","(0.22600222023414238, 1.6939245918717731)","(0.15920461126635313, 2.0288519805352947)","(0.2542489235555732, 1.6085538674267845)","(0.22729212569086282, 1.741615798283785)","(0.14825320829832123, 1.9058327534345898)","(0.16123536467173055, 1.6292007197526577)","(0.19368950184723854, 1.6374528908747426)","(0.2043989788889952, 1.6148075952130352)","(0.17529303497990872, 1.5965645369931452)","(0.17822088649791284, 1.5870688718007364)","(0.17651913528373944, 1.6977563766032218)","(0.19567872081361884, 1.7408983561107487)","(0.19873096847093874, 1.7294291971962832)","(0.1878732618689863, 1.733801898168194)","(0.1610535709597594, 1.7967156098204082)","(0.18326102536520886, 1.5260305205365126)","(0.22369033866659077, 1.6123441765246276)","(0.19470966699796177, 1.60370918401938)","(0.1816198603614002, 1.5157870196377028)","(0.18826420544951689, 1.5562086548784897)","(0.2359691341514298, 1.5614036066656285)","(0.22427568578616683, 1.6858563524861643)","(0.1999469793401009, 1.5406544686949601)","(0.20644877070752396, 1.7234835301492355)","(0.17421569152700664, 1.9243758440098766)","(0.2009596720304244, 1.8462767652599856)","(0.20201774340032444, 1.855331201641322)","(0.1727274164428477, 1.8923307548911894)","(0.1633762994596949, 1.7191110396584215)"
"(0.23307696670676642, 1.7267126153956232)","(0.2819857140490482, 1.4707303224729267)","(0.22236466829123608, 1.642964823396614)","(0.2110428220121146, 1.7885896396182566)","(0.16526129663429945, 1.7656823885527257)","(0.2516123743646455, 1.5454061386595785)","(0.2346687232791756, 1.6709245729956437)","(0.15141828196475943, 1.9782468965562634)","(0.17477249954045118, 1.5675855637953364)","(0.18019898157693337, 1.7928735759332983)","(0.21112032798012154, 1.7897615107880012)","(0.18520587606085095, 1.6052235248878837)","(0.16417353975650303, 1.8567494433522713)","(0.17253345540315534, 1.8032624388457592)","(0.1896579595871454, 1.8209590271821776)","(0.1918132573159297, 1.7887715801987196)","(0.18007444960203176, 1.8315154700130278)","(0.16277777217496742, 1.890600964039506)","(0.17727634406675116, 1.7474422814270143)","(0.23052587648948694, 1.6659397977284265)","(0.2189721229134148, 1.6384326381334493)","(0.18516975407672848, 1.651484501371683)","(0.1981925262148112, 1.6006151392402084)","(0.2609967366322833, 1.50835838022382)","(0.2392910482675396, 1.546591422501705)","(0.2039216438151559, 1.57326680212701)","(0.22212948533421484, 1.6572602558459881)","(0.20853426314657858, 1.7088483606278053)","(0.24108773511381434, 1.6185357574857313)","(0.22050269790072133, 1.6677104884892076)","(0.18196942972781466, 1.771649818804142)","(0.1880912525184603, 1.5910331147800356)"
"(0.27474007132217704, 1.4955754510952555)","(0.3047206178684692, 1.3777472836595563)","(0.27728302092906276, 1.3823539918984404)","(0.24595476456185456, 1.5645187173835482)","(0.21114019233902637, 1.4683682401564988)","(0.30941286767356363, 1.3271462691704623)","(0.28253476210461836, 1.43737269814689)","(0.1795677722233838, 1.8096962815586568)","(0.1803352974801576, 1.5449308812144495)","(0.20863532402208493, 1.5964495975191406)","(0.24033878423191432, 1.5870665878857875)","(0.19531037936363294, 1.542438725648281)","(0.1952485823253004, 1.5381745189474523)","(0.18597997176985728, 1.700478017367497)","(0.2008386984667564, 1.7286178482310133)","(0.2222485959173124, 1.5962652866799185)","(0.21479264861165617, 1.6309347398839844)","(0.20286692931736525, 1.5640895896834337)","(0.1755995265712521, 1.8827352024734405)","(0.25154922601414287, 1.5100294493800979)","(0.26377964622671757, 1.4127508421739579)","(0.21726287929250188, 1.538437725792374)","(0.23277468277739133, 1.4963095836535913)","(0.2969294688471608, 1.3446537013947175)","(0.2695015102005529, 1.4528884683909653)","(0.1958248626104575, 1.771561238292691)","(0.2599751226678821, 1.5339884762383142)","(0.2434629145178173, 1.5651804342543423)","(0.251848633791386, 1.5723362644585053)","(0.24634654064434652, 1.6189166139740754)","(0.21250086574590324, 1.6424106994724905)","(0.21009350060187693, 1.61669945627766)"
"(0.23477778151877954, 1.7232022854976825)","(0.23149429138049302, 1.4702564404748728)","(0.20954499842674382, 1.7394220456410627)","(0.25624146741076037, 1.5049261119703496)","(0.22544419153837364, 1.4444311197940254)","(0.2701261219667409, 1.558559259479186)","(0.22475357119528358, 1.6222382730754354)","(0.21212326137197263, 1.6766782587598217)","(0.15812307074559936, 1.769858046576003)","(0.20909257095718903, 1.6245365821484006)","(0.21070621299797893, 1.5831294460973084)","(0.16605513849033549, 1.7181363233408495)","(0.1789087065508091, 1.7364643188438866)","(0.15831655920821158, 1.8925203214070556)","(0.1657483590460219, 2.074442741895304)","(0.17842380582531261, 2.06689895914117)","(0.1739183439454354, 2.082228905258417)","(0.19845736730403288, 1.6470049839018883)","(0.14766251856970963, 2.2511063335932997)","(0.21518946853480636, 1.728782831057413)","(0.2136469796400385, 1.6909304144764408)","(0.19074691642367492, 1.7557382027991868)","(0.2062269312655963, 1.6913585535506948)","(0.248005110910242, 1.5799445974623805)","(0.22907627939746417, 1.7577822202309674)","(0.2164495330965232, 1.6528677886470111)","(0.23841396185561123, 1.6399394508804528)","(0.1870089689652765, 2.0012768984102975)","(0.21342391453349813, 1.773274074278729)","(0.2039413775756215, 1.884867162241669)","(0.2251934548562148, 1.5449727758817557)","(0.19822629763391025, 1.7114184077862897)"
"(0.21828113464009394, 1.782901749098266)","(0.23811322613545197, 1.571762821147209)","(0.1822022329223063, 2.038136406787364)","(0.22779052030825056, 1.6210285232774384)","(0.1903103854391006, 1.6551006678831484)","(0.22981769480644015, 1.7945560087719632)","(0.19717024170278258, 1.8189540087307192)","(0.2000120200656059, 1.8086782493220757)","(0.17790253586136695, 1.675783863689847)","(0.1999665084086528, 1.6765785051960567)","(0.200449852392941, 1.7209465649566318)","(0.1630781358226576, 1.7370860430481554)","(0.16712174660795143, 1.9012082505251813)","(0.1512740181575624, 1.9021996855832781)","(0.15862938545530544, 2.0844972581026937)","(0.16965760752023795, 2.1140913396293004)","(0.16673718922692995, 2.148500461478872)","(0.17067183943277325, 1.8731719160169575)","(0.163544302534349, 1.9246587390066092)","(0.20076357468761633, 1.74596802019986)","(0.19739315608062388, 1.7384312277547753)","(0.18667684543490362, 1.7584083405072117)","(0.19825716805620527, 1.6986723907065346)","(0.23429918089750937, 1.629468636376571)","(0.2269906745269462, 1.6554473837739427)","(0.21835785783431727, 1.5666835219002906)","(0.22370654312347318, 1.6495050729170084)","(0.17286946460676975, 1.9996842076089)","(0.23932238264633696, 1.6158533862742472)","(0.19931749578125027, 1.8611914635321334)","(0.189718746281257, 1.7167069318572057)","(0.19872949646126187, 1.535790474937837)"
"(0.2101859772857956, 1.8239263862349138)","(0.22749954251199023, 1.7141465031234422)","(0.177922893866491, 2.1579344721155516)","(0.1947212750894405, 1.8530086646081805)","(0.16118007880721635, 1.8434250678983723)","(0.20729640588704681, 1.889738849901365)","(0.20309239747450838, 1.8571089408378774)","(0.18173476719534754, 1.8723851530260918)","(0.16501019595205113, 1.869957750329299)","(0.20077039680443118, 1.6217411275187157)","(0.21191586952979738, 1.6856105975802307)","(0.1689836237562749, 1.783307457445534)","(0.1556816215290049, 2.043342976106104)","(0.15161596703777203, 2.032002796990992)","(0.16923967107336663, 2.0770731531066846)","(0.17320052625925922, 2.073808105338274)","(0.16798556508759704, 2.0830784166727954)","(0.15670818697845526, 1.9114247753561646)","(0.16674345918143813, 1.8290705020924045)","(0.20678599986957538, 1.6314815260070978)","(0.20994952256718225, 1.6033963348551052)","(0.18462915600317234, 1.688874098072525)","(0.17715677186539636, 1.8176120528405115)","(0.251408434262859, 1.4811797448947226)","(0.21525331014191598, 1.5985864331015713)","(0.1922353080899967, 1.7307753922435936)","(0.21972461866519152, 1.6686377503878493)","(0.19947547758651293, 1.8329333295939039)","(0.2521747078428561, 1.574656522439078)","(0.21462073079535493, 1.821054377397566)","(0.16690964397767974, 1.8977430677244198)","(0.19222168677120985, 1.5964264491986078)"
"(0.22973384069131236, 1.8029714384938702)","(0.19737729292790632, 1.8418524432396985)","(0.16896010615579524, 2.288983921470689)","(0.1845396968781355, 1.9727542155558104)","(0.16337358063552446, 1.814942546938579)","(0.19567478301219826, 1.984391787072691)","(0.20591633842445145, 1.937038045861113)","(0.17142726357558905, 2.0299161204142506)","(0.14416096384055815, 2.1990221913992962)","(0.2047178661997947, 1.672225851740346)","(0.23693230609433566, 1.57568978332387)","(0.1862750984098274, 1.7886792470023807)","(0.13674830117282952, 2.4160816368485354)","(0.1752687101600269, 2.0053483577234767)","(0.2018592006290938, 1.9006725180322794)","(0.1896585097132799, 1.9886168668532724)","(0.18423036155560393, 1.9344338014620335)","(0.1501657172305696, 2.1216138652090093)","(0.15684896641917365, 2.075614037581924)","(0.19765325431056094, 1.8830259699437262)","(0.2054203746901624, 1.7708100591023537)","(0.16104464634958032, 1.9299721235571716)","(0.1425562577607142, 2.3931300996095293)","(0.24690623243910326, 1.5453398486880956)","(0.21914203770605284, 1.7899178141883179)","(0.18016360876144283, 1.8892356349500814)","(0.2196788331132163, 1.7326007110093415)","(0.20287863993815894, 1.8685256263732672)","(0.23676084346573864, 1.6841693223275647)","(0.24365197089480753, 1.6514298635019065)","(0.17427588795152682, 1.864588695120926)","(0.15671437730945745, 2.008456280101188)"
"(0.24257259240845358, 1.6974504056101287)","(0.20498360753571518, 1.8728751213640558)","(0.16755117573856543, 2.2722201490581573)","(0.19038586403549887, 1.869477656435856)","(0.19144452175201432, 1.6129648447577238)","(0.20312339096064677, 1.9844212894298525)","(0.1893822789235678, 2.0808572970882206)","(0.168904747745261, 2.0203857402256165)","(0.1817041088308635, 1.7569518161142805)","(0.17704729853072398, 2.0285169747646288)","(0.23086131717228245, 1.657665418575864)","(0.17069532364706103, 1.9580235349376616)","(0.1828758500950557, 1.8286972092452305)","(0.18226342254808675, 1.9270488802361565)","(0.22751770279832545, 1.6724550983148807)","(0.22030453868819191, 1.7717564160513495)","(0.21969383845574728, 1.7510828655750732)","(0.17739816000177458, 1.9108079060600938)","(0.20116745073540104, 1.7142632703376024)","(0.21291764169728736, 1.8350298278099113)","(0.23853144587546324, 1.5772845057909413)","(0.18653403934910365, 1.7869305641114044)","(0.17296983721325196, 2.105407909065957)","(0.2726719411689387, 1.42664895925773)","(0.2670194538563797, 1.5318360367991128)","(0.21754640399847536, 1.5727300357412213)","(0.2513104429355823, 1.5183562745514583)","(0.20819095825623535, 1.7324849850592572)","(0.27674432912234415, 1.4558629977589146)","(0.2585879757185325, 1.5070440167146644)","(0.19043925425313504, 1.7504093219888306)","(0.1701634489148027, 1.9337149141243735)"
"(0.2105025972819021, 1.8681853270319568)","(0.22875434279680015, 1.754876322131513)","(0.15967146794139864, 2.412243461223472)","(0.19988369889425622, 1.7995124063841714)","(0.18650226847845983, 1.6693821258541524)","(0.20873072817105218, 1.9018140956709424)","(0.19674691220199747, 1.9790809521442752)","(0.13708156740750863, 2.407554480912413)","(0.1559358018882822, 2.158929752598222)","(0.16576146219057936, 2.2925333410812345)","(0.2283012101375657, 1.7407351120055299)","(0.17074271619935114, 2.139529158829492)","(0.19033337863538738, 1.8279946693991826)","(0.18573950592575422, 2.033611537216347)","(0.24490727484113445, 1.6555978042337338)","(0.22021621163568111, 1.8349007439264509)","(0.21150948953547277, 1.867523220713954)","(0.19921795681576407, 1.7602003847100929)","(0.21168602758229316, 1.7041030484702833)","(0.2255545144298853, 1.7536775890435232)","(0.24944215002790537, 1.5477496202018712)","(0.2147443504182784, 1.6409111065621265)","(0.21760934497610898, 1.7412089651611506)","(0.27892658875685417, 1.4669746370989545)","(0.25442403211150305, 1.6233857029280372)","(0.20987606934871075, 1.715403561444305)","(0.22915761067475543, 1.6956717489672148)","(0.2019265839264761, 1.916478593494978)","(0.26203241983070436, 1.5738963715133691)","(0.19884017896449083, 1.9107149280563756)","(0.16918725418433256, 1.9583393042712116)","(0.2150331553812544, 1.6958408066778854)"
"(0.24083050416898044, 1.6550756070535824)","(0.2667811131025592, 1.5543112616727899)","(0.17148743102931138, 2.1265355937708335)","(0.21862428597110448, 1.7531349995980379)","(0.14773465087640197, 2.269907415723359)","(0.22624008668236575, 1.7540903918032977)","(0.2245011638286019, 1.7487928668095014)","(0.19115945162003506, 1.978923992096035)","(0.1496895890821179, 2.400494108977585)","(0.18391364850897504, 2.07473516863688)","(0.22694748883855623, 1.8011152197261229)","(0.17731513126785678, 2.1074659842543273)","(0.16048894718728152, 2.30675128448179)","(0.17606196821767914, 2.1741749406782667)","(0.22635916614970922, 1.7915097892787997)","(0.21545942339547916, 1.8427900115050215)","(0.20790277236066435, 1.8212876645535738)","(0.16943087248492478, 2.123498211717269)","(0.20250100585037148, 1.8793971415000397)","(0.2451315032359941, 1.6745058646415616)","(0.25175690366818476, 1.6313888156028047)","(0.19417907800647982, 1.9611686674302669)","(0.23969064233980242, 1.7044489168063806)","(0.29103094130102386, 1.4835924503830928)","(0.2679675314420354, 1.591425085158873)","(0.18576123650444537, 2.058604439591404)","(0.21058547387630172, 1.9718012876698892)","(0.2031072455153604, 1.9873644901636525)","(0.2531213134973563, 1.6491744458893285)","(0.19046844806702834, 2.0767520765739604)","(0.13682732798993877, 2.5175960992877298)","(0.2061209837108886, 1.9299022351322044)"
"(0.2865011237600456, 1.4227132129722473)","(0.2791799179767378, 1.5172163476541134)","(0.18250377525991282, 1.9453028485853956)","(0.2068289256215876, 1.9215332885989258)","(0.16432089533453856, 2.027867841069777)","(0.2207488795056474, 1.8127998170197201)","(0.20271414565058202, 1.8206448394401324)","(0.17573139196876297, 2.1196250757380937)","(0.1761834085828791, 1.73837447213196)","(0.19226629734673986, 1.7370934761381853)","(0.21014305872544728, 1.8173400578625891)","(0.18427072897558563, 1.6658518283472301)","(0.15475038073656378, 2.1824050341542254)","(0.1694242496790998, 1.9746982736446992)","(0.194937865573036, 1.8698196601250923)","(0.20464403863630456, 1.7868375418192177)","(0.21906294144224675, 1.6895717238086299)","(0.16491396998942837, 2.1463998977061984)","(0.18403690290785274, 2.0199895993767765)","(0.2513712475355222, 1.6282782042344834)","(0.2774067914403219, 1.4809060004357157)","(0.17452570813752255, 2.164962038409913)","(0.2406151052360396, 1.6631694249191837)","(0.30584750717128784, 1.3511469904132607)","(0.2749463865813868, 1.4629330587918081)","(0.17473058294842772, 1.9771047939781474)","(0.22394471662268572, 1.7627883492649004)","(0.24817380758423546, 1.5338918629484881)","(0.2583432768999282, 1.5856510896162572)","(0.22950707038379642, 1.6902071232809055)","(0.1329711987171106, 2.5678895964258257)","(0.210350487489259, 1.7463861288239884)"
"(0.23855733660493383, 1.6609372237225937)","(0.25381160236464007, 1.6370177639400187)","(0.17526943395236852, 2.1442212804434297)","(0.1861117103340973, 2.1791707300950622)","(0.17848186166222882, 1.815245707739305)","(0.21958166686046268, 1.884686184541162)","(0.20451404553601757, 1.8748290333916555)","(0.1395780186484371, 2.4589944445362493)","(0.20777885244467298, 1.4757261209901644)","(0.2037404071672523, 1.6965466957438773)","(0.2119121301519429, 1.804880658206219)","(0.203328816274691, 1.5520479001528131)","(0.21896876882289454, 1.505618346608)","(0.2116040998458711, 1.5852659738242536)","(0.2315422522429335, 1.560784480480527)","(0.22334520671957644, 1.6522896095852395)","(0.24966112490252027, 1.5043257154740168)","(0.19515318597663386, 1.7889693738445813)","(0.21567679037861207, 1.6053916138659)","(0.24181566190132636, 1.6153600727506474)","(0.2693402775193333, 1.451165923244693)","(0.20997086608208437, 1.7452461138718112)","(0.24229840293005764, 1.617562344304497)","(0.2880402020451741, 1.3345935480460356)","(0.2630232257037541, 1.465711390216414)","(0.2312604221046202, 1.5381748041870251)","(0.23434796539299074, 1.63850477015243)","(0.23236544138411672, 1.625483921224188)","(0.2528324722063173, 1.5916753013680307)","(0.22679523050854708, 1.7470398511942298)","(0.1803119574710934, 1.9367659527070376)","(0.2096384768368514, 1.6583488879588388)"
"(0.21734134604132646, 1.7493134900677505)","(0.21738194743392572, 1.7552125400662268)","(0.18943980093283505, 2.0401079195727316)","(0.20732457310781288, 1.7558767160027084)","(0.18085217212715088, 1.7596411174535704)","(0.22075211582764576, 1.7579557558323422)","(0.23104527416066792, 1.693360961801315)","(0.15786271967991078, 2.2183365576475818)","(0.1781571947633074, 1.7407757626916616)","(0.17343405828582215, 1.9671593181659301)","(0.18871729298405673, 1.908355930378912)","(0.1785121148952429, 1.7688678255292738)","(0.19605396789393095, 1.6355826384572576)","(0.17617111949163472, 1.8532818240448363)","(0.19623811048346074, 1.852441667515236)","(0.2051788495884286, 1.8297061767384912)","(0.18773791393386566, 1.961437302214176)","(0.17558058336096097, 1.882060930178342)","(0.19006416849000457, 1.760381718188545)","(0.23296274615959317, 1.635457978666149)","(0.2422738323023099, 1.5563798954595178)","(0.18815464107507465, 1.8922185007226366)","(0.2502000114944451, 1.509198512938804)","(0.2779498880772243, 1.3782511753700737)","(0.28016644939322094, 1.3715305164388176)","(0.2349898718781833, 1.4815765137809136)","(0.2438355844017585, 1.5834910197774383)","(0.2330724276675716, 1.6335125990445298)","(0.24936022337367794, 1.5618124693225452)","(0.22067809649700765, 1.7421613224870551)","(0.19155853469190504, 1.7831571812035878)","(0.22356327253942418, 1.6086317996913209)"
"(0.2529521605790141, 1.6198079694320824)","(0.23352968535618832, 1.6873464813223409)","(0.22270570809322024, 1.867810054866442)","(0.22656954569140933, 1.6342767545342456)","(0.16503126784393707, 2.060315413993495)","(0.22732924543976613, 1.7082185131411605)","(0.22215178732429167, 1.8190917410996217)","(0.15393093047100245, 2.456532911782946)","(0.14307367005505245, 2.2094704402228516)","(0.18155790090058585, 1.936925505174868)","(0.18649421059444465, 1.952334317487241)","(0.15130105624545026, 2.0550753399800157)","(0.14915515164482732, 2.0508279365433215)","(0.14306490762148083, 2.050256448265093)","(0.15405982789160982, 2.0778254312590025)","(0.15712901535439106, 2.10171809062043)","(0.14656258381194973, 2.1432661429106528)","(0.14881881885434667, 2.0257203612555807)","(0.14665795463078696, 2.2475291022071735)","(0.19996237692697094, 1.8242531913646496)","(0.22293120686350032, 1.6868887173264087)","(0.18178145383237762, 1.911383216176781)","(0.22942640493856037, 1.5636154641842364)","(0.26880504490349993, 1.4513834803682362)","(0.26495592305087895, 1.4303738856323578)","(0.20169212504724793, 1.6709486284036459)","(0.22896828635230082, 1.6129664423436523)","(0.23116122628738806, 1.6396796361928148)","(0.22870305362448343, 1.7170175729455257)","(0.22278709659114684, 1.7061028422756452)","(0.17867300388173163, 1.9342264896124046)","(0.19312701657668954, 1.8234229182035553)"
"(0.23543469037402415, 1.7275323005634358)","(0.2513964189252781, 1.6531111704381969)","(0.20593859787938615, 1.9109190939126983)","(0.19875885807388716, 1.8257202606696996)","(0.16834911649222972, 1.9402154675498853)","(0.23926545052667847, 1.6641954604488551)","(0.20193600604123177, 1.8583498819595634)","(0.19647139758834276, 1.8232788312857633)","(0.1863407027492098, 1.7654218631544116)","(0.18554213380151188, 1.762245040536163)","(0.17752332721099345, 1.8555974876889099)","(0.15119539531485351, 1.9983991939280752)","(0.13374130952505606, 2.3556515229030515)","(0.1406435265177483, 1.9146934230844959)","(0.14496167109429353, 1.8703850085688427)","(0.14541629616012344, 1.9578707069473278)","(0.1419163416294397, 1.9216225150984605)","(0.14102866943881395, 2.0008328396029755)","(0.14401281702302898, 2.2846143796003964)","(0.16042204816617317, 1.9701242450833298)","(0.19893579669695768, 1.81808148869036)","(0.18213021172304905, 1.9153559133606384)","(0.21421623994179412, 1.6791315590977967)","(0.22785973648722557, 1.6765773430251727)","(0.22136593283837575, 1.6888849904042798)","(0.18755152629490374, 1.777102333402069)","(0.20778685875021385, 1.7398566637211854)","(0.198145464191774, 1.9243667818065)","(0.19776438199672386, 2.025375655883067)","(0.2024644784888717, 1.9145430214902635)","(0.15395690808951285, 2.2414554802904405)","(0.18470082362207033, 1.7730982240793889)"
"(0.21241186001483028, 1.7398234600032165)","(0.22733530496070375, 1.720536663724214)","(0.1724025242668495, 2.019658990845522)","(0.18562570957238445, 1.8934340089716457)","(0.18858294610481996, 1.7178835302720568)","(0.1972101627912603, 1.8930254291932356)","(0.1706469518876767, 1.904909781477079)","(0.1302679662082379, 2.595136199711389)","(0.195010284305344, 1.6006573974847356)","(0.1810635740116169, 1.6844578262193606)","(0.17972453065330118, 1.6010916156974109)","(0.17764127836628982, 1.5698916688811693)","(0.17460541401705973, 1.6554393103921123)","(0.1783496466580062, 1.5784588623651974)","(0.17875355974994075, 1.6638805910352281)","(0.182473667391629, 1.6796081861530792)","(0.1741875383247562, 1.7208801572730723)","(0.17204437751942053, 1.671455154877668)","(0.17400507818919464, 1.7403377684145087)","(0.1869582746134495, 1.7422871641678401)","(0.20859515781047705, 1.6181569812175285)","(0.20006189629162097, 1.5187827638618236)","(0.2310510374697582, 1.498032841664743)","(0.24303951108093416, 1.5337640544517566)","(0.25780899640005545, 1.497593121864303)","(0.20878945313691208, 1.606423260543045)","(0.2251395004969312, 1.559753025315861)","(0.21036467369596004, 1.7097804855241105)","(0.22044396431296795, 1.7095160738999702)","(0.2051652089354677, 1.7208648842095187)","(0.19980256104269278, 1.7374043627820135)","(0.19371186825912767, 1.5828202299439824)"
"(0.28663018981281463, 1.3388268690751963)","(0.28385742717717033, 1.3863328873739065)","(0.20611796442261432, 1.7263910321918434)","(0.23933488587232413, 1.596503104368785)","(0.2161050621156902, 1.6228319371184845)","(0.2470256401925452, 1.563833175428273)","(0.21418995945592922, 1.6649872735152695)","(0.1476802536590118, 2.4149347752875086)","(0.1455561486242504, 2.1722117511258525)","(0.22271454523804315, 1.5353029863728107)","(0.21906043645163786, 1.4402567453039008)","(0.19306663684390474, 1.5822893045144826)","(0.17754880339731852, 1.7290168077892258)","(0.19022910919530178, 1.6017088121122238)","(0.21127639168742599, 1.5337420354407558)","(0.22123901049369515, 1.4897309131081307)","(0.2176313992404047, 1.4906111522585188)","(0.20781200096597563, 1.5107103869429237)","(0.20629879003864424, 1.4859068767702803)","(0.23277406773774462, 1.4841817197860168)","(0.23039931651028492, 1.4465691489804762)","(0.21204156598741586, 1.4396444293261002)","(0.24115392767942878, 1.4088530854780452)","(0.2724718354301395, 1.3328693756791226)","(0.28344725734163934, 1.3644716774226118)","(0.23110961008553282, 1.550763138433093)","(0.25713105079991483, 1.397419587789678)","(0.25003713254486565, 1.4130836728956238)","(0.26771056586389474, 1.4107514943308754)","(0.2584432747798354, 1.4000087916466875)","(0.25321482004118917, 1.4112365955170936)","(0.20096126770052408, 1.545375152781479)"
"(0.2605601984262692, 1.5419556526956022)","(0.2848194056938444, 1.4264323935355854)","(0.21237483855111935, 1.732170018999188)","(0.2455317868632352, 1.6000548103653414)","(0.2012410115264519, 1.714365409469627)","(0.26681865891324213, 1.5037166570200602)","(0.2408837923654215, 1.6417830757762515)","(0.1635170070244023, 2.071395396580911)","(0.14522120667915894, 2.1694819758288997)","(0.21887303536371153, 1.631457862322877)","(0.2148010142366107, 1.6471200634125949)","(0.18116598031629702, 1.8157807427228427)","(0.16714841899026311, 1.9332248322564194)","(0.1732768382243898, 1.8833559255755348)","(0.19914199216453737, 1.741105975826317)","(0.20509033907870067, 1.6554059840098811)","(0.19425128187687235, 1.7024255378770305)","(0.17790283040575963, 1.8046340816461157)","(0.19610621174068713, 1.585161037499238)","(0.22092145882331876, 1.5705003267618367)","(0.21867930298135205, 1.5293251373644374)","(0.20770416741603953, 1.4664535688540126)","(0.21272429099754014, 1.5053689607992247)","(0.2642174709352727, 1.4187354828395853)","(0.24820173750689128, 1.516777966768051)","(0.22454988311826954, 1.6054345885134762)","(0.2406524081412624, 1.5828779842390523)","(0.24291472129894956, 1.5728154042774092)","(0.23560417682025048, 1.7154903975287725)","(0.2408108360947266, 1.6032087079962167)","(0.18781155353094725, 1.8901513416302926)","(0.18964584419271385, 1.6628998545379947)"
"(0.2520458663549035, 1.5532131421257083)","(0.2643616910586473, 1.527253177962865)","(0.2382833749529747, 1.6133519842851756)","(0.2356135741781459, 1.6928609536160844)","(0.194847111014308, 1.7847369985544268)","(0.3021602378220691, 1.4581594191403877)","(0.2422604304249326, 1.5888601672575826)","(0.20952300390365136, 1.557720097565544)","(0.16760010846338233, 1.789085091097523)","(0.21176303700244095, 1.688935432486499)","(0.2219239933931544, 1.6090906789478088)","(0.1842961551691169, 1.7007090397468887)","(0.17095246683550683, 1.876792164534987)","(0.18231047636339545, 1.7170589615196352)","(0.2031290964286287, 1.6822760041290714)","(0.1961443369908348, 1.7107773321695299)","(0.18787426086221648, 1.794583678945328)","(0.17847897864053655, 1.8738876100521547)","(0.18824451270241926, 1.714950372679663)","(0.24115715383211128, 1.5162060892044034)","(0.23910965209207943, 1.4798021597071465)","(0.20793337863348418, 1.488798821954098)","(0.22397844890101634, 1.4494958405294325)","(0.2887482983570128, 1.386520208925827)","(0.2724610612318597, 1.4554680352279572)","(0.21042593934228684, 1.6629773948262017)","(0.24883993090525014, 1.547589931848223)","(0.24918439058272696, 1.5852329687016231)","(0.27605294088924753, 1.4922831145022937)","(0.24463712633238288, 1.5751536556543593)","(0.18622776893266466, 1.8900719595908648)","(0.18311225621919472, 1.8210240213905962)"
"(0.2528209921040399, 1.5362062544346153)","(0.24882852829821506, 1.531240933871499)","(0.2389589996662119, 1.6271992475704151)","(0.22883894203787628, 1.7445893670138333)","(0.17825524530314862, 1.93829448483122)","(0.29570816649196835, 1.4982808084123527)","(0.24927698398678763, 1.5694895153654973)","(0.23721188021197415, 1.4775510253119664)","(0.16029646144175508, 1.8512469857443934)","(0.2235715368996376, 1.659900651654434)","(0.23984355922633735, 1.624430179169485)","(0.1797056047726538, 1.793477861157241)","(0.17841616189300127, 1.8440648152213999)","(0.18980714855485512, 1.7399039099889235)","(0.20716706839674112, 1.7397508520321712)","(0.20454248060391333, 1.762345283323469)","(0.19925796288729314, 1.7492742909259698)","(0.20836720443525017, 1.6578416323916485)","(0.23205379511116722, 1.531539344387565)","(0.2758257866170623, 1.4300468798921426)","(0.2712874267610759, 1.3989826494491613)","(0.2253557722181006, 1.5559889164984548)","(0.2393319673750572, 1.4562399769363188)","(0.3046309281652257, 1.35269388577907)","(0.2867905363465707, 1.375148536262264)","(0.22141899656124805, 1.5968477277238367)","(0.23725639272810878, 1.638715347669051)","(0.24749432517410244, 1.5744869874681342)","(0.26421894530595885, 1.5361120908143948)","(0.24025446620391377, 1.5578277208219122)","(0.19930103063260932, 1.7431955828989916)","(0.2035783037495673, 1.7539512912226543)"
