Fp1,AF3,F7,F3,FC1,FC5,T7,C3,CP1,CP5,P7,P3,Pz,PO3,O1,Oz,O2,PO4,P4,P8,CP6,CP2,C4,T8,FC6,FC2,F4,F8,AF4,Fp2,Fz,Cz
0.38692125383802783,0.3802546109065896,0.3311291081755314,0.3580498263556019,0.3753328959916705,0.35047661269730507,0.406330454705103,0.36372974693542753,0.406106789394295,0.3645117892966754,0.3646400998908819,0.40364587418585596,0.37646742833819485,0.36090842828108916,0.33166295089266834,0.32044318942529554,0.30048945599111404,0.31786914901035834,0.3306204964174894,0.33569542268029584,0.3443687898520372,0.3583952969836812,0.34343536536718566,0.37222153787793993,0.37199302337592705,0.40054202803383976,0.41465395901302465,0.32119601350011723,0.4163158137961484,0.38542644579097896,0.3922483704678811,0.3941430237202662
0.4008535276247553,0.4408172187008278,0.3385910190779734,0.39298877063476767,0.3915449487967365,0.3408478108185492,0.4242756455506038,0.36721850130121864,0.4052666741383871,0.4092756119888041,0.43259995742152807,0.4063828529493581,0.3784589201023706,0.3776805962796341,0.3713073455355413,0.3670735291865215,0.3600395402896135,0.36760274016105204,0.3704494744646205,0.36345752361092076,0.3680221427361179,0.3823578060345657,0.3855344168583853,0.3880863481363971,0.3566593451658303,0.4117032505314235,0.416271568110126,0.3068111735571852,0.42261365904702985,0.3891857883156536,0.3908467118265003,0.4105084809960234
0.3593281776427695,0.43529805326945,0.33543566513634393,0.372584194457862,0.36548759434698924,0.28842723366507034,0.3743366402360063,0.33305612208216817,0.4202364629294309,0.41349595954220186,0.42387807654207704,0.39864885022976115,0.4090325387902142,0.38717012037425397,0.37397949774475364,0.3667374604017913,0.36530329383434085,0.37425444362347277,0.37716001476491656,0.37741206142867045,0.40183523733049686,0.40866115023210803,0.42643147283914884,0.4342328459640337,0.4321401257436302,0.41350878331539304,0.4703976695312347,0.40339720675667773,0.5066905171863946,0.47619735880075187,0.4217826347398344,0.43809853980816227
0.40032979930095214,0.4618103586283245,0.3622942150825242,0.41727449063030425,0.3985283522834387,0.335842545218008,0.36895285167003594,0.33809976975733935,0.4273291091992636,0.39194200458592393,0.42047554605506865,0.406664582220491,0.43250710414450655,0.4135496563725525,0.3950801555639387,0.3864314262867277,0.37910676198621446,0.3979552504521478,0.39210389455846006,0.39686481404565527,0.41153526182458094,0.43694064889232426,0.40737616147998046,0.42597125298418703,0.41163434294407003,0.3785576789065624,0.4518859004822967,0.3970224004022178,0.5121486899207909,0.4497616237844226,0.4029348381448353,0.4312725070567334
0.435117271460401,0.482459587494925,0.42698550892316606,0.45287605025343447,0.4170787003480778,0.41610697458935136,0.4084546770068072,0.3638001529309469,0.4123768999864028,0.38954549845211567,0.4274979920036168,0.42423677689388767,0.43803307368173044,0.4232879716133336,0.4126514750984584,0.4102974569032361,0.40709543916001956,0.4322735156406497,0.4240501305862889,0.4243917464772149,0.43092352234007436,0.4278174960494045,0.41934353313206746,0.4558057946311722,0.42120760879292146,0.40817419386706477,0.44592464868697734,0.4094260050611539,0.5045363637575583,0.450070774925879,0.40496499262636754,0.4181170181924826
0.4329056094869631,0.508021214459901,0.43969336630560996,0.46052669829619036,0.42058228803358044,0.3855764093227558,0.4107246240640589,0.37094394772961614,0.3827140233410863,0.36247487100092557,0.40808923706492434,0.37853381779016704,0.29135510478298565,0.3726503056085289,0.38739057318511827,0.39706295407854725,0.39038265091339247,0.40337424263410737,0.4269747721969813,0.4121996588676818,0.41687861878397087,0.4070582313950051,0.4318383974551204,0.455153093724748,0.42628812020284595,0.4237781626656107,0.46806099837357135,0.4357145805184197,0.5097039034768738,0.4898327264220326,0.4204697944085572,0.41314332984910057
0.4060930126144723,0.4979600322196073,0.43019828568689006,0.41903371820013824,0.3951998423230105,0.3294100934969443,0.4376336972721088,0.2915186411782635,0.3817627154561903,0.31074999737144454,0.4174700463603331,0.3666107849666807,0.25294220419380387,0.37916940055267756,0.40075247435157585,0.3973174824798678,0.3936109345686318,0.3916222761395667,0.40842453847359156,0.39606297877078045,0.402480159622899,0.4085004335585312,0.41511676571349976,0.39793951029121993,0.38991229683279693,0.3967935489760613,0.4907744266364321,0.4223646055841498,0.5007139689407216,0.45974140760315996,0.41057355189368583,0.40765034136796907
0.4063430970903964,0.49183282562700603,0.433964693883535,0.4078582259846059,0.3909648981148015,0.346088261093121,0.4415706529744163,0.27123729261528684,0.42163587620992754,0.3334894533865883,0.4314662802143621,0.41966685491370787,0.3177127161258713,0.4276588820256401,0.4240437980046031,0.41207268743838116,0.41627517691663296,0.41377283880736576,0.4139403733506058,0.4189877861596328,0.4211426234264703,0.40613013273867554,0.4155993105150984,0.41409792556672664,0.41193043285119135,0.42138843706631945,0.5061984574118402,0.42734062843879306,0.5155843804359342,0.4703760469429453,0.4210546678583741,0.39602737125397575
0.4712162664575105,0.5020924557305964,0.44595897104380616,0.4564409500330818,0.3935617336874222,0.3720998310865635,0.43664537562645556,0.30278707079357836,0.4329749623796342,0.3894824603863355,0.4349028701843092,0.4367488692837049,0.42296488032558055,0.4293982619884726,0.4255541576828308,0.41628552237101335,0.4072061091373743,0.3927046794574113,0.3941282486036466,0.4260978971588511,0.42529213622867806,0.37544832651957705,0.41294336492648254,0.48031452506771904,0.46218356402615235,0.3950345381418417,0.498405125833861,0.49014765026308843,0.5486156046730934,0.5035210568938344,0.42948958225782435,0.3859345990032592
0.44651611707637934,0.49459027184911586,0.42169935682564424,0.46289565069794086,0.4108506189293626,0.3721117215229624,0.4201754611695835,0.3957701708042226,0.4064747074141568,0.390479997112991,0.40066794196564093,0.3894961819149936,0.4005941982237435,0.37043675079349137,0.37335556651627544,0.36840615622653755,0.3695375715128792,0.36268218097294896,0.36382720971933424,0.39375783758246025,0.38122068876894116,0.37172784490652466,0.37907673818258464,0.45658908958454325,0.42571566840377245,0.37227555644808863,0.4857909069415724,0.4728043515302958,0.5111852094439437,0.47694601701919365,0.411181596538801,0.4196374851773354
0.41409401547715485,0.4866532378630281,0.4265380691334113,0.46189565121679793,0.364731886028842,0.3760352120167125,0.39760518430242137,0.3657901364152941,0.32587950268798854,0.3559648676972025,0.37614543256292576,0.3506352197779285,0.3630892462780032,0.35013460819800896,0.34336130316995195,0.3379608411301398,0.3467299196142836,0.3358312836130311,0.3370685041500538,0.36620755460498455,0.34904889047664167,0.3635669916619516,0.36246369317878835,0.39990399167661267,0.3870463859447279,0.347908984814002,0.4688075711428468,0.4056562543376915,0.46196320508841576,0.4128440249529364,0.37321341881852554,0.3804133832557092
0.43995888014832485,0.5068768579516966,0.45850353857856757,0.48683258027805015,0.3396257739279383,0.3842050622804063,0.41742150351267315,0.3436615796547207,0.3123461031222702,0.3520630204805408,0.39499218950744075,0.37496989295725913,0.37192291915935477,0.39367530484849816,0.37033879909645884,0.3496258600170756,0.3553652033264291,0.34348318570578606,0.3477169590201095,0.3833208707051334,0.36555424790141355,0.36791759745893354,0.3802246088627727,0.3952272968856235,0.41910157543423815,0.3672111178583902,0.4749262344706012,0.4314996243565624,0.49523701035466344,0.394548132896416,0.3928513433441284,0.3499587301548569
0.4527620295144329,0.5189332998882582,0.4699951702657566,0.4642521963761465,0.3299271630818718,0.4334820396061104,0.44052676299923793,0.3950313869080519,0.42802867101390346,0.4138627516743255,0.4127833148288849,0.4132961728737065,0.4060867074697885,0.37365181028162353,0.3790333190324791,0.37026203380825645,0.37797813235779637,0.3770214263004248,0.3878456743149287,0.39422763968106816,0.3986332120000272,0.3890905766737758,0.38801418830168677,0.4246868428317027,0.45181653884729783,0.4018428276480643,0.4658602057335646,0.4694093523960181,0.5191595599068478,0.44169468087132363,0.4181976306176956,0.3688172194269666
0.4587855523746436,0.518846163247013,0.4680794614509616,0.4514319710218325,0.342697664917054,0.4211354757956567,0.4090680723031869,0.38109975989346806,0.39641165952223395,0.3949534202474165,0.3922620148587191,0.37244733331905383,0.3872147744055191,0.34967813051597924,0.353248507969498,0.3536481901744206,0.35443016938609034,0.36634831489091446,0.3767624902323678,0.3717347511339295,0.3937486152960669,0.3933702538077994,0.39274089092406933,0.4201647534296595,0.43564340552973324,0.39735712708988397,0.46050730760585284,0.4365165184595059,0.4997409900784898,0.4308874062896443,0.41940329106949525,0.37296090096290874
0.4646126377444552,0.5191520202012472,0.4502643126335857,0.48251568404542644,0.41464973582948733,0.4026417866417351,0.3963766444370057,0.3771077015179009,0.3710235437911406,0.36501364686674953,0.4049923569542135,0.36914932486191143,0.3856288856658551,0.37424180840196997,0.37161423414293715,0.37349227814608155,0.3564898131983883,0.37134514631007753,0.3849414583441997,0.3793190116493114,0.39337275373679476,0.4127160535646206,0.4182025727510751,0.4098163244185638,0.428092136955545,0.4046127253418469,0.4801476862829961,0.44619287485259224,0.4986832567242086,0.4485262483683378,0.45492953371562156,0.3537790267741393
0.4375019742155349,0.46882735973375644,0.4168198044877586,0.4355436554528278,0.4174520844251346,0.3851968845249369,0.4043088226557232,0.40292617141706044,0.37617501035681816,0.399106551176082,0.4555801232667815,0.40370127175097065,0.37843200878358624,0.39090484895715993,0.4193424576625324,0.4141942509961006,0.40001695711055557,0.3930173920803952,0.39810430268243685,0.4164899604359576,0.4165130269654256,0.4057323523165865,0.4306814575476379,0.44307240152972094,0.4389035069355799,0.4213001214279963,0.4814039362779034,0.46268598103274594,0.49891866093353376,0.46715402319556587,0.4469128107185373,0.3525275284240013
0.4566381130957182,0.47473702604085827,0.44217740079660534,0.36096271997622376,0.40482231640913674,0.3971627715702351,0.42280405581118796,0.4126280852457518,0.350691461898197,0.4023138710107074,0.4498025035105073,0.40996895083774193,0.36341134014066895,0.3771390785793325,0.4039958073287856,0.40613586897967735,0.3914917445678648,0.38013423063305746,0.37007989678719555,0.39704617467712083,0.41326256424648494,0.36293870659307753,0.41326191369437,0.45282303461221224,0.4531034500460156,0.42243119593657014,0.47414299293383,0.47174279204661673,0.5107841807060928,0.47881666651532695,0.4342371540576717,0.3944967074626519
0.4780864072767792,0.5135459443133902,0.46584501796714667,0.39876429991090573,0.39207291232911384,0.40907957360111724,0.41570781254822925,0.3762468613200696,0.37123754386157765,0.3774553446923054,0.43924538867332863,0.4225908422499022,0.3755272847888211,0.3954996044174494,0.3978480025855372,0.3951336632834131,0.3838408039975184,0.3860564654056414,0.3625168319947443,0.38908407232879805,0.4090465792189479,0.3510245953100734,0.3975269651887609,0.44302711822180224,0.44580755577795783,0.4130448561302446,0.47868557036751763,0.46852163284205184,0.5314631446670065,0.4927327995039561,0.417166042230163,0.42450762721156055
0.43256936329865525,0.4928791215120386,0.4398568049207183,0.4714590066869312,0.3720098954776215,0.3987929648905785,0.3642279204661159,0.3509495262473551,0.3822736782368234,0.34122341892871577,0.40976858560567664,0.3899089057433822,0.3771985753508545,0.38072397178164413,0.38385639939361454,0.3809970943452081,0.3638052769065383,0.3709603418732997,0.3565887265495149,0.37251476143028556,0.3825183098434229,0.3698710299388652,0.3849553180869265,0.44185360831045944,0.42637400556006433,0.4131903861458853,0.4774423555604652,0.44191755341275524,0.5117411223461928,0.48209602866489526,0.39311867003157136,0.42811278210708015
0.42092465257676465,0.5037745094501366,0.4243744651940183,0.44798955314388644,0.3710805016652416,0.38629764095480446,0.3652050882380374,0.3464122211240737,0.3714498338838019,0.32927575081507693,0.3632640429216814,0.3667803580462234,0.3798864532748717,0.346512119555117,0.34493183570748603,0.35043847471424794,0.3432635631719749,0.35212477843540885,0.36035057506484736,0.36291671682814886,0.38950203918334986,0.37084086101596303,0.4046860209867319,0.45323747540270776,0.4658414329488022,0.43059852225535966,0.4904196720613687,0.4359019791446697,0.49277097390145275,0.45675993468185716,0.40829599136060657,0.4102509484642887
0.39329854848502227,0.45448123495718873,0.3514275066762106,0.4083660928368753,0.35402567888963665,0.3452222202685037,0.41046696745301653,0.35845777003262014,0.33631929049998266,0.37951868770403757,0.3890345395421655,0.36999503746843754,0.35262610474772155,0.3450086035315038,0.34720495273302615,0.3395874498886917,0.33136872156994895,0.3396710605759423,0.35196244955870165,0.36352751527224847,0.39454112317517026,0.3448903859042788,0.41304057899351515,0.3851280873645218,0.40343576524753555,0.37907937892577337,0.428163556139609,0.30081035946772217,0.4148084167359915,0.38324692132807076,0.374519431988745,0.38077218587834943
0.3991567063843914,0.43555107930751896,0.34832689255742755,0.4102080609869651,0.39213077038440597,0.34075999032258636,0.41865512312549097,0.40066674004655156,0.31702933655444093,0.404921829637461,0.4133901142928742,0.3592759538785467,0.3148132402659143,0.3556161523075524,0.3728300394191037,0.3615595771806989,0.3523625749132453,0.34663161686991933,0.3342387106927137,0.3535655165797893,0.3744792529340315,0.3113258767777448,0.4091766377618524,0.3686622185391149,0.3516636039246944,0.33852585099251675,0.3877189103420884,0.25834926017060006,0.4039063783724238,0.3664314261218277,0.37145972775026614,0.36426881197531663
0.4457829041553674,0.4961074980868051,0.39295326921757057,0.4532777535117386,0.4294031274783189,0.38315560711176916,0.39709630913814487,0.3871570796237192,0.3087748732299369,0.37101719660604243,0.37868644507402516,0.33056839945335065,0.27989128976882516,0.34022221208904646,0.3401261826334932,0.3365584214308512,0.32470316303471985,0.3272052858367497,0.31633850807448993,0.36097735505511425,0.3612449359272808,0.29263817322532276,0.39700663773320694,0.422613387099316,0.39441016408044177,0.37615011226878137,0.45243471542476366,0.33281439430006743,0.4908335876402347,0.41434333207056767,0.4089682375103547,0.2816805304710092
0.39495215194525524,0.4352374666336197,0.36268814271630584,0.41751485935357735,0.37546367573426476,0.3450556209604007,0.3978915493807032,0.32619591906495726,0.32722903412795534,0.3446729460053962,0.34864770028722364,0.3397006113682529,0.3160405106242963,0.32688975188008046,0.3163638417698566,0.3109941104894983,0.30428755798779317,0.31692551122721585,0.3426536100548116,0.34844920260970363,0.36720062219454214,0.36495101198580765,0.38806341494769553,0.41301971551408523,0.3879138645511623,0.38738253770031894,0.41921137279923837,0.3016900034045688,0.45755319580212944,0.4151998380458003,0.3981506543408001,0.3119926415663288
0.3250076939433949,0.35433947545031586,0.2757193227830903,0.35176572517570154,0.37291489119558835,0.2727124303520584,0.3746794599758111,0.32135764898537417,0.38728456479966966,0.3293652804763741,0.3365663120458775,0.3599607944655067,0.37873681130106923,0.3410497726403973,0.327476176885042,0.3225053494140089,0.31832874020529045,0.3393066243578915,0.3570075866346133,0.3373137157862361,0.3649955070036692,0.3990408262781568,0.36247068840279273,0.39563597536206685,0.3275284510596612,0.3727620302616921,0.3949931012309211,0.2768159012749507,0.3783842644568262,0.4118053434921996,0.3930325339534409,0.37975774155455144
0.33699828711772734,0.36797488403709,0.2859779993046383,0.35389906939057103,0.39392903438633997,0.2582364401668476,0.3586758062197544,0.3411878524022351,0.39425949911488584,0.33864266847253505,0.35294259031003256,0.3711956655941819,0.3799255995431963,0.3600293511079255,0.33730433052947445,0.3235954705938476,0.3212890116557274,0.33621534129864733,0.3465085453216916,0.32857155717992304,0.3358658598134055,0.36627324142251577,0.3420973176496308,0.3711547402713854,0.34609773040164526,0.3963050143240953,0.43720114074558974,0.3046736596588456,0.4243213488869455,0.40740705511545394,0.40843713245840263,0.40322110106384784
0.3677738466091213,0.42748633403734876,0.3901044666592117,0.3992732260910779,0.3487860570473407,0.32110713271545555,0.36965254489048166,0.3213480153127879,0.3845910998448278,0.36773158307711273,0.38558988093463303,0.3799505628848854,0.3868853731645374,0.37673183936622906,0.3625114815322763,0.3474030640707691,0.3443621659321266,0.36212469449362306,0.3648227097475668,0.35371569148523546,0.3489989148651458,0.37079622506850485,0.36160470229754355,0.36422155901062553,0.38606903197028153,0.370370042366455,0.4177967622172737,0.37761736257063283,0.41420231460003887,0.36086696739986746,0.3564614882860562,0.36977358807471006
0.3864883048211647,0.4330441604114777,0.40108581355980394,0.4090792055902592,0.3578980213264616,0.3436776464891907,0.39890216005918233,0.3398234690306943,0.40105010592949775,0.39143449867576485,0.42004143677506983,0.40639393955488284,0.39847413061338827,0.3924644793937393,0.3980790495706724,0.3964343600745296,0.3916521177908056,0.39124881719769805,0.37785770583986655,0.373541823267186,0.3726070251732136,0.386266870334515,0.3562243517997162,0.38870446589101215,0.3950507698994282,0.3749860425202422,0.4067954188498018,0.39773244303148164,0.4253579643055405,0.37578486696731667,0.36590031164080405,0.3818531271071089
0.445311722278179,0.49009358876511383,0.44612901310028963,0.4584813157334775,0.4150636105765145,0.4148782187354455,0.44148897876441023,0.3612590883576912,0.41761052242742897,0.40738370981388966,0.4491689364235662,0.42442827125121474,0.3853551939119438,0.4039733127711532,0.4196171517517406,0.40553002574626296,0.3977028698303884,0.3852967835884253,0.3710219725120601,0.35944880169664095,0.3626603161811281,0.36805226984803674,0.16854315426474714,0.4072109177541833,0.41295497285980604,0.40114172498869,0.43895910915583963,0.4305108066313732,0.5055949868941195,0.44645379466158486,0.4243985728294646,0.39282638291646216
0.44912741920391336,0.5067307986037152,0.4399824915740542,0.4584883984354863,0.382165403783388,0.43846062248971635,0.42702284754991676,0.33832292435492245,0.36777561941137893,0.37488846309777996,0.4110017623987505,0.37051872147478176,0.35716869165217924,0.3664461583355507,0.38090011397171225,0.37697177795287745,0.3841271688204705,0.380374623429038,0.3787015543966403,0.3851421251884224,0.3744102080129317,0.35944443627647704,0.17119154585312088,0.41841998669101615,0.4203184304725219,0.3989311322481773,0.4477793035547836,0.435692087287053,0.5056180642765995,0.4521761464559192,0.4322238235051968,0.39216047231475964
0.4770970551292115,0.5004478642875757,0.45871560665532707,0.4763324426758439,0.36754449052999205,0.44183271461846013,0.42387485048701895,0.40637638481292093,0.37415972091697736,0.3684777126009322,0.40496150385184365,0.36706212929052234,0.363965432145581,0.3687927598882903,0.37776474950112404,0.3752842289298666,0.37992677589674234,0.37698493218435036,0.38661513301507666,0.4048240840857301,0.4002985195378256,0.3777488146333496,0.19777157123696112,0.4281075168872523,0.432973975119112,0.4020917411571178,0.46351837620837977,0.43589593056867953,0.477549138660086,0.45285580217734556,0.40627662733093167,0.4115800601959084
0.512154910186106,0.5057504197540021,0.5091829613274897,0.4967484973758562,0.3785286535287649,0.4459399694585721,0.4472753311114521,0.4133726760061463,0.4075500181914981,0.3946303508433083,0.4342818525078448,0.4097342935494561,0.3920461395390331,0.4109369507808861,0.41331246594006305,0.4002543739058866,0.39632115853545646,0.3974441048619303,0.40145732839949705,0.42383583885383025,0.41863320309931706,0.4065865497101176,0.35554694737475656,0.45619956008492546,0.4059366257376535,0.43494492515077754,0.4990890016477106,0.435206239003114,0.49137881778150294,0.4514782335396686,0.4087345414199675,0.3879432187359487
0.44530962914042516,0.48449899470367447,0.44758267369486415,0.46189433754460374,0.4163097847052287,0.3878274291695221,0.4182087192804875,0.39571478212620886,0.4383240961135896,0.4033167098275132,0.426765523533799,0.4209893066592521,0.4210876536613891,0.4114492785850276,0.4074177935433904,0.40973382009260606,0.4009844378829257,0.40738774301514963,0.4123854693259742,0.42180673276943476,0.4222342924742175,0.43358362893068003,0.4083940968150716,0.4622993492915331,0.41704574766841324,0.4376141736174343,0.5054957348971828,0.44587696168454716,0.4904423003413025,0.4085557606185261,0.4249243362283477,0.40518549674233145
0.40990694488995033,0.47361680291100416,0.424453262292637,0.4586775874913094,0.390761543152224,0.3915278143033538,0.4097480191653903,0.3959744881964561,0.3887928036639237,0.368942199118371,0.4079377574173383,0.37000492238188903,0.39816395428099505,0.3796010276320243,0.3837671120999832,0.39096357131419723,0.3795129901422923,0.36590085897629604,0.3540633486674211,0.38331081109736015,0.39024573947771585,0.4148438762524874,0.40200496826529025,0.4538204315825504,0.4406253332827963,0.3710463619806289,0.4724956249148963,0.4493088502283109,0.4807201990724877,0.4146217087878988,0.39839516613662285,0.40819059933306917
0.456906361857832,0.4906174948944321,0.46109696582744736,0.4834497815381829,0.36347103357372806,0.4606636320923045,0.4588539932240336,0.40410969884077697,0.37245041838028525,0.3684799067590316,0.4333883089200972,0.3729483703059924,0.37013791411361435,0.39033681443755863,0.4026486593367478,0.3994686755575516,0.3931056880081115,0.3593763119241848,0.3310770314957935,0.3845821457608718,0.3837073836519589,0.3759890907065744,0.3964733095049479,0.4734580864985886,0.46007077367470617,0.38056307694625535,0.4698651205822676,0.457137221772855,0.5190578375839542,0.452046131468735,0.39054947418926084,0.4111305556336593
0.45043557816682506,0.4600405775550902,0.45197396217977026,0.44936374858855377,0.3374555319958237,0.4424275850446145,0.47097411885211204,0.4020205600542852,0.3987117051831592,0.40477653095230787,0.43998589433175167,0.42342040763483463,0.38904821107354687,0.4268563364034934,0.4296201352433002,0.419858839712015,0.4029475003154293,0.3875388779028213,0.38379449939504495,0.4110733117350958,0.4088558706226082,0.3823040448865952,0.4282725932649035,0.46973400399963045,0.4683558749405281,0.43270661410869793,0.4692251220960071,0.4488636229149751,0.515347548910048,0.4564027307010517,0.39137220885554513,0.45377350556718765
0.4150259076672519,0.4517535197206405,0.41314634311414133,0.42118255068049854,0.33120290432211513,0.40790150641794864,0.4448830547579229,0.4029580952113479,0.3677863009062014,0.4048288977690659,0.4133433177100632,0.3838845076546139,0.3495281763676424,0.36395158895835045,0.3619542369456409,0.36554910803710344,0.36006055661500597,0.3546551423748036,0.3737572611034733,0.39997343092361237,0.40748132397594883,0.37828310147289657,0.4262688307658068,0.4467122064237436,0.4362738060088355,0.4177658188854263,0.4434730138179511,0.4317889473863196,0.4832062076580428,0.4289618999978661,0.38544474146715096,0.439859431459888
0.4423694513831254,0.4870363689927896,0.3770186698112251,0.42601665659003457,0.3636086143282576,0.3717536061354744,0.38393742067783987,0.39607776152637547,0.35636444976420745,0.37266375611470964,0.3821228244800025,0.36432760900014866,0.3391930513164134,0.34827910116404226,0.3484538321192627,0.34688234027888554,0.34457653847715525,0.3419161895428046,0.3616408020467743,0.3833393605478954,0.38989672285666527,0.3648578477600204,0.41960763813902097,0.431533378982343,0.4095579932405791,0.41596043779850816,0.4686633553993468,0.431055554146605,0.4701688575687865,0.41141725419020514,0.39570208077177066,0.40445372172176713
0.4433010324035493,0.47513485498415386,0.3735563248100234,0.44730459578482734,0.40244251939584186,0.37055868352225324,0.3816512401412129,0.40624067998950103,0.3633218535856878,0.3753268854018801,0.39147235380748413,0.37275071606549265,0.35249140069506113,0.365418156387712,0.37012050510234035,0.3574884374960524,0.35256849119574124,0.3533053338264395,0.3618323043349731,0.3778039650618707,0.38518158248332085,0.3720524679101068,0.42603477231994813,0.43184742193167275,0.4140114850512548,0.44126991453295,0.483595478246417,0.41982516849744866,0.4593976822513675,0.42254137244443307,0.4094515157605864,0.44015810426797886
0.4407767576269943,0.4870117382368104,0.3875397169296164,0.44793484110669546,0.4298362075886714,0.3928332839945994,0.42520031218396986,0.4352678326578286,0.41442338726603417,0.38861411412260166,0.43452462457636437,0.40723941520797613,0.422881296320941,0.4006490711364175,0.3918167827600686,0.3642899197295507,0.3836834712091108,0.3855491827962084,0.38880093449180464,0.41449922772982584,0.42709283135578324,0.42002426728444087,0.4509214978967076,0.45719911211005604,0.4703689654700523,0.45198882756534925,0.49813706072241926,0.4276528422615121,0.5105864620918911,0.45521855577502157,0.4258242112217675,0.44610212320310044
0.4887190572191534,0.5122519859501138,0.42930299401456684,0.45170208982185595,0.424070599401319,0.3912400812682172,0.4153209219532251,0.41620438231025414,0.4121611442888654,0.3756336730018542,0.3981058772848944,0.39321732411514176,0.4054301980315702,0.37910871298462107,0.3676262212845616,0.36344852587374743,0.36966883903585007,0.365671341885278,0.37972433443971537,0.4027355058857631,0.42380221242660476,0.4091522155835915,0.426251483663298,0.4663922116612306,0.47627888052354744,0.43355026332986685,0.519641793226692,0.4809857390892709,0.5464023418476007,0.49944309056176234,0.4234000971464509,0.4043176619626655
0.441893469594039,0.4464093927763569,0.362921485964697,0.4541877220947395,0.415388888851452,0.36504748739426063,0.3928532599338262,0.4127749696687825,0.42037417402380445,0.41517168648397645,0.4168063933397781,0.4247710717693739,0.40570824731849076,0.40422300927954535,0.40357373335212315,0.3997494640688158,0.37339640478444225,0.3761695961607734,0.3975449357988029,0.397315833733244,0.40376546682936,0.40376352189241327,0.40013145187980975,0.4612693286067605,0.4320359381045236,0.39736020288897744,0.4785023666570016,0.4688040728096107,0.5294394500974419,0.48146166954815484,0.40402916101009206,0.4067502188329183
0.37368492574095913,0.39559069347058773,0.3041022184634723,0.4340696313540256,0.3953259771475198,0.3056380848022524,0.3430491000933534,0.3609435734164385,0.4271161651640324,0.38696206547996015,0.43660830497623143,0.4437733749593032,0.40350901534270356,0.4197596791947012,0.41882835102836635,0.39995641762611034,0.38222345710853955,0.38757547996149366,0.4027906114050372,0.3874614660911447,0.39706239528706583,0.4175958673026096,0.4100816621325526,0.45118117945575664,0.447493634400352,0.3912026720694146,0.5114148798239663,0.4523976618677182,0.517518358749448,0.46993828940943566,0.41525075174694986,0.3733532545277427
0.39737283379672356,0.4176462779126415,0.3570774027014774,0.43842637951498065,0.36287084315692286,0.32726638829100657,0.3858849993397331,0.3367749937030676,0.3921695404866043,0.39162090130576716,0.43772510087067623,0.3951431348464707,0.37115774442250915,0.3882452232780022,0.38864406999896434,0.37774248222708245,0.36963567982287154,0.3622700454445702,0.37190323365460115,0.38141917813731047,0.3948911388220987,0.38445507829222547,0.4142455376482244,0.4383138771124915,0.45350580782115474,0.40255436644752735,0.500132074487779,0.42902470156524336,0.4894630413218962,0.4425764883943814,0.4026652173860322,0.3954112287018009
0.4606620097164997,0.4699404651020912,0.4538589732165138,0.4506840253914126,0.3974597487118423,0.42767418717285927,0.4616536930700783,0.40621468042018155,0.3807374751310063,0.4259847987374147,0.4495589020115224,0.38139631765898563,0.3928332941519866,0.38942966088216746,0.3974624372566905,0.3895443580585887,0.37820529416456794,0.3706949397577673,0.41014583204880073,0.4044573078571833,0.3976202978025194,0.37685319157983915,0.4098518255540352,0.4221969140034594,0.4150614203809261,0.40569837975368434,0.44305771828729473,0.4013548632413568,0.4584181479995743,0.4173388563254984,0.393985451664083,0.4130816157156941
0.45972799515762486,0.4926991241899893,0.45388447058820114,0.43422908596723125,0.407916598386016,0.3947646303183875,0.4370731075494046,0.3952536766963595,0.360623263786974,0.3867340739268623,0.42026658648733656,0.3739783894320449,0.3850450649491136,0.37179727572743837,0.38608789209825406,0.37910077171032514,0.3608044368297678,0.34952195550691073,0.40480403403626847,0.3812879335582779,0.3847793344269576,0.36221847981357347,0.4077117300587777,0.40758001282799694,0.4087285275683721,0.41955618151408103,0.4613711856358454,0.4123326258801627,0.498016142416485,0.43342277755206315,0.42133371710348755,0.4037100225406892
0.42569250135144665,0.4946843966535714,0.45616029425701926,0.45341488925961315,0.3939306807231102,0.37744216759346444,0.4359991189143164,0.3641842201617942,0.38219860323515265,0.37810779349709883,0.41741967760621873,0.39685203696819815,0.4028943650757992,0.3700110842805493,0.3833315394176116,0.38032807368384186,0.3638977173450462,0.36821253524949793,0.4062917918571181,0.37509235522932227,0.41069123311375144,0.38912302590687425,0.4288977632326172,0.4319908720695374,0.44272835603007404,0.4418264907670293,0.4880600850593368,0.43163267229584695,0.5156533780167579,0.4667458575021986,0.4169395179979878,0.38843132582236634
0.421664003563856,0.47140828972517224,0.46926478275566635,0.44751170069442,0.37618709827915403,0.3775844015181934,0.4229276522153199,0.3616695405638813,0.4159096976427074,0.3967887378299473,0.41938326931735875,0.41575571089378927,0.41679892386044126,0.3945429877149081,0.3959230562192009,0.39134044204176116,0.3695514316662414,0.39203457763185645,0.40390269648274896,0.3935266042608213,0.4169364975367085,0.4090815317697035,0.4415719676526287,0.4450247520068596,0.44960600220176783,0.4496190154826968,0.4823778956181981,0.44232837435212646,0.5055742907115525,0.4539064626331553,0.40176848101615553,0.41173244060359565
0.42085936622672904,0.46211470526429177,0.43490307381854554,0.4213895367261255,0.3551508345677873,0.3670024449951182,0.4162331365789606,0.38141287677128216,0.403197866631399,0.3960758418865315,0.4162119653029437,0.4056092474876834,0.38233462034914834,0.39018131614795115,0.39649478867029286,0.38669592129026886,0.3661379675162126,0.37746696426097665,0.3804289953173034,0.38214064092598077,0.38915402410725625,0.3609202016754126,0.425655498909273,0.40954172259379606,0.40372145401250104,0.4107303948944958,0.4644925725980446,0.4051302815241849,0.48069622446025223,0.42494685780581376,0.3812455109772565,0.4235880278109717
0.43845438484938304,0.47465275632784365,0.4193419255771753,0.43852386763399614,0.39460614064580635,0.3838610124235856,0.4069666400812732,0.4084659968320115,0.39623266995598205,0.385926402531864,0.41479137473194216,0.3943275571953115,0.37267321611564486,0.38478458714581065,0.38265041606992656,0.3757466902976869,0.36967749988164034,0.382757518647599,0.39018969122753394,0.3902781983460776,0.4049424104744851,0.36208407901611045,0.4220020073567823,0.41907756163600346,0.41745700203435243,0.40420613719483844,0.4763893019977647,0.3971778977501239,0.48597075273616974,0.43296078465278437,0.40621612765574033,0.40455069118498194
0.44946681521779525,0.48568040417304975,0.4377576429488758,0.46280562761467675,0.42194228554827284,0.39757903732320216,0.4018198360630784,0.3800392088215099,0.37894983359648515,0.37261431107206405,0.4069194199762569,0.3868072841387364,0.37740452197062263,0.37654552708231065,0.36671677459356555,0.3624026466451245,0.37672284833943526,0.3779231236152905,0.3922239516331727,0.4008744496895192,0.4156664212127906,0.36579698521543275,0.4127173918890747,0.44066517502881164,0.4428943887319439,0.4232871835903165,0.49675155533516296,0.4488950128683498,0.525803923432006,0.45100566199034864,0.4260076109803349,0.3789410280969304
0.4291581553486309,0.509700240307172,0.4275292119212604,0.46643609852314594,0.42186866021261,0.3784156402984959,0.37750222105123604,0.36662298233207213,0.3571090357959629,0.34707207715762867,0.38580089072367024,0.3829011607758265,0.3684814395515371,0.3639200002622533,0.3696842445338618,0.37636897022422344,0.3856733210099882,0.36936254934794066,0.38514963796954477,0.3723134276646627,0.3855532248908015,0.3696233221148724,0.3907668077947144,0.39647825258993397,0.39231124180281496,0.40400962934840523,0.4957566111116976,0.40536895852666605,0.5157166499502446,0.44167352115778435,0.4218878305948365,0.3742505660703926
0.4492292607313638,0.5102482688415514,0.4287349372045814,0.4809840768324492,0.42602158547566876,0.35234622459475656,0.3962174935393993,0.3719048333650752,0.4159343127364944,0.36108757460885954,0.39130534103538467,0.42074904009345127,0.4035704745786936,0.392654807817124,0.3900531929382719,0.39695929086150045,0.39441304956953954,0.3977857861888552,0.4041712788925562,0.39347029139660294,0.4162651301716351,0.4044712562808034,0.41820546655729046,0.4006575080807887,0.424470841028038,0.42789089883660636,0.48995993684091105,0.4239058642563103,0.5202078947597789,0.4437424070397863,0.4450201568444957,0.4122055492562038
0.4217640394981167,0.4774712014575919,0.4345049926529085,0.43392610946875976,0.3718726717675111,0.3348670640146497,0.39934113276923183,0.35178275189662195,0.37790238584338387,0.34153102188033135,0.3930908702753148,0.3845364060305955,0.3813421943806084,0.3651466208582181,0.3647970779665201,0.36246294300993037,0.3674428152156505,0.3825522634790829,0.4108255638060351,0.4268052601203583,0.4082703629885742,0.4078086097467057,0.4403310482690099,0.45444440232533057,0.44784992515259947,0.4152146377777469,0.4682312264536823,0.449537473191629,0.5046356312473431,0.4425223036051403,0.4029119144050618,0.39210713607399966
0.3940247505547785,0.4682991719389629,0.4383012385840253,0.42169656708840936,0.3690563972699205,0.35545707607702914,0.41141512039902284,0.3475095743986353,0.3549949070651518,0.34070968584230793,0.38775023204444764,0.36177975252822664,0.36724000611022567,0.34977740003037167,0.3546275090014588,0.35327005475427803,0.361678096340291,0.36545462334353124,0.39822058314545855,0.42108400038210697,0.39765904321316264,0.4120862183696488,0.4464554935671106,0.4586780096370119,0.40948440349195725,0.38368186510338964,0.4650258003950436,0.4052474992256199,0.47666581660011453,0.45193196808336655,0.38500052900462134,0.37239673109927357
0.41295841890215623,0.46207488485492737,0.44670098313863693,0.4575486839104143,0.3792450214152801,0.39082170096002883,0.39473493006882543,0.3822031768258395,0.3840142716106257,0.3648555287170291,0.3648736711726341,0.362560613683084,0.3792604791671933,0.3582754447872746,0.3565293445335453,0.35947042906807497,0.36688222810792376,0.3683890206412041,0.3953227229581189,0.37480118286453523,0.3760981000647998,0.41520446712531134,0.4206333361527298,0.40684504917019915,0.3809341608322367,0.39525811576814995,0.4530650730677379,0.3937164304659384,0.48256154197494283,0.4336718005065236,0.388207131159672,0.39062489854111976
0.3839150209299513,0.4550339498240982,0.36169161861822097,0.4032842009534285,0.3639551564335966,0.3361240009960933,0.33444749260028683,0.3449577603800681,0.3780175273447149,0.35794492481388274,0.3716894414100007,0.35569285383073634,0.3552282827350673,0.3448803414812984,0.34041314236381426,0.34280698023259043,0.3447284828794776,0.3512803677450199,0.3618631399702207,0.3518977442024557,0.3464912784888323,0.383867875375697,0.387831511964074,0.38035988623047273,0.38162193571819725,0.40328305381498275,0.44341872528781917,0.39571476509885745,0.4834643838642601,0.426018275624042,0.38996904425938517,0.3929018177479026
0.3837798703599112,0.45353456714034823,0.35536514079564024,0.3776619968987178,0.3685820638277241,0.32513058790059035,0.31880692269265454,0.3387922653216828,0.35441716242138865,0.34699439123832143,0.37381924200108746,0.33454452257026757,0.3414904740656542,0.3210265263758914,0.32585895568375384,0.3276934494289451,0.33179148814393816,0.3395922180238018,0.34323081537859007,0.3584977908945365,0.357789938064892,0.3638681592422098,0.38184210579439104,0.41350245309593575,0.41321260576166147,0.3850167262231388,0.43431127679373266,0.40290235953258485,0.47881584499861285,0.44101475737412993,0.3811984804329619,0.37617547948044366
0.40293133085398697,0.4827886036739703,0.408804210222517,0.43159718925327584,0.41504569789528106,0.3656950172828271,0.3682450266674575,0.35962782151468414,0.3522832024189921,0.3443726979626525,0.3637023652650366,0.32356596919481045,0.34831262932285717,0.3228744089946939,0.3328278111465257,0.33477642635690524,0.33524413144918985,0.3452577499275594,0.3486237987395337,0.3445471183403976,0.3697093114268646,0.3723976847101854,0.38883771399718353,0.39252278213554737,0.3889082301584465,0.3625646215031172,0.421411893306366,0.35630568452123973,0.4753612652256972,0.40925659167486383,0.38011568945825375,0.40498358224451403
0.4220494586306533,0.5143734484993276,0.4404837221219295,0.4793042328378115,0.38537555649393507,0.3924594702542187,0.40212454007987847,0.35540215543972414,0.39198317662419013,0.33890071332604205,0.3662793613048479,0.3392100253497365,0.3647801447762912,0.33228071644793483,0.33002350096705385,0.3250556544278005,0.32272347404717544,0.3330121486174731,0.34355621451106233,0.3435098366130592,0.37379619567216543,0.3934499638887695,0.3948971443689305,0.39497885846641134,0.39836496458290926,0.38350023481469264,0.45354266784576386,0.3751151480034533,0.4887225983996182,0.43028005459783386,0.3843605724456644,0.4156136519620004
0.4349634344833804,0.509908585451606,0.42902346155456145,0.4690361115034826,0.3819224744261277,0.39112134858488706,0.3928064138930864,0.38828844089052855,0.40212928762974737,0.3227907010262026,0.3485755717087337,0.3376836452411123,0.3742492960735039,0.3210961042012,0.31769378605087906,0.31416115739914674,0.3150778687458579,0.32923948294059785,0.3503075700101316,0.376316771362193,0.3862789520631231,0.41142319576884884,0.3947279192991671,0.4338841956543268,0.42477505860714837,0.3741818002175162,0.4583469978782046,0.42461634537506465,0.5002483819062465,0.442026074506605,0.38974435916831845,0.40262277831484244
0.4401886914398702,0.5074398019745986,0.41833250337070427,0.4399864893397878,0.41276715147501153,0.4081226000839827,0.4095827945054385,0.3933821231475742,0.3920190358845825,0.3829609814361289,0.3916885080567271,0.3719292948265055,0.3747818016121778,0.3549031084940175,0.34790942854003115,0.33512581153444787,0.3412212943209198,0.36488598059093136,0.3803275277531481,0.4108657175730926,0.4073088091990347,0.3954171628442166,0.4085409350947592,0.4553482586323907,0.4291249692373883,0.3879314190815862,0.459645769240675,0.44083476012331857,0.5143413284703937,0.43633033809621374,0.40092544133649544,0.41310655889599485
0.43952704549336663,0.4705913051152582,0.4414081259893932,0.42126712850632797,0.36874475688321706,0.40556346259925874,0.420020688683662,0.3838482323267893,0.40992943431427026,0.3832479390385134,0.41546152676320597,0.3947197396003844,0.39275293408195683,0.388751331392045,0.37767163905556617,0.35463918579589254,0.36221609738488475,0.3672686200825928,0.3882879148353329,0.39406213130584505,0.4067316021280782,0.39409497261419474,0.41028642611054794,0.44122665905622466,0.4330338909439907,0.39124565473505873,0.475404691809938,0.40853676974131853,0.514437506816605,0.44710215679726467,0.3734236769897939,0.41436382055636733
0.41643131081900014,0.408985786539896,0.4078065261784301,0.4219363332879649,0.3299626463035336,0.36717194733953296,0.3909994171987038,0.3678867165962188,0.37341963054821853,0.35313236994106334,0.3859538145541295,0.3722163241533502,0.38088401327435667,0.37442128629134064,0.3797275516483608,0.3660923607760069,0.37183632716817727,0.3621735231276377,0.37252990639066813,0.3827751885977951,0.391547649674789,0.3870655541333685,0.3994768015947232,0.41940520381267743,0.4286754186712162,0.3871218315518671,0.47187992294916614,0.340924397540073,0.47141853017001223,0.4271752894609951,0.35161106868331427,0.4108937804098292
0.43521246567782773,0.43513835873489914,0.3940545555225277,0.42359589051356555,0.3299395477897962,0.3665744887299957,0.38343871641217847,0.349795772908777,0.35306579399284554,0.35601614345308963,0.37562760580138793,0.3760496629342705,0.3889013079567764,0.38450880184548575,0.38225802689636845,0.3792931085843283,0.3953102470855111,0.39060651847426925,0.3971362319213992,0.40254474661577394,0.3946285852159508,0.39359310607435416,0.37698183353536785,0.4366200480739856,0.40131620544888497,0.365887461013581,0.45156537270365277,0.3416552250313587,0.4576696055493289,0.4097477291951051,0.3536541736714709,0.3951131618580028
0.4072250492923485,0.47242792314861853,0.39473307789354656,0.4118044633673024,0.34186247005559145,0.3670109193980765,0.35899778715520436,0.35424473247030625,0.3922457031964124,0.369619014926951,0.3809146235127389,0.3907388758502505,0.40724744616089165,0.3933214612925012,0.3888826942255542,0.40332354787513824,0.4147580419222433,0.41146593466870385,0.4035658859368576,0.3845688650922232,0.3773483581003044,0.396028504432927,0.37405514433283865,0.38566336357908576,0.3592206049031928,0.3657986559967247,0.43903855326741287,0.35042369451880984,0.4680116414230453,0.3914044221262455,0.37598838855900735,0.41021218506730023
0.37933460332664026,0.4772573267402558,0.383499084081306,0.418969168478792,0.3776757713311081,0.35674927493275693,0.34888608024886025,0.3811295753119203,0.3706140569162241,0.3501740346977971,0.3606293295569374,0.3534878452305248,0.3786777910110527,0.3329446590704511,0.33768312909756665,0.340107136399427,0.34025438365989186,0.35031439283573523,0.3781198222214784,0.360584012545533,0.364315865110288,0.38538179000485445,0.382849037004098,0.37535376063619463,0.37152071104763146,0.3905206889952386,0.4337542623874873,0.35955566886166646,0.46622478517707605,0.4054321573104632,0.39647372529228,0.42472397819109203
0.41511219241453934,0.4839854137588804,0.4065891969007608,0.4501741109870218,0.3766603162556874,0.36546577009820624,0.39515407784173867,0.36590577491806897,0.3624752140344776,0.3381602469703368,0.35381464010366,0.34270328648051007,0.37431634881389836,0.32641484398604964,0.33120959236913183,0.3261669418239154,0.3209710389787898,0.33384770662139757,0.3654322026137492,0.35251392288803146,0.3641213537462913,0.3905932875161196,0.39915344830737104,0.3976121641624595,0.39737572813945227,0.38961833625630676,0.42368776599479624,0.4098627375553328,0.4637826787602952,0.43799265064863374,0.3915024855509261,0.3932355230315694
0.42843619818419887,0.4698694880329372,0.4296831649617042,0.46254925249027357,0.36858836593657046,0.4114293581753446,0.3967427152166307,0.3682698164321584,0.38656552595866517,0.35344280850907134,0.34998126763168136,0.3457506046331711,0.37162686881129053,0.3305708242102916,0.32058605846896143,0.31759029221047985,0.3048507551722222,0.32161569687326713,0.34804239089115213,0.32946265757681753,0.349346865881564,0.3875999609094937,0.38696422002880815,0.3860863953218172,0.40225874382154225,0.38706974009074685,0.459632038005953,0.4120788373055363,0.4598226259521203,0.42615431219864885,0.3764182430178466,0.37366185238038524
0.4048980470927139,0.46598948351386077,0.404076464199132,0.46352775362566495,0.38117415828188606,0.3894930008476514,0.3709500308161646,0.3978489671682445,0.36850333447777256,0.3386203746838515,0.3267225523046695,0.334885550761765,0.35126227145431604,0.316499545547766,0.31261409521255185,0.312555647966356,0.3048215170797945,0.3240071970812349,0.36296656768375846,0.34186847937904696,0.36412584131648157,0.3804059159503685,0.3779775014553277,0.40934052744277966,0.4047766579668609,0.39177543212342936,0.47911825679824405,0.4089543158169597,0.4619393867011798,0.41364075349603996,0.381910622952652,0.3916890769485813
0.44041153433925295,0.5112611212870259,0.42101631842003706,0.47529552130559805,0.3845505229818623,0.3775551863185894,0.37230530621790986,0.3785736316794288,0.3390746760013654,0.30557219844688877,0.29823470422798704,0.31186804723959777,0.33376743612189097,0.29104590761360305,0.29590368468691963,0.30221628347715623,0.3017810045493888,0.3211557663826396,0.3526612521395378,0.3357525958995403,0.370148675696079,0.37602525383646973,0.3916369125092963,0.4192645947234679,0.3989092026804405,0.40323124209760847,0.4695360976949818,0.4333624331861109,0.48391522861617037,0.4568898756750053,0.3975873460898837,0.40439271879104965
0.479641107425172,0.5379759549791326,0.4684081528292062,0.4786909334653572,0.3810280155681352,0.41174773108740736,0.38316086016030293,0.36142100550264955,0.35634919908208584,0.30990138133609624,0.32362183999830096,0.320640793400139,0.3647290158113978,0.3045585311600431,0.3071641031983665,0.3099646515506674,0.30911262600523337,0.3263821861420376,0.35492689296556573,0.34053978425573944,0.37556525310807265,0.39587213553257344,0.3962323322924271,0.42463993613802814,0.39746304064437865,0.4218319087400006,0.471089398850093,0.4281765838034259,0.5131101677012861,0.4760147866114863,0.42902291715131274,0.3883380937056376
0.47857993757303796,0.524810460476827,0.48181699365204983,0.4884088878329888,0.36059381558323206,0.40755920503000787,0.39463189679858013,0.3913473676465439,0.4031792565724076,0.380000324483571,0.38050057286716243,0.3972515079660484,0.40494402299212573,0.37703045877271735,0.36906587825739456,0.3592312919927254,0.3548712659077254,0.374147968744855,0.39112638682362244,0.38824305331157843,0.39152996886263636,0.4276176639652654,0.42074261253201345,0.44580530977413907,0.4163403131435432,0.43709929429777566,0.49037142039212217,0.41743311605666333,0.503447078699393,0.4504225308830317,0.4259051355032843,0.394704603369566
0.4480333974090533,0.47826963324050675,0.45293931617510425,0.46771738259566464,0.3494468009150375,0.37467259889531157,0.3523191322090906,0.37462926527298074,0.3587516814838162,0.36198410517857454,0.32985319570498245,0.3520033187871318,0.34813062328127653,0.33781372585813263,0.3481463621754626,0.3551353132996121,0.35165694402605474,0.35883324109748405,0.3734960522349292,0.3795208116116975,0.37785490778621783,0.3904604763501147,0.4053232520866155,0.4095431257691594,0.40407467433596883,0.4106255965201768,0.45561583856758553,0.40028879405550705,0.4859864694476401,0.4207367196592198,0.3949043918326462,0.4007135261989513
0.4397281218711209,0.5033863202960033,0.4467029669753379,0.44255475122932564,0.36748213182778805,0.3769168514674679,0.3624471490035789,0.37286094285773413,0.3501382133440831,0.35473776400636786,0.3361546422101685,0.325266543015285,0.3384650956231538,0.3242904283348891,0.3338591890863194,0.34273984917920564,0.34193659073337535,0.3454784562041367,0.3614815373437712,0.3748818503249521,0.37688438807278996,0.35737376516385116,0.3779096600164472,0.41760558807477227,0.3960716960411031,0.4064518114959322,0.45542952806837694,0.40901994437502215,0.5113940879993758,0.44221419734864165,0.40040845408559833,0.4109536376045855
0.4366088155563083,0.5180240876980537,0.4651670251683078,0.4338549003509859,0.37563596989712184,0.3770086514368016,0.4279433243393931,0.36474251801647317,0.3825838725917771,0.3733870490186617,0.37994842666796924,0.37326290468766926,0.4019154310114344,0.36940197397559327,0.3680550500682616,0.3647422548425316,0.35218574615315285,0.37787583232186583,0.390037478871994,0.36938509091245614,0.383145580667602,0.38656916657103757,0.387793265438067,0.4237958618833145,0.3987718916776546,0.39218666085593284,0.49144536048455323,0.43477288893625127,0.518289609057589,0.4476459876417046,0.3895320018674019,0.4329381723124296
0.44399260270588703,0.4899668226185846,0.46321619992861085,0.4542064199468835,0.4041395861648702,0.3918853797900025,0.4500246088269797,0.4014044340681569,0.4046638612653684,0.3922796382306296,0.40830442781004966,0.41485993138450233,0.39787263219451086,0.3992456765083906,0.3981042095314956,0.3905831049545002,0.3994472834856013,0.4071800158461806,0.4009140787710236,0.4049809780933194,0.39619017295412573,0.38795313807537085,0.3965303800056417,0.44346907823947945,0.4120198750616626,0.3921543511527441,0.46532042153093245,0.4379813390517539,0.5179461608536771,0.43497284036197753,0.3978623196742408,0.41999960233591294
0.4352449946193765,0.48930523095554546,0.466876243646446,0.46539177092145406,0.39417140282350094,0.42646352816966865,0.4524289132989961,0.4394700413976857,0.40702101586231143,0.3962566971987112,0.4340225823966315,0.41147196919549817,0.39450741712795384,0.4010126502284676,0.3945805840604505,0.38343442293020386,0.3816667313909658,0.3793746035364262,0.39920842027973336,0.42123999636537907,0.415291244627038,0.3874607641410619,0.4149938222798254,0.4690716128480526,0.42486963879662815,0.382762648592518,0.4393639641434214,0.4457191184834996,0.49000952541778015,0.42510460403150563,0.3945423584750956,0.3950538836483629
0.4160244739290952,0.46541677000318094,0.45595220582570767,0.42132460128473137,0.37676495367772056,0.4179772577121473,0.4457854074109586,0.4138937052441771,0.3582765275039895,0.3598963676502007,0.4126325315084107,0.368196895877785,0.3735670323326138,0.36938330642126727,0.37153467943960156,0.3772811968674272,0.36090551763402406,0.3531936026699801,0.37872815050910086,0.3813026697650869,0.3930514475136309,0.3729107799823983,0.4044074821753676,0.4144934622960966,0.419487689763154,0.3843888523096631,0.4430799105247016,0.42371063518185353,0.4475815739857923,0.39686541276437715,0.3802897807048243,0.3913826741901981
0.42822467551117743,0.4524649210349509,0.44510809964740145,0.4008060557031032,0.378231685706433,0.40663867328047554,0.4596813621948565,0.4000211659365872,0.33544540388844685,0.3304229352920996,0.3763115410035389,0.3417239804783545,0.3658406482005359,0.3440750411805891,0.3541538685168083,0.37284148082937163,0.365715598318029,0.35966278437692834,0.3829219712238592,0.3905391403009559,0.4037575953560525,0.38356737426712395,0.4005029858558282,0.43087829867293853,0.4286132740188642,0.3935067795802085,0.4504956523597419,0.43251419190243817,0.4795537556056725,0.4127147217765324,0.38840487425125825,0.4173504498319773
0.4262633710910877,0.4698931566924328,0.4087540408911939,0.40638402627874964,0.3720083357329855,0.3869666670100638,0.4273810425290122,0.4128823970739566,0.36678738168068364,0.3616546566014237,0.3885704663495656,0.38252435049521943,0.3799782244094805,0.36692600499667066,0.37393593881566983,0.3729585252851425,0.3652500512732094,0.36854422866790726,0.3862165504330934,0.41893150156682796,0.43223911887501154,0.4135361738660108,0.42637018511273034,0.4570872004474464,0.42572131645922867,0.3807499749355994,0.4373741844015162,0.4257973150405389,0.4888631435186273,0.4302137700760302,0.3743698440171278,0.41242016402860243
0.3776651257915837,0.4305601061783972,0.36347184886769823,0.39763441770177876,0.36453471502779405,0.34931823446691224,0.39013204867657275,0.3486144617921727,0.3872673754725783,0.368134826854773,0.38920788024544634,0.3926162490251871,0.37527318898260087,0.37251605720739317,0.3733082858395583,0.36497388152923294,0.3451862935832913,0.34572467489351627,0.3522319931819123,0.30875946741661975,0.3728798909042725,0.3997715191611817,0.3919357187763813,0.38782066798435044,0.39438204598128473,0.385838735187462,0.4258680528336548,0.362320859537878,0.4691884589767348,0.38919259708865306,0.3525417650811849,0.4054105093594677
0.3783293507207822,0.4403891642089629,0.39678204455696,0.42100767739211536,0.3577215079114312,0.3691539011289173,0.39229491246767234,0.33415059200497144,0.35707448381710605,0.32612155818895944,0.3284706164808994,0.3160561894381209,0.35830636795747783,0.3068813330415071,0.30989155147002306,0.32756479218570245,0.33149659854382313,0.329633764567338,0.3422680718465135,0.2878064287383995,0.34014658308708634,0.37115936872483885,0.3690427175878281,0.3621231427105997,0.40068916640745783,0.3761452264459978,0.42201223679576944,0.3551811573357027,0.4427739351258776,0.3819609244572569,0.34773382515438633,0.392838773802536
0.40561582597108564,0.4533638415932466,0.45408205234348936,0.4470670230656644,0.325388304629331,0.4114045125349748,0.36247253382127353,0.31426689914249983,0.3088520330196137,0.2923306978548241,0.29499480645089915,0.2838705151092931,0.3381338385405011,0.27953657130289583,0.2865938768303805,0.29672278573524946,0.299459127964339,0.3087664160280821,0.3350871818249839,0.3220541343507745,0.35083870468412304,0.34774059333701973,0.3759352277300823,0.3851078210447427,0.39721100142876214,0.3461979646395599,0.40050247316077753,0.39538840605904,0.45501838492502233,0.39939625476947166,0.3373862459926594,0.3381154760974395
0.4077276080266687,0.4388177525531679,0.4103928450088946,0.4513369579937122,0.32937403204041105,0.3808254603010881,0.3514778741336255,0.3032985929921352,0.308073937875806,0.3048835944410746,0.3043111643690248,0.2941707306844922,0.32698396148790615,0.28503644232803726,0.28803080136561443,0.2937318442962193,0.2921446154697359,0.3059797011029912,0.32703071351812396,0.33207010222144356,0.34945045476519837,0.3473591830056388,0.3729780201329964,0.3956355592847878,0.3889453815311415,0.34820089326690234,0.4006164748569877,0.42202262138259405,0.4705096673217289,0.4048094228832079,0.35100809804338146,0.3400160046437744
0.41527662447178976,0.45275658656865514,0.3945192362810367,0.44632643177253256,0.3545705559443906,0.3879448558303063,0.3737716548008179,0.35256177447569587,0.3172323678027499,0.3307680164549465,0.31775762769680244,0.30704366227528335,0.31889623194996336,0.30029916654225386,0.3021704402244913,0.3172760469531802,0.3103959051602506,0.31398134176157233,0.32704850082054654,0.3555259460880696,0.36653166078972543,0.34619995999280073,0.39756948586281177,0.4222644324329421,0.41106106026674194,0.36618033611681977,0.4177884529743229,0.4436074147394651,0.4767259309911586,0.41176223093443043,0.3628218751881125,0.37919844556880555
0.4054295360147348,0.4611593522727207,0.4224738651374269,0.43331216373949316,0.36478874327779637,0.41585220868687445,0.3751565652639696,0.43640217287087335,0.31995270282840343,0.3273272866137024,0.3126571736380719,0.30627452139955835,0.3306092441511729,0.297052095485667,0.2995809185142019,0.3134842416654819,0.3043305464952654,0.31546246721027704,0.3394479933119434,0.35550096836387685,0.3927101493311837,0.35076661809085646,0.4397700788686882,0.4203799380117101,0.40685463980545905,0.38692004548722264,0.42536236293634794,0.42315455591693124,0.4712597091302834,0.40024068079718944,0.3781165311677875,0.4143808039498156
0.38016134432553633,0.44446902681986056,0.37244371037832363,0.4157051784810684,0.39622650230866674,0.37405306478295497,0.3673581135838237,0.40611796367436825,0.3549293492888888,0.35218281582444366,0.3372406689379397,0.33652925786591076,0.3745382991205404,0.3109180501741948,0.3166979117359003,0.3220502341015126,0.31692847627064924,0.3571861541551808,0.4025977473711528,0.3801528306398862,0.4255502419173499,0.3929817759260492,0.4422256715220423,0.4115268208116154,0.40719789515338795,0.4183200690681413,0.459054415383592,0.4259545935539963,0.46102961351965555,0.3938860174627791,0.39455639545632626,0.4174204060355336
0.4101340038116439,0.43859237566710096,0.3838836973869613,0.40726731742355526,0.37179997882330496,0.352000981767393,0.38365712270048036,0.3537839347350696,0.38185470949057054,0.3917999506629904,0.37011374171550554,0.36563492077028464,0.36683168855547166,0.34592922934843745,0.3505923236211702,0.35264201374708687,0.34627245274534174,0.36360241198383736,0.40226378021205667,0.3807175794242625,0.4340044485652413,0.4207490009611179,0.43722912070382414,0.42488087472145536,0.4149389414932232,0.40616840397242054,0.4506923564765605,0.43112693557979503,0.46972888956427306,0.3941370261671797,0.3701806491368925,0.4129612938172236
0.4240551502605292,0.4410148886424107,0.3862185354919915,0.37781921226636145,0.3592859538097052,0.3283052127439385,0.3670908360514576,0.34896898082968497,0.38890693052855285,0.3674609865881191,0.36599553514300237,0.3589019118858859,0.35330029800157864,0.3490178485285851,0.34926274729417645,0.35508896515054733,0.3364221941479087,0.33417558710387735,0.3570035947114956,0.33832417622424016,0.3695584937929339,0.39136160149761273,0.39189683792301083,0.3983619080170629,0.4058683689278108,0.36354252829919703,0.42430212240265774,0.42023899400311693,0.4671840651542965,0.38623281887101907,0.35265081275139293,0.40857423543613264
0.4175111279591602,0.46510578508313477,0.38652034625430404,0.3782070502469073,0.39249963253935755,0.3218814588492888,0.38742495155130374,0.3750468994905857,0.39681443332431315,0.36713737087144077,0.382715518206998,0.39071019770415377,0.3598475226854893,0.400021250046241,0.23627494264527618,0.4117135727412124,0.3720393712927347,0.3650829938728392,0.3551667849754061,0.36793809776386255,0.37437590824523787,0.3702731696608634,0.3919605943882239,0.40748595427686685,0.3975033680542494,0.38219884328971543,0.4441240426977349,0.44320812543987426,0.4653850243258828,0.42413177734264396,0.38926157613104734,0.4037353525364197
0.39060275206783573,0.4610143624104559,0.3790453530006286,0.4107805556357121,0.3978468693220567,0.32705059783276735,0.3962788707626475,0.3419535496790613,0.39285361267009733,0.3664533075969336,0.3715774091512886,0.37404759040672114,0.3691621439568726,0.3706861285722031,0.21819832339370515,0.3760006938279357,0.34487610254102463,0.35798794683342916,0.34888765004041944,0.36945131355822974,0.380209250252081,0.3723714079529213,0.3914850315584415,0.420212700166101,0.4021050314175774,0.4156977112554746,0.46941431275141693,0.45053181077488336,0.474063744435752,0.4386760670375741,0.4150034609292736,0.415386460038937
0.37714847855625777,0.43453315130442854,0.37520549143417564,0.39370968979915705,0.3723308325651148,0.3335488805605111,0.37992658870230556,0.3634025824980897,0.374283829905283,0.365686998446162,0.3642189075923293,0.3550035084326487,0.37234643225675446,0.3405139567959612,0.2257241338476123,0.3665757979346293,0.3481884141860817,0.3620888501697454,0.37808869420610375,0.3902917071158503,0.41368068887951165,0.40661274780655504,0.42475691709014607,0.4346316092971321,0.43589823058012817,0.40417661312325104,0.4725957555315728,0.44907679390422284,0.47210281452065206,0.4404318938655611,0.38913884409908184,0.42541858673180444
0.4138841965474627,0.4494214441526497,0.4263138064235147,0.40304235018145446,0.3584824817570551,0.36640463948117935,0.3843197549953475,0.37244517738563654,0.35517107370625045,0.36640032704423686,0.3859738001320713,0.3576731019480796,0.3400712628822965,0.33650359136853125,0.2826105984497979,0.35532134465532716,0.35682893762570517,0.35149336732096154,0.3629644906082473,0.3623175874481686,0.3845767556826563,0.36901411719175486,0.41662039886668545,0.3994877565288761,0.43383133531158163,0.37359691692691543,0.44974038813746386,0.4418209583208961,0.46364102264241097,0.43975472846652086,0.3599611816008834,0.35565281380820857
0.46259521617264077,0.474863522707884,0.4285298338198131,0.4489817608970909,0.3800289183623501,0.36754943064386775,0.3785305499477697,0.3455279347082857,0.3715779351595611,0.36124405756623507,0.3919925638001294,0.37826887493874173,0.3473923436918601,0.3557899592603411,0.3282603662738244,0.3557721164619027,0.3534585841600405,0.3496622621734821,0.3592626339240285,0.35111573830530995,0.37740990070090075,0.35288415205589796,0.4036948983984681,0.4149091232477769,0.43241147771679306,0.362541895880678,0.4537037003109109,0.44794927482760316,0.4649847851097076,0.44186437025721564,0.37317918135216055,0.3116624473142004
0.45449042080154545,0.4890306219926927,0.45030020749555427,0.4631669373211543,0.356461797060135,0.38020587369506476,0.40000935883932803,0.3691767968330573,0.38384247526143206,0.3600421539892638,0.3807739677384913,0.3959516730779967,0.380703375084477,0.39576677331444454,0.39550967843996626,0.3761976740678044,0.3719781240583367,0.3854956433872213,0.4099991551576045,0.3979992979979078,0.43167073551668705,0.3967455947622511,0.4107083747388112,0.4599913495868457,0.41875609106154776,0.36185923764268,0.46052782230659794,0.4236910086803002,0.4500579212332902,0.42313099447455993,0.3868618810712212,0.3186629847191591
0.4217335402657207,0.48454833643525846,0.47445197462963207,0.43941748756329146,0.32191928935517117,0.39297247140222535,0.4009846201343407,0.4290414318140337,0.39829731564895965,0.37692861637430564,0.4154930798690813,0.4156316349751956,0.4091758648724625,0.4303530170249753,0.42920936862724124,0.4116497413322854,0.3976802368449182,0.4278051885490998,0.4328731538651112,0.4266259827933478,0.4308295670559597,0.42583219936313244,0.40847264688084434,0.4559561427525296,0.4085792484892766,0.3666069506458412,0.4430727772048854,0.39725871564455467,0.471790011808277,0.419712687613035,0.3812756034180169,0.36966067616690756
0.4401550389349779,0.5095675774946394,0.4716566394580844,0.41068662427920566,0.37283009602922573,0.38772611020137104,0.4155194156267341,0.42064117377719645,0.4228164611489736,0.3875931447928772,0.4428221136957159,0.4266103983226923,0.41871164131093924,0.42561693999996747,0.4330329423709058,0.41430312625261,0.39116324272657593,0.4161743169137972,0.4123927375775161,0.4145621490555076,0.41282542361784064,0.4085016492998283,0.40906878436518307,0.4471055503117056,0.43945109047541653,0.3964773516569538,0.4856741119369945,0.4309298895797017,0.5042043909161334,0.46547484229587777,0.39494326090415355,0.40746313568286674
0.48084225284511517,0.5398516340547627,0.49177057955000597,0.41005170236292204,0.39009569047811327,0.3702080074681614,0.472376977196336,0.3911039317068689,0.43709826160600435,0.41074396252468465,0.4577492858527511,0.4100946073973017,0.40531749976535325,0.40886132564420014,0.41268651035367904,0.38981788324833816,0.3920000634896859,0.39776520777984853,0.39763709972776196,0.4131515567090973,0.41452981146227275,0.4228523534226341,0.4140160130384107,0.46756158471323156,0.45262212935505824,0.3856292524093228,0.5092457329165322,0.4548026287464045,0.5202475913901338,0.5115352386685721,0.3925524718415875,0.41872343708193627
0.4615316924126314,0.551535809688687,0.48205963208581015,0.49464198099945084,0.39021663137466756,0.48446505677406276,0.43690323411727294,0.41512349585488667,0.4405847764434211,0.4046083494633062,0.44453865417616195,0.40108834533020216,0.391387506166117,0.41520948642257155,0.408759485866921,0.39678569174234823,0.40613498503442996,0.3948517181396848,0.42662298318163877,0.4320129886408099,0.4402775431227394,0.4405480036237896,0.46306475637770383,0.4587876754206172,0.19637065280875388,0.40165254436428083,0.47930837945410165,0.4359765919124148,0.48723343063054786,0.4608941765141309,0.39260133753068793,0.4470001656866364
0.45939686208555075,0.527059262012454,0.44530896475267623,0.5295041057716088,0.40440370990892544,0.5322034517022642,0.4287036390099467,0.42832782439800554,0.44522005159339706,0.39234909615385766,0.4382988113766414,0.42000095297166334,0.4068422171684677,0.43630739682802977,0.4304744310607216,0.4089572165919028,0.4019571028468226,0.3987306527891501,0.40439672199659565,0.407595588213718,0.42877587953222346,0.44003328606593994,0.4813523455945113,0.4404326205216074,0.22687063336593352,0.44933354067673037,0.49517495990049165,0.49324976790820424,0.4925412356432878,0.44949081450146944,0.398237671366497,0.48056242205617217
0.48437826306181736,0.5059714705298666,0.4539267944000484,0.5337999799100138,0.42204680562414437,0.5333582763524145,0.4728621948662486,0.4160799574441579,0.4473353486912362,0.4275664509715186,0.45280696228383166,0.4361960484898036,0.4432044643252573,0.4367660115280794,0.4372637091007909,0.43263446215210705,0.4347961356907316,0.43261820710776344,0.41856400028692453,0.42206549519801484,0.4581496068753247,0.4607197239064926,0.4965848446921154,0.4739847667081519,0.34581006540398507,0.4666504399705606,0.5234096608425108,0.514307597906097,0.5197648090029809,0.456335123799308,0.4228395016857966,0.4747538092438695
0.46223472853051445,0.49646988618339943,0.4675167545320359,0.5274612040492489,0.43630108581206545,0.5144306300561766,0.4554496159741371,0.4056393487159508,0.452527989562343,0.4243218206910987,0.45614842709794856,0.4555706781904102,0.455632277565177,0.44657878878069057,0.4409815280967368,0.4335441478026478,0.4227479721946559,0.4390404446975961,0.44665610840318215,0.4149012706027506,0.4672406971436966,0.4695846321138279,0.5249472175407279,0.48366561746147896,0.4131451442622216,0.4920502770742236,0.5050064971442876,0.521884187148826,0.5001128715879972,0.4746662165998972,0.4432775769444264,0.4779088687655115
0.38893877776057256,0.40144173477040396,0.34042813985375253,0.3982991541112091,0.3273885730636267,0.3546297020550788,0.3407492497981136,0.31876051396946187,0.35854724440150537,0.33929854091068573,0.3679501126228325,0.3576301122686283,0.38345785623366885,0.35767355156484854,0.36452891044354024,0.3570311712983602,0.34907725898066816,0.3684447106323233,0.3991644440705907,0.3817299202631002,0.45450990728134233,0.43799976972487453,0.5296647361823471,0.4678561311521771,0.4967937630619218,0.46899322265541926,0.4520429150284846,0.5233774625527797,0.4654055719857593,0.4533026236044672,0.37813611553233456,0.4478160342344893
0.32101356386284535,0.347498650122232,0.28035005807002755,0.33680877839867357,0.28610527826698123,0.3052809632249462,0.27940579695423273,0.2656253382757027,0.30382452393731063,0.2897369438612525,0.312667753157684,0.32293664370658215,0.33715544287678956,0.3232495063650558,0.32053388449014325,0.3221841155792589,0.31748454725436603,0.33298088422863337,0.3414799413566111,0.35037670478224914,0.4053106572836634,0.36963076228271274,0.47027646348257157,0.42401654808673384,0.44630595529685607,0.37615732918409667,0.3903748172742311,0.471307746789138,0.425014445138478,0.3811796617406236,0.3178828237377039,0.3685330835889342
0.3168932738358009,0.3621265591474431,0.3279942464774218,0.3629827450475471,0.28992040681714637,0.3590815000865542,0.29942283429094124,0.27997202117497966,0.30189781303249397,0.2817013528133425,0.31771686261495286,0.3182216968739191,0.3515159064458125,0.3264259066744684,0.31950915127090235,0.3262303399414369,0.31874933646977427,0.33353120520769813,0.3318116946096728,0.3453546895639219,0.3690344470629738,0.3509594832924121,0.4348332959347782,0.39658226296930327,0.4227418399808722,0.3613704678558234,0.39297350584070945,0.41964050222035776,0.41665173558123897,0.3751968987678982,0.306270769969384,0.3631018035439252
0.44010400142022804,0.49189459186301676,0.46258924191207756,0.4686293620980181,0.38641893187044085,0.48780673290897086,0.4107835604106094,0.37398027755827223,0.36845547855043637,0.3170851670725872,0.360888116566472,0.3411037411514575,0.4004450577797195,0.34181490934180314,0.33572963529689975,0.32940350291400533,0.31827397645709077,0.33684706911457923,0.37942145487503537,0.3637739807886432,0.4062109139781031,0.43087212558170346,0.502928831807601,0.4300863970020872,0.4997439822633059,0.45966829618166255,0.4797946258529636,0.4426522554005344,0.48411458034018284,0.46290964779834254,0.4135650407271508,0.4388551142895571
0.42800395407215247,0.48405514240204284,0.4487596554815693,0.46955845059942164,0.41222257743129964,0.4775130915135435,0.3689930961991672,0.4077071206619796,0.40999020972112316,0.36530901921243114,0.36557468235317764,0.3786313135088169,0.364275202045608,0.3483885362075106,0.3397225864193481,0.32700629631577344,0.3204877785115832,0.330462518935572,0.35985197897006754,0.36251874841152143,0.40121106615400737,0.38651393018340957,0.46850978709590635,0.44660586419779696,0.506180146859948,0.4559307091932666,0.4984312079712449,0.4480296699699924,0.49500014362431644,0.4628805088037358,0.43772451761979114,0.417220345739964
0.42933917877601213,0.4766883512356681,0.4443934831818233,0.4833010013199507,0.41788963405423685,0.4849873814516738,0.36636141565581715,0.4113617009906355,0.406860423513259,0.35781683794798197,0.34905424919736144,0.37049690186995243,0.36815522262497763,0.34870368918113,0.3501242384550019,0.3417144603049228,0.3297043131708601,0.3297693254778474,0.35628478059079377,0.36486526424506577,0.3984645416744209,0.38621339356480044,0.45737593131458515,0.4339942430659033,0.5078305542926334,0.437459873404345,0.4939090260187127,0.45423535849917596,0.5090293949140641,0.4674334407089677,0.43299012169598433,0.392652181103313
0.45015342599417596,0.4831444526757823,0.4690872066866389,0.4957686114247877,0.4243024834164992,0.4910016292559083,0.4235905537969641,0.4301033884828549,0.42965234590843326,0.3551414253522229,0.362866780722414,0.37799564504071076,0.4274077284997689,0.35968358580562876,0.36072013740402564,0.3670601709372686,0.3494999691640161,0.36143363103835996,0.3979409416775093,0.37964102478602313,0.4303839163047334,0.43425729203576763,0.4817439356974066,0.43127374897847226,0.5156857633133655,0.43209705645575786,0.4984103724884589,0.47656535031200886,0.5368306698941374,0.47656108470792186,0.43212938011950286,0.4130440004324508
0.4545137929531942,0.48706005650694467,0.4880372489443865,0.4838011925701563,0.3689433973523596,0.49554625613537556,0.4590661910744559,0.4200555766298074,0.4428561361071857,0.39594036082913653,0.40661390337831216,0.43176933910945636,0.44781744053412464,0.3954796496822194,0.3926840822976466,0.4074057504167154,0.37045967323854645,0.3829939196538516,0.42857934684719756,0.3973606257612208,0.45426703841210064,0.45531002929276615,0.5052556244155528,0.4761279340382672,0.5321588321713738,0.4237340897853996,0.48204533997870275,0.46413511809795066,0.5250464366741655,0.4558492835949998,0.38081804980772777,0.42137643778446365
0.46080690824309595,0.48790653354014335,0.5124540422449502,0.4835501286012702,0.3620920688483434,0.5001034583474232,0.4346774317830477,0.4189203317210098,0.412309769431896,0.4069672172476724,0.425109818612918,0.42280281152663624,0.41107390201433985,0.39402645940209025,0.3989124933874448,0.3946558588257323,0.340760254325512,0.35320347643442285,0.41443046087393187,0.3718783075864642,0.4296296560113583,0.4429323380590358,0.4925217865760995,0.46462016032923514,0.5166201480490759,0.4249810110717871,0.4613719786069883,0.4458586261826087,0.49713319222405433,0.44491001122842283,0.3720153443912607,0.41379726635948877
0.40995432098677975,0.48027066121622436,0.4699331500064983,0.4425530216826078,0.32523181807917273,0.45525869400920616,0.38625586755096863,0.38910031560267894,0.40591436030277095,0.3936444397194251,0.3938958281905176,0.40252057252878115,0.4008208080749103,0.3942625150613702,0.3983491390681498,0.39489487449219696,0.383953155044702,0.40592398414126,0.4238859386626479,0.40448777369795325,0.4272144474761436,0.4254006230838218,0.4738253788217517,0.4526434125383829,0.5155730811399919,0.45368015042183524,0.4779167213835622,0.46085655842676043,0.5134531183776699,0.47997173375574465,0.3861866381393885,0.41197182937396276
0.39822304710328554,0.4915972149218503,0.4261127808581548,0.4244162793358277,0.3031622784966508,0.4447523263197409,0.3662484975015919,0.38493388730418515,0.41767404546883724,0.36956252025688446,0.36587490832012143,0.3788931046101675,0.42061800623250756,0.3681046195365531,0.3640279342251567,0.37319847583897137,0.38208566539231653,0.40299931411257783,0.41979594192703557,0.41297896056995803,0.38131869701222665,0.4160996725524358,0.43449292303323095,0.4451331119842251,0.5078926092785019,0.4240699988898518,0.463640959885404,0.398475288030681,0.4864175024586066,0.467462124585659,0.3918432145454669,0.4083165989030518
0.43178014515231256,0.43786078033683906,0.31136241830066586,0.3666160136406423,0.3748404788143499,0.38085379023009674,0.3766153560665216,0.3852479022301177,0.38156236213820627,0.36527791429214473,0.3863476900070747,0.3575435263785433,0.3916210663513137,0.3457767894357651,0.3342635958392997,0.33593819078790094,0.33659039320372935,0.35232048056556736,0.36358628316435443,0.3192555080808044,0.30122021180740716,0.3442403377945593,0.3489457793708564,0.2888531381273633,0.33392840404954516,0.33112645245371913,0.3358665997091089,0.1962176430909139,0.29600154742097096,0.2937068192571407,0.3995953036880334,0.33893382046918513
0.3610589440543825,0.30985327770261806,0.22955210228141631,0.2917140881798215,0.42411205714637856,0.3039724004339601,0.330041686601571,0.344293301530534,0.36027130672027097,0.40178482707706265,0.44284194632682,0.37177490768213595,0.34297891536724057,0.3470213998020767,0.3388426498832065,0.32518356842434937,0.3192632845717063,0.32149802407283407,0.3079417973959187,0.27787973347872247,0.2627163195779345,0.2720855346630385,0.2946501952652348,0.2395644027406345,0.27499088053442583,0.29874050623210474,0.2615494463310571,0.14695477604015897,0.22931377159387975,0.2419940000421968,0.4119254132576172,0.2894197438619709
0.3506996979563082,0.3314429292759499,0.23662235107534296,0.31380923939539834,0.3993612695412799,0.31072759213524054,0.31502298080427166,0.3695320541587248,0.38918330886212854,0.41190545174362225,0.4082645744591506,0.3921110964853152,0.366325511722945,0.3651872936067484,0.3669678613942695,0.3453513669163456,0.3463507029020292,0.3450456702630102,0.33568665571352546,0.32178623931261724,0.3070441503750966,0.3281179787068648,0.3137427500504578,0.2960907006379235,0.30980223122867206,0.3365864473089571,0.2515165354310349,0.1716910278778947,0.2674468951952764,0.27393338412416035,0.41220177554674453,0.3592235450704584
0.41444250037996144,0.42763974427678275,0.324711276464718,0.3996009805741175,0.4203051336254688,0.37238062023025414,0.407215099141869,0.4243118967925204,0.4110179018080214,0.409132959127631,0.39224328526096663,0.3906432310584785,0.39866427687457096,0.37323539231736996,0.3715201146098181,0.355709263347449,0.34800308798389434,0.3552212976777783,0.35636561297086966,0.34177509863602784,0.3384079101699172,0.37872378128717804,0.3586346170342555,0.34913015577511647,0.37912976927617564,0.4009783579733197,0.3187565417691338,0.22452865929936142,0.3436160752478712,0.349241015876112,0.42703504432935463,0.4040442949818535
0.491556702248881,0.5300777972510698,0.4659332100085481,0.49916064718394715,0.4108727164222208,0.4968338666805508,0.47315699607250056,0.44059023054108454,0.42506336865502586,0.41641835494703916,0.4188052075019891,0.39980395606227387,0.4271641034009441,0.355350881382134,0.3830971346370546,0.37930615295607045,0.3588607424735732,0.3655669204868265,0.375611444750738,0.3730461607209858,0.3669848665195105,0.3997550118571901,0.4231778112959897,0.4220726336885312,0.5028959608855778,0.49707804812598555,0.49922885935708683,0.37713229995281644,0.5135984005643638,0.47469556706354127,0.46623421583874,0.4354214649185619
0.4419022323923053,0.5181163503524785,0.4721211185867759,0.48644398154189594,0.36384042101285397,0.4778534109566169,0.4531723849064454,0.3736361112372641,0.41708595935567666,0.40237245057178167,0.4159552759168285,0.3860617652577242,0.3975782081292927,0.3501492893228689,0.3608138987650243,0.34834690477442065,0.33568484478606275,0.35467531033858607,0.39045842196141956,0.3882323161066109,0.4065315294235787,0.4131887910891897,0.4311907658104467,0.46604129276064016,0.5208390731431731,0.47670511133320803,0.4938013949667945,0.4525293850513473,0.5379324048811819,0.4961114226703485,0.4226346481281563,0.45898975472392967
0.3641365281458617,0.47457385622623044,0.4261006892682959,0.47675486444291604,0.37128695808651696,0.43459416115214633,0.39143630647172084,0.34861119035152216,0.41872396927914446,0.404540766056673,0.4202747452359411,0.3945264247113116,0.38155863219674496,0.3700182429509998,0.3617022921623546,0.342154584216987,0.33299739428079916,0.3529267060984888,0.39351151909564336,0.3778211731321098,0.4038516205128739,0.4254762398059442,0.433954552818757,0.40626626919892256,0.5035717155911834,0.44123695786802897,0.4614215850160483,0.4302393467954185,0.47540792723128894,0.4290403955652072,0.3860709965946286,0.45699560731759137
0.37195167832128995,0.4696639721613984,0.394726752053879,0.46171176596304003,0.393243135952698,0.4390576544662938,0.3611009535135583,0.417134366200222,0.4198051540672872,0.4073830923350732,0.4132601191599591,0.41392866966837655,0.4170266413469623,0.38536433390751323,0.37598921670673896,0.37024075718565036,0.3708417264238646,0.3892776683666115,0.42779444786228016,0.39472186342922116,0.4226918221597133,0.4317922344030143,0.4908156462082999,0.4392847066273119,0.5093296753944107,0.438092705929472,0.49060382407022113,0.4713807335439124,0.46227313832241546,0.41534961512460206,0.4083867751796351,0.3998030079461843
0.4038333245973135,0.4869668508645967,0.44715902590802736,0.46401458887652025,0.39099157434283754,0.4741004819343649,0.4222968959020051,0.4032387946817989,0.39212542839859027,0.3860978676747323,0.4124656726961748,0.40799479395487626,0.4109888523340391,0.3778173291191287,0.38383937257880707,0.40294014470701656,0.3892566542009343,0.40585082108660325,0.41930654136152556,0.39507573580744537,0.43083151635116734,0.40726798594325125,0.4989472827286318,0.4626301163986014,0.49567848317875524,0.4415246215983084,0.482373865758249,0.45337891520835766,0.4784747394107222,0.446614462082372,0.4098632193008363,0.393491196561245
0.44455942297583073,0.49397565917710395,0.456883406426114,0.47403454834767983,0.4165133063393224,0.5011010528031755,0.46686730469097426,0.4210157413773494,0.4123578229753309,0.41296405865112684,0.43809309440872024,0.4215747064177454,0.40435305273242345,0.3980775475323118,0.4017012268835071,0.4069654028917571,0.3963177731032708,0.3924731534675233,0.41084812576762786,0.3947623999642605,0.4237590990289168,0.39197217967282544,0.45330565354788543,0.4447788843976931,0.48898683097356493,0.44426667406301823,0.45371937227673614,0.41964808138453047,0.480062238071667,0.44745078228986046,0.42236697763069087,0.4180781708589618
0.41743799837448586,0.48218144166835375,0.4307066051451942,0.445692722943867,0.41217777672131906,0.48209029529325276,0.41920123559143163,0.37422234665671933,0.384091020853207,0.3871868663743337,0.42336114833294464,0.3999405497992996,0.38961764222778494,0.38924362314654104,0.39305417876509396,0.3868164491547183,0.3726673893515443,0.36690510777798807,0.38515284637128583,0.3940237996102741,0.41666342359593683,0.37678766494286703,0.41374255143047983,0.4194960558247402,0.4686915434146727,0.416891510718621,0.4450147566130908,0.43220179917270724,0.4920129779140021,0.4355325015406255,0.4213564814484352,0.4062773822288842
0.3921969178009742,0.4751863545033484,0.4467558817354369,0.44262901115382336,0.4044049784063187,0.4677573792111118,0.4056087117196569,0.3443670481123933,0.34417194271340024,0.3448597114551042,0.3874414927338994,0.3579161545825615,0.35618747832350744,0.3493123030828655,0.35117218336576533,0.34362572220744786,0.33281806346936593,0.33240489778859955,0.34247878369797036,0.3659712153704805,0.39773658965720754,0.36857895227664084,0.4321478766671857,0.4039195463094562,0.4697222094299251,0.383308539493477,0.45392553003447283,0.4228529927530245,0.47699037983485026,0.4298262220988345,0.39000389333489655,0.39463416987616046
0.4414962352225821,0.4889522084754119,0.47296069981757505,0.47874122368960714,0.4119207981714557,0.48337924164223445,0.40873804587340623,0.4012346534772128,0.3886567033627044,0.3738932901299124,0.39936024729096986,0.377369875265501,0.38787375154509696,0.3676832286358809,0.36666845793740405,0.3612391154022513,0.3578560051483934,0.368507491298435,0.38511266919427617,0.3915696397483922,0.42953656434787246,0.40741616933138053,0.47030067397796527,0.43264493049502445,0.5133901149972613,0.4034729210496988,0.48401969565033837,0.4317120573826413,0.4960931962963682,0.43705516574118963,0.403149332790742,0.4211661128890148
0.4642380660163885,0.5089656960817809,0.46295643844808226,0.48039133367162573,0.40506620849611563,0.48870325332616865,0.42945875408646,0.39445434788821715,0.42175967354764754,0.39438298810540284,0.42032390708641937,0.40305218591194353,0.4275077851414831,0.3856681732343764,0.3824517763630549,0.38125114301107704,0.3796848383038708,0.4020290433535651,0.433355261575411,0.42181547393180774,0.46362960190201097,0.4464338687766941,0.47638195220674545,0.47133071412042693,0.5150170976545464,0.43806999555397197,0.4705267504739112,0.4542555219960178,0.5223970332470701,0.4620217799749897,0.43122076869081954,0.4293709267560601
0.4718320681622212,0.5101637176099487,0.4647374414325051,0.4741555928558896,0.4074145072479201,0.503777246928672,0.45483604399561306,0.39530347414664113,0.41068599787942145,0.41103336920020994,0.430599890574023,0.40676644098831405,0.41720361972223613,0.3758286664015146,0.37218640229092825,0.36908368359227334,0.369843861240217,0.379157828391455,0.4125457177102033,0.40907822906078894,0.45774066711229533,0.451390236742348,0.45498738828326846,0.47315234389043553,0.4962259747170339,0.4472649170961436,0.4799690922871946,0.47685880000014413,0.502389441397754,0.48441333499600636,0.43575265145638686,0.3986070296470649
0.4699085058400284,0.5150829699547116,0.4659475402336893,0.46150099639663483,0.42981681685897966,0.4913301392632913,0.4492062711817683,0.3969005808031597,0.39138251952152375,0.4159225671783437,0.4442287454638086,0.40589221838965195,0.3912820220985123,0.38219858000722917,0.3787639953801093,0.36994192026747014,0.3675264206956386,0.36733576897736425,0.3933868564883033,0.4024477367862704,0.41498269324876663,0.40593602909584725,0.4314820316721437,0.4379548080475915,0.47809281398294845,0.4401015560020638,0.48329007570756755,0.4682784265582524,0.4798276475278921,0.4707011456228865,0.43931844784828156,0.33859827789196895
0.47684452124455046,0.5303236482282958,0.45213155732190946,0.4380932342879757,0.4344388686634777,0.4574290151887654,0.4209995340519865,0.3490638549511936,0.3855242919069266,0.3683096938619552,0.39453592992694836,0.38274704550557925,0.38883257615206557,0.3583007788339791,0.3550764619497658,0.3514513979193634,0.3409932270636892,0.35517144386388616,0.39163493913044983,0.38658805328479756,0.4135057023468688,0.40435792285159633,0.44705404432353757,0.4382961953863937,0.5122658895161721,0.447933525317871,0.5030340839592582,0.4662101610695915,0.49509795382722,0.4606584237000235,0.45192203329140423,0.3859166175438909
0.43682728399766185,0.4973067483417085,0.44802820052313586,0.45583883432309097,0.40924861246799754,0.481391016757731,0.4151892965707018,0.35438627898687186,0.3968072548932427,0.3535373014526868,0.36683087700585537,0.3656562840510079,0.3947161398618182,0.35006851607967043,0.34842759585217814,0.3492378028964616,0.33367176717110025,0.3517392724871022,0.39523835871783985,0.38611468638345203,0.4260266111220264,0.42358955717513475,0.4409671108643927,0.46026897135221395,0.5221521830192286,0.42843422820898136,0.49040554111685514,0.47199931551146523,0.5184191292082228,0.47522789693434836,0.4238660402407584,0.4151212667401496
0.40645254879329373,0.4790105316771736,0.46975527972619807,0.45766664401230306,0.3741558957127099,0.5045217239429348,0.4245851533840723,0.37750605612730853,0.4023288264264952,0.3663675525202744,0.3795165900493108,0.36427693651081056,0.38830716521014746,0.354775562106461,0.359902903451727,0.36995954540267373,0.3641185038069394,0.3675237504394721,0.40217045419633674,0.40284995863426765,0.41897264427747516,0.42119972757420887,0.4355831510980929,0.45410192097345053,0.48578999849193066,0.4082455157454316,0.4548804299459288,0.4451035916864634,0.5373069948622151,0.4761121887450703,0.3892188071099545,0.4118080829683713
0.44957325976349916,0.49396254777589743,0.49558512208849903,0.4556317208846075,0.407549764122956,0.4905916257846551,0.40959481345579896,0.3866455134368358,0.425359150706386,0.38420486958444316,0.40304206073438,0.39806255072300184,0.40556246672340773,0.3655933640857078,0.37537622287844585,0.3772804023182815,0.3896595677070711,0.39646113898772073,0.4085034058392828,0.4203471367243378,0.4178427595981261,0.399554701173814,0.42987360971816757,0.4429324501642023,0.49957861248472657,0.4368451865953521,0.4599849593615507,0.4446656828107915,0.5370586969105111,0.484721151578868,0.42548403993161665,0.4066329529543639
0.4481864330701602,0.4827467082158378,0.4655210149049585,0.4369040526974837,0.4150982464852326,0.4699907102259951,0.42600053228480883,0.35959758119688384,0.3902068162399786,0.3630614835655413,0.40947480296469424,0.3889158628874494,0.39212438533902005,0.37159382698431687,0.37448443547018034,0.35791410594127104,0.3624477561193595,0.39192059977698396,0.3864104369097085,0.4099824682032121,0.41167746076731226,0.38454943242313944,0.4169189761190516,0.4058550689363113,0.5023541021112401,0.4065264008541203,0.4400396911942286,0.4054174316295143,0.480473510657657,0.44821256359276573,0.41497249559419347,0.38189729578206094
0.37963632108499473,0.4367505932596268,0.3445165488468597,0.3718184563235438,0.37875289466520357,0.394975336882746,0.34468483205305267,0.3257953579409721,0.3718954846913443,0.33768315893412554,0.4267787288443107,0.39515856646322656,0.3872892055874402,0.3872695073869278,0.3870793787219061,0.38116594103444157,0.37288572866770925,0.39143893084374515,0.37827310249960033,0.3983378847705596,0.408422926001717,0.3827889672339048,0.38959062154665314,0.373357006005793,0.4868703151152098,0.3928899669751702,0.43868320968114605,0.38419646185892087,0.46658556242501226,0.38796697594174545,0.3868679237514544,0.3946411935177674
0.3943140063068118,0.43716372797103786,0.3637226228420933,0.3960284098850756,0.37756511924884567,0.39760036565638873,0.3561970788808182,0.35409015269350136,0.4017771398415263,0.3496039730451609,0.3850931179061386,0.4072431642572246,0.4005020062593617,0.4002271016834859,0.40461624901063703,0.3999357232693762,0.4046841414532024,0.41053189927922923,0.3756146861968098,0.4003855027288507,0.40692705996371886,0.38679378659264213,0.39506886210717307,0.4116880625963118,0.4831118046811816,0.41296576685416553,0.4750942071781935,0.4050698528048824,0.4716376426574704,0.41664150854915283,0.40388120901001834,0.40940136674462035
0.415343371111439,0.4708040822654263,0.4261605308043188,0.4608573634072376,0.3663688974243966,0.45681590227361574,0.4057933926457721,0.3756083788465938,0.40588606044606096,0.359579217395463,0.3661615590820861,0.38262840681622723,0.39581268417774657,0.38294206218140725,0.38136924948704015,0.3652187747131323,0.3438518348294937,0.34742488445389164,0.33519107118352903,0.3465272402038202,0.3559321070145833,0.3511385812221978,0.3679776843264086,0.40956264187534075,0.4466795442078261,0.35449062422489513,0.4293713050966425,0.40822016223839247,0.4416142415169129,0.4184875448266033,0.3769901096596457,0.369436012242399
0.4042158921168666,0.47753391974441395,0.42325933243209873,0.47179084996593845,0.37057980176367855,0.4474086544625574,0.3831346185426679,0.36002750863791555,0.39607912937039913,0.34493410467841806,0.3448443461440231,0.367353483013514,0.38667798128115083,0.34391034230351875,0.33021886488685315,0.3316325092437081,0.32283636338610283,0.3314284420373409,0.3397841279076418,0.3375350992927548,0.3513829466786984,0.3578166141769252,0.3705758940713688,0.39310810982131533,0.44368019644326007,0.35193079069287253,0.4086219298162129,0.3906171953738589,0.4377011489268997,0.3930186747672488,0.36396324981239253,0.3672651006645021
0.41725129673166955,0.471309335494352,0.44657584064831674,0.45872325656911084,0.41881865968046333,0.45406894536708836,0.38496665087189197,0.3518450981517799,0.3963450410826258,0.3423805904990288,0.3333438462635339,0.37452293723107094,0.37886783895985904,0.341306827620187,0.3272834485936945,0.33089948496709054,0.33488353040411156,0.3513434408169468,0.377617342520183,0.38415106589973513,0.39524381970140754,0.386055909286321,0.42170404901038455,0.40835355202222856,0.4667616141743475,0.38625359034357903,0.4326050892136574,0.41795444920250363,0.47773629958485797,0.40194061589546237,0.3761826334045336,0.3955686420905272
0.3894736244378493,0.47605515814186167,0.4759801132770177,0.4410776129535062,0.3575307705996932,0.4449447673925304,0.3809172989427122,0.3407680406709402,0.3726023911885416,0.3426116538000934,0.3347302433051762,0.35409715926735597,0.36123912854888285,0.3282492559968665,0.33304509195053,0.3287616571337442,0.3191350100519638,0.3269795268129671,0.3416897400169106,0.3575535361690315,0.36522414216451415,0.35300497443409246,0.3992076098857663,0.40255121747579115,0.4657324312596341,0.3599842089535422,0.42011356079256634,0.44972731364722807,0.4733948835743154,0.4140866242054318,0.37114747505313894,0.37339459901377126
0.3733071944076158,0.4758213136930486,0.4680971436671153,0.43875466741836633,0.33214918348583633,0.4144514188172426,0.3871126570070035,0.36609878833018017,0.3548856789835759,0.376523384011247,0.36375531201743994,0.3661559903604093,0.3399648107661468,0.3423083190177985,0.3425294151013898,0.3369388705980099,0.3192719504046115,0.32228357373136873,0.3292268575157481,0.34268586035159,0.3535018795039861,0.34016379037953065,0.4016059805846544,0.41851021064320193,0.4572700957869701,0.4044036864462193,0.44615053845225866,0.4599518790696371,0.46608276950691724,0.4400079029590009,0.388449300662862,0.3903612240455522
0.3985256381457418,0.480721878827278,0.44363724856202097,0.46499068174940683,0.3774504428221449,0.44296075048410294,0.40534474547203797,0.3749691430200656,0.3925057780455767,0.39722745560097983,0.42542463234549577,0.4127525592837047,0.3492127824213261,0.3893415679698732,0.3868766429587043,0.37718663203172137,0.36409576578997377,0.3471096219379357,0.3409883321833105,0.36816267711187123,0.36855516010009576,0.3435234476043838,0.4014669524552515,0.4405171686754239,0.4708925861239889,0.4262014876487294,0.4492252556137764,0.44439336426674614,0.483588878273414,0.4487776079682873,0.4088202777786371,0.3853454776663143
0.4280146063827343,0.5059164511220549,0.4369138005233063,0.4844095107550917,0.4137575251686137,0.4671932347332143,0.42168661506989824,0.3952662072015089,0.4093596449228732,0.38640256573478915,0.42043854805581465,0.40348314485579173,0.37917977030640604,0.3897138290496845,0.3821681611410321,0.3759217247023574,0.37371395652460526,0.36652825133703404,0.3577868901998867,0.36425851989900787,0.3642866273487969,0.3784191376431372,0.3976181912448238,0.4073413068846134,0.48604017978339076,0.3949648165578247,0.44367541728115334,0.4136251780822526,0.4772709863467595,0.45115064371398533,0.4149221784717383,0.39421029423566706
0.43982791497358265,0.5004628850780484,0.46425983076276867,0.4978410406100792,0.3475479993595335,0.49064131032338637,0.4332268940551763,0.39327474742349255,0.3749861898830726,0.3751242994219474,0.42101784065560593,0.389954833395591,0.3698890926680378,0.39014383770399,0.37861327081860413,0.3762381594902623,0.36433434735390496,0.36546059005357623,0.3738045608953106,0.3615747232325814,0.38264002877670383,0.39278392982306765,0.4278372752298663,0.4106993694522431,0.48994968502861347,0.41859501581102243,0.45167589043932294,0.41582497893793263,0.47547907507916376,0.46870157377446897,0.3990037164920262,0.4067112991324733
0.4289625123054641,0.4954589346987426,0.47241549541632744,0.4896971374759624,0.3379106884774032,0.5127588432303501,0.4382967795145824,0.4219744323411452,0.3979051938448227,0.39590562071066476,0.43850660996715346,0.4201391427537785,0.3853106560250701,0.406016005246742,0.39039409282008164,0.3936158420116478,0.3793671731494561,0.39875827407213266,0.4221824626939202,0.3954667354405915,0.4152679858480327,0.4281245362055295,0.4288246638143894,0.4266819182324104,0.4696995304743501,0.4455991395296162,0.4479461762921438,0.41032325336908115,0.4648278381090468,0.42739183533396835,0.40149478071357453,0.41098010888796577
0.4510970377886603,0.503937331382869,0.46052365442429316,0.48071909485472875,0.38238910368338724,0.5032178363755724,0.45354756959574605,0.37764442283358146,0.42683135014846013,0.4240339456035735,0.4482089015133415,0.4417860450874306,0.3862163052489461,0.3910813407335336,0.3841511271166425,0.37512505999813855,0.3955426626140175,0.4191896840314711,0.44386826124751194,0.4332781969290691,0.4454817812204331,0.4414036304880946,0.4516247318714518,0.42682130269072505,0.47431466186764565,0.4566244538179121,0.46947412231920665,0.4364701515363677,0.49301627506065837,0.4231764614136935,0.4281938239104117,0.4204229438857183
0.4728068210726654,0.5262841078526902,0.4799868034993779,0.5018047527775407,0.4373906908695377,0.4762080414607569,0.43594429165454407,0.3545075261384051,0.41575085488057745,0.40848164960995215,0.45295855618595704,0.4441329110803792,0.36506823620141854,0.40383628617143613,0.39986099416246,0.38289479392948816,0.39223422807436237,0.38847409058460425,0.4104450384712349,0.41507154941144847,0.43338542442354144,0.41751914461546114,0.47377624820451997,0.43412990652241695,0.5166784110250019,0.4556470069444329,0.494244283716618,0.4607088923681041,0.5316959857502824,0.4837245488798679,0.453589755579359,0.4048343126638141
0.44005025821470656,0.500269788643374,0.4575402474160654,0.49479612362328246,0.4449258115528209,0.4677897450251608,0.4117207544250582,0.3851124701293806,0.4008764113359552,0.36935309249995546,0.3965448084504015,0.386158355863556,0.35356325784484166,0.36743537439968343,0.3759113992695373,0.3792441350712108,0.37018832315150046,0.3741605119504306,0.3877975620298186,0.3952047566568775,0.41945607945450464,0.3959290437735867,0.467099917945292,0.44230402855287115,0.49943815898966665,0.43898681489089775,0.4715578125042129,0.4572730272913492,0.494474918160754,0.46440068386014693,0.4205935130140835,0.4168506106816478
0.39288639010790405,0.43964390012971194,0.42699897475212595,0.4341844164794297,0.375847318319232,0.46280464656746695,0.4067010410965324,0.37214824890986964,0.34862924137091084,0.36270247992697735,0.36385807702775136,0.329454567620652,0.35718836591126174,0.3367148200738943,0.3418260831322884,0.34383256112850663,0.3332401957157438,0.35056756303171654,0.3689120332660122,0.359382876715692,0.41395960029286283,0.3795490894806692,0.46022041438734324,0.40030823165849416,0.4525987407735566,0.39698866712591785,0.41365276624973285,0.4123929821548038,0.4492666705856766,0.39653795053725827,0.35940674198938405,0.39191043693342836
0.3644927545618473,0.4142005326615444,0.42369317288636327,0.3973055141403966,0.3469669732525371,0.45549151323628523,0.4180558786585876,0.375118631566863,0.3288727862090895,0.3760539791412278,0.3691262443504948,0.324612917686548,0.33620460321170714,0.3297887823493732,0.34120601143761514,0.3447780204953047,0.3411068929814046,0.3468211061502904,0.3548109663608737,0.34167688694999115,0.3906376425718515,0.37331772936107843,0.4385120067086338,0.3850850275912053,0.4549649065559617,0.37669858969083697,0.380312846588213,0.38172543624389604,0.4502193798409011,0.374792323046266,0.34096548312842145,0.39026687981173497
0.37041852183707724,0.4393788338284088,0.4398840618722862,0.41797752672395855,0.3496527852781351,0.4590286508803153,0.4374597107217794,0.37545916669316765,0.3251163859038967,0.3369163550580329,0.3745126353685871,0.33138692185445245,0.3276705937357281,0.32729537520113416,0.33773790832472,0.3578804599390845,0.3661290586730843,0.3662715745061926,0.3706271772475755,0.3651345503001656,0.3991595406854549,0.38259362794416046,0.4459858370379894,0.41729926138309686,0.47988835424994747,0.4006845380822814,0.4147377396054419,0.3979241460697858,0.46554518500900305,0.39609306823503004,0.3644551223993818,0.4118157670007292
0.4138261527597761,0.4847133621373685,0.46246741717670126,0.4695933582591068,0.3728940142741388,0.45470130761095157,0.44387949707521757,0.40631330689533807,0.33249418463409625,0.3019895700440921,0.35662452445177967,0.32387010673043054,0.34251232996429914,0.31449448361133203,0.3128452598971464,0.32478501881756794,0.32472218846515793,0.34144054005781715,0.3566405131455529,0.3524444001428706,0.38401032945331737,0.39265215594505626,0.425849157285944,0.4158013058441281,0.49235767253517554,0.41398794190472504,0.48666272876843936,0.41344849575445086,0.47043439816389476,0.46704110326353254,0.40878826298407894,0.39107130663937956
0.41955686815205717,0.5048251906013864,0.4983596726624966,0.44472792911126946,0.34530279198200037,0.4725149678175906,0.4130640122160349,0.3914368880974427,0.3461679144513836,0.3214554845336329,0.36519649417745864,0.3188025907535881,0.3349635490615855,0.30469298715351256,0.3061977645304839,0.30632695858824394,0.31149955583363254,0.319973242410481,0.3414776063659784,0.34379670561557624,0.3701805180835002,0.3889991767280446,0.424531056403011,0.4156387014316931,0.4892867427166024,0.40584073951933575,0.48156246099739347,0.4229366841409988,0.4780840490804783,0.4819855410289596,0.39445612169860295,0.39345205524190674
0.44943640667666596,0.511710620135211,0.4962731893483352,0.4283655793169705,0.36307192820001105,0.5108589889170948,0.40679970005200095,0.42633925964218217,0.39493492192093427,0.3869131058760868,0.4011250864555241,0.3689758984050749,0.363952059307501,0.3404674800195751,0.3387220762691896,0.3349075808931497,0.33460445028426666,0.33530939133114745,0.3560362271857523,0.3659995469159892,0.3845050876583554,0.36909087653970435,0.4512322033165292,0.4391373421014682,0.5020359281626903,0.4167157569747194,0.45806932424946034,0.4676997997926518,0.5194683367303247,0.4770359362667954,0.38409126480698297,0.4248404569511707
0.49195658134255077,0.48971519483180315,0.4869178699836107,0.44053260370421826,0.4150992135391263,0.5142595978239309,0.42771541646182276,0.4524513505343633,0.4243154054826681,0.4169775513122517,0.4184574159269947,0.4268721327554606,0.3998966401437949,0.38996296375270934,0.378452980025462,0.36025170684605157,0.356531882683336,0.3564412365936778,0.3695391398753744,0.3892476451707582,0.4136953032579569,0.36414688594185385,0.44343744063493734,0.44806189655272305,0.5036253151287242,0.4455949252252418,0.46582452243116607,0.47569882314209144,0.5233066549596174,0.4690784936441502,0.4240142383263761,0.4229418550124228
0.5008562286736473,0.4873752386900825,0.509797694784713,0.4709119128904843,0.444397573300095,0.5026776061533189,0.44054862829143354,0.3919768894901769,0.4037116776386255,0.3899095943676629,0.419007163385679,0.41053878553412937,0.38132918356827156,0.3619674486953358,0.3598642756742524,0.33534177449834884,0.33228502255762643,0.334519279437169,0.3471029633028532,0.3658613426585215,0.3720148981741575,0.3614872344964645,0.40154488876634253,0.4183474139234843,0.439891004482425,0.44259829211709545,0.48250246376898065,0.4144128318551489,0.5120140931177445,0.4724936677436906,0.4718537365914401,0.4185185362224672
0.4169647091904552,0.48001610546548446,0.46787320689041734,0.47435909724735414,0.4150081481348049,0.4546076873209129,0.4273431456026278,0.3652555450346898,0.3541377715923374,0.3493248235264729,0.39168730258490475,0.35574479508171303,0.33234902008580514,0.32450301256392877,0.3161941191982891,0.3023551925245997,0.2935703450530729,0.2973177140008639,0.3027831931855232,0.30955695888455864,0.31670379442945373,0.3184040228522697,0.33693794542648847,0.34317818960605795,0.3892723721373071,0.38421769559878216,0.45364835559628774,0.41915128934391566,0.4846962445725209,0.43244103453313393,0.41413407351252524,0.3616349795579406
0.3925545006339395,0.49485086172589376,0.4379939044614204,0.45984037354448354,0.3878727846564731,0.44300943307425106,0.4239180223435606,0.38089121820081223,0.35945705950813694,0.3673587601338758,0.40451159336678916,0.35854341743683343,0.3303818312748066,0.3400032420472042,0.3313132444958861,0.31740359703066867,0.3046060098205161,0.30455493863872796,0.30638063247834685,0.3216822757772846,0.3260854005278493,0.31656583975864944,0.3365575665635479,0.3480959627339631,0.4067891710089953,0.40430451518293775,0.4442267577088815,0.45305069576122325,0.4760394225770949,0.4307677754021686,0.40222885258064894,0.3450353768525163
0.41505921632891835,0.49041563701262625,0.42274213086537127,0.46417029213720506,0.3487625571169803,0.4659547548671668,0.4171173537841758,0.39385346632115165,0.385940264084345,0.38301368348743875,0.3961646633670057,0.37400476583453207,0.3803254382833774,0.3680717531131961,0.3740905825306519,0.37716059198203916,0.3758930802347524,0.39023983800828327,0.3827713840960322,0.39253314678856044,0.41713195518262114,0.40748568900586873,0.4103932611853483,0.42624439950997023,0.4545434326763415,0.40279585590410055,0.45236776739820256,0.4490988212740545,0.4902369610302928,0.4215632181408375,0.39747260059892453,0.3427671581465791
0.42898609324591414,0.4753775984443834,0.4321772234122632,0.45757382827530724,0.33187377623585285,0.47617876098249623,0.4275262038597764,0.40814551206011257,0.3853145091616866,0.3980036948292411,0.3979244504250867,0.38124972628163545,0.39206065652108096,0.3862177447245868,0.39228350133065526,0.38525083078195704,0.383865524013251,0.3964189132684732,0.3684612834164551,0.38623358761572424,0.40330992387643866,0.39317366154039,0.4219547544115139,0.4230142480074173,0.442726779881994,0.38397316370825096,0.4449725449749524,0.43483861078471214,0.48507420258929185,0.42131169172778266,0.37126519440499883,0.377599663835246
0.4651439823376747,0.48221112416448286,0.4734935856940951,0.4705497516793954,0.378456235359966,0.493068470915984,0.43787051869139654,0.34817172698557847,0.35508751834397984,0.380486670649435,0.40660791254830053,0.378067949618532,0.3654409492285747,0.37729965780545144,0.38801653937314146,0.3746816454562459,0.3654849097641027,0.37632688128824127,0.35410844065652675,0.3626840789911416,0.3790911574939274,0.35420121297287327,0.39943019127619594,0.42001731467011016,0.4456243391097166,0.37671940455933867,0.44065977875410356,0.43794578898063596,0.48572800653572173,0.4528082698688783,0.3740122550440344,0.3805381177968796
0.45761155985446317,0.46685084846185815,0.4639788197107959,0.4778058757853154,0.376577719479163,0.4726185374611401,0.4123613056746664,0.3437395306539644,0.33145504960964256,0.35560450996225657,0.37715980557949097,0.37987094538610644,0.3629186942210985,0.3810890417476573,0.3832349381924999,0.37381825126545903,0.35722898347366916,0.3665826938917185,0.3770869361369435,0.36857927124478107,0.3868561486000048,0.36494089255770856,0.40044480136205207,0.4434343718347169,0.47266106449842366,0.38230421950346005,0.42382101120472704,0.4403900535758903,0.5046568100758606,0.4547172684944389,0.39013747999439824,0.3812756279490335
0.45307797183134163,0.4829145327803453,0.46571297700938824,0.4537428233613607,0.35775177932479024,0.4719274918820473,0.41188566206383914,0.38465092884639973,0.36467512619389975,0.37248968510409064,0.37198735798913546,0.382719679325701,0.36875936969758555,0.37713402511790567,0.3647663497355642,0.3563442070259484,0.3407826565430988,0.3455064960031635,0.36922918015315465,0.3651789611203136,0.3849369562775947,0.37069310382585174,0.4075907079099869,0.445404465189841,0.48628225395229024,0.42997949858947043,0.44189495734502116,0.45338917354353997,0.5114261537732814,0.46989155927929754,0.39828559445860195,0.4022102948880061
0.4434437971903578,0.4894738812327146,0.46420211646447096,0.4383961571076263,0.3629780322294373,0.4607469379255856,0.3870362991588277,0.372980269524161,0.37907222737755436,0.33833955732700555,0.34556712941641365,0.3640523388381846,0.36486694335404873,0.3411542109696185,0.3375928439944011,0.3353342391256728,0.3243279293791626,0.3359841804787789,0.3578855292953773,0.3547818779055273,0.3742658068018186,0.36571772419631304,0.4060745144956008,0.4344910261231672,0.4795366096072291,0.43365142315550415,0.4450572693300295,0.42608982901827985,0.5016067443665634,0.4441429068781125,0.39672613312562616,0.41254191174316435
0.4173507934668073,0.48916735714248505,0.4425853209214416,0.46308695759568963,0.38227631312466265,0.4506707027382865,0.3887680307702097,0.3875629092377145,0.3594293465655795,0.32260140701107687,0.34515578078924875,0.357959200381773,0.36077304791420733,0.3497564148967037,0.35206265542772563,0.3545433621555639,0.34252839858046646,0.34894146622456207,0.3658548800379789,0.3711240355002288,0.3331650549755051,0.3796129258392638,0.45149460840914296,0.4197407185378319,0.4667606528584578,0.4067189610796046,0.46461091982910474,0.4100395367891636,0.5037778564368309,0.44866470879164555,0.39666230868660374,0.41205996308425835
0.3953862495348012,0.45163360736022834,0.38385576516323594,0.4213087957004494,0.3264425537932855,0.3838497737581581,0.3716242837231148,0.3441134723175569,0.3043107427315397,0.36318917126308414,0.388358327208745,0.3766569667128178,0.3059018176755306,0.3552197086747912,0.3494500355540231,0.3428246129505745,0.3230802784324487,0.32161969679269375,0.32259213725016245,0.3270766918494922,0.3007989382247486,0.31742226632102466,0.38723978533644565,0.35932046434659326,0.42151533172153294,0.40071699233191244,0.47665597616195554,0.4156741378660432,0.5041323824608547,0.4528284952482384,0.3741474217826342,0.3540620763998232
0.3554741205515635,0.4127553245768731,0.31737921413823283,0.3632723861023374,0.31450523582510237,0.3389906708918083,0.31861673859406725,0.31367764942311127,0.2916075390914797,0.32681447369224226,0.36968954811429044,0.3513358845282006,0.30253774917220017,0.3410238178778745,0.33163549163089057,0.32784711235636255,0.3030912410579009,0.306618896344681,0.30630878208396534,0.29776825258070866,0.30950653046410626,0.30505786437119525,0.36284293493602654,0.3263824283117493,0.3590407878035155,0.3804608149770849,0.442450843925079,0.3615693809376004,0.47689759995639563,0.37959037335443246,0.35093209892711064,0.3329988669740941
0.35980619429659755,0.4403715014536908,0.32242106944212806,0.3735599157320864,0.3705122372089586,0.35577258739842116,0.32581734973798565,0.33919273347094775,0.2883871731359241,0.3027523961269438,0.34897661950385817,0.30225218547078453,0.30958230647211393,0.3090796755976436,0.30439086950679384,0.30935386523831954,0.30414851455581554,0.30450207377295757,0.31041939628389087,0.3394267633133546,0.3556646749545778,0.3044027159716582,0.40890807478117974,0.37039392131459503,0.4091403548240468,0.38074660530476373,0.4500756445068131,0.37684627826215533,0.47884976310695654,0.402740210617811,0.37744539312331554,0.3540896379443074
0.3987966814791641,0.45959131956513033,0.3720517187030241,0.43129640536253466,0.3899252914345327,0.37879662141462533,0.3766985414816309,0.35387906963832316,0.27976631255257584,0.3517197511721221,0.36933693945854235,0.29972888707574197,0.28942343360419737,0.2977783670373201,0.30131509125492,0.3023781603837889,0.3045442878136499,0.2996395402448614,0.2962673633740737,0.3430619587760478,0.3557087090488246,0.29638860144242546,0.39353121402576346,0.4043099651485694,0.44421110285495063,0.40180428938716234,0.485678468793871,0.42016070047968024,0.5009436987831847,0.4590835174740566,0.4118903769009469,0.3722203372351069
0.3971716425093593,0.44544571778357506,0.3573682568663694,0.44099916632439246,0.4007006995064459,0.39170051014270196,0.4021145068498385,0.3992699479123923,0.3979830379950687,0.42606740631687573,0.42314165294391864,0.3839689413976387,0.3744191796312792,0.3721154419815895,0.3636398086197039,0.35468767389649236,0.3431898653798929,0.3675465587663354,0.3598149536763131,0.4016699093645002,0.40579780568553575,0.3866550810675873,0.41176341452347287,0.43338711938873226,0.44840948444490764,0.4301522194576521,0.4729084238368632,0.42054962289352554,0.503301010067169,0.44456469797726783,0.4127373840315646,0.422049850711508
0.41552012010366507,0.46842636397038184,0.4056955019007038,0.44854756607107055,0.4441940846484956,0.4072213105222518,0.3833994689958416,0.39707134856858745,0.4242451555433463,0.3584928367381592,0.38418849090248275,0.4195987236105282,0.426138127170018,0.392760492353676,0.3799903069187199,0.3688459325775467,0.34712451526956173,0.3699389806401975,0.39271409991461864,0.3751992653155945,0.40138196647146246,0.4077320056863821,0.4293023571819579,0.3934074416660231,0.4522485845603757,0.4415267128029826,0.4636742433537961,0.4088429965005276,0.48753744235546514,0.43273444916610126,0.44122266184661224,0.42757840526549534
0.42277108320452633,0.47446622539227734,0.46878643280690324,0.4672387584532407,0.44474464147900983,0.4546088609129393,0.3783529751627058,0.40485649384499406,0.42417259064939883,0.3480279897855529,0.36048768350744137,0.4065862158598094,0.4312500509013767,0.37358977653603626,0.36759991270981074,0.3689410240485223,0.35790631200542417,0.38181343767273945,0.41676259630673107,0.38865939441076786,0.41728412076489274,0.4219967432925762,0.43833236380922397,0.401240801444745,0.45585715587687237,0.4281285166684935,0.4508295524858986,0.3943990178006486,0.45869288075964804,0.44200349884047113,0.4254401204334426,0.42073515570881775
0.41496210829770386,0.4932689269262804,0.45606884555882926,0.4685307639770815,0.3985847760911713,0.4756666371806525,0.4124327334974335,0.40839022200895925,0.4204465557233401,0.39743376058931645,0.4023586465175724,0.40303814716835734,0.42583854719093756,0.3691895846944265,0.3699008956766018,0.3879919173882085,0.39075477715976253,0.4180484238324725,0.4425954968778308,0.440785235566386,0.3895227468435897,0.4243011423076321,0.44393648373397604,0.4519512524124016,0.4727548526448801,0.4293470298255753,0.48126626703848135,0.3663754621811868,0.4807013982585646,0.45383304931005175,0.4081789106621313,0.38465664684682804
0.429722390421803,0.5074643346178831,0.4504891060929969,0.47017202266322394,0.40402125476003153,0.45422811642617766,0.3937066200688052,0.391683982190799,0.3985907701433916,0.38513914492762946,0.40439133610267686,0.39963486504199436,0.39225812187948306,0.36369684514530276,0.35440722213486237,0.35449784281706886,0.34380371987299363,0.35972343600085455,0.37757032233797916,0.36745556971529036,0.2805929988299386,0.3840395619799572,0.41259864406810215,0.4480717115549012,0.44249684157894253,0.42990629073520736,0.5041146451981677,0.37331856454232576,0.508866687915406,0.45606111720558634,0.43201698302160846,0.374167680370235
0.44332332727868234,0.46863818565352117,0.48227076450061557,0.42850986820190773,0.4015447681231917,0.46371086324232247,0.4020516750709226,0.40916347119284935,0.36236685227346505,0.33757651689689533,0.36880618095586076,0.33912134249649367,0.35975458311501535,0.3280124976983758,0.34172403289883563,0.3395240136045953,0.3267057875288899,0.33081881280027403,0.36946180917260196,0.3523352579054429,0.3039119328176961,0.4001002036793925,0.438768000919082,0.4618523717461273,0.47220017607589504,0.4042466707802014,0.47092446385797765,0.4106330861742176,0.5083068987553127,0.4656082134598955,0.4175118427898783,0.41092050344749825
0.43232512206692897,0.47769294117949096,0.48022099043561167,0.4129738556799099,0.3790217353554158,0.4931853767223144,0.4147666499649553,0.40831549630820396,0.32742865956327744,0.3231275442802034,0.32457532353468144,0.30517340481143895,0.3392085183998883,0.3082920790702899,0.32541527969106104,0.33353854919921616,0.3139177669113487,0.31607186801232456,0.3406277631620482,0.32213383216483155,0.3349965577332664,0.368699758286544,0.3974071838353859,0.4001231815540566,0.45519498523750274,0.409677783336124,0.4607920774040373,0.384802240013606,0.4778075204393778,0.40239465507082306,0.3823818483088745,0.4037421139158805
0.42403205289136536,0.472273972187409,0.43447877754571146,0.4482052017435158,0.36250891265727336,0.4621858364895122,0.38409761630845085,0.36776139379550904,0.3223557462425028,0.30171066132259894,0.3109569569535817,0.3049839834974448,0.33699579629885523,0.30575265722010464,0.3185267348195547,0.32703663643513,0.3016118564550328,0.309433634403931,0.3322093138104116,0.3110894415438117,0.3376021923123721,0.3464177013890509,0.3659559588074394,0.37512960194307005,0.4416280901219835,0.3757680925602313,0.44329119525910055,0.40214468017448235,0.458666045608535,0.4090714030035754,0.3567133437234743,0.3748969706673204
0.4056654738883558,0.46144959570775707,0.42370287802786405,0.47720633499141357,0.3552903162893774,0.45351519640061794,0.3640277304807865,0.3420656399270825,0.31387194790450057,0.28894431500721357,0.32099579389006816,0.3069446325614399,0.3178794670794482,0.3030714236666282,0.31711550989113213,0.3230623161224725,0.2991302136767991,0.30359231534857145,0.32516694794482226,0.306305019632437,0.3480358420628779,0.3470708788922336,0.38345015740463884,0.39263556043226217,0.4672481253854124,0.3617928489431655,0.43548627323956673,0.43430082535257075,0.4627379687089273,0.43786409820539146,0.35172617121740607,0.35533364171391263
0.3667251593763671,0.443933046715235,0.4396757980325991,0.44797342763031894,0.34735900221874605,0.4601776912018388,0.35994701845008387,0.3740145506456348,0.3065452971620956,0.3159662273931987,0.31920849841619686,0.3061347463936988,0.31575481248848153,0.29950504115038373,0.3000828532101715,0.3045257881124505,0.3007881948463697,0.3105821017579032,0.331360785047332,0.31393155916294363,0.37356397364482313,0.3636597817727782,0.41964306344503566,0.40013692143032187,0.4504991253225226,0.37136963413925833,0.4172869010712839,0.39303523557293335,0.45033291337741427,0.4004568406379755,0.3492287192576421,0.37737480305823695
0.37529938161528426,0.42009166610662674,0.4600024048568839,0.4168546719487387,0.3267258129229438,0.44248695828238005,0.3908075830855452,0.3930123710705587,0.3064167277081994,0.34715070927373837,0.32587700248514734,0.3026429886233019,0.3087955838384405,0.29875772319234567,0.30008276459561933,0.30459718327535695,0.3044797060912417,0.3153538836866089,0.3459695810372779,0.33345815872227386,0.394249214574324,0.3752219158142605,0.45396073980339546,0.3870118748551717,0.43365577543272443,0.35058164023855337,0.3942870392878282,0.3692539211395134,0.4319642553216187,0.3630033501558648,0.3327287757496615,0.39925977319315803
0.42641763506575675,0.4634730186956066,0.4932745015160848,0.45926125972516385,0.3582475238117207,0.4821334768038477,0.45867925275601634,0.38590278805609984,0.3284103013814936,0.3767108337755213,0.39904329214779,0.344220983340097,0.31983370914783754,0.33188410588765216,0.34272435848874533,0.3424244928680095,0.3306528304824484,0.32785048021009083,0.34902483544920065,0.3559138788579247,0.38732766890624915,0.3833789541054987,0.4419916281532055,0.38726842060513794,0.4555291411348511,0.3804433752308157,0.4212118015870561,0.41409818069110654,0.4618185259030542,0.3926397760003047,0.3668979251167406,0.4008670810849688
0.4566264112682574,0.5030797171312315,0.46639364542477885,0.4847659152544769,0.4467058575790399,0.4595259916350142,0.39613106996187236,0.39351655052113776,0.3984913796532563,0.3839739203980803,0.3904196521596643,0.4172635438754318,0.4049962596941264,0.38898632310722514,0.3907481877956873,0.3802445403509268,0.36404283483775474,0.3728175728333541,0.3981722062503265,0.4087224384203631,0.429248127395265,0.42727592642109913,0.43594583481483046,0.42814056985626336,0.4733878398993629,0.45297176160406905,0.4659200204061793,0.4757646782696647,0.5018180021548388,0.47977119364304444,0.44943902080606024,0.41687328506547
0.4239188505281032,0.48773483498727443,0.43036852156618094,0.4590934988784614,0.44430873533454435,0.4241452195366889,0.3527682873731764,0.3981035965549404,0.4318278960158982,0.37185392956373087,0.3734738840500223,0.4171092477182353,0.4013040332421444,0.39133698992889526,0.3784633351671943,0.36130102639970196,0.3534693697371481,0.3512182321986877,0.3755104989834616,0.3597510950734238,0.3888841510635957,0.3985201312476883,0.43221283730215343,0.4221254674163016,0.4630984216376943,0.441969726645538,0.46729902721136346,0.44704425925984087,0.4818175171198072,0.4586734933280219,0.4380859154498993,0.41442922597932286
0.4555167030557895,0.5069942612905703,0.4393905429845332,0.4504019274098551,0.4040152977413336,0.4417027684296243,0.3853396423869483,0.41157176445870874,0.39095609655628427,0.3695408017258489,0.3907646272982848,0.40421694101771233,0.365131442703914,0.39492251993987065,0.3800636586724942,0.371999568349211,0.3660203132943569,0.3591969033256175,0.3662442279442395,0.3536329863245744,0.3572914690291695,0.3801892659257698,0.4305677888291019,0.42812812001828554,0.4809350801980992,0.42313725576033695,0.47810403496179,0.46209964707740997,0.489784889393342,0.4687228732916432,0.4224014248273001,0.40670507542298323
0.4625929642330837,0.5064959659154283,0.4502264248600464,0.4635661569554283,0.3936774421437757,0.4782306670575909,0.44789001671661616,0.43037835273711356,0.39187805586768937,0.3916221164999435,0.4233861873157978,0.40839114854121444,0.3786364015979639,0.3922796091871195,0.3832708817887378,0.37635402447363436,0.36997804056489597,0.3755464658766904,0.3996524167434083,0.3911799922278519,0.38590218101635626,0.4038485520877488,0.44044901625210264,0.43762880360097484,0.4550767617628933,0.4279504099556896,0.4681849730850677,0.4688834972747682,0.4928082535529591,0.47951813690307316,0.3994357273602239,0.4273380269130427
0.4555491154463586,0.5114270796888386,0.4405531768196095,0.4708825329820816,0.41227242274378695,0.462791345280842,0.3955850870506467,0.3998139214776772,0.4208120916939347,0.3795863334719135,0.38632264929777316,0.39431058363422294,0.4122674935039721,0.37249320186685453,0.3710039145688135,0.3664237872196938,0.3701531363536013,0.39406986032148483,0.4346969597334907,0.4169098804003874,0.4436862028890012,0.456885062959334,0.4692246673741279,0.45796630056080645,0.4524894989814001,0.4462283642526828,0.4752769884671111,0.4621927348771248,0.5002586696395876,0.49657577101702916,0.42551667076007005,0.43128263354677276
0.4730211656647689,0.5324363543990865,0.4730089491373739,0.47125041122681055,0.4136911061056149,0.46697992242601777,0.394446824975922,0.4014289617365614,0.39656933832541386,0.37258626618278606,0.4010872745343794,0.4028471200781957,0.3989411142969906,0.37572041375053516,0.38478540301076253,0.3800188435306043,0.3884153422174045,0.387814936211594,0.4174793307223016,0.4036137849483344,0.43304216079311764,0.42684500316636853,0.4572501529677531,0.4517087745406633,0.46077192185970683,0.4457225949893396,0.4881812257558722,0.4589131932331095,0.514322122923592,0.5092603413072577,0.45551322815684014,0.4200402385791859
0.4481790436154799,0.5026704965477512,0.46316846602496053,0.43561254084873074,0.38674542730316624,0.45806076398247125,0.4013781659968294,0.396001677872767,0.38739067022708756,0.35727191519844903,0.4103327110685735,0.40216451649513096,0.3887653307691513,0.38117266095176483,0.3862429736030771,0.3771087696832696,0.37300152535704906,0.3679809522605849,0.38937543892019716,0.3724748143479663,0.39300571457444494,0.39481530265334386,0.41989965100265214,0.41353275599980965,0.44656760460336997,0.4000497026854477,0.454976069470718,0.44008614758473474,0.4904493020469831,0.471102634666369,0.4133662153646313,0.4113853689815148
0.46239220253163665,0.490061612180225,0.4441926599565241,0.45301460767270874,0.40051663947082594,0.4588861572807157,0.388426533829468,0.37072213091812894,0.38494322689307525,0.3414618944389256,0.37783157953326685,0.37837443894467204,0.38129382495938363,0.35890506290517366,0.369133892968752,0.36494712075747476,0.3738470461607662,0.36878419100832865,0.3802629933219519,0.36951259976749534,0.38321722440661965,0.3898215369520197,0.42385175576241485,0.41708656518184833,0.435145905308758,0.4056758123392287,0.45151671102881435,0.423912603330246,0.4704433739298173,0.45066405277870686,0.41045634755899785,0.4072625544797222
0.4667528367286732,0.5238762427833736,0.46537579548118624,0.4819987761445324,0.4373389610487704,0.46732283034410527,0.4013005101169183,0.3822993718459897,0.39607323467611366,0.3654817014585555,0.4012148135795795,0.38581986941598007,0.37991747546669286,0.3629393751268409,0.37185148813580154,0.35446306830593416,0.3753923981156538,0.36045932638615974,0.38858534531086686,0.3869594685930857,0.41440038141180807,0.40304466666135813,0.45394155802976016,0.4314647045297523,0.4341670214118555,0.42631388957713456,0.4667428925099559,0.4126790769266619,0.5189791780675005,0.45016795220198197,0.4279629180946041,0.4242275895868069
0.4337960419977259,0.5235157934121641,0.4508531027516507,0.46221464638601717,0.42793085442890577,0.4425322175807272,0.4036706801512354,0.3826438978644344,0.40728287541640096,0.3803883828127122,0.4350538139187465,0.40715571118122457,0.4182245675267268,0.39245717333730185,0.4061326064555861,0.39372930906103176,0.3972454579635189,0.399038195585836,0.41171034469447204,0.44011040872373824,0.4425207096390848,0.4435152989666472,0.4562809835730833,0.4623776884534448,0.4754291925091728,0.4294823226180313,0.48600777119270616,0.4397802402731414,0.5199450141350721,0.4617481971548316,0.4247791891337021,0.4391202686736453
0.41297506879094237,0.4937020245208703,0.42836995432021013,0.45070519870092585,0.3967737138484728,0.43881123837216046,0.38053814304015143,0.35556391982014607,0.4013083681695239,0.3907844645440424,0.4092248819789614,0.38927895921350103,0.4001015672337561,0.3858258112824348,0.4016191430144007,0.38978330595477806,0.381344314839822,0.3930599993933237,0.3944162105829956,0.39774039610387046,0.40098529750556716,0.4177956751007948,0.42693977786843434,0.42590739555200147,0.44277258231645406,0.4338758942050709,0.45460566610082526,0.42014316096036936,0.49471624504740697,0.4609523909198558,0.40773643558023837,0.464843220214513
