Fp1,AF3,F7,F3,FC1,FC5,T7,C3,CP1,CP5,P7,P3,Pz,PO3,O1,Oz,O2,PO4,P4,P8,CP6,CP2,C4,T8,FC6,FC2,F4,F8,AF4,Fp2,Fz,Cz
24,24,14,20,30,18,27,19,35,25,27,35,31,28,28,26,22,24,24,22,20,32,24,24,25,31,37,19,29,25,30,28
22,23,13,18,28,17,27,17,34,26,29,34,30,28,26,26,24,26,24,21,19,32,23,25,23,29,35,16,30,26,29,26
21,23,13,17,29,17,29,17,33,29,33,33,31,30,28,26,24,26,27,23,21,35,25,28,26,31,38,20,32,28,29,25
25,24,15,22,30,20,31,17,33,30,32,33,30,31,27,25,27,27,29,27,25,35,28,30,26,32,36,20,32,30,28,26
30,28,18,26,30,22,30,20,34,32,34,32,31,30,28,26,28,29,31,31,27,33,31,31,25,31,37,22,31,31,29,28
28,30,16,27,27,18,30,22,35,33,34,33,29,29,27,23,27,27,29,29,27,31,29,31,25,33,39,19,35,32,30,31
26,26,14,24,26,16,26,20,36,30,33,31,31,29,27,23,27,27,29,29,29,31,27,33,23,28,35,21,37,35,29,30
23,27,15,22,20,12,23,20,34,32,32,30,32,30,26,22,26,28,30,30,30,30,28,36,24,28,37,24,37,36,28,30
23,25,17,25,21,13,19,17,32,34,34,30,34,30,26,22,28,29,31,33,31,31,29,35,27,29,32,27,37,36,28,29
22,24,16,26,22,12,20,20,33,34,34,30,33,30,26,22,30,30,33,34,35,33,31,32,31,31,38,30,45,41,31,31
22,24,14,26,20,10,20,22,33,33,31,29,32,30,26,22,30,30,33,35,35,31,35,33,37,35,43,33,51,45,35,33
23,27,15,29,21,15,19,23,34,34,31,28,30,30,27,22,30,32,32,36,36,30,34,30,38,33,42,33,49,42,32,33
27,31,20,32,23,19,21,28,37,36,32,30,33,31,27,23,31,33,31,34,34,31,32,26,38,35,41,31,50,43,33,36
28,35,20,31,24,19,21,30,38,33,33,31,33,31,29,25,29,33,30,31,31,31,30,22,34,33,41,28,52,42,35,35
28,34,21,29,25,19,22,28,35,31,32,32,33,32,29,25,27,34,29,29,31,33,29,24,37,34,39,28,55,41,35,38
31,33,23,28,27,21,22,26,34,27,32,30,36,30,30,28,26,34,28,30,30,36,29,25,38,30,36,29,52,42,34,35
31,36,26,30,29,24,23,29,33,28,32,30,34,28,28,26,24,34,29,30,29,37,28,24,40,32,37,28,52,38,33,36
32,34,26,34,32,27,26,31,33,26,32,32,37,30,28,26,24,36,31,32,31,37,29,26,39,31,35,27,53,38,33,36
32,36,27,34,32,27,29,30,34,25,33,35,35,31,29,27,25,36,32,32,32,36,30,26,38,30,36,28,52,40,32,36
33,38,31,33,29,28,29,27,29,24,32,34,37,30,28,28,24,36,32,32,32,35,31,31,37,30,36,30,51,41,30,36
36,40,36,35,31,33,29,25,28,25,36,37,39,31,29,29,25,37,32,32,32,36,30,32,34,29,35,30,50,41,29,34
39,44,39,39,31,33,32,23,29,21,37,37,39,31,30,31,27,35,33,33,33,37,33,33,34,30,38,34,54,44,31,33
36,45,35,37,31,28,30,19,24,16,33,33,35,27,26,29,24,32,30,31,31,32,31,34,38,30,38,36,53,44,30,30
31,47,37,39,28,28,32,20,25,20,34,31,31,26,26,28,24,32,32,32,32,32,32,35,41,32,39,40,52,47,30,32
29,47,35,41,27,27,35,21,24,21,35,26,26,26,26,26,24,32,32,32,30,32,30,37,37,29,41,41,50,47,29,27
25,50,31,38,28,23,30,21,25,18,32,29,22,27,23,23,25,31,37,31,33,29,32,36,35,32,38,37,47,47,28,26
25,52,32,38,27,23,34,24,24,19,35,30,19,30,28,28,28,32,38,30,31,27,30,36,36,31,39,36,45,49,31,23
29,54,35,40,30,21,35,23,24,19,35,27,14,27,27,27,27,29,34,27,30,26,28,34,37,33,39,39,43,48,32,25
27,51,35,37,32,20,33,23,26,18,35,27,12,27,27,29,25,28,32,26,28,28,26,32,34,32,39,37,43,45,31,24
26,46,29,33,31,18,31,21,30,15,33,27,8,28,28,30,26,28,32,24,28,28,26,29,34,31,34,31,39,41,29,25
25,47,31,33,31,15,33,21,31,14,31,26,8,30,28,30,26,30,35,26,31,31,32,32,36,30,38,32,39,39,28,27
24,42,31,29,33,13,31,23,31,17,30,27,8,32,28,30,26,30,34,26,32,33,30,34,40,32,37,34,38,40,28,32
26,42,34,33,33,18,35,24,33,19,35,31,11,37,33,35,31,33,39,31,35,35,35,34,37,31,39,33,39,37,29,33
30,40,30,30,36,17,33,20,33,17,35,33,13,38,36,34,30,34,39,29,33,33,33,36,39,32,42,31,41,39,30,29
32,44,30,29,35,19,32,16,35,18,35,35,17,37,35,35,29,33,39,29,35,33,35,32,40,33,41,32,44,38,31,32
36,42,33,34,34,23,35,17,33,21,35,31,18,35,35,35,29,33,35,30,37,32,35,32,39,33,42,35,47,37,32,30
38,40,32,36,34,23,34,15,35,24,35,31,22,35,31,33,27,31,33,29,39,33,38,34,38,34,40,38,51,37,30,34
32,37,28,32,28,24,28,15,35,23,36,33,25,39,33,35,30,33,35,31,41,33,39,36,40,31,40,36,54,38,31,32
35,40,28,36,24,26,31,18,37,24,33,35,28,43,34,34,32,34,34,32,42,30,40,38,42,30,41,37,58,40,33,30
39,45,31,38,26,26,32,18,35,26,34,34,29,41,33,33,32,32,32,34,42,29,40,40,45,33,47,43,59,43,35,31
39,45,29,36,29,29,33,19,35,27,33,35,29,39,33,33,31,29,29,31,39,27,36,39,44,32,44,45,58,43,36,30
41,50,30,40,26,32,38,21,33,27,32,35,31,38,34,30,30,30,29,29,37,26,36,41,40,32,44,44,56,45,34,31
39,48,27,34,27,27,35,23,33,29,30,33,30,35,31,27,26,28,28,28,38,28,34,43,38,32,42,45,56,46,34,29
38,47,30,36,26,30,34,26,31,30,28,32,31,34,27,27,25,25,27,28,37,29,33,39,36,30,40,45,54,42,31,34
39,48,34,35,29,29,32,28,28,30,26,32,28,32,26,26,26,24,24,26,34,26,30,38,34,30,37,42,51,44,31,33
37,48,33,35,28,28,33,31,30,28,28,33,30,33,28,26,26,25,25,25,30,29,28,39,35,30,38,42,47,44,28,37
37,53,35,36,27,26,30,30,26,26,26,28,28,32,26,22,27,24,24,26,28,28,26,36,34,32,39,40,44,44,29,36
40,55,34,37,31,24,30,28,23,23,22,25,25,29,25,19,26,21,21,25,25,27,25,33,34,32,39,40,43,43,29,35
38,56,33,35,32,21,25,25,18,23,25,22,24,26,24,18,22,20,22,24,22,28,26,30,32,30,36,38,42,40,28,36
36,55,35,37,29,23,26,25,18,23,26,22,26,26,24,18,21,21,23,23,19,28,25,31,29,27,33,33,41,35,28,37
33,52,37,40,24,25,23,27,17,23,27,19,25,27,25,19,23,21,23,25,19,27,25,27,27,29,33,31,41,35,26,35
30,51,35,36,26,22,20,22,14,22,26,18,22,27,24,20,22,17,21,25,17,23,24,21,24,26,34,28,42,31,30,29
30,52,36,39,28,26,22,22,16,20,28,20,24,28,26,26,27,19,19,26,16,24,25,20,25,24,34,28,40,33,28,29
32,52,38,39,27,26,24,21,17,20,30,20,25,28,26,26,28,20,19,28,19,25,29,23,25,26,34,31,41,33,30,27
33,51,39,42,25,29,27,22,17,21,29,21,27,29,27,27,29,21,21,29,21,27,31,26,27,27,39,33,41,31,32,27
31,50,41,42,22,26,25,20,15,22,30,23,27,31,27,25,29,23,21,29,21,25,31,25,31,25,40,32,46,32,34,27
30,46,40,41,20,29,29,21,21,23,32,27,31,31,29,29,31,27,23,31,23,25,31,27,35,25,44,33,47,31,33,27
31,48,43,40,18,35,34,23,23,28,37,31,35,31,29,33,35,31,25,32,23,27,31,31,37,27,47,35,47,34,28,29
33,47,45,41,17,39,37,26,27,29,37,33,35,33,31,35,37,33,27,31,27,29,29,33,37,29,47,37,47,33,27,31
36,46,46,41,20,39,38,29,28,29,39,34,33,33,31,35,37,33,27,31,29,29,27,29,39,31,47,39,47,36,28,27
38,49,45,43,21,36,38,30,28,28,37,33,33,31,29,33,35,33,27,29,29,29,26,31,41,28,43,37,48,35,29,30
39,49,47,43,21,37,37,33,29,27,37,33,35,31,29,33,35,35,27,29,30,32,28,34,44,32,44,38,48,36,30,36
40,50,49,44,18,37,35,33,29,25,35,33,32,29,27,27,31,35,29,29,31,33,26,33,42,32,44,36,47,32,32,40
39,50,46,45,18,34,33,33,31,26,35,33,33,29,27,27,29,39,31,29,31,33,25,32,41,32,46,34,45,32,32,40
39,49,41,42,19,33,31,33,31,27,35,31,31,27,25,27,27,37,31,29,31,33,25,31,42,33,43,31,45,33,31,39
42,50,40,42,19,34,34,30,31,28,36,29,29,25,26,30,27,36,31,29,31,33,25,30,41,33,45,32,46,32,29,37
43,52,40,41,21,33,33,29,25,27,35,27,23,25,27,31,27,33,29,27,29,35,27,29,39,31,43,32,46,31,29,35
44,50,41,44,22,33,34,31,26,25,31,24,24,24,28,30,24,32,32,28,28,36,28,24,36,33,43,29,44,32,34,34
43,53,39,45,25,31,35,33,26,24,31,24,26,24,28,30,23,32,32,29,27,36,30,25,37,34,45,29,43,35,37,32
42,53,38,46,26,32,32,32,27,24,33,25,27,25,29,31,25,33,33,31,29,37,33,27,37,34,44,30,42,36,38,34
41,51,35,44,27,28,31,28,28,25,32,26,28,26,30,32,26,34,34,32,30,36,34,26,37,35,45,32,41,37,37,29
42,50,36,46,28,30,31,27,31,27,33,27,29,27,31,33,27,37,37,33,31,34,32,26,36,35,44,32,41,36,33,27
42,46,33,47,32,29,34,26,32,32,36,26,29,27,31,33,27,35,35,31,28,30,32,25,38,36,44,32,43,35,32,24
43,46,35,44,32,31,32,25,28,32,32,25,27,26,31,33,29,31,33,29,27,28,32,27,38,34,42,32,46,36,32,23
38,42,36,42,30,28,32,28,29,34,38,25,27,27,31,31,29,31,32,27,26,25,32,27,37,31,42,32,46,34,34,21
38,42,39,41,35,29,31,28,27,32,36,23,27,25,30,30,29,32,31,27,29,27,33,27,36,33,41,34,43,37,37,21
37,40,40,39,33,27,29,27,29,31,35,23,29,23,27,27,27,33,31,29,31,25,33,29,37,36,40,36,45,37,39,22
37,41,40,37,35,26,27,28,29,33,37,27,27,27,26,28,26,33,29,29,33,25,34,33,38,36,40,38,46,36,38,22
36,38,41,34,34,26,27,29,27,33,37,27,26,25,25,27,26,32,28,28,32,23,34,34,40,37,40,42,48,38,38,23
38,37,40,32,34,28,31,27,25,35,33,27,23,23,23,25,24,29,25,25,29,21,32,34,37,36,42,40,48,38,38,24
39,38,39,30,32,34,33,30,24,37,35,29,24,25,25,26,24,30,24,26,30,24,32,34,38,34,43,40,48,39,38,26
41,42,42,30,32,35,34,29,19,35,36,30,21,25,26,28,26,27,21,27,33,22,31,37,39,34,43,43,50,39,41,26
40,42,42,31,26,32,35,27,16,31,35,29,21,26,28,30,28,29,23,29,35,21,33,37,40,34,42,45,48,44,38,26
41,43,43,31,23,31,37,26,18,30,37,31,22,25,30,29,27,29,23,30,36,22,31,36,38,36,41,46,48,44,35,26
46,46,44,34,24,34,38,23,19,23,34,33,21,27,29,29,27,29,23,29,34,24,30,39,38,36,41,46,48,46,34,30
43,48,42,36,23,36,36,25,25,25,35,35,23,29,29,29,25,29,23,27,33,23,31,39,39,38,40,46,50,44,31,34
42,46,40,36,26,36,35,24,25,23,35,37,23,29,30,30,26,28,23,25,31,23,30,39,35,37,39,42,48,46,29,34
41,44,39,35,24,35,31,23,27,19,35,37,25,29,31,29,27,28,24,29,32,25,29,42,35,37,37,40,48,46,26,35
43,45,42,39,19,35,32,25,25,17,34,37,25,31,33,31,29,29,25,31,35,26,30,43,35,36,34,39,49,45,27,34
39,46,40,39,18,33,27,28,27,15,37,37,25,29,33,31,29,29,25,31,35,25,29,41,33,37,35,39,49,43,26,33
38,44,43,44,20,29,25,26,27,12,34,34,23,26,31,29,29,29,27,29,37,25,29,40,34,40,34,39,48,42,28,37
33,38,39,39,21,25,24,25,29,13,31,32,24,24,27,25,25,28,27,28,33,27,31,39,35,38,33,38,46,41,26,35
36,42,40,40,22,28,24,26,28,14,29,31,24,23,25,23,23,26,26,26,32,28,30,42,35,37,36,36,50,39,30,36
36,43,40,42,26,26,22,29,27,13,28,30,21,24,23,23,24,26,28,27,35,25,30,43,37,35,38,35,47,39,32,33
33,46,38,42,24,26,19,29,29,15,26,29,25,23,25,25,25,29,29,27,35,23,30,40,38,35,41,35,47,37,31,33
34,47,36,39,22,25,18,26,26,12,22,30,24,22,26,24,28,28,30,32,35,24,31,42,41,36,44,34,45,37,36,32
33,47,35,39,19,25,20,26,25,18,26,30,25,24,30,27,29,30,32,36,37,25,34,41,44,35,46,36,44,36,35,33
32,47,32,36,20,22,26,24,22,24,26,28,24,22,30,26,30,28,31,31,35,23,31,35,41,33,45,36,44,36,36,29
29,47,29,35,20,23,23,21,23,25,25,25,25,19,27,23,27,27,31,26,33,22,29,30,37,31,43,31,38,32,30,29
31,48,29,38,18,26,27,20,23,26,25,23,26,22,28,24,28,29,31,27,35,24,28,30,36,27,36,28,34,31,28,30
31,46,28,35,17,25,30,20,23,28,28,25,25,22,28,23,28,27,29,27,31,21,27,31,32,24,34,25,34,32,26,25
34,50,26,38,18,26,28,22,22,28,29,25,25,23,29,23,29,27,28,26,31,20,28,27,31,29,35,24,37,32,29,27
29,45,25,36,18,24,26,21,21,30,29,25,23,23,29,23,29,25,25,25,33,17,27,27,31,31,32,25,35,31,25,26
28,47,21,37,17,28,29,22,26,33,31,27,28,28,32,24,30,26,23,24,30,18,28,24,28,30,28,22,32,28,24,28
28,41,19,35,20,25,30,23,25,34,30,25,25,29,33,25,29,23,23,25,33,20,30,26,24,28,24,19,29,29,25,27
26,40,18,35,22,24,32,24,24,36,32,24,24,30,32,26,28,22,22,22,31,18,31,24,19,24,22,15,29,29,22,22
30,42,20,42,24,24,32,23,25,32,29,22,22,27,27,21,27,21,23,18,29,16,31,23,19,27,23,15,31,29,24,22
31,42,21,46,21,25,33,23,24,28,28,22,20,28,26,22,26,22,19,21,27,17,31,27,21,25,25,17,34,27,23,25
33,39,21,43,24,24,31,22,24,28,28,22,18,28,26,22,26,22,18,23,26,17,31,29,25,27,29,23,37,31,27,23
35,40,23,41,24,21,31,19,23,26,25,21,18,26,24,20,24,19,18,23,25,16,33,34,28,29,33,26,44,37,28,19
34,42,25,42,28,23,31,17,22,25,23,18,19,27,24,21,22,19,19,24,27,17,31,35,31,33,35,29,47,35,29,18
34,40,28,43,27,25,30,17,22,25,22,18,18,26,24,22,22,20,20,26,27,18,33,37,31,30,37,27,47,34,31,17
37,40,27,42,26,26,30,17,25,24,22,19,22,26,24,22,22,22,22,26,24,24,33,34,29,31,37,26,44,32,31,17
35,34,26,40,24,23,30,14,20,21,19,17,19,20,21,21,21,21,21,25,23,27,33,37,33,35,39,27,47,35,31,17
34,33,26,38,23,22,31,11,21,20,20,18,19,19,18,18,20,21,23,24,23,31,34,38,38,38,44,28,50,34,30,15
34,29,27,37,23,23,32,13,21,23,20,18,18,18,18,18,20,20,22,24,24,34,30,38,38,39,45,28,48,34,31,15
30,25,23,29,24,21,33,15,24,23,19,20,19,19,19,19,19,19,23,26,26,35,26,36,34,34,38,24,43,32,30,13
28,29,22,31,26,22,30,14,26,23,20,22,24,20,20,18,18,18,24,26,28,36,26,32,32,33,39,24,40,32,30,14
25,27,19,29,24,21,29,12,28,22,20,22,24,20,20,18,18,18,24,26,28,36,26,32,29,29,36,21,39,32,31,18
19,22,15,25,28,17,29,13,27,23,21,23,23,23,21,19,19,19,24,25,27,37,28,29,30,30,35,22,35,30,31,20
18,19,14,22,26,14,32,16,30,22,20,24,23,22,21,19,19,19,23,24,27,37,29,26,26,26,34,18,31,28,32,22
18,21,12,21,26,13,36,17,31,23,20,24,25,24,20,18,18,20,25,22,28,39,25,24,24,24,30,20,26,28,30,23
18,24,10,23,29,12,34,20,33,22,20,25,24,24,18,16,16,20,25,22,28,35,24,24,23,21,31,18,26,28,32,22
18,24,12,22,30,12,32,20,34,23,21,25,23,28,19,18,16,19,25,22,28,35,23,22,20,18,32,20,26,26,34,21
19,25,13,23,30,13,30,22,33,24,21,26,23,29,20,18,17,21,24,23,26,32,20,21,19,19,29,21,25,25,35,24
21,27,16,26,31,13,28,21,33,21,20,26,28,28,20,18,16,22,26,24,28,32,21,24,21,19,29,25,29,25,35,28
23,30,19,32,29,13,27,21,30,21,20,24,28,28,20,18,16,23,25,23,27,31,23,25,27,23,33,29,33,29,37,27
23,25,21,27,29,13,29,21,27,21,19,23,23,27,19,17,15,23,25,21,27,29,23,25,27,24,31,28,31,29,37,27
25,29,23,29,28,15,31,21,23,19,19,21,23,27,19,17,17,25,25,21,27,29,23,25,28,26,32,26,30,27,32,23
26,32,24,32,26,15,29,21,25,19,19,23,25,27,21,19,19,27,27,22,28,28,22,26,26,26,31,27,29,23,33,22
27,33,25,33,25,17,25,19,23,21,19,23,25,27,21,19,19,27,27,22,29,29,25,27,29,27,31,29,29,25,31,24
27,32,23,31,26,15,21,20,23,20,22,26,25,29,24,22,22,26,25,24,28,27,28,28,29,29,33,31,33,27,31,25
27,31,28,31,27,19,24,18,21,20,24,25,25,28,28,26,26,28,25,24,28,27,27,29,32,31,31,33,35,29,31,25
29,33,29,29,27,19,25,21,20,21,25,25,25,26,28,25,31,31,27,26,28,27,27,28,34,32,30,32,36,32,30,27
30,36,33,33,28,23,29,21,21,22,28,27,25,27,27,25,31,31,26,26,28,26,28,28,32,30,28,32,34,32,28,29
30,39,31,31,27,26,29,22,22,22,28,28,22,26,26,26,31,29,25,25,25,24,26,25,30,28,28,32,30,32,26,28
30,39,30,30,27,27,28,21,24,24,30,28,24,26,28,30,34,29,24,24,24,26,26,24,28,26,28,31,30,30,25,30
30,44,30,30,30,25,27,20,27,25,31,29,26,27,29,34,38,32,26,24,24,26,24,26,28,28,30,32,34,32,26,30
30,44,30,30,32,26,30,20,30,28,34,34,26,28,30,34,36,30,26,24,24,26,22,26,28,30,32,34,38,32,28,32
32,43,33,31,31,27,31,21,31,27,33,33,24,25,27,31,33,27,24,22,22,25,19,24,27,28,32,30,42,32,30,33
36,45,35,35,31,32,35,25,33,25,37,33,27,25,29,33,34,29,27,24,22,27,15,28,27,27,33,34,45,33,31,31
37,47,39,37,29,33,37,21,33,27,38,33,26,25,29,35,34,30,26,22,20,26,11,28,29,25,31,33,47,33,31,30
36,49,38,36,29,32,35,21,34,27,39,35,28,25,29,35,35,31,28,24,22,28,9,32,28,25,31,34,49,36,31,31
36,51,38,40,29,34,34,22,34,26,38,34,29,26,30,35,32,29,29,25,23,27,7,35,27,23,31,35,49,33,29,32
36,50,36,40,29,32,32,22,30,23,36,30,28,22,30,36,32,30,30,26,24,28,5,34,28,26,34,36,52,34,32,32
35,47,36,40,28,30,33,22,29,25,39,29,27,23,31,36,32,30,30,27,24,28,3,34,30,28,34,34,55,34,33,31
34,50,40,38,26,35,35,24,27,21,35,27,25,21,27,31,29,30,30,30,24,26,1,34,29,28,34,34,55,34,32,33
37,49,43,41,27,35,35,29,27,19,35,27,27,21,27,31,27,27,29,31,25,27,3,33,31,27,35,33,53,33,33,32
40,48,45,42,26,35,33,33,25,17,33,24,25,19,25,30,27,27,29,31,25,27,5,33,31,26,34,33,52,34,34,33
43,50,46,45,25,39,33,33,23,19,35,21,26,21,27,31,29,29,30,33,27,26,8,35,33,27,35,35,49,35,31,32
41,49,47,43,28,37,30,31,23,20,33,23,25,23,27,31,30,30,29,33,25,25,8,32,31,29,35,30,49,35,31,34
41,48,49,44,30,37,31,33,25,20,31,22,28,22,26,26,27,27,32,35,28,27,9,32,30,30,38,31,46,36,32,33
42,47,48,46,32,38,32,34,23,22,30,20,25,22,24,26,28,27,33,35,28,29,11,27,28,30,40,29,41,30,31,34
42,46,48,45,32,36,34,32,24,22,32,22,24,24,24,26,28,26,32,34,30,29,11,27,25,33,41,28,42,34,33,30
43,47,48,46,32,35,34,31,27,24,33,23,25,25,23,25,27,25,31,33,29,29,16,29,27,31,41,25,42,37,34,28
43,47,47,45,32,35,40,30,30,24,34,26,28,28,26,28,30,28,34,35,32,32,21,32,30,31,41,25,40,35,32,27
44,44,44,52,34,33,41,31,34,29,37,30,30,30,28,29,31,29,37,35,31,34,26,33,31,35,45,27,42,39,32,27
43,43,42,50,31,34,39,31,33,31,37,27,27,27,25,27,30,28,36,34,30,34,29,33,29,35,45,27,42,37,31,28
41,42,39,50,34,33,37,29,36,32,37,30,30,30,28,28,30,30,38,37,32,37,29,33,30,36,46,27,40,36,30,28
36,42,36,48,39,30,38,29,37,30,36,33,31,33,30,28,30,30,39,36,33,39,29,33,31,38,44,26,40,36,31,32
35,42,34,46,37,32,36,29,35,30,36,31,29,31,29,27,29,29,37,38,33,37,31,36,32,37,46,29,38,35,29,30
32,40,28,43,34,30,34,31,37,30,34,30,26,30,28,28,30,30,35,38,32,35,32,39,31,36,44,28,38,33,26,29
30,39,29,42,31,29,33,31,36,29,32,30,26,30,28,26,26,30,32,36,33,33,33,39,31,35,43,28,39,34,26,29
27,38,28,39,29,30,31,30,34,28,34,28,26,30,30,28,27,31,29,35,33,34,36,39,32,32,40,26,38,30,25,32
27,36,30,36,27,33,32,34,32,27,33,28,26,31,31,29,26,31,29,35,33,33,33,39,33,31,41,29,39,27,21,32
28,37,33,38,28,33,26,34,30,27,30,26,24,28,28,26,23,29,26,33,32,31,32,38,28,32,42,31,41,30,23,34
31,37,33,35,30,32,26,32,32,24,32,25,24,30,28,26,22,29,23,30,32,32,29,36,30,31,38,33,41,26,26,34
29,35,33,36,31,36,29,30,32,25,30,27,26,33,29,27,24,30,24,32,34,32,27,38,31,31,37,33,42,28,27,32
32,35,35,36,31,38,31,32,34,27,32,27,26,33,29,29,26,30,22,33,34,30,30,38,33,32,38,33,45,30,30,32
34,33,38,36,26,39,32,32,35,26,32,26,23,29,27,27,25,30,21,32,33,29,31,37,35,32,42,35,51,35,30,32
34,36,37,36,27,38,33,33,35,23,34,25,23,30,28,28,26,28,22,32,34,29,34,36,38,35,42,38,54,37,31,35
36,36,38,39,28,39,35,29,32,21,35,27,26,30,29,29,27,28,22,32,35,30,35,35,41,37,43,38,51,37,30,37
36,35,35,39,27,37,36,28,33,22,37,27,27,31,29,29,27,27,23,33,33,29,35,36,42,38,44,40,53,38,28,38
40,35,36,41,26,39,37,28,32,22,32,28,28,28,27,29,26,26,24,32,30,26,36,36,44,40,46,44,53,40,28,39
38,33,34,39,26,37,38,26,32,22,33,30,32,30,28,31,29,28,26,34,32,28,37,35,42,42,42,44,51,40,28,42
38,33,34,38,26,38,40,25,32,19,34,30,32,30,30,32,31,31,29,36,33,28,38,37,45,41,42,43,51,39,28,43
36,32,34,37,23,39,39,26,29,21,33,31,30,30,32,31,31,29,30,37,33,24,39,37,43,40,41,40,48,41,27,42
38,35,34,38,22,36,37,26,27,21,33,31,30,29,33,31,29,27,29,35,31,23,37,35,41,40,42,39,47,39,26,44
38,38,32,37,18,35,37,25,23,20,30,28,27,26,30,28,27,25,31,35,31,25,37,35,39,37,39,38,44,39,25,45
37,42,29,35,19,34,35,25,23,24,30,30,28,26,29,29,27,25,30,38,32,24,35,39,37,37,37,38,40,35,27,43
38,38,29,34,20,32,36,24,22,28,29,30,30,24,26,26,24,24,29,35,31,23,33,37,35,35,35,36,37,32,26,40
40,40,31,35,20,35,37,27,26,29,28,30,30,26,25,25,23,24,30,34,30,27,33,36,35,33,35,35,39,33,28,39
39,41,31,35,22,34,35,27,24,29,29,30,30,24,24,24,22,22,28,32,32,28,32,35,35,34,36,35,40,33,30,38
39,44,29,31,22,32,34,29,27,31,31,31,29,27,26,24,22,22,28,32,32,28,30,34,33,32,35,33,39,31,33,35
42,46,30,32,23,31,31,28,26,31,29,28,25,24,24,22,20,20,28,30,30,28,32,30,30,32,39,34,40,28,33,34
44,48,28,33,25,32,30,28,28,34,28,28,26,26,26,22,20,18,27,28,31,27,31,29,27,30,42,35,41,29,32,30
46,50,29,33,24,29,27,26,27,31,25,25,26,23,23,21,20,18,26,28,30,28,32,30,28,28,40,38,40,28,30,30
43,48,28,31,23,26,26,26,28,32,28,26,25,24,26,24,22,18,26,30,31,27,31,32,29,30,38,40,40,28,31,32
39,45,25,27,29,25,24,28,28,30,28,26,28,24,26,24,22,18,24,28,32,28,32,33,31,33,41,37,41,27,31,33
38,44,26,30,30,25,23,28,29,29,28,25,31,25,25,23,21,18,23,25,29,26,32,32,30,31,42,35,40,28,30,33
39,46,29,29,28,29,22,28,29,28,30,25,30,28,28,26,24,20,23,26,29,28,31,32,31,33,43,35,41,32,32,36
37,46,27,25,29,24,21,29,27,29,30,24,28,27,29,26,26,19,21,25,30,24,31,31,31,35,43,34,43,32,33,38
38,45,26,27,31,25,20,29,28,26,28,22,29,28,30,26,28,18,20,25,27,27,35,31,31,35,45,32,43,35,35,38
35,46,29,30,31,23,23,28,26,22,26,20,28,26,28,24,28,20,20,24,28,30,38,32,33,39,46,33,47,38,34,39
36,45,29,32,33,21,24,32,30,26,30,22,32,28,29,23,27,19,19,25,29,31,37,37,35,41,44,33,47,39,36,39
33,42,30,31,33,22,24,34,29,25,32,23,33,28,29,25,29,21,19,27,28,32,36,36,38,43,43,33,48,39,35,37
29,39,28,30,35,26,26,34,31,28,33,25,34,29,29,25,28,22,18,28,30,32,38,37,37,43,45,31,51,41,35,36
31,39,32,28,37,28,26,36,32,26,30,26,34,28,26,23,27,22,19,27,29,35,39,39,38,42,47,30,50,44,35,33
35,44,37,33,36,32,29,36,33,29,31,27,33,29,27,24,27,23,19,27,29,33,39,39,37,39,46,35,51,46,36,30
36,41,39,34,36,32,31,36,31,31,33,28,30,28,28,24,28,24,20,27,31,35,38,37,38,41,46,39,56,48,38,29
36,39,36,36,35,28,32,34,32,30,30,30,30,26,26,24,28,24,20,28,30,34,38,38,38,40,44,42,58,46,36,28
36,39,35,39,34,29,29,33,31,29,31,31,30,26,25,24,26,25,21,29,31,34,38,39,38,38,46,43,58,47,34,26
37,40,37,39,33,30,33,35,32,34,34,34,29,26,26,24,24,26,25,30,31,32,34,38,37,34,40,42,58,44,32,26
37,35,35,37,35,30,28,35,35,37,35,37,31,27,29,27,25,25,27,31,31,29,33,39,37,29,44,43,56,44,31,26
33,33,33,35,32,31,29,35,34,36,34,38,30,28,30,30,28,28,28,32,28,28,33,38,35,29,43,39,57,45,31,27
29,30,30,33,31,26,28,35,35,36,32,39,29,29,29,27,25,27,29,29,29,31,33,39,33,30,43,40,56,44,33,32
31,33,32,34,31,24,28,34,33,36,32,38,27,31,29,27,25,25,29,27,27,31,29,36,32,30,40,38,55,44,36,32
29,33,28,36,32,22,28,30,33,38,32,34,29,30,28,26,24,24,30,26,28,33,32,32,37,28,40,40,58,44,36,31
25,28,23,31,28,16,23,26,32,35,31,34,28,30,28,26,24,24,30,26,26,32,32,31,38,28,41,41,57,42,35,33
22,27,19,28,26,15,20,23,34,32,28,35,30,29,28,25,26,24,32,28,28,34,32,32,38,30,44,39,53,40,34,35
21,31,21,29,31,16,22,24,35,32,28,33,29,31,31,27,27,23,33,25,29,35,33,33,37,27,47,36,52,43,34,30
21,30,22,26,35,16,28,25,35,34,30,33,29,32,33,27,27,23,31,23,27,35,31,31,37,29,47,39,52,43,34,30
22,29,21,25,31,13,28,22,33,33,29,31,29,31,33,27,29,23,28,23,26,33,30,30,37,33,49,41,51,44,33,33
26,35,23,28,30,14,31,26,32,34,29,30,30,32,32,26,28,25,29,23,27,35,31,31,37,36,46,41,48,43,34,33
26,36,24,30,32,18,30,22,31,35,26,29,31,31,33,25,27,27,31,25,33,35,33,29,41,33,47,43,45,42,33,33
32,40,26,32,34,22,33,21,30,33,25,28,30,29,32,27,29,29,29,27,31,33,35,29,39,33,45,39,45,39,34,32
31,40,25,29,31,23,33,24,32,33,26,27,31,29,34,30,30,30,29,27,33,35,35,30,41,32,48,41,42,35,30,34
33,40,28,30,30,23,33,30,29,33,27,27,29,29,35,29,29,29,29,29,31,31,31,31,33,34,45,37,38,31,32,34
37,43,33,33,32,27,37,34,27,33,29,26,30,30,37,28,30,26,30,30,32,32,30,32,32,38,44,35,37,31,32,36
43,43,38,33,35,29,40,37,28,34,32,23,31,31,37,31,28,26,30,30,32,32,32,30,32,35,41,34,40,32,31,37
45,42,39,33,33,30,38,39,25,34,32,24,33,30,34,28,26,27,30,32,32,34,32,28,32,38,42,34,41,28,33,39
44,39,42,33,30,34,36,37,26,34,31,26,34,30,34,30,28,28,34,32,32,34,32,30,30,36,38,28,37,26,34,38
47,40,43,35,31,37,36,39,28,34,32,24,34,28,34,32,27,29,36,33,31,35,33,31,29,35,38,31,40,28,37,37
44,37,43,30,31,35,34,34,26,33,33,22,31,27,33,30,27,26,34,34,30,30,32,30,28,36,40,30,42,28,36,36
46,36,42,29,29,31,32,36,27,28,33,21,28,25,32,28,26,22,30,30,26,28,30,30,26,36,39,29,42,30,36,34
43,38,45,32,28,31,31,37,26,27,33,18,28,24,30,25,24,19,29,27,25,25,25,27,27,35,39,29,44,33,34,33
44,36,42,34,30,27,29,34,25,25,31,19,27,21,28,23,22,20,31,31,27,27,29,28,29,40,40,25,46,31,36,33
42,35,38,32,26,28,32,32,28,22,32,22,32,24,30,26,26,26,32,34,32,30,34,30,32,38,42,28,50,34,30,32
42,36,36,34,29,28,30,31,29,24,32,22,30,22,28,26,24,28,30,32,30,28,34,28,30,37,42,28,52,34,28,26
39,37,36,36,29,28,30,27,29,24,32,24,29,22,28,24,24,28,29,30,30,27,35,28,31,37,42,30,50,34,29,24
35,34,33,33,30,25,27,27,31,24,32,24,29,21,28,22,23,29,29,29,30,25,37,27,31,37,41,29,46,37,28,24
37,39,35,35,27,23,23,27,30,21,30,22,28,20,26,21,21,29,29,31,31,25,37,27,35,40,41,30,48,38,30,26
36,40,36,35,27,20,26,27,32,22,29,26,27,22,26,24,22,32,29,34,36,28,38,30,36,40,41,30,50,38,29,24
34,40,34,36,27,18,26,26,34,22,31,27,29,24,27,27,25,33,29,33,35,31,39,29,37,40,41,30,49,36,28,26
32,42,36,35,27,19,26,24,32,26,33,28,29,24,25,27,26,33,29,34,36,31,41,30,40,40,41,32,49,34,27,27
31,42,35,35,27,18,26,26,32,28,34,30,29,25,27,31,27,36,30,36,36,34,42,34,41,39,41,33,44,33,26,29
30,40,38,33,24,22,29,27,35,29,35,33,30,23,25,29,25,33,28,31,31,29,39,31,35,39,37,35,43,35,26,24
30,40,39,36,24,22,25,28,35,31,35,33,27,23,25,29,25,31,27,29,29,25,39,31,34,40,36,36,40,34,30,29
30,36,38,34,20,22,26,29,34,30,34,34,26,24,26,30,26,32,28,30,30,26,36,34,36,39,38,34,38,33,29,31
28,35,35,32,16,20,25,31,33,32,34,35,25,24,26,30,26,32,27,30,28,25,35,34,34,38,38,32,37,34,26,32
30,42,36,34,13,22,27,30,32,30,32,32,23,25,25,31,26,29,25,29,26,23,35,33,31,37,33,31,38,29,27,31
30,39,34,32,15,25,31,33,29,29,33,31,22,25,23,30,26,28,24,28,26,20,38,32,28,33,34,31,37,31,24,32
29,39,33,31,17,29,29,33,30,29,33,30,24,26,23,28,26,26,26,25,25,18,39,31,29,33,35,29,33,29,27,35
30,38,32,32,18,30,30,35,29,27,32,29,23,24,23,25,25,27,25,27,26,16,36,32,30,34,34,29,32,31,28,34
30,38,28,34,19,30,30,35,30,24,30,29,24,25,23,25,24,29,27,30,27,17,37,36,29,34,34,29,34,34,30,32
32,38,26,32,20,29,29,33,31,23,29,29,26,24,22,23,24,29,29,31,31,15,37,35,31,38,36,32,38,36,32,32
33,41,27,32,23,26,26,31,29,21,29,25,27,25,23,23,25,29,28,31,31,16,35,37,34,36,38,33,38,36,33,33
34,41,30,33,25,27,29,28,27,22,27,23,25,23,23,23,25,27,29,31,31,17,35,37,35,35,39,32,39,37,31,28
32,44,31,37,27,26,29,28,28,22,30,22,26,22,22,24,24,26,28,30,30,16,38,32,32,34,35,33,42,36,31,32
35,45,31,36,30,27,28,25,27,22,30,21,25,21,21,23,23,25,27,30,29,15,35,31,33,35,39,35,44,35,32,32
32,42,32,36,30,28,29,26,25,23,33,23,27,24,22,25,24,29,29,31,33,18,31,37,37,36,41,37,45,37,32,33
32,42,30,38,32,24,26,22,26,24,34,24,28,24,24,24,24,26,30,30,32,19,28,38,36,38,43,38,46,36,35,28
32,40,28,36,30,24,24,22,23,22,32,23,29,23,24,23,25,25,27,30,30,21,28,40,36,36,44,36,46,36,30,23
33,43,27,37,31,27,24,20,22,24,34,24,29,22,24,24,22,24,28,27,28,24,29,38,33,32,46,34,44,36,29,23
34,45,27,37,35,27,23,21,21,24,33,23,29,22,24,26,24,22,26,22,25,25,25,33,31,33,47,31,43,32,30,27
36,45,28,38,36,29,24,19,22,22,36,24,26,22,24,26,24,20,24,20,22,26,26,32,30,29,47,26,41,32,29,25
37,47,28,40,35,32,25,22,23,24,35,25,25,23,25,27,25,21,27,25,27,28,30,32,28,27,45,27,43,33,27,26
35,47,23,36,35,30,23,20,25,22,37,29,27,25,23,25,23,21,25,23,25,29,29,29,27,29,46,28,45,31,31,30
38,48,25,33,34,32,23,18,26,20,34,30,27,25,25,23,23,21,25,23,26,30,28,34,30,31,46,29,45,33,34,28
40,49,29,38,35,34,25,23,30,17,34,30,28,28,26,24,24,22,26,24,27,30,31,38,32,31,44,30,46,34,37,27
41,49,27,37,35,34,25,21,34,19,32,31,30,25,25,23,24,22,26,24,28,32,36,36,30,30,41,31,47,33,33,26
40,50,28,38,36,36,24,20,34,18,28,34,31,29,28,26,24,26,25,25,29,34,37,35,31,31,42,31,45,31,34,29
41,51,29,39,37,37,25,21,35,19,31,35,29,31,29,27,23,27,27,27,31,33,37,35,31,33,41,31,47,31,35,32
38,47,30,36,35,34,24,22,33,16,28,35,27,31,26,24,22,24,27,25,29,29,34,34,32,34,37,30,45,29,35,29
39,46,35,37,30,35,25,23,32,18,29,35,26,30,26,22,22,24,26,30,30,28,38,39,34,35,37,31,46,33,33,27
38,47,36,38,29,33,24,21,31,21,28,35,28,30,26,22,22,24,28,32,32,30,39,39,35,36,36,36,47,37,33,28
36,48,38,36,28,32,29,20,30,23,26,36,28,30,26,22,24,26,28,30,30,31,37,43,38,38,38,37,48,36,34,27
37,51,41,38,27,33,33,26,28,24,25,31,26,27,25,21,24,26,28,32,32,30,38,48,37,39,40,36,49,41,30,26
38,51,42,38,28,34,35,27,27,25,25,31,28,28,24,22,24,26,28,32,33,30,38,48,37,37,40,33,48,41,28,26
33,50,42,35,25,34,36,22,24,29,27,31,29,27,25,23,26,26,30,32,35,32,38,49,35,33,40,30,44,42,25,25
34,50,40,34,24,34,40,21,22,26,27,29,28,29,27,25,27,24,30,32,32,30,36,46,36,35,42,28,44,46,28,26
33,52,39,35,23,31,41,22,24,28,27,28,29,27,24,21,26,22,31,31,31,31,35,45,35,33,40,27,45,46,27,25
34,51,40,36,24,28,40,20,24,26,24,26,28,24,22,22,26,22,30,31,31,30,33,45,33,31,39,28,45,45,27,26
37,52,43,37,24,29,41,23,27,28,28,25,31,27,23,25,29,25,31,33,33,35,35,46,33,32,40,28,49,45,28,28
38,52,39,38,26,30,42,22,29,27,27,27,29,28,24,24,26,27,31,29,33,37,33,42,31,30,38,28,46,42,28,28
36,49,38,39,27,30,43,24,29,25,25,25,30,28,24,25,27,27,30,28,29,34,32,40,28,30,38,27,46,37,29,28
33,45,35,39,25,29,37,25,28,23,26,24,30,28,24,24,24,26,30,26,28,34,32,36,28,27,35,25,47,37,29,29
36,49,34,38,28,29,33,21,30,23,27,25,30,29,25,25,24,26,29,24,26,33,30,35,26,25,34,26,44,35,30,30
35,45,31,36,29,25,31,19,30,22,26,26,28,28,24,24,24,26,30,26,24,33,27,33,24,27,34,28,43,34,33,29
33,42,25,33,28,20,26,19,31,21,24,24,25,26,21,23,22,26,28,26,22,30,26,30,24,28,31,30,46,30,34,31
31,41,23,33,29,20,21,18,31,20,27,25,23,25,18,20,20,24,27,24,20,29,23,28,23,29,32,31,43,27,33,33
32,38,24,30,26,20,22,19,28,19,28,23,20,23,20,22,22,24,24,25,23,28,25,29,25,27,32,31,44,28,31,31
30,37,24,30,27,20,22,22,27,20,27,23,19,23,19,19,19,23,24,23,22,30,27,27,27,27,33,33,42,29,29,30
26,36,22,28,30,20,20,20,26,18,24,22,20,20,18,18,20,24,24,24,22,28,27,29,25,24,30,33,41,28,26,28
26,36,23,25,30,18,18,20,27,19,23,21,24,20,18,20,22,24,26,27,24,26,28,31,26,24,30,33,44,27,24,29
27,33,22,21,29,18,18,20,25,20,25,21,21,19,17,19,21,25,25,29,28,26,28,34,30,23,29,37,44,31,23,26
28,32,22,20,30,18,18,19,25,20,25,21,21,19,19,21,23,23,23,26,26,23,27,34,32,22,30,40,44,32,22,27
26,29,22,20,30,17,22,21,27,21,23,21,23,19,19,21,23,25,26,29,29,26,29,35,33,21,28,37,47,30,23,26
24,33,22,20,30,18,20,20,25,21,23,19,23,21,19,21,23,25,23,27,29,25,31,31,33,21,28,35,47,31,21,28
25,36,25,25,30,21,25,20,26,20,24,22,25,24,23,21,23,25,23,27,29,27,31,31,33,22,28,34,46,34,22,30
27,38,29,27,28,23,29,22,25,22,23,22,25,24,24,22,24,26,23,28,30,27,31,32,34,19,27,34,48,34,22,31
29,39,29,29,31,23,29,23,26,21,23,21,26,24,24,22,24,26,24,27,27,26,29,31,33,19,26,31,47,33,23,32
30,40,30,30,29,24,30,22,26,20,24,22,26,24,24,22,24,26,23,28,30,25,30,30,32,20,26,28,43,30,22,31
33,41,30,36,25,24,32,22,26,21,23,22,24,24,24,22,22,24,22,26,27,25,32,29,36,22,28,30,44,34,23,32
33,41,31,39,22,25,32,22,23,20,24,22,22,23,23,21,21,22,20,24,24,24,30,27,34,24,30,28,46,39,24,32
31,43,32,40,20,27,33,22,24,21,24,25,22,24,24,22,22,22,20,22,24,26,30,26,33,22,30,25,46,36,22,31
35,46,34,43,22,27,35,24,26,21,24,26,22,26,24,20,20,22,20,23,25,26,31,25,33,25,33,25,45,37,24,32
36,46,36,44,20,29,33,25,24,19,25,27,20,26,24,20,21,21,18,23,24,26,28,24,36,26,36,26,43,38,22,31
35,46,37,45,20,31,33,26,26,18,25,28,22,24,23,20,20,20,20,26,26,28,28,29,35,26,37,29,41,35,21,33
38,47,37,44,22,32,30,30,25,19,23,25,25,21,21,19,19,21,20,26,26,31,31,31,37,24,36,29,40,34,20,31
38,49,38,46,27,30,27,30,26,19,24,26,26,21,21,19,19,23,23,25,27,30,31,29,37,26,37,29,39,35,23,29
35,48,38,42,24,30,25,29,28,21,23,24,26,20,20,18,18,22,22,24,26,30,30,28,34,26,38,30,38,34,22,29
32,48,38,40,26,29,23,30,30,21,22,24,28,20,20,18,18,22,25,23,26,27,28,28,34,26,38,34,44,36,24,28
35,53,40,38,28,32,24,30,29,22,26,25,29,24,20,18,18,22,28,24,30,26,26,30,34,27,40,34,46,36,26,29
32,52,37,37,32,34,27,33,30,25,29,27,30,24,20,18,18,22,28,24,32,28,29,32,38,26,38,37,45,34,28,30
34,54,35,37,33,32,29,33,31,26,30,25,29,24,22,18,20,22,28,24,30,25,30,32,35,27,37,34,41,33,29,34
33,54,36,36,34,35,29,29,29,25,31,23,29,21,19,19,19,21,27,29,31,27,31,33,35,26,37,35,41,33,30,34
34,52,36,36,36,37,31,25,32,29,33,25,32,25,23,22,21,24,29,29,32,28,34,34,34,28,36,35,42,34,32,35
37,51,35,35,37,35,31,26,32,31,33,26,30,24,23,23,22,24,30,26,30,26,32,31,35,29,37,34,46,35,33,33
36,48,35,34,34,34,34,26,32,30,36,30,27,28,26,26,25,23,32,28,30,24,29,29,33,29,37,36,46,33,32,31
32,42,32,28,30,32,32,23,32,29,33,28,26,29,27,25,25,21,29,30,30,24,30,31,30,26,38,32,45,30,28,32
35,44,32,32,31,35,33,23,32,27,33,32,28,31,29,27,28,24,30,34,32,26,32,32,32,27,39,36,50,35,29,33
37,43,32,35,29,35,35,23,31,29,35,33,25,29,27,28,30,24,29,37,29,27,33,33,33,25,37,33,49,35,29,36
32,38,29,34,29,31,33,23,33,29,33,33,23,27,26,28,30,24,28,38,29,27,35,33,33,25,37,29,50,33,29,36
32,36,32,32,26,29,31,20,32,25,30,30,21,26,26,27,30,24,30,41,30,28,34,32,28,22,38,26,46,28,26,36
32,34,34,32,27,28,32,20,33,24,30,30,24,30,28,31,28,23,29,41,30,28,30,31,30,23,42,26,50,31,29,34
30,33,35,33,24,27,31,22,33,25,29,31,25,31,31,31,32,26,32,37,29,28,30,32,30,23,40,23,47,29,27,33
32,35,34,33,22,25,28,24,30,22,26,28,22,28,28,28,31,25,34,37,32,25,28,31,30,20,40,21,44,29,24,30
30,33,34,32,21,23,29,23,29,22,25,27,25,27,27,27,31,23,33,37,31,27,27,31,29,19,37,18,44,29,23,31
28,33,35,30,22,22,26,22,29,22,22,26,28,26,26,27,31,25,33,35,31,27,27,31,29,19,37,16,43,29,24,31
34,36,38,32,24,24,27,22,26,24,22,28,30,24,24,26,30,26,32,33,30,26,25,34,31,20,38,21,42,33,26,29
35,36,40,33,26,23,27,24,25,24,24,27,29,24,25,27,29,25,33,33,31,27,27,37,31,26,42,21,39,32,28,28
31,35,36,29,25,22,24,22,24,22,24,28,32,28,28,27,29,27,31,33,33,27,25,35,31,27,44,25,39,31,28,28
33,37,35,29,24,21,23,23,24,21,25,28,32,27,31,31,29,29,30,31,32,28,24,33,29,26,43,27,35,31,30,30
34,40,34,30,26,22,23,22,24,25,26,30,35,26,30,33,30,33,28,30,30,26,24,34,32,30,42,32,38,36,32,30
32,40,32,28,25,20,18,23,23,25,25,31,34,23,27,30,31,35,29,29,31,27,24,33,30,29,38,34,38,33,29,31
33,42,29,27,23,20,16,24,26,26,26,32,34,22,26,32,29,33,28,28,30,26,23,31,26,29,36,33,39,31,29,33
29,38,28,27,25,20,16,20,28,26,26,32,36,22,26,32,28,32,23,26,25,30,24,31,26,30,34,32,40,30,31,34
29,39,26,26,26,21,15,21,27,25,27,31,33,23,27,33,27,33,23,25,25,27,25,31,27,31,36,35,35,29,32,32
28,42,26,32,26,21,17,21,25,25,27,29,30,21,25,31,25,31,20,25,25,26,25,31,26,30,38,35,38,33,36,34
26,45,22,35,24,22,20,25,28,26,28,30,28,22,26,32,26,30,22,26,26,31,26,28,23,32,36,32,39,33,36,37
24,45,21,33,23,22,21,23,30,25,27,30,30,24,26,34,25,30,23,23,25,30,23,28,25,29,31,31,41,33,37,37
27,45,23,33,23,23,22,24,30,26,26,28,30,22,24,32,23,28,26,21,24,32,23,30,24,29,29,28,40,33,36,35
31,46,25,33,22,27,25,22,32,25,23,26,32,21,21,27,23,25,24,21,22,32,24,31,25,30,28,31,41,33,33,33
31,45,25,33,23,27,27,25,33,25,24,24,31,22,22,28,22,22,25,22,25,33,29,26,24,29,31,28,38,32,35,31
31,43,26,31,24,29,29,24,32,26,22,24,30,22,22,26,19,18,25,23,27,35,29,27,23,30,31,28,34,33,38,29
31,40,27,35,26,29,31,23,30,24,20,24,30,24,20,22,18,18,24,22,28,33,29,27,26,31,32,28,34,36,41,28
30,40,29,35,24,30,31,24,28,24,20,24,28,24,20,22,18,18,26,22,28,29,29,25,23,32,32,29,32,35,39,26
32,38,28,36,23,32,32,24,27,25,21,25,29,24,20,22,18,18,28,22,30,30,30,24,23,31,35,26,35,36,39,27
35,37,31,35,23,34,32,26,29,24,20,25,29,24,20,22,18,18,29,22,30,30,31,24,27,32,35,26,33,32,35,26
36,35,35,35,26,35,30,27,30,25,21,22,32,24,20,22,18,18,28,22,30,28,31,24,30,30,36,28,32,30,34,24
34,31,34,36,25,34,30,29,27,25,20,21,29,22,18,18,17,16,27,23,29,25,31,22,29,29,37,27,31,29,31,23
35,31,35,37,27,35,32,30,27,25,21,21,29,23,19,20,18,18,25,23,29,25,31,22,30,31,39,28,30,31,33,25
31,32,38,36,28,32,36,33,24,26,20,22,27,24,20,18,16,17,25,22,29,25,31,22,31,30,38,25,29,31,34,24
30,34,38,38,26,31,33,31,23,24,18,22,27,24,20,16,16,16,25,20,27,27,29,28,30,30,38,26,31,33,32,25
32,36,38,42,27,31,33,31,23,21,19,21,29,23,19,22,20,18,27,21,27,28,29,29,33,30,39,27,32,33,29,26
28,37,35,36,29,28,30,31,24,22,20,20,28,22,20,22,20,18,28,22,26,30,32,31,34,30,43,30,34,31,26,27
29,39,35,36,28,27,31,31,25,21,19,20,28,22,20,22,20,18,26,22,25,32,31,31,35,29,42,33,37,33,26,28
30,40,35,39,30,25,29,31,26,21,19,19,26,21,19,21,19,17,23,21,23,33,30,31,34,29,39,35,38,34,26,27
29,42,33,37,30,25,29,29,26,21,19,19,26,21,19,21,19,17,23,21,25,36,31,35,31,29,37,37,38,36,26,25
28,43,31,38,30,25,29,26,24,18,18,18,23,20,19,21,19,17,23,21,25,35,30,36,30,30,36,36,40,34,26,25
28,46,30,35,32,23,29,22,25,18,17,19,25,21,20,22,20,18,22,20,24,35,32,34,30,28,36,36,40,36,28,26
27,45,29,33,30,23,29,21,26,18,18,20,26,20,20,22,20,18,22,21,25,34,34,33,29,28,34,35,40,35,26,24
31,45,25,35,31,23,24,17,26,18,22,20,29,20,20,24,22,19,23,22,27,35,33,32,25,29,36,34,43,35,28,24
34,45,29,35,30,25,26,17,28,18,25,20,28,21,22,24,24,23,24,25,28,34,32,30,30,29,38,35,47,34,29,27
36,44,30,34,31,25,29,15,29,17,27,21,27,21,23,21,23,23,23,24,28,33,32,32,33,31,37,31,50,37,32,25
37,45,33,35,31,29,31,17,27,20,29,21,27,21,23,23,25,25,23,23,27,31,28,32,31,29,37,29,49,41,33,27
35,43,35,35,32,29,33,17,28,21,31,21,29,21,23,23,25,25,25,26,28,32,32,33,29,29,37,27,49,39,33,29
36,43,38,33,29,32,34,18,27,23,32,23,31,22,24,24,26,26,28,28,30,30,33,34,32,29,39,26,45,35,31,28
38,43,36,32,28,30,30,16,30,26,34,24,32,22,24,24,26,26,28,28,28,28,34,30,32,29,44,26,45,35,33,31
38,41,35,30,25,30,30,17,29,27,35,27,32,23,24,24,26,26,28,30,28,27,35,32,31,29,44,27,43,37,35,30
42,42,38,33,22,33,31,19,30,29,35,28,32,24,26,26,26,26,30,32,30,29,33,34,32,31,46,26,44,36,33,31
43,43,39,35,20,33,29,19,29,29,33,27,29,23,25,25,25,25,29,31,29,29,34,35,31,30,46,27,45,37,34,32
42,43,42,35,20,33,28,20,31,29,30,27,27,23,25,25,27,27,29,33,29,27,33,37,35,28,46,31,41,39,32,33
39,38,41,35,21,33,26,19,29,28,27,27,27,22,24,25,26,24,27,30,27,25,35,34,32,28,43,27,35,35,32,28
39,39,41,35,20,33,23,21,29,29,25,26,26,22,24,26,25,24,27,30,25,24,36,32,31,29,41,31,35,33,33,31
37,36,38,33,17,29,22,19,28,29,23,26,26,21,23,23,25,23,29,31,26,23,40,32,30,29,39,30,34,32,30,30
42,39,38,35,17,31,23,21,25,28,22,25,23,21,23,25,25,23,27,29,25,21,37,30,32,28,42,30,34,34,31,30
39,41,37,37,17,31,23,23,26,28,21,24,22,21,23,25,25,23,25,27,23,22,39,31,31,31,41,31,38,39,35,35
36,42,37,35,19,31,25,25,23,27,21,23,21,21,23,27,25,23,25,27,23,21,37,31,31,32,36,29,41,39,32,36
36,43,39,37,22,30,27,25,26,27,21,23,21,21,23,27,27,23,27,27,25,22,36,31,35,31,36,30,42,40,31,37
32,40,40,37,23,31,27,25,25,27,23,23,20,21,21,27,28,22,24,24,22,19,37,29,32,29,34,32,43,41,31,35
32,39,40,37,24,29,29,24,23,27,25,25,22,23,23,29,30,24,26,28,24,22,36,27,34,30,38,32,46,42,30,34
34,39,42,41,25,30,30,26,22,28,26,24,24,22,25,28,29,23,29,27,22,24,38,28,34,33,41,30,52,42,32,36
35,40,42,41,23,30,32,27,24,30,28,27,26,22,26,30,30,24,30,28,24,26,36,31,33,31,40,31,56,43,28,39
37,45,41,41,23,29,33,27,24,31,29,29,30,25,27,29,28,26,29,27,24,28,36,31,29,29,45,31,57,43,27,36
40,46,41,41,23,28,34,29,22,31,29,32,30,28,30,29,27,28,28,27,25,29,34,31,30,28,45,33,57,42,27,34
39,45,41,40,26,27,32,29,26,31,32,36,34,30,32,30,26,30,30,26,26,30,33,32,31,31,43,34,57,42,26,32
40,44,42,42,28,26,34,28,29,29,34,36,37,32,32,30,28,33,33,28,28,33,32,32,30,27,44,34,56,38,22,30
42,43,44,46,29,26,34,29,29,27,31,35,37,31,31,27,29,33,35,31,31,35,35,35,33,31,47,37,58,38,25,30
44,42,42,45,28,26,33,31,27,29,33,33,37,31,31,29,29,33,33,31,31,35,35,37,34,34,47,37,59,37,24,30
46,46,41,44,27,26,31,32,27,27,31,31,36,29,31,27,28,34,34,32,32,36,34,40,36,36,48,34,59,36,25,30
45,47,43,43,28,27,31,34,31,29,30,31,36,29,33,27,28,34,34,31,32,34,34,41,36,34,46,35,56,34,26,30
42,48,44,43,28,30,34,34,30,32,32,33,36,30,31,30,29,35,34,33,35,32,31,41,37,31,41,37,54,33,24,29
41,48,42,42,29,30,31,35,28,31,32,34,34,32,32,28,28,34,31,31,33,32,31,41,38,31,41,38,51,34,26,30
38,44,44,40,28,34,32,36,30,30,34,33,31,31,29,28,29,32,32,32,35,30,33,40,38,32,36,36,48,34,26,30
35,44,43,42,28,35,32,33,34,26,34,32,32,32,28,29,29,33,34,33,35,32,32,43,40,33,38,38,47,34,25,29
33,42,41,43,25,35,30,33,31,26,30,29,29,31,29,27,32,31,33,35,35,33,31,44,39,31,37,36,45,33,25,28
32,40,38,38,24,32,28,32,28,26,31,29,26,29,31,28,30,28,31,32,34,29,28,42,38,32,36,34,43,32,26,27
30,37,38,33,22,36,28,32,27,25,31,29,25,29,31,29,29,27,29,29,31,27,25,41,36,26,32,31,37,30,24,25
25,37,39,30,22,36,31,30,27,23,31,31,27,29,31,27,27,29,29,27,29,27,27,37,34,25,32,31,35,30,23,24
26,36,40,32,23,34,33,28,25,23,32,31,25,27,31,29,29,29,29,27,29,25,27,35,35,27,34,33,36,30,25,24
27,33,39,31,23,36,34,29,22,22,31,29,23,25,28,28,28,28,28,26,28,24,26,36,34,27,32,31,33,29,26,24
27,34,34,28,25,34,35,28,23,21,30,28,20,25,30,28,28,27,26,25,27,24,27,36,33,31,35,33,33,31,28,24
28,34,35,28,27,35,39,25,25,19,28,27,23,25,31,31,31,29,30,28,28,23,28,36,35,33,37,35,35,33,29,26
30,33,33,29,25,34,38,26,24,18,24,24,22,23,31,31,31,31,31,28,30,22,28,38,34,31,35,36,34,31,27,25
34,34,38,30,26,38,40,28,22,22,24,22,20,21,31,30,30,28,28,29,31,24,28,37,33,32,34,36,35,33,32,30
33,35,37,31,29,37,41,28,23,22,25,21,23,19,25,27,28,25,29,31,34,25,30,39,35,34,36,38,38,35,34,32
33,39,37,33,31,37,39,29,25,26,27,24,24,18,23,25,28,26,30,34,34,28,32,39,37,36,37,39,40,37,35,34
32,37,34,33,32,33,39,30,25,29,29,27,25,19,23,25,27,25,29,33,34,28,34,39,38,36,38,39,40,38,34,34
31,35,33,34,30,34,39,32,27,29,27,27,23,19,25,27,27,23,29,35,35,27,31,39,35,34,35,37,38,37,33,33
28,33,28,31,30,31,36,30,28,29,26,28,24,22,26,24,23,21,29,36,36,29,35,40,32,33,33,36,37,34,31,33
29,36,25,34,30,30,32,28,30,28,26,29,25,21,26,24,22,18,28,34,34,30,32,40,32,32,36,39,40,36,30,35
28,34,25,33,28,29,28,27,30,28,25,30,25,22,23,21,18,17,26,35,30,28,34,40,28,32,34,34,40,36,28,35
24,31,22,33,25,27,25,27,32,29,29,32,24,21,21,17,14,16,25,32,31,32,32,38,25,30,33,32,38,32,25,33
21,26,18,32,28,21,23,23,31,29,31,33,25,22,22,19,15,15,25,29,29,33,29,33,23,30,34,29,35,30,28,32
19,26,18,32,28,20,24,25,32,28,32,34,26,23,23,19,15,16,26,26,28,30,28,32,24,29,32,25,36,28,24,31
21,25,21,29,24,23,25,22,30,28,31,34,22,22,24,20,14,16,22,23,25,28,26,30,24,28,31,26,34,26,22,29
21,21,23,27,23,23,25,20,28,22,27,30,22,23,25,21,15,17,20,21,22,26,24,27,21,26,27,25,32,23,19,28
22,24,28,28,22,24,28,18,28,20,24,28,22,22,24,20,14,16,22,22,22,25,21,26,21,26,26,25,33,23,20,28
24,27,27,27,22,21,24,17,26,20,23,26,22,22,22,18,14,16,22,20,20,26,23,27,25,27,29,26,33,25,22,30
25,29,31,31,23,25,26,19,28,21,23,26,23,22,22,20,17,19,23,20,20,28,21,28,26,25,29,25,32,26,22,29
24,29,32,31,23,23,27,19,27,21,23,25,23,23,21,19,17,21,23,21,23,25,25,27,26,25,26,25,30,25,22,27
24,28,34,32,23,24,26,21,25,18,22,23,25,21,21,20,18,21,26,18,26,28,24,26,28,22,26,26,28,22,22,25
26,30,40,32,24,28,26,21,22,18,18,20,27,21,21,22,19,21,25,20,25,25,22,26,28,22,24,24,28,22,22,24
28,34,45,34,22,31,27,23,21,19,16,18,27,18,18,20,18,20,24,22,24,24,26,31,32,24,24,28,32,24,22,24
29,37,41,34,22,30,25,21,19,17,15,17,25,17,17,19,17,19,23,23,23,23,27,29,33,23,26,31,33,23,22,21
27,35,37,34,23,29,23,26,20,17,15,18,28,18,18,20,18,20,24,24,24,22,26,29,31,22,25,28,33,22,21,20
27,35,35,37,22,29,25,26,19,18,15,20,29,18,17,18,16,18,23,23,23,23,25,30,31,22,25,29,36,25,24,19
29,33,31,37,21,28,24,26,19,17,16,19,29,17,17,19,17,19,21,21,23,23,27,31,32,21,25,34,37,27,23,19
30,33,32,39,24,30,24,23,19,17,16,19,29,17,17,19,17,19,21,22,23,23,26,30,28,23,25,34,38,27,24,22
31,35,31,37,24,29,21,23,15,15,15,17,28,15,15,17,15,19,21,21,23,24,26,29,28,23,24,33,38,24,24,21
31,35,31,37,23,29,22,25,15,19,19,19,29,17,17,19,17,19,23,24,22,25,24,28,25,23,25,32,38,25,23,21
36,41,33,39,22,28,24,23,16,22,21,23,29,21,17,19,19,22,25,26,22,26,27,28,27,23,27,35,39,28,25,21
34,40,31,40,22,24,23,25,18,22,20,22,27,22,18,19,20,23,25,25,23,25,31,28,28,23,28,38,42,28,28,21
33,39,28,41,21,24,24,24,17,22,23,23,25,22,18,18,20,22,24,27,25,24,31,27,27,23,29,37,41,29,27,22
31,35,31,39,21,27,24,27,18,24,22,22,26,22,18,18,20,22,24,26,26,24,34,30,25,23,27,37,39,29,27,25
33,39,33,43,22,29,25,21,18,25,23,22,24,22,18,18,20,22,24,26,26,24,39,32,25,23,28,39,41,33,28,26
34,42,34,38,21,32,22,22,19,24,22,20,23,22,19,19,21,23,25,26,27,25,41,34,25,24,31,37,41,31,27,27
32,44,35,40,22,34,19,23,20,26,22,22,26,22,18,18,20,22,26,26,28,26,40,32,22,26,32,34,40,28,28,28
30,42,37,38,20,35,23,26,20,29,23,20,26,20,19,19,20,22,26,27,29,26,41,35,23,25,30,33,41,26,26,27
28,40,38,38,19,36,22,29,19,31,24,19,26,19,19,20,22,22,28,26,28,26,39,34,21,27,31,33,41,27,27,29
28,40,36,38,21,37,21,29,18,27,19,17,24,17,17,17,19,21,24,24,28,26,39,34,26,27,31,34,44,28,29,29
23,34,30,34,24,37,17,31,19,25,20,14,26,14,18,18,21,21,24,25,29,26,37,35,24,31,34,32,40,26,26,30
26,36,30,34,24,38,22,31,16,27,21,15,26,13,17,16,18,20,24,26,30,28,36,38,24,34,36,30,36,28,24,33
27,37,31,33,27,39,21,33,19,27,19,18,29,15,18,19,20,23,29,27,31,31,37,37,23,31,33,31,37,27,23,35
28,39,28,32,27,34,21,31,21,29,21,19,31,15,19,19,21,25,29,29,31,33,37,36,22,33,34,31,37,28,22,34
27,35,27,29,28,31,21,31,22,29,23,19,32,15,21,19,22,26,30,28,34,34,38,33,23,34,36,29,33,26,22,33
26,34,26,30,28,30,22,29,25,33,27,21,33,19,25,23,25,29,33,31,35,33,36,31,24,33,36,30,30,25,22,33
28,32,27,26,28,29,25,29,24,32,28,20,30,20,26,24,26,30,32,32,38,34,39,32,24,32,34,28,30,26,22,34
33,31,25,25,29,25,23,27,24,29,27,22,30,22,25,24,26,30,34,34,42,36,39,34,24,32,34,31,33,25,23,36
32,30,24,28,30,22,25,24,26,28,27,24,31,24,26,23,25,29,31,32,40,35,40,34,26,30,32,32,34,26,22,31
35,29,28,26,28,24,26,22,27,30,28,24,31,24,26,24,28,31,33,32,42,33,42,35,25,32,32,31,30,25,22,33
35,28,31,24,26,23,27,19,27,29,27,25,28,25,27,23,25,28,32,31,40,30,38,35,25,29,27,31,37,25,25,33
32,28,28,22,24,22,22,17,30,28,26,27,28,28,30,26,28,26,32,30,36,28,35,33,24,26,24,30,36,22,24,29
36,28,28,22,24,20,22,17,30,28,30,26,28,26,31,25,27,24,31,27,33,26,35,32,27,28,31,32,40,26,26,27
36,28,28,26,27,20,20,20,29,26,30,28,28,28,31,26,30,23,29,26,32,27,36,34,26,27,32,32,40,28,29,28
36,30,28,26,26,20,20,21,28,26,28,28,26,28,29,28,30,22,28,28,28,26,33,33,27,25,33,34,42,28,30,30
36,30,28,26,26,18,20,24,29,22,26,25,24,25,26,29,27,20,26,25,28,25,36,34,26,26,31,35,44,30,32,32
36,34,28,30,28,18,18,24,30,23,25,28,26,28,24,33,29,20,26,27,27,26,35,35,28,28,32,38,46,34,34,30
31,37,29,33,27,19,18,28,30,26,28,30,26,30,22,34,30,22,26,28,26,26,36,33,29,30,34,38,44,38,33,30
32,38,32,32,26,22,20,29,32,27,30,32,26,32,20,36,32,22,26,31,29,27,37,35,27,29,35,37,41,37,32,33
33,39,31,31,26,19,21,29,33,27,29,33,27,33,18,37,33,23,25,30,26,29,34,32,25,28,33,34,41,35,33,33
34,41,31,32,27,20,24,29,33,29,29,33,29,33,16,39,33,25,25,29,27,31,39,31,27,31,37,32,39,36,34,35
36,40,34,34,28,22,28,30,34,28,32,32,26,32,12,38,30,24,22,26,27,30,39,31,27,31,41,34,42,38,37,38
30,38,33,34,28,22,28,29,34,29,29,30,25,32,8,38,31,25,21,30,27,31,37,30,25,30,41,30,36,34,36,38
30,36,36,31,25,22,30,26,35,28,28,28,23,33,5,37,27,25,23,30,28,28,37,27,28,30,39,30,38,31,32,37
29,35,35,31,23,21,30,25,38,28,28,28,26,32,4,33,24,24,25,28,29,30,36,31,28,30,39,31,39,33,33,36
34,38,36,31,25,20,30,26,35,30,28,30,29,32,4,32,28,27,25,32,30,33,34,30,32,31,43,32,39,33,33,33
32,35,33,31,22,21,29,27,33,27,27,27,27,28,6,27,25,30,26,33,31,34,32,31,31,29,44,31,39,31,31,34
33,35,33,31,22,23,28,26,32,24,24,24,28,27,6,27,25,29,26,32,30,34,32,32,32,29,47,30,38,31,33,32
34,34,30,28,22,22,28,28,30,25,25,23,28,24,8,25,23,29,27,31,29,34,31,31,32,30,48,33,39,32,34,32
30,33,30,30,24,22,26,30,31,24,25,21,31,23,10,27,25,28,28,32,30,32,34,32,33,31,49,34,40,32,31,33
29,31,28,33,23,23,24,31,31,23,25,21,29,23,9,29,25,29,29,33,31,33,34,33,32,29,47,36,39,32,29,31
28,30,26,30,24,20,20,30,29,22,22,21,30,23,10,28,28,30,30,34,32,34,34,33,35,29,47,39,39,34,28,28
28,30,25,29,22,20,21,31,26,22,22,20,29,22,12,28,28,29,29,31,31,35,35,35,33,28,44,37,42,35,26,29
30,34,23,31,23,22,19,32,25,23,24,20,30,19,13,27,27,27,27,29,31,36,34,34,32,27,45,37,41,36,27,30
36,37,26,32,21,25,22,32,23,26,28,20,28,19,14,28,28,30,25,32,35,34,34,35,33,28,41,37,41,35,25,27
33,35,28,33,22,28,24,30,26,26,29,23,26,19,16,25,26,27,25,29,32,30,33,34,31,28,38,37,40,36,26,28
34,35,29,32,26,26,24,26,25,26,30,23,27,20,17,27,29,27,27,27,33,27,31,35,31,27,37,39,39,33,25,26
34,36,25,32,27,25,25,26,28,27,30,26,24,19,18,27,29,27,26,25,31,26,31,31,29,27,34,37,40,31,24,26
39,37,26,33,29,27,24,25,29,23,27,25,25,19,17,26,28,26,24,26,32,26,33,32,31,29,36,36,40,35,23,24
39,39,28,32,29,27,25,23,26,21,26,24,22,20,18,24,27,27,24,27,34,27,31,35,34,29,38,37,41,35,26,23
38,42,32,32,26,27,27,25,23,19,23,21,21,19,20,21,24,24,22,25,33,25,27,31,32,28,36,36,42,36,24,20
36,40,30,30,25,26,30,26,25,18,23,20,23,20,22,22,22,25,21,27,34,25,25,33,28,26,32,31,39,30,22,19
35,42,33,30,22,26,28,25,24,17,24,22,22,22,24,24,22,26,24,29,36,23,27,34,31,26,31,32,41,35,22,18
34,38,35,29,23,25,29,26,23,17,23,22,21,23,27,25,23,29,29,33,39,25,30,39,33,28,31,34,40,36,24,16
33,39,34,34,26,26,29,26,25,17,21,27,23,25,31,27,25,27,29,31,35,27,28,38,34,28,36,32,37,38,23,16
33,39,35,36,27,24,28,27,24,17,19,23,25,25,29,29,27,29,31,33,38,28,30,40,33,27,35,31,39,38,21,15
32,39,35,37,22,25,30,30,25,18,20,26,24,28,32,31,27,27,29,33,36,30,32,37,33,26,35,29,41,36,22,16
31,41,36,35,21,24,29,29,25,20,21,27,27,31,35,33,29,29,31,36,38,31,32,40,36,27,34,30,43,38,23,17
29,39,38,36,20,25,29,28,25,23,23,29,28,32,36,34,29,30,32,36,38,31,31,39,33,25,29,30,43,33,24,20
28,39,34,36,20,27,30,30,28,24,26,32,28,32,36,34,29,31,33,36,37,32,32,36,32,22,25,28,40,32,21,18
28,40,32,36,22,26,29,29,31,25,27,33,31,31,37,36,30,32,34,37,38,33,36,40,34,22,28,30,40,32,22,20
32,46,38,38,24,28,31,30,30,29,30,36,29,32,36,36,30,32,35,34,38,33,41,38,41,24,30,34,44,38,22,24
37,48,36,39,27,29,34,30,31,34,32,34,31,30,34,34,32,30,32,34,39,34,39,37,42,26,34,37,43,35,24,26
34,52,34,36,27,29,34,30,31,32,36,35,33,31,35,35,31,27,29,29,35,31,35,33,40,27,36,36,43,36,26,27
33,53,36,33,27,28,34,30,32,31,34,32,34,31,31,33,29,29,31,31,37,31,37,35,39,28,34,39,46,38,28,29
36,54,38,31,26,27,35,30,35,31,35,32,34,31,33,35,28,30,28,32,36,32,34,34,36,26,35,36,46,38,26,31
38,58,42,32,28,28,34,29,36,31,35,29,36,29,31,32,26,29,26,32,37,32,36,36,38,27,39,36,46,41,26,29
39,57,45,33,29,29,37,30,35,30,36,24,35,28,31,31,27,29,25,33,37,31,35,36,39,26,39,36,47,40,26,29
36,58,43,31,28,25,38,29,34,33,38,23,35,29,31,31,28,32,28,32,36,30,34,38,40,24,43,38,50,44,22,28
39,61,45,33,26,23,43,28,35,33,37,23,34,29,31,31,31,32,29,33,37,31,33,41,38,26,46,41,53,46,24,30
37,61,47,35,28,26,42,31,35,34,38,24,33,30,30,31,31,31,29,32,37,31,32,37,36,27,45,39,52,46,24,32
37,61,45,37,29,29,41,31,37,34,38,25,33,31,33,32,35,34,32,36,38,33,32,40,29,29,45,37,49,45,27,33
34,61,48,39,27,30,40,34,37,32,36,26,31,32,34,32,34,36,33,35,36,35,32,37,24,30,43,36,48,45,26,33
36,60,50,44,26,31,38,32,39,34,34,27,31,33,29,29,33,35,33,35,39,36,34,39,22,28,41,36,47,42,22,36
32,60,46,47,26,35,40,34,36,36,38,26,28,34,29,29,33,33,31,33,37,35,35,35,18,28,40,30,46,36,24,37
26,58,39,44,28,40,39,32,34,34,36,27,27,33,27,25,33,31,33,29,35,35,39,37,17,32,42,33,46,34,26,38
26,55,38,42,26,42,39,32,33,33,34,27,27,35,28,27,31,32,36,29,36,35,38,35,14,36,40,37,48,39,25,42
28,57,36,47,27,47,39,33,34,33,33,31,28,37,29,28,30,32,36,26,33,33,37,37,11,35,41,39,46,39,24,41
29,57,38,50,30,51,41,34,35,30,33,32,28,38,28,28,30,31,33,25,33,33,41,34,9,42,42,38,43,38,28,46
31,55,40,51,31,54,36,34,34,32,35,34,29,37,27,27,26,31,30,23,32,33,43,32,7,39,42,39,40,37,28,44
37,53,39,53,30,56,37,33,33,34,38,36,31,40,30,30,27,33,29,24,32,33,45,36,5,41,43,43,43,39,30,44
37,54,38,52,28,55,36,33,35,33,38,37,31,39,27,28,26,33,28,24,32,33,44,37,5,42,48,47,46,36,32,44
38,52,36,53,29,55,35,34,36,34,38,36,35,38,26,30,26,31,31,25,35,33,46,39,9,44,50,46,48,36,33,45
41,52,37,54,31,58,40,32,34,34,35,36,34,36,30,34,30,36,32,28,34,33,45,40,11,45,48,47,49,37,34,43
41,49,41,51,31,55,38,28,36,33,34,38,36,34,30,34,32,38,34,30,36,34,46,42,11,43,47,51,47,39,31,42
44,48,45,54,30,53,36,27,34,31,37,38,38,36,30,34,31,38,37,31,39,36,49,40,11,44,48,51,46,42,32,41
44,46,46,54,30,52,36,25,36,30,41,40,39,35,30,34,34,38,38,32,40,38,51,42,16,45,50,50,45,38,34,37
45,46,47,51,30,48,33,24,37,28,41,40,39,32,31,35,31,35,36,31,39,38,52,39,18,44,48,51,46,41,34,36
43,41,43,51,30,46,30,24,38,30,40,42,40,34,34,38,34,36,36,34,38,42,52,41,20,43,45,51,47,41,33,35
40,38,41,52,30,46,30,25,37,31,38,41,41,36,36,40,37,37,39,37,39,43,55,41,25,48,43,52,45,41,31,37
39,39,39,49,29,45,29,23,37,29,37,39,39,31,35,35,33,35,41,34,38,42,55,43,31,49,43,53,46,38,29,37
39,35,37,45,29,40,29,22,33,28,36,35,40,29,35,33,31,34,40,34,38,42,54,43,36,48,36,51,44,40,26,36
38,35,36,42,29,38,28,19,31,26,34,36,39,31,35,32,30,35,39,34,37,41,55,41,36,48,36,50,37,38,25,33
33,32,30,35,26,35,23,23,31,23,34,33,37,31,35,31,29,33,35,31,35,41,57,39,38,47,33,49,35,37,23,33
31,29,25,31,23,29,19,23,29,23,31,31,36,31,35,31,27,31,33,29,34,40,54,36,42,48,33,51,37,35,23,32
27,25,21,27,19,25,17,23,32,25,29,31,34,29,35,31,27,31,29,29,35,38,49,36,47,46,29,49,35,31,19,34
24,28,18,26,22,24,16,23,27,27,27,29,31,27,31,27,23,27,26,27,32,34,45,33,44,42,26,45,32,30,22,34
18,22,14,21,18,20,14,19,22,25,24,25,26,25,26,22,22,26,24,26,30,32,42,30,40,40,24,40,26,24,20,32
16,26,12,17,15,16,12,16,18,22,22,22,22,22,24,20,20,26,24,26,30,30,42,32,36,36,26,42,26,24,18,28
15,27,11,13,12,13,11,17,17,19,21,19,19,19,21,17,17,23,21,23,27,27,39,35,35,32,25,35,27,25,16,26
13,27,12,14,11,10,10,13,17,17,21,21,21,23,21,19,19,26,22,26,28,28,38,32,34,30,25,32,22,24,14,24
10,27,13,15,11,11,7,11,15,15,19,21,20,23,21,19,19,24,22,26,28,26,38,29,32,30,24,26,20,24,14,24
9,27,15,15,11,13,7,11,15,15,18,20,21,22,21,18,19,23,22,25,28,27,38,30,33,29,25,25,24,25,15,27
11,29,17,17,13,15,9,9,17,17,19,21,23,21,19,17,17,21,25,27,29,27,39,33,31,30,30,25,29,27,18,28
14,34,22,22,16,22,11,12,17,16,19,21,22,21,19,17,17,21,25,27,29,28,38,34,29,29,32,22,31,30,18,29
18,40,30,25,19,27,15,17,17,18,19,21,23,21,19,17,16,20,24,27,25,26,41,34,28,29,36,28,32,35,24,28
24,39,32,28,18,32,18,22,19,19,19,23,24,21,21,19,19,23,29,27,29,27,46,37,33,32,39,30,34,37,25,31
25,43,33,31,23,32,19,21,21,19,20,23,28,22,22,20,20,24,29,28,29,32,50,41,39,35,45,31,40,39,27,36
29,44,35,31,25,36,21,24,25,20,22,22,29,22,22,20,20,22,30,26,30,32,48,38,44,36,44,30,42,38,30,39
31,45,37,35,29,39,23,22,27,19,23,25,31,21,21,19,19,23,31,27,31,33,49,35,43,37,45,33,43,37,33,41
31,43,35,33,30,43,23,24,27,23,21,21,29,19,19,19,21,21,29,27,31,33,47,37,42,38,45,33,43,39,35,44
32,44,34,36,32,42,26,28,31,24,22,23,29,19,19,19,21,21,27,25,29,33,45,38,43,36,47,36,44,38,36,41
33,45,36,39,33,43,27,28,32,24,23,26,27,19,19,19,21,21,25,25,28,30,45,38,42,36,45,37,44,39,37,40
33,45,37,39,35,42,27,30,32,23,23,30,27,19,19,19,21,21,23,23,27,31,43,35,44,36,44,36,41,40,36,38
34,44,36,40,38,38,29,29,33,26,25,32,30,20,22,21,23,23,25,25,29,29,45,35,48,40,44,34,42,40,38,36
34,42,32,40,39,36,27,26,35,24,25,33,33,21,23,21,24,26,28,27,32,32,43,36,48,41,44,29,44,37,36,35
32,41,32,40,38,35,26,27,34,22,24,30,34,20,22,20,22,24,25,26,28,32,41,34,42,39,42,28,43,34,33,33
35,41,37,40,35,38,27,30,36,24,24,32,31,21,23,21,24,25,26,29,32,29,40,31,41,40,40,31,44,35,33,30
35,38,41,39,35,37,28,28,35,25,25,35,33,23,25,22,23,23,26,27,32,30,38,30,43,40,43,30,41,37,32,28
35,37,41,37,35,38,26,33,36,26,24,32,33,24,26,22,24,22,25,26,30,30,37,31,45,41,45,29,40,35,33,27
36,40,42,42,37,39,26,33,38,24,24,38,36,24,26,22,24,24,26,26,32,30,38,32,44,38,46,30,46,34,34,26
37,39,45,39,35,41,26,31,38,25,25,36,38,24,26,22,24,24,26,26,34,32,42,31,48,40,46,30,50,36,35,28
39,40,42,40,36,41,27,34,38,27,25,34,40,25,27,22,24,24,26,26,34,32,42,31,48,39,46,30,52,36,32,28
40,42,42,42,36,43,30,35,38,28,27,34,40,28,30,26,26,24,30,28,36,32,42,34,50,38,46,32,56,38,32,29
39,41,43,39,33,46,31,36,37,27,27,32,41,28,29,25,25,23,29,27,35,35,41,35,49,35,45,33,53,39,32,30
40,38,46,43,32,47,34,38,36,27,29,33,37,27,27,27,27,23,29,27,35,35,43,36,50,34,42,35,50,38,30,30
39,39,46,43,31,49,35,36,36,31,32,35,40,30,29,28,28,22,30,28,34,36,44,37,54,33,41,35,52,37,29,31
37,37,43,39,29,49,36,33,36,31,33,36,42,28,28,28,25,19,32,27,31,38,44,41,54,31,41,34,50,36,27,31
39,41,45,42,29,52,37,36,36,31,33,36,42,28,28,28,25,21,30,29,34,38,49,44,51,33,41,32,51,38,28,32
36,41,45,44,27,48,37,31,35,31,33,35,40,29,29,29,25,21,32,29,38,40,49,44,50,29,37,34,52,40,25,33
36,40,44,40,26,44,36,31,33,31,33,31,37,29,29,29,22,19,31,27,36,41,54,43,54,30,38,32,50,40,26,33
36,40,44,42,26,44,36,30,31,32,34,31,37,31,31,32,22,21,33,28,34,41,50,43,48,28,38,33,45,39,24,31
36,39,46,41,25,45,35,29,31,32,37,33,36,32,30,30,22,22,36,28,36,44,50,46,51,29,40,36,44,38,25,32
36,37,49,41,25,43,33,27,30,29,38,30,34,28,30,28,22,24,34,26,32,44,48,42,50,28,38,34,39,34,26,33
38,42,49,42,26,42,32,30,31,30,39,33,33,27,29,27,23,25,35,27,31,43,49,43,49,29,40,35,43,35,28,35
37,43,45,37,23,41,29,26,29,30,38,34,31,27,30,26,21,25,35,28,32,41,48,42,47,30,41,33,43,35,27,38
33,43,40,33,23,33,29,27,30,29,36,35,30,27,31,27,23,29,34,29,35,42,46,41,47,31,45,34,39,37,27,38
34,46,40,38,26,32,27,27,28,28,34,34,28,28,30,26,25,31,32,31,35,42,47,39,49,34,44,35,41,39,31,37
31,44,40,40,22,31,25,25,31,25,31,35,29,30,31,26,26,33,34,30,33,42,44,36,51,34,41,39,45,41,30,37
33,45,39,39,20,35,27,27,31,25,31,37,31,29,29,25,25,35,37,31,32,43,45,37,52,38,45,40,48,42,32,35
33,44,42,40,21,38,32,31,34,28,35,40,32,31,31,27,27,36,38,32,34,42,42,36,51,42,43,43,47,44,31,36
34,44,42,40,18,36,33,34,35,28,34,43,31,31,31,26,30,35,37,34,34,41,42,38,54,40,44,45,49,44,32,37
30,44,40,36,19,32,31,33,36,27,30,40,32,29,31,28,30,34,35,35,33,41,42,35,50,38,42,45,53,46,32,34
30,47,36,36,16,33,29,33,38,27,27,42,34,30,28,26,28,32,32,34,32,40,38,36,49,37,39,43,51,43,29,35
27,48,32,35,14,33,29,31,39,27,24,40,32,30,28,26,26,30,32,32,31,41,37,33,49,35,35,39,45,37,27,32
25,49,29,33,17,31,30,34,39,28,24,39,33,31,27,26,27,29,31,32,30,41,37,32,46,33,34,36,42,38,28,30
30,47,29,33,19,33,28,31,35,26,24,34,29,27,25,25,25,25,29,29,27,37,33,29,40,30,28,33,40,36,30,27
32,42,26,28,23,32,28,33,35,27,25,33,29,27,25,25,25,25,27,25,25,33,27,25,33,24,24,27,33,31,28,26
31,39,21,22,25,29,27,32,30,29,28,32,26,26,23,22,24,22,24,22,21,28,26,24,27,22,23,22,27,25,26,22
32,35,17,17,27,23,25,33,28,29,30,30,26,24,22,22,24,18,20,20,18,23,22,22,23,18,20,18,22,20,22,21
30,31,11,13,28,19,20,29,26,26,28,28,26,23,20,21,23,18,16,17,13,19,17,17,17,13,15,13,19,15,21,18
25,27,8,10,33,19,18,27,24,24,29,26,26,22,20,20,23,18,16,14,12,18,18,12,12,12,10,7,13,11,25,16
25,22,5,8,30,18,16,28,23,27,29,27,25,23,21,21,22,19,16,12,9,14,15,10,9,9,7,1,5,5,24,14
23,15,3,4,31,13,15,25,20,29,30,26,24,22,20,20,22,18,16,10,8,10,14,6,5,7,7,1,5,5,27,13
23,10,1,1,34,9,13,23,20,27,30,26,24,22,20,18,22,18,14,10,7,8,11,5,1,5,7,1,3,5,26,13
22,6,2,2,34,9,11,22,20,26,28,24,22,20,20,16,20,18,14,6,4,6,8,4,2,4,4,2,4,2,25,11
18,4,2,2,34,6,11,22,24,26,28,26,24,22,20,16,20,20,16,8,6,8,10,6,4,6,4,2,4,4,26,12
12,6,2,2,31,4,10,23,26,25,29,25,25,21,19,15,21,22,19,11,9,11,11,9,7,7,4,2,4,5,25,13
12,8,5,5,31,6,14,27,28,26,29,28,28,24,22,20,24,24,22,14,10,14,10,8,8,6,2,2,2,5,27,18
16,16,10,7,33,10,15,27,27,28,29,28,25,25,25,21,23,25,21,13,10,18,10,7,7,6,2,1,1,5,28,22
22,20,14,10,30,14,22,28,30,28,28,26,27,25,27,23,25,25,23,15,11,19,11,9,11,11,3,1,3,9,31,25
26,24,18,16,28,16,24,30,33,29,27,25,28,23,25,23,22,23,21,15,11,20,9,13,13,15,7,1,7,9,30,25
28,26,22,20,30,20,27,28,33,27,27,25,30,23,25,24,24,24,22,18,14,24,14,17,17,20,10,3,11,13,32,30
32,30,28,24,32,24,30,30,36,26,27,25,29,25,27,25,25,27,25,21,19,29,19,19,23,25,13,6,15,19,33,29
33,31,31,28,29,29,31,32,37,28,27,23,29,27,29,29,25,27,27,21,21,31,24,23,27,30,16,9,20,22,35,30
37,36,35,31,27,33,33,35,37,30,30,25,31,29,31,31,27,27,27,23,24,35,27,26,33,34,19,13,24,27,38,33
43,43,41,35,25,37,35,37,37,32,30,24,33,28,30,32,26,26,28,22,24,35,29,30,36,36,23,18,30,30,36,37
46,44,42,41,24,43,39,34,37,32,29,28,33,30,32,33,25,25,29,21,23,35,31,33,39,42,28,22,38,33,40,39
47,47,43,41,23,44,39,33,39,29,29,25,34,27,31,29,21,23,28,20,24,36,34,34,41,46,33,23,41,38,41,38
43,44,42,44,20,45,41,30,40,30,30,26,36,27,28,28,26,24,30,22,25,34,35,36,46,49,37,26,46,42,44,38
39,44,41,45,22,41,39,29,37,32,32,27,35,27,29,29,25,25,31,23,27,36,37,37,48,49,41,29,47,41,41,38
37,42,37,41,19,37,39,25,34,32,35,26,32,26,28,26,24,24,30,22,28,35,37,38,50,49,40,32,46,44,37,39
37,45,39,41,21,38,41,23,33,31,35,25,29,25,27,25,23,23,32,22,28,33,36,39,49,47,39,37,49,45,35,39
34,44,36,41,20,39,42,23,33,31,36,26,29,26,28,26,24,22,30,23,26,30,32,42,48,46,38,37,50,44,36,38
33,45,35,42,18,38,41,24,31,29,36,27,31,24,26,23,23,21,27,21,25,29,29,39,49,46,39,38,50,43,36,39
30,41,33,41,18,38,42,21,32,27,35,28,32,24,24,22,22,20,26,20,24,26,28,38,46,46,37,36,48,40,34,41
25,38,32,44,20,36,43,19,30,25,39,31,30,27,25,21,23,23,27,21,25,26,28,35,47,46,37,34,46,36,34,38
30,39,37,44,17,33,43,21,31,25,41,27,29,25,25,21,23,23,25,21,27,27,31,35,46,43,33,33,44,39,32,36
30,37,38,43,21,32,38,20,31,27,42,31,30,27,23,23,25,25,28,22,27,28,30,35,46,40,30,36,44,35,30,36
26,33,33,38,20,30,35,19,30,25,41,31,28,26,24,24,22,24,31,23,27,30,34,33,45,39,28,33,40,33,26,38
25,34,30,39,21,33,35,20,30,23,39,32,26,26,22,21,21,23,30,21,26,29,33,33,44,40,25,37,42,35,29,39
27,35,33,39,22,37,33,23,32,24,38,36,30,28,22,24,24,26,32,26,30,32,39,34,46,38,27,39,43,32,28,38
31,35,32,40,22,39,30,28,31,26,36,38,34,30,24,26,26,28,30,28,31,33,39,33,49,36,31,37,41,31,30,34
32,36,31,41,20,41,30,30,31,24,35,37,35,29,23,25,25,27,29,27,31,35,43,33,49,35,33,39,36,29,31,35
30,34,32,41,21,41,30,28,33,25,36,39,35,32,25,28,28,30,33,28,33,37,46,37,51,35,34,38,36,33,30,34
28,33,30,38,21,37,28,27,31,23,34,40,36,32,28,30,27,32,34,29,34,37,46,34,48,30,32,36,32,32,28,28
29,32,29,34,18,39,25,27,31,21,32,39,35,31,28,32,27,31,31,31,33,39,48,39,46,30,32,36,33,33,26,29
21,28,27,33,23,43,28,28,27,22,33,42,37,32,27,31,27,31,33,31,31,39,47,40,46,27,33,36,30,31,23,28
24,29,28,33,21,44,34,29,23,21,30,37,33,29,27,31,29,33,33,32,32,35,51,42,48,30,35,34,31,34,25,27
27,33,33,37,23,46,33,30,24,21,27,37,34,28,26,32,28,34,31,29,31,34,48,45,47,31,37,35,37,35,30,24
32,34,39,38,25,46,34,27,25,26,31,37,37,31,27,34,30,36,33,32,33,31,50,46,47,31,39,31,39,34,30,19
30,36,40,40,27,46,34,28,22,26,30,34,32,30,28,32,28,34,32,28,28,28,44,44,46,35,41,32,41,38,35,21
26,35,36,39,27,45,36,29,26,28,34,36,29,32,30,34,30,32,33,24,28,28,41,42,42,40,36,28,40,36,36,26
25,35,34,39,30,42,37,27,27,31,36,36,31,33,31,35,31,31,33,23,28,28,40,43,44,38,38,30,44,38,35,25
27,36,33,38,34,45,39,25,25,31,37,35,29,31,30,34,30,30,32,26,29,27,39,44,42,37,36,31,45,33,35,26
30,42,35,42,35,49,42,28,27,35,40,34,28,31,27,31,32,27,31,24,31,27,38,49,47,39,41,35,49,39,39,27
29,41,33,44,35,49,42,29,25,35,42,33,27,32,27,29,31,25,31,21,27,23,32,41,42,35,38,34,46,38,37,23
29,39,28,41,33,45,36,25,25,33,38,29,26,31,27,29,31,25,29,21,27,19,27,35,39,37,35,33,45,33,39,24
28,42,26,41,32,45,32,22,24,32,36,28,26,32,26,28,28,22,26,18,26,20,24,34,39,33,34,38,49,34,39,22
28,43,24,41,33,49,35,21,23,31,37,27,25,33,27,27,29,21,25,21,30,21,26,36,38,33,33,38,48,32,39,23
25,42,22,40,32,50,34,22,23,28,34,26,25,30,24,24,26,18,25,20,30,25,24,37,37,30,31,39,45,32,36,26
26,40,22,40,31,49,35,21,28,26,36,30,30,32,26,26,28,20,28,22,32,26,24,34,34,24,28,36,40,30,32,22
29,41,27,39,31,45,33,17,23,21,31,25,27,27,20,20,24,21,25,24,31,25,25,35,36,23,32,38,41,33,33,22
28,40,30,40,28,47,30,19,21,19,28,23,25,23,17,17,21,19,24,23,28,23,26,35,37,28,32,36,41,32,32,24
29,41,33,42,26,42,30,22,19,20,28,20,22,22,16,16,20,18,22,20,26,20,30,36,39,28,33,34,42,31,30,24
27,37,33,42,25,41,31,24,19,19,29,19,25,22,17,17,19,19,21,21,28,23,32,35,38,28,32,30,44,26,26,26
30,40,36,43,29,43,33,25,24,24,30,22,26,23,19,19,20,20,22,22,30,28,34,38,42,30,36,30,46,28,30,30
31,45,39,45,31,45,35,28,28,28,30,26,28,26,20,20,22,22,24,24,32,32,39,43,43,29,39,33,49,33,33,32
32,43,39,46,32,42,35,31,31,29,33,29,29,27,25,25,25,25,27,29,37,32,39,43,44,32,40,28,47,30,34,36
32,41,40,45,29,40,34,31,32,33,32,30,30,28,24,24,24,26,28,26,34,32,38,41,47,32,40,27,47,33,33,36
29,39,37,41,29,35,34,31,33,32,32,30,31,28,26,26,26,30,29,28,34,33,38,43,49,32,44,30,51,35,33,36
29,45,37,41,26,37,33,31,30,34,33,26,30,24,22,22,24,28,26,26,33,34,38,45,50,35,43,29,51,35,37,39
28,46,36,44,24,40,34,30,33,34,32,27,32,27,25,23,25,29,28,27,33,36,42,46,49,35,40,33,48,36,36,39
31,47,37,41,26,39,36,27,35,34,32,30,33,28,26,26,26,30,31,29,35,37,42,45,48,34,33,32,47,34,36,37
33,49,39,42,27,43,37,25,36,32,29,29,34,28,26,25,27,31,33,31,37,39,41,43,47,35,34,34,47,38,39,37
34,51,39,40,28,44,35,23,33,33,28,29,33,30,29,27,27,31,33,32,35,39,40,42,44,36,36,40,45,40,42,36
32,53,36,39,27,44,32,24,31,33,25,27,31,27,27,25,27,31,33,33,35,35,43,43,45,38,37,43,47,41,42,34
33,53,35,38,26,46,32,23,30,31,25,27,30,25,27,25,25,29,30,30,34,36,43,42,45,41,41,41,47,42,41,33
32,52,35,38,27,49,35,24,29,31,24,25,29,23,22,20,22,25,29,29,31,38,41,39,44,37,45,42,46,44,41,32
35,53,36,41,30,50,36,26,30,32,26,27,31,25,25,24,23,28,30,32,34,39,44,40,44,38,46,46,46,46,43,28
40,54,40,43,33,52,37,28,27,31,27,27,30,25,26,24,24,26,26,28,30,38,44,37,43,36,43,41,41,45,43,26
40,49,43,43,35,53,39,26,26,30,26,28,28,30,29,25,25,27,28,27,29,38,46,34,45,38,44,42,40,47,40,26
40,48,40,38,36,49,37,27,27,35,31,31,30,29,30,28,26,29,30,30,31,38,44,36,48,38,46,37,42,44,40,26
38,48,38,38,38,46,37,29,25,35,32,30,30,30,31,27,28,29,27,28,29,36,42,34,47,35,46,36,44,46,40,23
38,48,36,36,39,42,36,26,27,37,34,32,32,31,34,30,28,30,26,28,28,36,40,34,45,36,46,35,43,45,39,21
37,48,37,38,38,41,37,27,27,37,34,33,29,28,30,30,30,30,26,27,29,35,39,33,45,36,44,33,44,45,36,23
38,47,38,38,37,41,38,27,27,35,35,33,31,29,31,31,31,31,29,29,31,37,36,29,45,38,44,33,43,44,36,25
41,47,41,40,38,38,38,26,28,35,38,34,33,29,31,31,31,32,31,31,31,35,35,29,49,38,41,35,45,42,38,24
43,47,39,40,38,36,37,23,29,35,37,35,33,31,32,32,32,33,31,29,31,35,37,31,49,42,41,33,45,41,36,23
43,48,35,38,37,34,34,22,28,30,35,31,31,27,29,29,31,28,30,26,31,33,37,30,48,42,40,34,44,39,36,25
38,46,34,39,35,36,32,22,29,30,32,31,28,27,29,27,29,26,31,27,31,30,35,30,45,45,39,37,45,39,35,28
39,49,33,39,34,37,29,25,29,29,31,29,27,23,26,28,30,26,32,28,35,30,34,33,45,43,41,39,52,38,35,27
39,49,35,43,35,44,32,28,29,29,29,27,27,23,24,27,27,22,30,24,32,28,32,29,43,41,41,38,53,39,35,26
38,48,34,44,34,44,32,26,31,28,29,27,27,23,23,26,27,22,32,24,36,31,33,30,41,40,42,38,50,38,34,26
36,48,34,44,32,46,30,26,29,26,26,26,25,20,20,24,26,21,29,22,35,31,34,28,43,38,42,36,48,36,32,25
36,47,36,43,34,48,28,25,32,26,24,26,28,20,22,24,26,24,32,24,34,32,34,28,44,38,43,36,49,38,36,26
37,47,37,43,34,49,30,26,34,28,22,28,30,20,22,24,26,26,30,24,34,32,34,30,43,33,47,34,50,42,35,24
37,49,38,43,32,53,31,30,32,28,20,26,28,20,22,24,28,26,30,23,33,31,36,31,40,36,46,33,49,42,36,25
31,47,39,38,29,54,29,30,31,27,19,25,27,20,26,28,30,28,28,25,33,29,35,27,39,31,43,31,49,41,33,23
29,44,41,35,28,51,31,29,30,27,21,28,26,20,26,28,31,29,27,27,33,30,33,29,40,30,42,27,49,41,32,25
31,45,39,35,27,49,30,27,31,27,22,27,31,19,25,29,32,31,28,27,33,32,33,29,39,29,44,29,49,39,33,25
30,43,37,35,30,48,31,25,33,27,23,31,33,22,28,30,33,31,24,29,30,30,32,28,40,30,42,28,45,40,34,27
29,43,38,31,29,46,29,23,32,22,20,32,33,22,28,29,35,33,24,30,30,30,32,30,38,32,42,28,46,39,33,26
31,43,39,31,29,47,27,25,31,25,20,34,35,22,28,29,35,34,28,34,30,29,32,32,42,35,44,30,48,41,35,28
34,43,39,33,32,47,27,27,33,25,21,34,37,23,30,30,34,35,31,36,31,29,32,34,41,38,44,32,52,44,38,31
38,44,36,34,29,48,29,26,31,23,25,31,39,25,29,29,33,35,31,37,33,27,31,37,39,35,42,32,50,40,35,29
36,42,36,32,28,46,28,22,28,21,25,27,36,23,27,27,31,30,28,36,32,27,33,37,40,36,40,31,48,38,36,32
33,39,32,28,28,41,27,21,29,23,27,29,36,25,29,27,29,30,28,36,32,26,31,34,39,35,39,28,44,34,33,33
33,40,32,31,27,41,29,19,29,23,29,29,36,25,25,23,28,28,28,36,32,26,30,35,37,36,37,29,41,32,33,34
35,41,31,33,28,45,30,20,29,22,31,27,39,25,24,24,27,27,27,36,31,26,29,35,37,35,39,31,39,33,33,34
37,39,35,31,29,47,36,21,28,23,28,28,36,24,24,26,26,26,27,39,33,29,29,33,39,33,36,27,35,29,31,32
34,36,34,28,27,45,34,20,29,24,28,27,35,23,24,25,24,26,27,38,35,29,27,31,39,33,40,27,33,26,31,30
35,35,33,29,25,41,35,19,28,24,31,28,33,24,25,27,25,28,27,39,35,29,27,29,39,32,39,27,32,25,29,31
32,32,32,28,24,40,35,18,29,20,32,28,33,26,28,30,28,29,25,35,35,31,27,25,36,30,40,23,32,22,26,31
29,30,28,22,24,36,34,16,28,18,34,29,32,27,29,30,28,28,22,34,32,28,24,24,34,28,40,24,31,20,26,28
25,26,27,17,21,29,30,14,29,18,32,31,27,25,29,31,29,27,21,31,31,29,27,22,35,32,42,23,32,21,30,28
27,27,27,19,23,29,33,17,31,20,33,31,29,28,31,33,31,32,25,30,30,27,25,23,35,31,39,27,32,21,29,27
28,29,28,22,23,32,34,18,30,16,32,28,27,24,28,33,33,31,23,31,31,31,25,27,39,30,41,29,33,23,30,27
30,27,29,22,26,32,32,23,31,17,30,29,28,25,28,34,34,30,22,28,30,32,26,30,42,29,44,30,36,23,32,29
28,26,30,22,25,32,32,27,33,23,28,29,27,28,30,34,34,32,24,29,33,32,28,28,40,30,44,32,36,22,34,30
25,26,27,24,24,31,28,28,33,24,29,29,27,31,30,32,34,32,24,26,31,29,29,31,39,31,45,33,39,25,34,30
26,30,26,26,23,30,28,30,31,22,28,28,28,31,31,33,33,31,24,25,28,28,30,30,35,28,42,32,38,26,33,30
24,30,28,26,24,32,26,30,33,25,26,27,30,32,31,31,31,28,24,24,28,28,30,30,36,28,40,32,35,25,33,30
24,32,28,27,23,33,27,31,32,27,25,25,28,32,28,28,28,26,22,24,26,26,28,32,37,26,38,36,37,29,36,28
26,34,32,31,24,39,27,33,31,29,24,23,27,31,27,27,27,25,23,23,27,27,29,31,37,25,35,33,35,29,33,29
28,38,34,37,28,42,32,34,29,30,24,21,27,31,25,25,25,23,21,23,25,25,25,31,37,21,33,34,35,30,31,29
28,38,34,38,26,40,28,34,28,27,24,22,24,30,24,24,23,19,18,21,25,25,26,28,36,21,34,32,34,30,30,29
29,36,32,38,27,37,24,30,28,28,23,25,26,30,24,24,22,20,20,20,24,22,26,27,35,19,34,35,35,30,29,27
28,38,32,38,28,38,24,30,26,28,22,24,26,30,25,23,20,22,22,21,23,22,27,24,35,23,32,34,36,30,28,29
27,37,31,37,27,34,24,28,23,26,22,23,25,27,23,21,19,19,21,19,22,21,25,25,33,23,29,31,35,31,25,27
27,38,31,38,30,33,27,25,24,27,22,24,25,25,23,21,19,19,21,19,23,20,26,24,32,24,29,31,36,31,24,27
26,35,32,39,33,35,27,26,24,27,23,25,23,25,21,19,19,19,23,21,25,21,29,25,37,23,29,31,35,31,25,27
26,35,32,41,35,34,27,25,22,25,22,23,21,23,19,19,19,19,25,23,27,21,29,27,39,23,29,33,39,35,27,27
29,35,33,41,36,35,29,25,22,25,23,23,20,20,18,19,19,19,25,24,30,22,31,28,40,25,31,31,40,34,27,30
30,37,35,39,35,34,29,25,23,25,22,26,21,22,17,19,19,19,25,25,31,21,33,29,42,26,34,34,42,35,29,29
29,37,36,35,34,34,26,26,26,24,20,26,20,24,18,20,20,20,25,24,31,21,33,31,43,25,33,32,39,36,29,31
27,33,35,33,35,35,27,24,25,24,19,26,23,24,18,19,20,20,26,24,30,24,34,31,43,26,31,33,38,33,29,30
25,34,39,33,36,35,28,26,25,24,20,25,23,25,19,20,20,20,28,24,30,26,32,29,41,26,29,29,37,32,29,31
26,32,38,32,32,32,28,21,27,23,20,23,23,23,17,19,20,19,27,24,30,25,30,30,41,24,28,30,35,32,28,28
26,36,41,30,31,32,29,19,29,26,21,26,22,25,20,20,20,20,26,24,28,24,30,30,44,22,30,30,36,30,28,26
26,40,41,28,26,32,29,24,28,23,24,24,22,26,20,20,20,20,26,24,28,24,28,30,46,22,32,33,38,32,30,29
27,41,41,28,24,31,28,21,28,24,24,23,22,24,19,19,19,20,24,21,26,24,28,30,44,26,34,34,41,36,29,32
27,39,41,29,20,29,27,22,30,24,26,25,22,24,22,20,20,20,21,21,23,24,27,29,41,27,35,35,39,35,27,31
26,40,40,30,19,29,27,23,28,25,29,26,22,26,24,22,21,22,22,23,23,23,26,30,42,28,36,38,38,34,26,28
24,38,39,32,17,29,28,25,29,26,30,26,24,26,28,21,21,21,21,23,23,23,25,31,40,29,36,39,38,35,28,29
23,39,35,34,16,27,31,27,26,27,31,28,24,26,28,22,22,20,21,28,23,23,26,34,42,28,36,41,39,33,26,29
25,42,35,35,19,27,30,27,29,27,32,29,23,27,29,23,23,22,21,31,25,21,25,35,43,29,37,39,39,35,27,30
28,44,36,37,16,28,32,29,30,28,33,30,23,28,31,27,25,21,21,33,27,21,27,36,40,30,36,42,40,38,28,30
28,48,34,36,20,30,32,30,32,30,34,34,24,30,35,29,27,23,23,33,29,21,27,37,41,31,39,45,44,39,33,31
29,48,35,39,23,31,28,33,31,28,35,33,22,29,32,28,26,22,22,32,28,20,28,37,43,31,39,44,46,39,33,33
30,44,34,42,26,28,29,29,32,28,32,32,24,30,32,28,26,22,22,32,28,20,28,36,42,32,38,43,46,38,34,29
31,45,30,43,26,29,33,31,34,31,35,32,24,31,33,29,27,23,22,33,28,20,26,36,42,30,36,44,45,36,35,29
30,48,30,45,30,31,37,32,33,31,33,29,25,29,29,27,26,22,25,30,31,25,28,34,40,30,36,40,46,34,38,32
32,51,32,48,29,30,36,31,35,31,30,31,29,30,30,27,25,23,26,28,28,26,30,33,40,29,37,37,45,37,39,34
31,50,29,46,30,29,35,30,34,31,29,29,26,29,29,27,25,23,27,27,29,27,29,31,42,27,35,37,41,34,36,35
34,49,30,46,30,28,32,28,31,30,28,27,29,27,29,25,25,23,29,23,29,29,30,29,43,28,37,37,42,35,37,33
30,49,30,45,25,28,32,27,27,31,29,27,29,27,30,26,24,21,28,20,28,30,30,26,42,29,37,34,44,35,35,31
29,47,30,45,25,29,32,25,26,31,29,26,30,27,29,22,22,22,27,18,27,29,29,25,46,33,40,34,44,37,36,27
31,44,33,47,21,31,31,25,25,31,31,23,29,26,26,22,23,21,25,18,26,30,30,26,47,32,38,33,40,36,32,26
32,42,34,46,20,33,32,21,23,27,29,23,31,27,25,21,25,23,25,19,29,33,31,24,44,34,38,35,40,36,34,25
30,44,36,46,18,38,30,23,23,29,31,25,31,27,27,21,27,25,27,21,31,33,33,27,45,33,36,35,36,38,33,29
31,45,43,46,18,41,29,24,23,28,28,28,33,28,30,24,31,29,31,23,33,35,35,28,44,33,37,33,39,38,31,30
33,45,39,42,17,41,29,27,26,31,31,32,35,29,31,24,32,33,31,25,33,34,37,29,49,35,41,37,39,39,31,31
31,43,37,34,18,42,29,29,28,32,35,31,34,29,28,25,33,30,31,25,33,34,36,28,45,31,36,35,35,36,27,29
31,42,39,37,17,46,31,29,30,29,37,33,33,27,27,25,33,29,33,27,30,32,34,29,41,34,34,30,36,35,27,28
31,40,41,36,20,49,34,32,34,32,40,36,33,29,27,27,33,31,32,30,32,32,34,29,37,37,32,29,35,34,26,31
34,40,42,36,23,50,34,33,37,33,41,37,33,29,28,27,35,33,35,33,33,33,35,30,37,33,31,30,34,33,29,34
35,43,42,37,26,51,33,31,37,33,40,35,33,28,27,27,35,35,37,35,37,34,38,33,36,30,30,30,34,29,28,38
34,48,42,38,30,52,34,29,35,32,38,35,32,28,26,26,32,34,37,36,36,36,39,33,34,31,29,32,35,31,30,39
35,47,40,40,31,53,38,32,37,36,40,36,31,27,27,27,31,33,39,37,35,33,38,33,35,31,29,31,37,33,29,38
38,44,38,40,29,50,36,29,35,33,39,37,30,25,25,27,29,31,39,37,38,34,40,33,35,33,32,30,40,30,31,34
40,48,37,41,32,49,38,25,35,29,39,35,30,25,23,26,26,28,35,36,38,34,39,33,37,34,32,32,40,33,34,30
41,50,37,42,33,47,33,22,30,29,41,35,27,27,25,28,28,28,37,37,38,33,36,36,34,32,27,29,42,33,33,27
46,49,42,46,36,46,35,21,31,26,37,33,25,29,27,29,26,27,36,35,39,31,38,36,42,39,33,34,48,36,38,27
49,52,43,43,37,46,33,23,31,29,39,33,26,31,29,31,27,28,34,34,41,33,41,36,47,41,37,39,53,39,39,29
45,49,39,45,38,43,32,22,30,28,38,32,24,31,29,31,27,25,34,32,40,31,42,35,49,41,39,41,55,39,39,28
42,47,38,46,38,42,32,24,29,28,36,30,21,30,27,29,25,23,33,33,41,31,41,38,48,44,38,44,54,38,36,28
39,41,37,41,35,39,33,27,31,27,37,35,21,33,31,29,25,25,35,35,41,30,40,36,48,46,40,45,53,41,35,27
38,36,34,36,32,34,32,27,31,26,37,35,22,33,31,29,25,25,36,34,40,30,44,39,49,46,43,45,54,40,35,26
38,38,34,35,32,36,30,26,31,24,34,34,22,33,31,29,26,26,36,34,42,30,45,41,47,44,41,43,52,39,34,26
38,39,33,36,36,38,29,26,32,26,32,32,21,34,32,30,27,26,34,32,37,27,43,40,47,45,37,41,51,39,31,27
35,36,31,33,33,38,25,28,31,27,31,31,19,33,31,29,25,25,34,31,35,25,43,39,45,43,37,37,51,35,29,27
33,35,35,35,32,41,28,30,34,27,27,31,20,31,29,27,23,23,33,30,35,25,43,39,49,43,36,38,49,34,26,28
29,31,30,33,30,40,26,28,29,28,28,30,21,30,28,24,24,26,31,30,34,25,41,37,42,38,33,36,44,32,23,28
25,30,28,34,30,38,26,26,28,26,26,28,23,28,26,22,23,25,31,29,33,27,39,35,39,36,30,35,40,30,22,28
25,31,29,31,27,39,24,25,26,24,24,26,23,26,24,20,20,26,30,28,32,28,38,33,35,33,27,31,37,29,21,26
27,31,29,29,26,41,25,24,26,22,24,26,25,26,24,21,21,27,29,24,30,25,38,30,34,32,28,28,36,30,22,24
26,32,26,30,26,42,26,20,23,25,24,23,25,23,21,21,20,22,24,20,26,26,35,29,31,29,25,24,34,26,22,23
27,33,27,33,27,43,28,22,24,26,26,23,24,23,21,21,19,23,23,21,29,22,33,27,30,28,22,20,32,27,20,23
26,31,30,35,27,40,28,25,26,28,28,24,23,22,20,20,22,23,23,21,27,23,31,26,30,29,24,22,33,26,21,25
23,33,35,31,26,41,30,29,24,25,30,24,24,22,20,20,22,24,24,22,28,26,32,26,28,27,26,25,32,27,22,28
23,32,35,29,26,40,33,34,24,25,31,25,24,23,21,21,21,25,25,23,31,28,35,27,27,29,27,25,33,31,23,30
24,33,34,30,27,38,36,35,23,22,30,22,25,22,22,22,22,26,26,24,32,27,35,28,25,29,29,25,32,32,25,31
24,35,34,29,27,36,36,37,26,24,28,24,24,20,22,24,22,24,24,24,32,26,34,28,26,30,28,26,34,32,25,31
24,35,36,28,25,34,36,36,24,22,26,24,22,20,22,24,22,26,24,26,34,26,36,30,24,29,31,27,33,31,25,31
27,41,39,29,29,35,37,35,24,22,26,24,23,20,22,24,23,27,25,27,35,29,37,32,28,30,34,28,35,34,28,30
31,44,42,31,29,35,38,35,26,23,29,25,26,20,22,24,25,29,25,30,35,29,39,34,32,30,36,30,38,38,28,32
34,46,46,34,30,35,38,40,25,21,28,25,26,19,21,23,26,30,26,30,36,30,38,38,34,30,38,30,38,38,28,32
31,49,45,35,28,31,38,40,25,20,26,25,25,19,21,23,27,29,25,29,33,31,39,35,36,30,40,31,36,37,28,33
31,47,41,31,27,28,39,38,23,18,24,25,26,20,22,24,24,28,24,28,32,30,37,34,36,29,41,29,36,38,27,32
33,46,41,33,28,28,38,37,25,22,23,23,25,19,21,23,23,27,23,26,31,29,34,34,36,30,42,27,38,37,28,28
33,45,41,35,26,28,36,32,24,23,21,22,25,17,19,22,23,26,22,25,28,27,32,33,39,27,43,29,35,33,27,26
30,40,42,32,23,29,35,31,22,22,22,23,22,18,18,20,22,24,22,24,29,30,36,34,38,30,44,30,38,32,26,24
31,42,46,34,22,32,36,29,20,18,23,22,22,18,20,20,24,26,22,24,28,28,37,33,38,29,44,30,36,34,26,23
31,44,43,33,25,33,35,29,24,21,25,24,24,18,20,20,24,24,20,21,25,28,39,33,39,32,41,28,39,36,29,24
30,42,45,33,21,33,37,29,23,21,25,23,23,17,20,20,23,23,19,21,25,27,39,33,38,31,39,27,37,37,26,25
28,41,47,34,23,34,35,29,21,20,22,22,19,17,19,19,20,20,18,19,25,26,37,33,39,33,37,27,40,35,27,24
25,40,44,33,21,34,34,28,24,22,24,24,22,20,22,22,22,22,20,20,23,25,37,29,39,33,35,32,41,38,27,23
28,38,46,33,23,37,32,28,25,22,24,25,23,20,22,22,22,22,20,20,26,27,36,30,42,33,39,34,45,39,27,22
27,41,47,35,23,45,30,29,29,22,24,27,23,22,24,24,22,22,20,20,26,28,39,30,43,33,37,37,45,39,27,23
26,43,47,34,22,45,33,29,27,22,24,28,23,24,24,24,22,22,21,22,28,27,40,30,46,30,35,38,42,38,26,26
28,44,48,36,24,49,33,29,29,23,25,30,24,27,28,27,26,25,22,25,28,26,40,31,45,33,33,40,46,41,27,29
35,49,47,41,27,53,34,31,30,25,27,31,25,27,27,27,25,25,21,27,26,24,38,31,47,33,35,41,46,44,31,30
38,47,48,39,26,55,33,31,33,27,28,33,25,31,29,27,23,23,21,28,25,25,37,34,47,38,35,39,48,41,33,32
36,43,48,40,25,52,34,32,35,24,28,31,25,31,29,27,23,25,27,30,28,27,36,32,44,33,34,39,44,39,31,33
37,41,46,40,26,53,32,35,38,26,28,34,25,33,31,27,25,29,29,33,31,29,35,34,44,33,35,44,47,37,33,31
36,42,42,40,26,50,31,35,41,25,28,37,27,35,31,29,27,31,31,34,30,31,34,32,38,32,36,42,44,34,34,30
38,45,45,36,24,47,33,31,41,23,27,35,26,33,29,27,25,29,30,34,30,32,36,32,36,32,37,39,46,33,38,32
40,45,48,35,23,50,36,34,41,21,27,35,25,33,30,27,25,28,30,32,28,31,34,34,32,30,34,36,44,32,38,31
43,46,44,34,25,44,34,30,40,22,27,34,26,32,28,26,26,28,31,33,28,29,33,36,32,33,36,36,45,32,41,30
43,45,43,38,27,45,32,30,41,20,28,32,26,30,28,28,26,28,31,33,26,31,32,35,30,36,37,36,44,35,43,30
44,46,44,34,28,40,34,31,40,18,27,30,25,27,25,24,22,25,29,29,25,31,31,33,29,31,35,34,42,33,43,27
39,43,43,29,26,35,34,28,39,18,25,28,25,27,25,25,23,25,29,27,25,31,29,31,25,28,32,33,41,30,38,27
34,42,40,30,27,32,33,27,35,17,23,25,25,23,21,23,23,25,29,27,25,31,29,27,22,21,32,33,38,28,37,25
39,46,41,34,29,35,35,25,33,21,23,27,25,24,22,22,22,22,24,25,23,27,25,27,28,24,34,35,41,29,39,21
35,46,39,35,31,34,33,20,31,19,23,25,27,22,20,22,20,18,23,20,22,25,25,22,29,28,33,30,41,27,40,25
33,47,39,34,30,36,33,20,30,20,23,22,28,20,20,20,18,17,23,18,23,25,27,23,31,31,35,31,43,30,39,24
33,46,39,39,33,42,30,25,30,20,24,22,28,20,22,22,18,18,24,18,24,24,28,24,30,33,36,31,41,31,37,22
30,45,37,41,35,41,30,22,31,24,25,23,29,22,23,24,20,21,23,21,25,23,27,22,32,36,37,34,42,34,38,21
30,44,38,44,34,40,32,24,30,24,25,23,30,21,23,24,20,22,24,21,27,28,24,22,32,35,34,34,42,36,35,20
30,43,37,43,32,37,33,23,28,25,25,23,30,21,23,23,20,22,24,21,31,27,25,29,31,37,35,33,43,35,35,17
26,42,32,45,32,37,31,21,29,25,26,23,30,22,24,24,20,22,24,20,30,28,24,29,33,38,39,34,42,34,36,17
27,45,32,48,32,39,27,23,31,25,26,25,31,23,24,23,20,24,26,20,30,29,28,30,34,39,39,32,44,36,38,17
29,44,33,46,30,39,28,23,33,28,28,27,31,24,26,24,22,25,28,23,32,29,29,32,36,40,40,34,46,38,38,17
27,42,30,43,26,40,26,26,30,26,26,26,30,23,25,26,24,28,28,23,33,30,33,34,34,38,38,34,44,37,34,16
29,41,30,44,24,40,28,30,30,28,26,26,26,24,26,26,26,28,26,26,34,30,31,40,32,34,38,34,43,38,32,13
31,39,30,46,24,40,28,32,28,30,25,26,24,24,28,30,28,29,27,28,35,29,33,39,33,30,39,33,40,40,35,17
31,36,29,45,25,40,30,31,29,33,24,28,26,26,28,30,30,30,28,29,36,30,32,39,35,28,39,33,41,39,33,20
33,38,30,45,25,38,30,32,29,33,26,29,25,25,27,29,29,27,27,31,33,29,31,38,36,29,38,34,42,40,33,24
31,39,31,41,25,39,31,32,29,32,26,29,23,25,27,28,30,28,27,31,32,26,34,37,35,27,39,35,42,37,33,24
29,39,30,41,23,41,31,31,31,31,25,31,25,27,29,27,30,28,27,32,30,28,34,31,35,25,37,36,41,37,31,25
28,40,34,40,22,42,32,30,29,30,24,30,25,26,28,26,30,28,26,32,32,26,36,34,33,24,35,34,40,40,30,27
29,41,37,38,24,41,33,29,27,32,26,31,25,27,30,29,30,28,24,34,34,27,32,34,32,24,34,37,37,41,30,27
31,41,38,40,31,41,30,31,25,30,24,29,23,27,29,29,29,27,21,30,31,25,31,33,34,23,36,37,41,41,30,25
29,42,42,41,29,41,30,26,24,32,26,28,22,24,26,25,25,25,19,28,27,23,25,28,33,23,35,34,41,39,29,25
32,43,45,40,30,40,33,23,25,31,29,29,23,28,26,26,24,26,20,26,28,22,25,29,35,23,37,37,42,40,32,28
32,42,46,38,28,40,36,20,23,29,32,31,25,29,26,26,23,25,19,24,28,23,22,28,34,27,36,35,43,40,28,26
35,44,44,38,29,35,33,21,21,29,33,33,22,29,25,23,23,25,18,24,27,21,22,27,34,29,39,35,42,43,33,25
35,42,39,39,27,36,30,22,18,28,30,32,22,30,26,22,24,28,20,21,27,22,22,27,34,27,37,34,42,40,31,26
39,43,39,41,29,37,29,24,18,28,32,32,24,30,26,22,22,28,20,22,27,24,23,27,35,29,37,33,43,41,33,26
40,41,38,41,28,34,26,24,17,28,32,30,24,28,24,22,22,29,21,20,29,25,23,29,38,28,36,33,46,38,32,28
42,38,38,40,28,34,24,25,17,31,32,31,27,29,27,25,23,31,23,23,29,27,22,32,38,30,36,34,44,38,32,28
43,37,37,41,27,35,26,26,19,31,34,29,27,27,25,23,23,31,25,23,29,25,24,33,41,32,38,32,45,37,31,28
42,38,38,41,24,35,28,26,18,30,32,29,28,27,25,23,22,30,26,24,30,26,24,32,39,34,37,32,46,38,33,32
43,37,37,39,26,33,29,29,20,29,31,29,30,30,28,24,24,30,28,26,32,28,26,34,40,37,41,35,48,42,35,36
44,38,36,37,25,32,26,30,22,28,28,28,29,28,29,23,24,30,28,26,28,26,26,32,39,38,40,35,45,40,33,36
44,39,34,36,28,30,22,32,24,27,25,25,30,26,28,21,27,30,28,30,28,26,29,33,40,35,37,37,42,36,32,36
41,38,33,34,26,31,23,33,23,25,23,23,32,25,27,25,27,29,30,30,30,28,31,32,39,33,35,34,43,33,27,37
42,36,37,32,28,30,22,30,23,23,22,21,33,23,25,24,25,27,31,27,33,29,35,33,38,31,37,33,44,32,26,37
38,34,38,30,27,32,25,28,23,24,23,23,33,23,25,25,25,27,31,29,34,29,35,35,36,28,35,34,42,29,24,39
37,38,38,31,27,32,29,28,22,22,24,22,30,24,24,24,24,25,29,30,34,25,35,34,35,31,39,35,45,33,28,37
34,36,39,30,26,32,30,28,22,20,25,22,28,24,22,24,24,24,28,28,32,24,37,29,35,32,38,32,44,28,26,39
32,36,38,32,28,30,27,28,22,18,22,22,28,26,24,26,26,24,28,26,32,24,37,29,36,31,43,35,44,30,26,40
32,38,34,36,28,32,29,26,25,21,25,22,29,28,26,27,27,25,29,29,30,25,40,29,35,28,42,36,40,28,26,40
32,37,32,37,28,34,28,26,25,19,24,22,29,27,25,27,27,25,29,29,28,25,42,28,32,27,40,34,38,27,25,40
28,35,30,36,28,35,29,26,22,19,26,24,31,26,24,28,29,27,31,30,31,29,44,28,32,29,42,32,39,26,24,39
28,34,30,34,26,34,30,26,20,21,28,25,28,24,22,26,25,26,30,27,28,28,43,28,32,27,43,36,40,28,26,36
27,35,31,34,24,34,30,22,20,23,29,25,26,25,23,25,22,26,28,27,26,28,39,29,33,29,41,40,40,27,25,35
27,37,31,36,23,35,31,19,20,25,31,27,24,25,23,25,23,26,26,27,23,26,38,27,31,32,42,40,38,31,27,34
28,36,32,36,23,30,31,17,22,24,29,25,24,25,25,25,24,23,26,25,22,24,37,27,33,33,45,37,39,36,27,31
28,33,30,32,22,28,25,16,21,26,30,25,23,23,25,25,23,23,25,23,19,23,33,25,29,31,41,33,36,35,23,29
29,35,27,31,23,29,25,16,21,28,30,26,23,23,23,21,21,21,23,21,17,21,29,23,27,26,38,32,34,34,24,24
30,36,24,28,25,26,25,14,18,28,30,26,23,20,20,20,21,20,22,23,18,23,29,21,26,29,33,28,34,33,24,25
28,34,24,20,24,22,23,16,16,26,28,26,24,20,20,22,21,22,25,21,22,25,30,25,27,30,32,28,36,36,22,25
27,33,25,19,25,20,24,14,15,27,28,25,23,20,20,24,24,22,27,21,24,25,28,26,28,30,35,28,39,36,21,24
25,29,23,17,25,17,21,12,14,27,26,25,20,20,20,24,22,20,24,21,23,20,27,25,25,27,31,25,38,35,20,23
22,31,24,16,24,16,21,10,15,25,25,23,21,22,22,24,24,20,24,21,23,21,24,25,29,32,32,20,39,34,18,28
24,31,21,18,27,17,20,13,17,24,22,25,25,21,20,24,23,21,25,23,23,21,26,26,26,31,31,17,35,33,19,30
22,32,20,17,26,18,19,13,15,23,21,21,25,21,21,25,23,19,25,21,22,19,24,26,26,30,28,16,36,32,18,27
21,34,15,15,28,17,17,19,14,23,20,20,23,20,18,24,22,20,23,20,22,19,25,26,27,33,29,20,35,29,21,27
21,35,17,18,28,17,17,19,15,23,18,21,27,21,19,25,23,21,27,21,25,19,29,27,31,31,31,23,36,30,22,27
23,33,15,21,29,15,17,19,15,21,18,20,29,21,21,27,25,23,27,25,27,21,31,31,37,32,36,27,41,33,22,27
24,32,18,21,28,17,19,22,15,24,19,22,28,22,21,25,23,21,28,22,26,18,30,34,34,30,40,28,43,33,24,26
24,34,18,24,28,20,18,21,18,23,19,21,28,19,19,24,22,19,24,24,25,17,27,33,35,31,42,26,41,30,25,25
24,34,16,24,27,20,16,20,18,23,19,20,28,19,19,21,19,17,22,24,24,16,26,34,36,29,39,24,42,32,24,22
25,36,20,29,29,23,17,21,20,25,19,19,30,21,19,21,19,15,21,22,21,18,24,31,37,29,41,25,41,34,27,23
27,39,21,34,31,29,19,25,21,29,21,19,29,20,19,22,18,15,26,25,24,16,26,34,36,28,40,27,44,38,27,21
26,34,20,32,28,26,21,23,21,29,25,17,27,21,19,20,18,12,23,23,23,14,23,30,36,29,44,30,50,36,26,16
21,31,17,32,25,25,22,25,21,31,28,20,26,22,20,22,18,14,24,28,27,16,27,35,35,29,43,29,49,34,25,20
20,34,22,36,24,30,22,24,23,32,29,21,29,25,23,25,17,18,27,31,29,19,29,33,35,29,43,27,47,37,23,21
22,34,22,37,27,34,26,25,26,33,30,22,31,28,26,29,17,19,29,33,29,21,29,37,33,33,43,25,47,37,25,25
21,35,23,33,29,33,25,25,26,33,30,22,28,28,26,28,16,18,32,30,28,22,30,34,30,37,43,22,44,34,27,30
17,35,21,30,29,32,21,22,28,30,29,22,27,30,25,27,17,17,28,29,25,21,29,29,31,39,41,19,43,31,27,29
17,31,23,30,30,29,21,23,28,31,29,23,26,33,25,27,17,19,29,27,26,20,30,26,28,37,37,19,42,31,29,29
21,35,27,35,29,29,23,26,31,33,31,27,29,33,25,27,17,21,31,27,29,23,33,25,29,40,38,23,40,28,33,32
22,36,25,33,29,30,24,27,29,30,32,27,29,31,25,27,17,23,34,27,34,23,35,26,30,41,40,24,44,29,31,31
21,33,27,32,31,24,21,26,31,27,31,29,30,33,26,26,18,23,31,29,36,25,37,26,29,41,40,26,44,27,33,31
22,38,31,34,32,25,20,28,30,26,28,30,32,32,26,27,19,25,33,30,36,27,40,26,34,40,36,21,42,30,34,35
28,42,34,34,34,27,20,29,33,25,24,30,37,32,26,26,20,26,34,30,36,30,38,24,36,38,40,22,42,34,36,33
32,42,34,32,34,24,24,30,32,25,25,30,34,30,24,24,24,26,34,30,36,28,38,26,36,35,37,24,43,32,33,35
33,42,36,33,33,25,24,30,31,24,24,30,32,28,22,21,25,25,31,29,35,30,37,23,37,34,38,25,42,31,33,34
36,44,40,34,33,29,26,30,34,24,26,30,34,28,22,22,26,28,34,34,40,32,37,27,39,31,37,29,45,35,33,31
40,44,42,39,32,35,31,32,34,25,26,29,36,28,25,25,26,31,37,38,42,35,40,31,39,30,36,32,45,38,33,31
40,46,41,40,31,35,33,34,35,29,27,29,37,25,25,25,25,31,39,39,40,37,38,33,40,34,40,32,42,40,32,31
37,45,37,35,32,37,31,31,33,27,25,27,35,25,25,25,25,31,37,39,36,35,35,32,38,35,39,28,42,41,29,29
37,44,35,32,29,35,31,28,33,27,25,28,33,24,24,24,27,33,35,40,31,33,35,33,37,33,37,25,39,37,29,27
38,48,32,30,27,38,31,25,32,26,26,30,35,24,25,25,27,33,37,38,27,35,35,34,39,33,40,24,38,38,30,29
37,49,31,31,31,42,33,25,34,25,26,28,31,23,23,24,26,32,36,36,30,36,35,36,35,33,45,26,38,37,31,28
39,47,33,32,34,41,35,23,33,24,26,27,28,24,24,24,26,32,34,34,25,34,36,34,34,34,44,25,39,34,32,28
35,43,30,33,32,40,31,23,34,25,26,28,27,23,23,23,23,29,31,31,22,35,35,33,33,34,47,23,38,35,34,26
32,41,29,30,34,38,30,23,35,25,27,31,25,24,22,22,22,28,30,30,20,33,36,36,32,35,47,22,39,34,34,28
30,38,26,30,32,35,28,23,32,27,27,29,24,24,22,22,25,26,27,26,15,32,36,37,30,36,46,21,38,34,32,28
29,39,28,28,33,32,27,23,33,27,26,28,25,23,23,23,28,25,27,25,13,34,37,36,34,37,50,21,41,33,33,30
29,37,31,27,31,37,27,24,29,23,25,27,23,23,23,23,29,23,25,24,14,32,41,34,37,33,49,21,41,31,31,29
30,36,35,30,30,40,30,26,29,23,25,27,22,22,24,22,29,23,25,25,18,31,43,35,38,32,50,24,40,31,32,30
29,37,41,33,33,40,29,27,30,24,24,26,24,24,26,26,29,22,28,25,20,32,43,37,39,31,51,27,44,35,33,30
31,36,44,34,32,43,31,30,28,25,22,22,20,22,24,24,28,20,24,22,19,30,42,36,40,32,49,30,44,36,30,28
34,35,45,31,29,43,31,29,26,25,24,23,23,23,25,24,28,20,24,24,18,30,42,38,38,32,47,31,44,35,29,29
30,34,41,28,27,40,30,30,27,25,25,22,24,21,25,25,27,20,24,24,19,30,40,38,38,32,47,29,42,32,31,29
33,35,42,27,28,41,31,29,25,21,22,19,26,20,26,28,27,19,24,24,19,28,38,38,38,35,46,29,43,30,31,29
35,37,44,28,25,43,28,28,22,21,21,16,26,18,25,27,27,19,23,23,19,27,35,33,38,35,45,31,42,31,29,28
32,37,45,30,23,42,28,27,21,17,20,17,25,18,26,27,25,19,23,23,20,25,35,29,38,35,44,29,41,28,27,28
33,36,40,31,20,39,27,25,18,17,22,16,22,16,24,24,20,18,20,21,25,22,32,27,36,34,39,28,40,28,24,26
35,38,37,33,20,35,26,25,18,16,22,16,22,16,24,26,20,16,20,21,26,23,29,27,34,34,38,27,42,29,26,26
38,38,35,32,21,33,25,26,20,15,21,16,23,17,23,27,20,16,20,20,24,24,28,27,34,33,38,30,44,33,27,25
38,39,32,30,21,35,26,26,21,15,21,17,25,17,23,25,19,17,19,22,25,23,28,24,33,33,37,28,43,31,27,26
40,38,33,30,25,31,26,26,22,16,22,20,26,20,26,24,18,17,21,21,27,23,27,23,31,31,36,25,42,31,29,27
39,36,29,34,26,28,23,27,23,16,19,19,23,20,25,23,17,19,23,21,25,21,27,23,33,33,36,26,41,34,32,25
37,38,34,36,25,31,23,28,23,16,22,21,21,20,22,21,18,18,21,20,28,19,27,22,34,32,34,30,43,36,27,26
36,38,36,38,26,33,24,27,22,16,22,20,20,20,22,19,17,19,20,21,28,20,26,20,34,32,34,30,44,36,26,24
34,36,33,39,27,30,26,26,22,16,23,20,20,20,23,19,17,19,21,21,29,21,31,21,38,30,33,30,45,34,27,22
35,36,33,38,27,34,27,28,23,18,23,20,21,22,22,19,17,19,23,20,29,21,33,24,37,28,31,29,43,33,27,23
33,34,35,38,27,37,27,27,23,17,23,21,21,23,21,19,17,19,23,21,28,24,34,25,36,27,31,29,41,31,27,25
32,33,34,36,26,38,24,25,23,17,22,21,21,23,21,17,17,21,23,21,25,26,35,27,37,26,31,30,39,30,25,25
28,32,32,34,27,37,23,25,21,18,23,21,21,22,20,16,16,20,25,22,27,27,37,28,37,28,30,26,36,26,24,24
29,30,31,37,26,37,23,27,20,17,23,19,18,21,19,15,15,19,23,21,29,28,36,29,38,25,30,27,35,26,22,27
23,27,28,34,23,38,23,29,20,17,24,17,18,20,19,19,19,21,23,23,29,27,35,27,35,23,27,25,32,21,19,25
23,27,29,33,19,37,25,28,18,17,25,18,18,21,21,23,21,21,22,23,31,27,35,27,35,21,27,25,34,22,17,25
25,25,26,33,19,35,27,27,17,17,24,17,19,19,21,22,20,21,23,24,30,27,37,28,35,21,27,25,34,23,17,23
25,25,29,31,19,38,25,29,17,17,23,17,17,19,19,21,19,19,23,23,29,26,38,29,38,17,25,25,31,23,17,26
27,27,32,32,19,35,23,30,18,16,23,16,19,18,18,20,18,18,22,22,28,26,37,28,37,19,27,23,31,23,19,29
29,33,36,33,21,34,25,27,18,18,21,18,19,18,18,20,17,20,22,22,28,25,35,24,41,23,33,29,36,29,22,29
30,37,41,33,23,34,30,26,20,20,18,20,21,20,20,23,17,23,25,21,30,25,32,24,42,25,35,31,39,31,25,25
33,39,42,37,26,35,34,28,21,21,20,21,23,21,21,25,19,27,27,23,31,27,31,23,40,27,35,32,38,36,27,27
36,44,47,40,27,36,36,28,22,23,21,22,24,23,23,27,21,29,26,21,28,28,28,21,40,28,34,31,39,35,29,27
38,48,48,40,28,36,39,29,23,25,21,25,24,25,27,27,21,29,27,21,28,28,29,24,39,31,36,35,40,38,30,27
42,52,52,44,29,37,41,27,22,25,23,25,25,24,25,28,20,28,26,20,27,29,31,27,41,33,39,39,44,41,33,27
41,51,53,45,29,41,41,28,23,28,27,25,27,24,24,24,18,27,26,19,27,30,29,25,39,33,37,39,41,43,35,29
38,52,53,46,31,43,37,27,25,27,25,27,29,25,25,25,19,27,27,19,27,31,27,25,38,35,40,39,40,42,38,31
37,49,47,48,35,38,36,29,27,30,26,29,29,25,25,26,20,29,29,20,28,36,31,26,36,37,41,39,41,43,41,28
35,48,46,47,37,40,39,28,28,33,29,32,28,26,27,29,23,32,30,23,30,36,30,30,37,38,44,42,44,46,41,28
35,47,41,47,39,38,36,29,32,30,29,33,29,26,28,30,27,32,30,26,35,39,31,32,33,36,41,40,44,45,41,30
33,45,35,45,36,35,31,31,31,29,29,33,28,25,27,28,28,30,28,28,34,35,35,36,36,36,40,40,40,44,42,34
28,44,35,45,36,35,29,32,30,28,28,32,28,24,26,26,26,26,26,26,32,32,34,36,36,37,40,38,45,41,42,34
29,41,33,43,36,37,29,31,30,25,26,32,30,22,24,24,24,24,26,26,34,30,36,36,38,37,45,42,46,44,43,34
26,41,31,44,34,34,25,29,30,25,27,31,30,21,21,23,23,23,27,25,33,32,36,32,39,37,43,39,44,42,42,35
25,39,27,43,33,34,23,31,32,26,26,32,30,22,22,22,23,23,28,25,32,31,35,31,43,37,45,40,45,43,42,35
28,41,26,43,35,30,22,28,31,26,22,33,28,24,23,23,23,24,27,24,32,31,35,30,45,39,48,39,47,41,43,33
33,42,27,41,36,30,25,28,29,26,25,33,25,25,25,25,25,24,28,24,30,29,33,32,44,40,47,39,47,41,41,32
36,44,30,40,32,34,27,28,28,27,27,34,26,28,26,26,25,25,28,23,28,24,31,33,45,40,46,40,47,42,40,35
39,46,29,41,31,36,25,29,28,25,27,34,28,30,28,26,25,24,30,21,29,26,35,32,45,39,44,40,45,42,39,32
40,44,32,43,30,39,27,29,25,26,29,31,31,30,27,25,23,24,28,20,26,25,33,34,45,40,45,38,41,41,36,31
41,46,33,47,31,41,29,27,26,25,33,32,32,32,29,27,25,26,30,21,24,27,30,32,43,39,47,39,45,44,35,31
42,42,32,44,30,41,29,28,26,26,34,30,30,31,31,29,25,29,32,20,24,26,32,32,44,38,46,41,45,44,34,33
40,44,32,44,31,36,28,29,27,29,37,31,29,33,33,31,25,31,33,23,25,28,32,33,42,36,42,38,42,42,30,35
42,45,34,44,33,42,28,30,28,29,37,31,30,33,33,33,26,33,33,24,24,29,33,37,43,38,43,38,43,42,31,34
43,46,37,45,37,43,33,30,28,30,39,32,32,34,34,34,29,35,35,27,26,30,36,40,39,37,41,36,42,42,32,36
39,45,36,43,37,48,32,32,32,27,40,30,32,33,34,33,31,34,36,27,28,32,40,43,40,38,41,36,42,46,32,37
41,47,35,45,35,51,30,33,33,27,38,29,32,33,32,30,33,33,35,27,31,34,42,43,43,37,41,38,45,51,33,36
39,49,36,45,35,49,28,32,36,26,36,27,35,31,35,33,35,35,37,31,36,39,43,43,40,38,44,41,46,52,34,33
37,47,34,43,33,48,30,30,34,26,34,26,34,30,34,32,34,34,36,33,37,39,41,43,39,39,43,38,45,50,35,35
39,51,35,38,32,44,30,32,34,26,32,26,30,28,33,31,33,33,38,33,37,40,42,41,41,40,42,37,46,49,35,34
39,52,37,38,32,46,29,35,33,28,31,25,30,28,33,31,33,33,36,31,37,39,43,39,38,38,40,38,44,49,36,35
42,56,40,40,30,49,31,33,33,25,33,27,33,31,33,32,36,32,37,35,39,40,43,41,37,40,42,40,44,50,38,33
40,54,40,38,29,50,32,33,33,25,33,27,32,31,31,31,37,31,37,33,39,39,44,41,36,42,44,40,46,50,42,31
40,53,42,38,29,46,36,32,35,25,35,27,33,35,31,31,38,31,37,34,40,38,44,41,37,40,43,40,47,50,41,30
36,50,40,36,29,46,33,31,34,25,35,26,31,34,28,30,36,29,38,31,40,37,42,37,38,38,42,39,46,50,40,29
37,48,40,37,25,42,32,30,33,24,32,29,34,35,28,31,35,29,35,31,37,35,37,35,37,35,41,37,45,44,37,30
34,45,42,36,25,42,34,30,32,26,34,28,34,34,28,32,32,28,34,30,34,34,38,35,35,32,38,33,40,38,34,32
33,41,39,36,26,41,33,27,30,23,33,28,32,34,26,32,28,26,34,28,34,30,36,32,38,29,36,31,40,33,34,33
35,42,41,36,26,44,34,28,29,23,35,27,30,33,25,30,26,24,34,29,33,29,36,31,38,29,34,31,38,37,35,33
32,35,42,37,31,45,32,26,33,21,36,28,32,35,26,34,29,27,34,29,33,30,37,32,34,25,33,36,39,36,35,32
32,36,44,38,33,41,30,24,31,19,35,28,30,32,24,32,26,24,34,30,32,29,37,34,36,26,34,34,36,36,32,29
30,36,40,34,32,42,29,22,33,25,33,29,27,32,24,31,25,23,31,27,29,28,35,35,36,27,30,33,34,32,30,28
33,37,40,35,34,42,28,19,31,22,32,28,28,30,26,32,26,24,31,25,29,27,33,35,39,25,31,35,35,37,29,30
35,37,37,31,34,41,25,19,29,21,29,25,28,23,27,33,25,25,33,25,29,26,32,33,35,29,29,33,31,37,30,29
38,42,38,34,32,38,24,20,26,22,28,26,25,20,26,30,23,23,29,23,25,23,33,33,31,27,27,31,30,33,30,29
38,45,38,35,35,37,27,19,24,23,31,24,22,20,27,29,23,25,29,25,27,25,36,37,31,29,28,34,33,35,31,27
40,48,38,36,35,35,25,21,27,21,31,25,25,21,27,29,23,27,31,25,29,29,32,37,34,33,31,32,39,36,33,25
41,49,40,38,34,33,27,23,26,22,34,24,24,18,28,24,25,24,28,27,27,28,32,37,32,36,31,33,41,38,34,25
38,51,37,37,37,31,27,25,27,23,35,25,26,19,29,26,28,26,29,26,26,27,33,38,29,33,29,31,41,33,30,25
39,53,34,37,33,31,29,26,24,26,38,25,26,20,29,23,27,24,29,28,26,27,32,37,31,33,31,27,39,33,31,28
38,52,30,35,33,34,32,27,25,30,38,28,28,20,30,24,28,26,30,28,28,28,30,38,30,34,32,28,40,30,32,30
39,51,33,34,35,33,31,27,25,30,37,30,29,22,30,24,28,25,31,29,29,31,31,37,32,34,36,27,42,32,33,32
37,50,32,35,33,33,31,30,24,32,39,30,26,22,30,21,25,24,28,30,28,34,33,40,33,35,37,28,43,29,31,34
35,51,34,38,32,34,32,28,25,32,40,32,27,24,28,20,27,20,26,30,26,35,33,43,37,34,41,31,47,29,30,38
31,48,36,35,34,37,34,27,26,30,41,30,32,28,33,24,30,22,28,32,28,39,34,47,41,35,41,37,48,34,30,37
31,45,37,36,35,39,33,25,26,30,38,30,32,26,32,24,28,20,30,32,28,38,34,44,37,36,38,35,47,38,32,41
27,42,32,34,33,39,34,21,27,31,38,34,32,30,36,26,30,22,28,32,26,36,35,42,35,33,37,37,42,36,30,44
28,43,32,30,33,44,36,21,28,31,35,36,34,30,34,28,29,24,28,29,25,36,34,41,33,31,37,35,41,35,31,46
27,39,34,31,31,43,33,17,28,32,31,34,34,30,34,28,26,24,25,26,24,37,30,38,33,35,40,36,44,34,32,47
28,41,35,30,33,42,30,15,30,33,30,35,34,30,34,30,28,25,25,25,25,35,31,39,36,35,37,41,47,37,33,47
27,41,35,29,34,41,27,17,32,30,31,35,33,31,33,31,31,27,27,27,27,37,35,39,35,37,37,41,47,37,35,49
25,37,32,31,32,39,27,18,32,28,30,31,34,29,31,29,29,28,28,28,28,36,36,34,32,39,37,44,50,35,32,49
26,37,34,32,30,40,25,18,34,25,28,34,40,32,32,30,32,28,30,28,26,34,39,33,32,40,35,40,51,38,34,48
29,35,36,34,29,39,29,18,32,25,31,35,40,33,31,29,31,30,28,30,28,33,41,31,27,39,33,37,49,39,35,43
33,35,33,35,29,38,31,18,35,27,28,35,40,32,28,26,30,32,30,32,30,31,42,30,27,39,33,35,49,38,35,43
35,39,36,37,29,41,33,21,36,29,30,36,42,34,28,28,32,32,32,32,30,30,42,32,31,37,34,37,47,35,35,40
38,40,41,36,30,39,33,26,36,30,32,36,41,34,26,28,32,31,33,35,33,29,45,35,34,39,35,37,50,36,36,37
35,39,43,38,31,37,32,29,37,33,35,35,41,37,28,29,34,33,35,37,35,31,47,37,35,41,36,37,50,37,35,35
34,38,39,40,30,34,32,32,37,29,34,39,42,35,26,29,36,34,38,41,38,32,50,40,38,39,38,40,48,44,35,33
35,36,40,39,26,35,37,34,33,26,31,37,39,33,25,24,34,31,37,39,39,31,51,41,32,41,41,34,48,40,37,32
33,34,37,41,25,33,39,30,33,30,31,35,38,33,27,23,33,28,34,38,38,28,48,40,35,40,37,31,49,41,35,28
38,38,40,42,26,32,41,33,31,31,32,38,37,36,27,23,31,27,33,37,37,27,47,43,36,39,36,27,47,44,38,26
36,37,38,40,26,30,42,34,32,35,33,37,33,33,27,25,33,31,35,41,41,25,43,41,36,41,40,29,46,40,38,23
34,36,36,41,27,32,37,33,34,34,29,36,32,32,27,26,33,29,37,40,41,25,41,42,38,40,40,32,46,42,38,26
31,33,36,39,27,34,33,32,32,32,31,36,30,33,27,27,33,29,35,37,39,26,38,39,37,41,41,29,47,41,37,28
32,32,34,36,27,29,29,32,33,31,31,35,29,31,27,27,33,31,33,37,39,27,37,35,38,41,43,30,46,38,37,28
31,34,32,34,29,31,32,30,30,31,31,33,28,28,26,26,32,30,32,34,36,26,36,32,37,39,42,31,45,38,36,31
31,35,29,34,29,31,28,29,30,31,30,33,28,26,24,24,30,28,32,34,36,26,36,30,34,36,42,30,47,36,37,34
37,39,33,35,32,38,29,28,31,32,31,31,27,27,26,23,28,26,30,32,34,24,34,32,36,36,38,31,48,32,35,35
35,41,33,39,33,39,25,27,31,35,32,32,27,27,26,27,27,27,32,37,32,27,32,34,41,35,38,33,49,35,33,35
40,46,40,40,30,42,25,29,30,33,33,32,26,23,23,27,28,26,32,36,28,30,30,34,41,36,43,33,49,35,35,38
41,47,39,40,30,45,27,31,27,33,33,26,23,19,23,27,29,25,31,35,27,31,29,33,40,35,41,31,49,35,36,39
38,49,39,42,34,48,27,29,27,32,29,23,21,19,20,24,24,21,28,31,25,31,29,34,41,33,41,28,49,36,37,41
35,47,39,42,32,49,29,30,26,34,31,24,22,20,22,24,24,24,28,32,26,33,30,32,44,33,41,24,50,31,35,42
39,53,43,43,32,49,31,33,29,37,33,27,24,21,25,27,27,25,30,34,28,33,32,34,45,34,43,25,51,33,37,41
37,53,44,46,33,49,33,32,27,39,33,27,22,21,23,24,24,22,28,35,26,32,30,35,46,34,44,21,54,36,39,43
35,54,45,51,32,49,31,33,28,37,30,28,22,22,24,24,24,22,28,36,28,32,32,40,51,36,44,17,57,34,39,44
34,52,46,51,29,47,35,33,29,38,28,25,22,21,23,23,26,24,28,36,28,32,34,44,54,40,48,14,55,38,39,44
32,48,47,51,28,48,37,35,27,38,29,25,23,21,21,23,25,23,29,38,31,33,36,42,52,42,48,9,54,34,38,40
29,47,43,47,25,44,39,37,30,36,30,28,24,24,22,22,26,24,27,35,31,32,35,37,49,41,45,5,52,31,35,41
29,44,41,46,25,44,39,39,31,37,31,31,26,28,24,22,24,25,27,34,34,31,36,38,46,36,46,6,52,28,34,39
24,40,40,45,25,43,35,34,35,37,33,33,29,31,27,25,28,25,29,37,36,29,38,42,46,33,48,8,52,28,32,39
26,40,43,44,20,43,35,35,35,37,35,35,31,31,32,28,34,29,30,39,37,31,40,45,45,30,44,12,53,26,30,38
26,41,42,46,23,42,34,34,32,35,36,35,30,31,33,27,33,31,31,38,36,32,38,46,42,31,44,15,51,28,31,37
23,39,39,43,20,38,35,33,31,33,37,33,30,29,31,24,29,31,29,38,38,31,34,42,37,28,45,15,48,25,28,38
24,39,39,41,19,41,33,33,32,31,36,34,31,32,30,25,31,33,31,36,39,33,35,42,35,28,43,17,48,24,24,36
26,39,38,37,21,43,34,31,31,30,38,35,33,34,32,28,34,34,33,38,39,35,33,39,30,28,43,22,46,29,26,34
26,38,38,34,21,45,31,30,27,29,39,37,30,37,35,31,34,34,33,37,39,34,31,39,31,29,39,25,43,27,25,30
22,43,35,33,23,41,30,29,31,30,39,37,31,39,39,33,37,37,33,36,37,35,30,38,30,30,40,28,43,30,29,38
26,44,37,37,27,42,31,30,29,29,38,35,29,39,39,33,37,37,31,36,38,35,32,38,32,30,42,30,45,32,33,37
26,45,38,39,28,41,33,28,27,25,33,32,30,36,38,32,36,39,33,35,38,35,32,36,34,34,40,30,46,34,32,39
27,45,39,40,28,40,32,29,28,25,33,31,29,35,35,29,32,39,31,31,36,37,32,34,36,35,40,32,44,34,33,39
30,44,39,40,32,37,32,30,27,23,35,29,29,33,32,28,30,36,32,32,34,38,30,34,33,36,39,32,38,32,32,37
35,47,39,37,33,37,29,31,28,26,35,30,27,34,32,28,30,32,31,31,33,35,29,31,33,34,40,32,40,34,30,36
36,45,37,40,34,37,26,30,24,26,32,30,24,34,32,27,30,29,31,32,33,34,33,36,38,37,40,34,44,36,34,33
36,47,38,40,30,38,26,30,22,26,33,28,22,32,34,30,29,28,32,31,34,32,34,36,38,38,44,38,43,37,33,34
36,47,42,42,30,36,25,33,24,27,33,30,20,31,33,26,26,26,29,30,33,31,35,34,38,36,44,38,46,36,34,32
36,48,45,44,28,33,25,32,23,23,31,27,19,28,30,24,24,24,28,30,35,32,39,28,36,35,44,38,49,37,34,33
38,48,46,45,28,31,24,28,18,21,29,26,16,26,25,22,22,22,26,30,32,30,36,28,36,34,46,38,49,38,33,28
35,45,45,43,25,31,23,27,19,23,31,25,17,25,25,21,20,21,27,29,34,28,37,29,33,33,44,36,47,34,31,26
31,47,41,39,23,28,19,28,19,23,31,25,17,25,25,20,20,18,26,31,34,28,36,27,31,29,41,35,43,33,27,21
33,48,39,40,25,29,19,27,17,20,28,24,21,26,26,20,20,18,26,34,35,28,37,29,33,31,43,36,45,37,28,25
32,48,40,43,23,29,19,25,20,22,27,24,21,28,27,21,18,18,26,34,36,28,38,28,36,30,46,35,51,39,28,26
32,47,40,42,21,28,21,25,18,17,23,19,21,23,23,21,19,19,27,35,39,29,41,31,39,30,42,38,49,38,31,26
35,47,39,41,21,26,22,22,20,16,22,18,22,22,22,22,18,20,26,32,36,29,39,29,38,27,40,37,49,37,29,28
34,48,38,40,27,22,24,22,19,16,20,19,25,23,24,19,20,20,25,34,36,31,39,31,41,26,36,33,46,34,33,26
31,44,31,37,26,20,22,18,19,14,19,15,27,21,22,22,20,22,28,32,34,32,38,31,40,26,40,30,45,31,32,25
34,44,31,38,26,22,26,20,23,16,20,18,28,23,23,23,21,23,29,32,32,33,37,36,38,23,38,28,44,30,30,27
31,39,27,33,22,25,25,20,23,18,22,17,29,21,22,21,19,21,29,31,35,33,37,35,35,19,33,27,41,25,27,26
32,39,26,32,24,26,22,17,21,17,21,17,27,21,21,21,20,21,27,32,35,32,37,37,38,22,34,33,44,29,28,28
32,38,25,37,26,29,22,15,19,20,22,16,25,20,22,23,21,21,24,34,34,33,39,38,36,26,34,32,46,32,32,32
30,39,26,34,26,26,26,14,16,24,24,18,23,20,22,22,22,22,24,32,33,32,40,35,35,23,31,32,45,31,34,28
30,39,26,30,27,25,25,14,14,26,25,22,27,20,22,23,22,22,24,34,33,31,41,34,36,23,31,35,46,35,37,29
29,39,26,30,28,26,25,14,20,29,27,25,28,23,25,23,25,23,25,34,34,32,39,31,34,24,35,33,49,35,37,30
26,38,30,29,27,30,30,14,21,31,29,25,28,25,27,25,28,26,28,36,34,34,40,32,32,24,34,34,50,36,37,31
24,36,26,28,25,30,26,12,25,30,30,27,27,25,26,27,27,27,27,35,33,31,39,33,29,25,36,37,48,36,33,31
26,36,28,29,25,33,28,11,24,31,32,28,26,26,26,26,28,26,26,38,34,30,37,34,31,24,32,40,45,37,32,30
26,36,26,29,27,33,27,11,21,33,33,27,27,23,23,25,27,27,23,39,35,25,34,34,34,28,36,40,48,36,34,29
30,42,33,34,30,33,31,13,21,35,33,27,29,25,25,27,29,29,23,40,34,26,36,38,37,31,39,43,51,39,35,29
36,46,37,36,32,33,35,14,25,39,34,30,31,25,25,29,29,29,27,42,34,29,35,37,38,26,41,40,51,38,38,26
38,46,40,34,34,37,35,16,28,37,33,33,33,27,25,27,30,30,29,41,35,26,36,39,42,26,44,44,54,38,38,26
39,47,43,37,34,39,33,19,32,34,31,32,32,26,24,30,28,28,29,41,35,25,36,41,41,29,43,41,55,35,37,28
42,51,42,41,37,41,33,19,31,30,29,29,31,25,23,28,30,30,29,40,35,27,35,45,40,32,40,40,54,32,32,27
44,50,43,42,39,42,32,17,27,29,28,28,29,23,23,28,28,28,24,39,32,25,34,46,38,34,39,38,54,30,33,26
47,51,43,45,37,41,30,17,26,27,29,28,29,24,24,28,27,26,22,37,31,23,35,45,39,34,39,37,53,29,33,25
50,50,48,50,36,44,32,17,26,28,28,28,30,24,23,26,27,24,22,37,31,26,36,41,39,35,38,34,56,30,33,27
49,49,47,54,38,44,31,17,25,29,27,27,30,24,23,24,24,22,20,34,30,25,37,40,37,38,35,31,57,29,33,33
48,46,44,51,37,41,27,14,28,25,23,30,30,25,25,25,23,21,24,31,29,27,38,36,34,34,33,30,54,30,30,32
46,44,40,50,39,42,25,12,30,23,23,31,31,25,25,25,23,21,25,30,28,27,36,32,35,33,33,28,53,31,33,33
43,42,38,53,38,39,21,11,28,20,22,28,31,25,25,23,23,21,23,27,26,27,36,30,33,38,34,26,49,31,32,36
45,40,37,56,37,37,21,12,29,19,23,27,29,25,26,26,21,23,24,24,28,28,35,30,29,37,31,23,46,29,31,35
45,39,37,55,37,39,21,11,28,20,27,28,26,26,28,26,24,22,25,25,29,29,35,29,27,35,33,25,45,29,31,35
43,32,36,51,33,37,21,8,30,23,29,28,24,26,28,26,22,20,24,23,28,27,32,27,28,32,36,24,44,30,34,34
37,30,34,47,29,33,22,10,30,25,31,28,26,27,28,29,23,20,27,22,30,28,34,26,29,30,34,24,42,30,32,36
35,32,35,46,32,36,23,12,31,26,28,29,25,25,25,27,21,21,27,23,31,26,35,27,27,29,33,27,42,30,30,36
35,33,36,43,33,36,24,13,29,26,30,28,22,23,28,29,24,24,25,24,32,27,36,26,28,30,36,28,40,32,34,35
37,35,40,42,33,37,27,16,29,27,29,27,23,22,27,29,23,25,25,23,31,28,34,25,29,30,39,27,40,32,36,32
37,39,44,45,33,39,30,17,27,28,32,26,21,25,27,31,23,25,21,24,30,28,34,28,29,31,42,29,43,34,39,33
35,35,43,41,29,35,30,19,26,27,32,27,20,27,27,31,21,23,21,23,30,27,36,27,26,30,40,28,40,32,36,32
35,34,41,38,29,38,34,20,27,29,35,29,20,28,28,30,22,24,22,25,29,28,35,29,27,30,38,27,42,32,34,33
34,36,41,36,29,36,35,17,27,29,32,29,22,27,27,28,22,23,23,25,26,28,35,28,27,29,40,30,44,33,35,33
32,32,38,32,26,32,34,17,26,28,29,28,22,26,26,28,22,26,22,24,24,27,34,24,28,31,38,26,42,30,33,31
32,34,34,32,29,32,36,20,24,28,29,28,22,26,26,28,22,26,22,26,26,27,36,24,26,31,39,24,42,28,31,31
37,39,36,35,33,33,38,21,27,27,29,31,23,27,25,25,22,26,24,26,26,30,36,26,26,32,42,24,43,30,34,31
35,38,33,32,34,28,37,20,28,25,27,30,24,26,24,26,22,26,26,28,28,33,36,28,28,33,44,21,44,32,37,31
34,38,31,33,35,27,35,21,29,25,27,29,24,26,21,24,19,23,25,25,25,29,33,27,25,30,40,17,43,29,34,31
31,35,28,30,33,23,31,19,30,25,29,34,22,26,23,25,21,22,25,27,27,28,34,31,25,26,41,19,44,29,32,30
31,33,25,28,32,23,29,21,30,29,30,32,22,23,21,21,21,21,28,28,30,28,32,30,23,27,37,21,41,26,31,31
35,37,31,33,39,27,28,23,32,28,31,28,23,20,20,20,23,23,29,31,32,31,32,32,26,27,42,26,47,28,36,32
33,37,31,33,38,27,25,27,32,25,28,28,22,20,22,24,24,24,31,32,34,31,30,32,28,28,42,28,46,30,34,31
31,34,29,31,38,26,23,31,31,26,28,29,22,23,23,27,25,24,31,33,35,29,29,33,27,27,41,28,45,30,34,33
31,32,30,31,41,24,22,29,35,25,29,30,25,24,22,26,26,24,32,32,36,31,28,34,26,28,43,30,44,32,37,33
29,33,33,31,38,25,19,27,32,22,26,30,24,24,21,25,25,23,31,29,36,32,28,31,26,29,42,29,46,35,36,33
28,31,33,33,39,25,20,29,27,22,27,27,24,23,23,28,26,26,33,32,36,33,29,32,29,30,41,33,42,36,34,30
28,30,32,32,38,24,18,28,24,23,26,26,22,22,22,26,23,24,30,27,33,30,28,29,29,33,41,34,41,36,33,32
27,31,31,32,35,22,19,29,23,23,25,27,23,23,23,29,27,27,33,31,37,33,31,31,33,30,41,35,43,36,34,33
28,34,31,34,36,24,19,28,23,20,24,21,25,21,20,28,27,25,35,30,36,33,31,30,34,32,38,34,40,38,32,33
28,33,32,34,38,23,20,26,21,17,21,21,27,22,21,29,27,25,33,29,33,31,31,29,35,30,39,31,41,37,35,31
27,35,29,34,34,25,23,26,20,18,22,24,28,22,22,30,28,25,33,27,33,30,31,28,35,33,39,29,37,39,30,30
29,34,30,34,35,22,22,22,20,20,23,24,27,22,19,27,25,23,31,24,32,29,32,28,34,32,40,30,38,38,34,30
29,36,32,35,33,25,22,18,18,19,24,21,28,19,19,25,25,24,30,24,32,30,32,28,35,33,43,28,35,36,35,27
35,41,35,36,31,29,25,20,14,19,23,19,25,17,17,23,21,21,27,25,33,29,31,29,35,33,41,28,36,36,33,27
35,41,35,39,33,29,26,21,16,19,24,20,25,17,18,24,24,24,30,28,34,27,29,31,35,31,39,29,39,31,35,28
35,38,33,36,30,29,23,17,17,18,21,19,23,17,17,21,23,23,27,25,33,23,27,29,35,28,40,31,39,28,34,28
36,38,36,37,28,31,25,19,19,21,24,23,25,17,17,22,24,23,25,26,33,21,23,29,30,26,38,30,40,26,34,25
38,38,37,39,29,36,25,17,19,21,23,23,25,17,17,19,21,21,23,23,29,20,22,27,30,27,42,32,40,29,33,23
38,38,37,39,28,35,30,21,19,23,23,25,27,19,19,19,21,23,23,23,29,20,24,25,30,29,44,33,42,30,34,24
40,39,35,42,28,37,31,21,21,23,25,25,26,19,19,19,21,23,25,25,31,24,28,26,35,29,44,37,42,31,33,24
40,38,36,39,27,35,30,21,19,25,24,23,25,19,19,19,21,23,23,25,29,23,27,29,35,28,42,37,42,31,35,24
38,39,35,38,25,34,34,26,18,26,25,22,25,19,19,19,22,23,23,25,29,23,27,28,34,28,40,36,40,30,32,27
39,41,36,37,27,33,37,27,20,27,26,22,24,20,17,18,21,22,22,24,28,22,27,30,34,26,38,38,43,30,29,28
34,40,34,40,29,34,39,27,24,29,27,25,27,23,21,21,23,25,27,25,27,25,27,31,35,24,40,40,45,32,31,28
32,42,36,36,26,39,41,30,26,29,27,26,29,24,20,19,22,25,28,25,26,27,26,33,38,28,42,40,43,32,28,27
31,42,35,36,27,42,41,31,29,29,27,27,27,25,21,21,21,21,29,25,25,29,25,31,35,26,40,33,43,32,29,28
31,42,35,35,28,43,39,29,29,27,28,25,27,27,23,24,23,23,32,27,28,31,28,34,38,28,38,32,40,34,31,31
29,40,34,34,31,42,40,32,30,24,30,26,28,30,26,26,24,24,34,28,32,32,29,38,36,32,32,35,38,30,28,32
30,39,36,36,33,48,37,33,31,27,33,27,27,31,27,29,27,25,35,31,35,33,28,39,34,31,32,35,38,28,26,32
32,41,39,35,33,47,37,31,34,29,32,28,28,32,28,30,28,26,36,30,34,33,29,39,30,33,33,32,40,30,27,33
33,42,39,36,34,47,37,29,33,27,33,31,28,33,30,30,30,27,37,32,36,32,30,38,30,34,36,32,43,28,27,35
35,41,39,35,35,50,34,25,33,26,32,31,27,33,31,31,30,27,37,32,36,30,30,40,29,33,35,31,41,29,27,33
35,39,39,35,33,53,32,22,33,26,30,31,27,31,32,31,30,27,37,33,37,31,31,35,29,33,35,28,38,29,29,33
37,39,39,34,31,52,29,22,29,25,29,29,27,29,29,29,31,25,33,31,37,30,34,36,30,33,34,28,37,27,27,33
38,40,37,36,32,49,29,19,27,25,29,28,26,29,30,31,30,24,30,29,36,30,37,36,32,32,32,28,35,30,30,35
36,42,40,39,31,49,31,19,25,25,29,27,27,27,29,29,33,25,29,32,36,30,38,40,36,34,32,32,38,30,29,36
37,39,39,39,29,52,30,20,23,24,26,25,27,25,27,27,33,23,28,31,34,30,39,40,35,29,31,35,39,31,25,32
35,41,37,35,25,49,29,20,22,27,25,24,30,23,25,25,33,23,29,34,34,32,39,41,34,26,34,31,38,32,26,32
34,44,36,32,23,46,32,17,21,23,21,23,29,21,23,21,30,21,27,32,34,30,40,40,36,28,32,30,36,32,28,32
32,44,36,34,23,47,30,21,20,20,21,24,27,19,23,21,29,19,24,29,31,28,34,43,35,26,31,31,36,31,27,31
30,45,38,35,22,49,32,23,23,20,19,20,28,18,21,21,28,18,22,27,30,29,32,41,33,25,28,29,36,33,25,31
28,46,39,37,22,50,33,25,23,22,21,22,28,20,22,22,26,18,22,29,31,32,30,42,34,26,28,30,38,31,26,32
26,47,40,37,22,47,37,29,25,21,26,21,29,19,22,22,26,18,22,30,32,33,29,46,39,26,26,34,41,35,24,33
28,46,42,36,24,47,35,29,24,19,27,21,28,19,21,21,23,19,23,29,31,33,28,44,40,29,26,32,41,38,28,33
28,42,42,38,26,46,33,29,25,21,27,21,29,20,21,21,23,19,23,29,31,35,29,43,39,27,27,34,42,38,27,33
29,42,41,39,25,45,34,31,25,22,29,24,31,22,23,21,21,19,23,27,31,34,28,41,34,29,26,32,40,38,29,31
31,45,40,39,26,44,36,32,26,24,30,26,32,24,26,24,20,20,22,26,30,35,25,38,33,32,28,29,39,35,33,35
32,43,42,40,28,44,34,29,31,22,28,29,30,28,28,24,20,20,20,22,26,34,23,34,33,33,27,28,40,34,32,39
35,43,42,42,32,46,35,30,33,24,30,30,30,28,29,25,18,20,20,21,24,34,21,33,31,31,29,31,45,36,35,39
33,41,41,39,32,42,35,28,33,27,29,33,30,29,29,25,19,23,20,23,25,34,22,31,31,31,29,31,45,37,33,39
34,39,39,38,31,42,33,28,31,27,31,34,30,30,30,28,20,24,22,24,26,34,24,34,32,31,32,32,42,32,35,39
35,38,38,39,31,39,31,28,33,25,29,31,30,28,28,26,20,24,22,22,24,33,27,31,33,29,33,33,43,34,35,35
38,38,38,40,33,43,27,23,30,24,26,34,30,28,27,27,23,26,23,23,25,32,28,31,32,28,36,34,42,33,37,33
35,40,36,41,31,41,29,23,33,27,26,36,29,28,28,28,24,24,22,24,24,30,25,31,31,26,39,35,42,31,36,32
37,43,38,39,32,41,31,21,32,25,29,36,28,28,28,28,24,24,22,23,26,28,24,29,29,28,40,31,43,29,34,31
38,45,38,38,34,40,30,20,32,25,29,33,26,25,26,28,24,24,24,23,25,28,23,29,31,28,41,35,41,33,32,29
34,44,39,38,33,34,31,20,31,23,27,31,23,23,23,25,23,23,23,23,25,25,27,29,33,27,42,35,43,35,28,28
33,45,39,40,33,35,31,23,29,23,28,28,23,20,21,25,23,23,25,25,27,24,30,32,37,29,45,38,44,39,29,24
33,43,40,40,30,35,26,20,27,22,26,26,24,18,20,24,26,23,27,27,30,25,33,35,41,31,43,40,40,40,27,23
35,43,40,39,28,37,28,20,26,24,26,22,24,18,18,22,24,20,28,28,30,26,35,36,41,33,41,37,37,38,27,24
34,44,40,41,29,37,28,20,25,24,24,21,23,17,17,19,23,19,27,27,29,25,35,33,40,32,38,37,36,41,28,22
34,45,40,39,30,41,29,21,23,24,24,22,23,17,17,19,23,19,27,29,30,28,36,34,40,34,39,35,36,40,26,26
34,45,37,35,28,36,28,25,24,24,24,20,22,18,18,18,20,18,26,28,28,28,36,34,38,35,38,34,39,39,24,28
35,43,38,33,31,35,27,26,23,24,23,17,23,18,17,17,19,17,29,29,29,31,38,34,36,35,33,33,39,42,25,30
35,43,37,33,30,36,24,28,25,24,18,17,21,18,18,18,18,16,28,31,28,28,40,35,37,35,34,37,39,43,28,29
35,41,37,33,32,39,23,28,26,24,18,20,22,20,20,23,20,18,28,31,33,31,43,37,39,33,37,35,41,41,29,34
38,41,40,35,35,44,23,28,31,25,21,23,23,23,23,25,23,21,30,33,36,32,40,39,40,33,38,35,44,42,29,35
39,41,42,34,35,43,25,27,31,27,22,24,23,24,24,26,24,22,30,32,34,31,37,38,36,33,37,34,44,39,31,38
38,42,42,34,36,43,27,31,33,29,23,25,25,25,24,26,24,24,30,33,34,32,35,38,34,32,40,32,46,40,32,37
36,43,43,37,37,42,25,32,35,25,23,27,27,27,25,27,25,27,31,33,36,33,36,36,34,32,42,32,46,41,35,39
39,44,45,35,39,44,27,30,36,26,22,28,28,27,26,27,25,27,31,36,38,36,38,36,35,35,43,32,49,41,33,40
37,42,45,37,37,44,29,30,39,28,22,30,31,29,28,27,25,27,31,33,37,33,35,35,33,34,42,32,46,39,33,40
33,41,44,42,35,44,31,28,43,28,21,32,34,31,31,29,25,27,31,33,36,32,34,34,35,35,43,29,45,38,33,39
34,43,43,43,32,45,32,25,43,25,23,33,33,32,33,29,26,27,29,32,35,29,33,33,35,38,46,30,44,34,30,38
33,43,41,44,30,43,33,27,42,25,23,34,36,33,34,29,27,29,31,31,35,31,29,31,33,37,43,25,39,31,26,38
34,44,42,44,28,38,32,27,43,24,22,32,35,31,30,24,24,27,29,30,30,30,31,30,30,41,40,24,38,30,29,37
33,45,38,43,26,36,30,26,41,24,20,32,37,30,30,24,22,26,30,29,28,32,31,29,29,41,39,24,34,28,31,34
30,43,35,41,24,35,29,24,39,22,19,34,35,32,30,23,21,25,27,28,30,31,32,30,27,41,39,23,33,27,28,31
28,43,32,43,20,35,29,20,35,18,21,35,31,31,31,26,21,23,26,24,31,30,35,27,27,40,36,25,35,24,26,29
28,41,32,44,19,35,29,20,35,19,21,35,31,29,31,25,23,23,25,26,32,30,34,26,30,40,34,26,38,22,24,29
28,39,30,45,19,34,26,20,34,18,26,34,30,30,30,25,23,23,25,25,31,26,32,28,32,37,35,27,37,23,25,26
31,39,31,45,21,33,25,19,30,16,26,32,26,27,28,25,23,23,25,27,32,27,34,28,32,37,34,29,37,25,27,21
35,41,33,46,24,35,24,21,25,18,30,31,23,25,25,23,23,23,25,27,35,26,36,28,31,38,34,31,36,27,30,20
36,42,32,48,29,37,26,24,26,21,29,30,24,24,24,24,24,24,24,27,34,26,40,32,34,37,34,32,38,30,34,20
36,43,34,48,28,42,27,22,25,23,29,29,23,23,23,23,23,23,23,27,33,25,43,36,35,35,36,36,39,36,37,21
36,43,36,50,27,47,29,23,24,23,31,27,24,25,25,23,23,22,24,27,37,24,40,37,37,32,39,38,40,37,35,22
40,42,40,50,27,46,32,22,24,28,34,27,22,23,24,21,23,21,22,29,40,22,40,39,40,32,40,42,44,42,40,22
43,46,43,52,29,48,36,23,27,33,38,27,25,22,25,25,25,21,23,30,40,23,42,38,43,33,41,42,44,44,43,24
45,46,43,53,35,49,36,27,27,37,36,29,27,25,25,25,25,23,23,35,39,23,40,39,43,33,42,39,43,47,45,25
45,45,45,52,37,50,38,28,25,38,38,27,26,26,28,29,24,23,24,33,37,20,39,41,41,33,43,39,43,47,45,23
42,45,46,50,35,50,39,31,27,37,37,29,28,29,31,29,28,26,23,35,37,22,40,39,39,33,43,37,43,47,43,28
41,48,45,51,33,51,41,34,32,39,37,31,30,29,31,31,29,27,25,37,37,21,38,39,42,34,44,38,45,47,39,34
38,48,46,47,30,50,40,34,33,41,34,31,31,29,31,31,31,29,27,41,35,23,35,37,40,32,42,36,44,45,36,36
33,45,47,45,28,50,35,31,31,36,34,31,29,29,31,31,29,29,29,41,33,25,31,31,35,29,39,33,43,43,32,37
33,43,47,45,31,48,37,30,32,36,38,33,32,29,31,31,29,31,31,43,35,27,31,29,37,31,43,34,46,40,31,39
31,42,43,45,32,44,36,32,32,36,36,34,34,28,31,32,30,34,35,46,36,26,34,31,37,32,40,30,49,40,32,38
26,41,39,43,33,42,33,32,28,32,33,32,32,28,30,32,30,34,36,43,35,24,34,30,36,32,38,28,48,37,26,37
24,40,38,42,30,42,29,30,25,27,29,29,30,28,30,28,28,34,36,42,31,24,33,31,34,30,37,30,47,37,24,36
22,40,38,39,24,41,29,30,30,27,31,26,28,26,28,26,27,32,36,39,29,28,35,32,32,32,39,30,47,34,20,41
23,42,36,39,25,41,28,27,31,25,30,28,31,28,28,26,28,33,37,40,30,31,36,33,31,31,39,30,46,37,21,44
25,43,37,43,28,38,30,24,28,28,28,25,30,23,23,23,25,30,39,39,30,31,34,34,35,33,40,32,47,38,22,41
21,43,36,42,28,35,25,18,24,24,28,22,30,26,22,24,24,30,38,34,26,33,37,34,34,35,41,29,48,37,23,38
23,39,39,45,31,36,30,18,24,22,28,22,30,28,22,24,22,30,36,30,26,32,40,34,33,37,41,29,47,36,25,37
27,43,40,46,32,34,34,22,23,26,32,25,31,31,23,25,25,31,35,31,29,31,43,39,37,41,39,31,47,37,27,38
29,44,39,46,33,33,34,24,22,25,30,26,30,33,25,26,26,30,33,29,28,31,41,38,35,39,35,29,45,34,25,33
30,42,39,43,32,33,33,19,21,25,33,27,27,34,26,26,28,28,29,26,26,31,38,35,34,37,35,29,42,35,22,31
35,47,40,42,31,37,34,19,25,26,34,29,30,34,26,26,28,28,28,26,24,34,37,33,31,37,35,29,42,34,21,33
35,43,39,41,33,35,34,21,27,26,34,29,31,33,25,29,30,29,29,27,26,35,38,33,32,36,35,28,43,32,21,36
35,46,37,42,38,34,33,19,24,24,34,28,32,32,24,28,30,28,30,26,25,32,36,31,33,36,32,27,44,33,26,32
38,49,37,42,36,36,33,18,19,24,37,27,29,29,21,25,28,25,27,23,23,29,35,31,36,38,34,28,46,34,26,29
40,50,36,41,34,35,32,17,18,21,38,26,26,30,21,27,27,25,24,21,20,26,33,28,32,36,33,23,42,31,26,26
41,45,34,39,32,35,33,19,21,21,39,27,25,27,23,24,26,25,23,25,25,27,31,33,33,35,35,27,41,31,27,26
41,46,32,37,33,32,29,17,20,19,38,28,24,24,22,24,26,22,22,22,24,28,29,32,33,33,33,28,44,34,23,24
41,41,32,35,30,35,29,20,21,16,34,25,23,21,21,23,25,21,21,21,25,29,27,31,32,32,34,29,47,36,22,23
44,39,32,35,26,37,30,21,20,15,32,22,20,19,18,21,23,20,20,22,26,26,28,35,36,34,38,31,50,41,22,24
45,41,33,33,25,39,31,25,19,15,29,21,19,18,18,20,20,18,18,26,26,28,30,37,34,32,34,31,50,36,21,26
43,39,35,35,25,37,31,31,20,15,31,22,20,18,20,22,22,22,20,30,30,32,32,41,35,31,31,31,47,33,19,28
45,43,37,38,24,39,31,33,21,15,31,24,20,20,24,21,22,21,19,33,31,31,31,43,37,32,30,31,48,36,18,26
45,39,37,40,25,40,31,35,25,15,29,25,19,21,27,25,24,23,17,35,33,34,35,47,40,30,33,36,48,36,17,27
44,38,36,38,22,39,30,40,25,16,25,25,19,23,27,25,25,21,15,33,37,35,34,45,37,24,30,35,47,36,16,29
45,32,35,35,22,37,30,42,25,18,23,27,21,24,29,23,25,19,15,32,42,37,40,48,40,28,32,38,50,36,16,30
48,37,38,40,22,38,32,41,23,21,25,29,21,25,30,22,26,19,15,29,39,39,41,45,40,25,31,41,51,33,17,29
48,39,38,38,23,40,34,43,24,25,28,30,22,28,32,20,25,20,14,30,40,38,44,46,44,25,34,43,51,33,20,28
49,42,35,38,25,37,31,40,22,27,29,28,20,26,32,18,24,20,12,30,40,36,43,46,44,25,35,43,48,31,23,30
44,43,35,34,22,35,30,38,25,28,28,31,21,29,33,19,25,23,14,31,40,38,44,45,42,22,32,42,51,28,24,30
43,43,34,37,22,32,28,38,29,32,30,32,25,31,33,21,27,25,17,31,40,38,44,44,46,24,36,43,51,29,26,30
40,43,34,38,23,34,28,36,29,32,28,31,23,33,33,21,27,23,17,31,37,32,41,45,46,22,43,45,52,34,29,28
41,41,33,39,21,34,30,36,29,34,30,31,25,32,28,18,26,24,16,28,35,32,40,43,45,23,45,47,55,33,29,29
41,40,34,36,16,35,31,35,26,32,32,36,26,32,28,16,24,25,20,30,36,33,38,39,44,22,42,43,53,35,28,28
40,38,35,34,18,36,32,35,30,33,32,36,26,30,28,16,24,30,24,32,34,33,38,38,43,24,42,43,53,30,28,29
40,43,38,36,19,43,32,35,34,35,33,38,26,30,30,20,26,34,28,36,35,34,35,38,43,22,40,45,56,34,34,33
38,43,37,32,22,45,33,36,36,36,31,38,26,30,30,21,25,33,28,36,37,29,35,37,44,25,43,42,55,37,34,33
38,44,40,37,19,46,33,35,39,36,30,36,29,28,27,23,29,33,31,37,37,31,32,39,40,25,43,40,57,36,34,39
37,44,44,39,20,47,35,31,41,35,31,37,33,29,27,26,28,34,33,38,37,34,31,41,42,23,43,40,55,38,30,40
39,45,47,42,22,47,33,31,39,33,33,37,38,27,27,26,28,32,32,36,36,39,33,43,42,23,45,41,51,40,32,41
36,45,47,43,26,47,33,29,37,29,31,33,35,24,25,25,27,31,29,33,35,37,33,38,42,24,46,41,51,45,35,38
37,46,46,41,24,45,33,25,34,28,29,32,34,21,23,23,25,29,26,28,36,38,33,36,42,29,44,40,54,45,37,36
37,47,47,40,27,47,31,27,33,27,31,31,35,22,23,23,25,29,29,27,38,39,32,35,44,29,43,36,51,46,39,34
36,48,47,39,30,45,32,27,32,30,30,28,34,22,22,23,25,27,27,24,36,34,33,36,41,32,44,41,50,47,40,35
33,47,44,39,29,41,29,24,30,28,30,28,37,22,22,22,24,24,26,26,36,35,33,40,43,34,47,39,51,47,43,32
29,43,40,39,30,37,28,22,30,26,29,25,42,24,22,20,22,22,24,24,32,32,34,37,41,37,47,36,49,44,41,29
27,41,38,41,31,35,26,22,29,23,30,23,43,25,23,22,22,24,25,24,32,34,34,38,39,33,47,35,47,45,41,30
27,39,35,40,33,34,25,21,26,23,29,23,40,26,24,22,19,24,24,22,34,32,36,36,39,33,47,36,46,45,41,26
27,37,33,39,31,32,24,25,27,26,31,23,37,25,23,22,22,24,25,22,34,31,38,33,37,35,47,37,46,44,43,25
25,37,32,37,31,33,25,26,28,28,28,20,34,28,23,22,22,24,26,22,32,25,37,29,37,39,46,34,50,44,43,27
27,39,33,37,31,35,27,24,28,31,31,21,34,27,22,20,24,26,26,24,32,26,34,33,35,39,43,31,49,41,41,29
25,41,33,35,31,33,29,29,29,31,32,21,35,29,22,20,26,27,28,26,30,27,35,32,35,39,43,32,50,39,37,31
21,39,32,33,27,31,29,28,28,31,27,19,31,26,22,21,25,26,29,28,30,28,37,33,33,38,43,34,48,36,35,32
26,41,33,36,27,34,29,28,27,29,28,19,31,28,24,23,27,25,29,29,29,29,35,35,35,39,44,33,49,36,37,32
29,45,37,39,31,35,31,29,30,29,27,20,31,28,24,24,28,26,27,27,28,28,35,34,35,37,43,33,47,39,36,33
30,48,39,38,29,34,30,30,28,30,30,23,26,26,22,24,28,28,28,27,27,32,32,34,36,35,42,34,46,39,38,34
33,50,42,35,29,39,33,34,26,28,31,24,24,26,23,22,28,27,26,27,25,30,30,30,33,34,37,35,46,38,38,33
33,51,39,33,27,40,32,35,25,27,31,23,23,27,23,23,30,28,27,27,24,31,32,30,36,36,39,34,47,37,35,35
35,56,43,37,28,43,36,35,26,26,29,24,26,28,24,22,28,28,28,28,24,29,30,32,39,37,41,37,48,37,34,35
38,56,41,40,29,42,35,33,26,23,29,25,25,25,24,23,28,29,29,29,26,30,30,34,36,35,40,37,45,35,32,32
37,56,39,39,28,41,33,36,27,21,27,27,27,29,27,27,29,29,31,29,27,31,31,35,39,35,43,41,47,37,33,34
41,56,41,43,29,45,33,31,29,22,28,28,29,29,27,27,27,29,30,28,28,34,34,36,40,34,42,43,47,37,35,36
43,57,38,42,31,42,31,27,29,20,31,30,29,30,30,28,27,26,26,29,26,31,33,39,38,36,43,43,50,35,37,33
40,57,38,39,30,41,30,28,29,24,31,32,30,27,27,26,26,27,25,29,28,31,34,38,38,34,41,42,50,32,33,29
42,55,35,41,28,42,28,25,28,23,32,32,28,28,28,26,26,26,25,29,27,31,33,36,39,34,43,43,49,29,32,28
40,53,37,39,27,42,30,23,27,23,32,29,28,28,28,26,26,24,23,31,30,27,35,38,39,35,44,42,51,30,25,27
41,52,38,39,25,39,32,19,28,26,29,28,29,26,25,28,27,25,25,34,32,30,37,44,41,39,47,40,49,33,24,28
42,50,39,38,24,38,32,20,29,25,29,31,31,25,25,27,27,25,25,35,31,30,35,44,41,35,44,38,47,34,24,26
40,46,36,36,26,36,31,19,26,24,30,30,30,26,24,26,26,24,26,32,32,30,37,44,39,36,45,33,47,35,26,25
38,44,38,34,25,36,34,22,26,28,30,32,30,26,24,26,26,23,26,31,32,30,36,41,39,33,43,31,43,33,26,24
39,41,35,33,26,35,35,21,26,30,32,34,32,26,25,25,25,23,26,32,32,30,36,38,34,32,44,26,40,28,26,23
36,40,30,28,28,32,34,20,24,29,33,33,29,27,27,27,25,25,27,33,31,27,33,36,31,31,44,20,34,28,28,23
37,39,31,32,28,34,35,22,25,31,31,33,30,28,26,26,25,27,29,30,32,28,32,30,30,28,42,18,30,32,26,25
37,37,29,33,28,33,35,23,25,27,29,29,32,29,25,27,24,27,29,29,30,29,30,26,26,27,41,14,26,30,26,27
31,33,26,27,27,31,35,26,21,28,29,28,31,28,24,26,22,29,31,29,33,29,33,25,23,27,39,11,25,29,25,27
32,30,21,26,31,29,31,30,20,29,27,29,31,28,24,26,22,30,33,28,31,30,32,23,21,25,37,9,22,27,28,28
31,29,17,25,28,31,27,30,18,29,26,27,30,27,24,25,21,29,31,25,27,29,29,20,16,22,32,7,20,22,26,26
28,26,15,24,28,30,26,26,18,29,25,25,28,28,24,24,20,29,30,24,27,28,28,20,14,24,32,6,17,18,28,27
28,24,12,22,28,26,22,26,22,30,26,30,29,30,26,26,24,29,29,28,28,30,29,20,15,27,26,6,16,20,30,26
24,20,6,20,29,22,18,26,23,30,27,29,27,31,27,26,24,30,29,28,27,27,29,21,16,27,29,9,18,23,30,27
24,22,10,19,29,23,17,27,21,28,25,27,23,26,24,24,24,28,27,28,25,25,27,21,16,29,29,12,20,26,32,27
28,21,15,23,26,25,20,31,21,27,24,27,24,26,22,22,24,26,26,28,24,26,26,24,18,29,31,15,23,31,29,26
29,25,21,25,26,28,24,30,23,27,25,25,24,24,20,22,24,26,28,28,24,26,29,25,21,34,32,13,23,29,30,30
30,24,24,28,28,28,28,28,25,26,28,26,24,24,22,22,27,29,30,31,25,26,31,29,25,37,35,13,27,31,34,30
34,28,26,32,27,32,30,30,29,26,28,28,24,26,22,20,30,28,30,29,21,26,31,29,29,37,35,13,25,29,35,30
37,36,31,35,25,39,35,30,31,28,30,30,25,28,24,22,32,28,30,30,23,26,29,33,29,35,33,13,25,31,34,31
36,37,36,37,26,39,38,28,34,29,33,33,28,31,26,22,34,28,30,30,24,26,31,32,31,36,36,15,27,34,36,33
39,42,43,41,29,41,40,32,34,29,34,33,28,31,27,24,36,30,32,32,26,28,34,35,31,37,37,20,30,39,37,32
43,49,46,43,26,42,42,31,29,30,32,27,24,26,24,23,33,28,30,29,26,24,34,36,29,36,42,22,32,40,36,32
48,53,48,45,26,47,45,31,28,25,34,25,26,24,25,25,35,29,31,31,27,26,35,37,34,38,42,24,33,41,37,34
47,54,48,48,24,48,46,32,30,26,35,24,28,26,25,25,33,29,33,31,28,26,36,38,35,34,41,21,35,41,40,34
44,52,47,50,28,50,45,34,32,28,39,24,30,26,26,24,32,28,34,28,30,26,40,34,35,35,39,17,33,33,40,34
