Fp1,AF3,F7,F3,FC1,FC5,T7,C3,CP1,CP5,P7,P3,Pz,PO3,O1,Oz,O2,PO4,P4,P8,CP6,CP2,C4,T8,FC6,FC2,F4,F8,AF4,Fp2,Fz,Cz
2.060291170813758,2.074619784923932,2.0113488106521706,2.069594239509689,2.062125607508411,2.005175831096467,2.150519397718528,1.9318574337839178,2.106173707989978,1.943578020082045,1.9844439974616017,1.9895341368286068,2.0618848431913106,2.006926948295651,1.947503431600538,1.844583465982825,1.743629064731194,1.7436224616467624,1.73159247635977,1.8312148775592259,1.7839260304897053,1.8870330635538746,1.8321482586539883,2.097112068240699,2.0982812832104942,2.1186060051780164,2.2151829906134126,1.97078655491887,2.0424683233044703,2.087900743835946,2.0852246005721082,2.1148876670619603
1.8828135941220676,2.1315660026937713,1.9540288016297767,2.0055811678917563,1.9868353696933008,1.9482881910293068,2.002726234467692,2.0234899460228517,2.0813403805573567,2.0558420508639434,2.093673354348452,2.1667147485580074,1.8608084635525264,2.081256565629904,1.9279914303070578,1.8793443136896275,1.8713546018855474,2.008068775406019,1.8293390622280423,1.861808302380274,1.7741145511074357,1.9619114170130638,1.822248249452504,1.8147436089487496,1.7557289219274235,1.8431165318700011,1.952920934084591,1.9628302552141594,2.0963664015086887,1.9867707985812513,1.7926552135912874,2.0300816398120336
2.054054862132468,2.0218664401611144,1.9615732213080432,1.9485683543149417,1.9432586241211007,1.8931483917553191,2.207929642005466,2.034832622560739,2.0043670865573375,2.137389767337208,2.0573508974094032,1.980247631072738,1.9469678674575035,2.0622367075939336,1.9990966994464052,2.0787625907200074,1.9365623912423047,1.8777550202853872,1.756114187970051,1.845038418311507,1.7215237742398979,1.877733169158875,1.809145147352291,1.7514729671508171,1.8179878628483193,2.083547426039308,2.1132829378253124,1.883479293372425,2.04202022221919,2.0354980500238784,1.8983923367725248,2.000975214363222
1.9150994362629385,2.176938277481596,1.8818815341156498,2.0638139606627273,2.153224302619066,1.9582909192009583,2.2109721029377085,1.8632359944907422,1.7494084251985247,2.0337635319331717,2.0578211095612766,1.8504373305479922,1.6587983736815841,1.8640806681866602,1.8337931228180855,1.7398248001738406,1.6938670124793354,1.664434823496396,1.6098547814079522,1.6988718107293952,1.644887401342992,1.6306683761696583,1.7401279547585102,1.735638118566097,1.77103640137058,1.8517370595968428,2.0287449732116856,1.8191804702190466,1.8115133526756648,1.6820360082949486,1.8018586788746545,1.7496586205237454
2.1583154322870484,1.9227044268764324,1.9468482935231524,2.1670406363153485,2.0074946683907444,1.7682305643747465,1.9153333071114087,1.6300342536527554,2.1067795520409716,1.84509611755296,1.8509564080278387,1.9296909331811076,1.890358089898779,1.9630557105449848,1.8913934211162047,1.9444774075598066,1.8324983176118443,1.7741158643675228,1.6992342403136,1.8050318348434844,1.7147979794905996,1.6959866462271231,1.8053046179068428,1.873471390014504,1.8527739537771675,2.0035184901995473,2.048975436688961,1.880621896296829,1.8993335329891212,2.001813027408931,1.931298312843832,1.793366380411774
2.06949251495128,2.0938270379850787,1.9529323389388453,2.155421657470257,2.0712736896738995,1.943693829826565,2.2441442647304624,1.8230525783502394,1.836347322392504,1.989607915776239,2.0672091033851467,1.9048998667010277,1.7985595006767119,1.8047594479709617,1.803242642220436,1.7606512236025054,1.7154885474314439,1.7536601301473094,1.687384824288463,1.8360973747061968,1.7844787988157909,1.7779891446753793,1.8965628661975549,2.0218559675199392,2.0582704790833666,2.163686819687099,2.1153570774371513,1.8765603586451851,2.192855277077308,1.9782554945844684,1.9272271957993083,1.909336859274802
2.000786537177673,2.2262179740442978,1.8769161150695963,2.064413646038018,2.0760439950899756,1.96049224310301,2.1783752026068117,1.9990992734985007,1.8964066049694899,1.8094299152996127,1.9811826595492887,2.010938137986886,2.029735868400012,2.013693335122171,1.9237142396871372,1.9763525480587527,1.9657480413888078,1.960758658970393,1.8140128422231085,2.0651133238044466,1.9402960774914895,1.9145046419893128,1.9087628518350792,2.017610331041214,1.8522719956448932,2.0363747800500995,1.9846661824176277,1.7722666947020698,1.9493570974933254,1.9862885565132045,1.7964336170045396,1.987965375464298
1.9498712875163895,2.0907212915492877,1.861660543503069,1.8586245375644028,1.923964530739942,1.8298056175575683,2.14378700168612,1.9942001967187795,1.9478653306607052,1.763502077221209,1.9069953410000418,1.8463121428390417,1.9343798113923358,1.8598424145687236,1.8751530529178768,1.8843394962370104,1.7910732675145888,1.7817668602443686,1.7328672545681565,1.7324697814771255,1.7643484572065202,1.8952510222219685,1.8530947128098152,1.9575489589282546,1.8511929988412572,2.1260743072957675,2.129896334571345,1.701519324203074,2.1084679151685717,2.0422427887184904,1.89137678644108,2.047667148429654
2.011385430328937,2.208082038736462,1.9134231406138555,2.1728293532775855,2.0165684865913627,1.8755970250577867,2.0727060005880804,1.9536201164075928,2.1059630713235507,2.021883285772348,2.0935923803702208,2.045231792393892,2.028639051700224,2.0700971449676864,1.9988083787003283,1.9294736719311847,1.8577004480821366,1.815447840558358,1.7384007097032803,1.7485006572016895,1.7853151092155726,1.8429485626079176,1.8570008139089857,2.0432681165485307,1.9298735570783294,2.066268999951718,2.100197346125552,1.8438925862840054,1.8658158312661084,2.1733349741590917,1.9357428822956904,2.0290116759627947
1.8704997573651356,2.040996150782222,1.7917323021495302,1.8444797102956452,1.7752893994963963,1.7058264617554582,1.8116409104476403,1.8297458778328495,1.773292707820691,1.9808757943129636,2.046598263441548,1.9842360536574597,1.727371177166386,1.8829058010871187,1.9352291161135202,1.8236960760898533,1.8366240280294075,1.8281279923289406,1.8920040742901618,1.9398570549646497,1.9384634626470012,1.9390181455036772,2.0160979399657193,2.208703510109447,2.019201466126949,1.9967502323811748,2.1224824550204073,1.9303356023702418,2.413798882187803,2.2032233272268527,1.915936133954157,1.8971239303219538
1.921442712820541,2.0898158891819887,1.8390437806484035,1.887747068995501,1.9079536545999072,1.6774569601263456,1.924251764033165,1.7218653874121195,2.104481840161746,2.10733178686386,2.375303557924583,2.1701678334632537,1.9954125816763193,2.075443143921139,1.9620482825539352,1.8066636466920525,1.8080538635501853,1.8743997336648097,1.9322531402795793,1.8586667196708035,2.1029567493880843,2.132330776123956,2.067713012141606,2.299487297959077,2.159209347445325,2.0056128444434997,2.2153775891124754,1.9292158280356362,2.209606832173348,2.1832809978317487,2.124502311116191,2.036808384362972
1.7915241819726595,1.8755318278396231,1.7147094999251848,1.8160720274572666,1.9616969623208573,1.5806303562695014,1.7709093975994252,1.7659765903768554,1.9082378277660494,2.1239843017873485,2.28781125034345,1.9959048730952185,1.7522316856191695,1.9892217191492128,2.025078318868264,1.891067558217772,1.941670558752647,1.864626018418306,1.8382347286607836,1.9445548342304013,2.03106389103163,1.937189066711976,2.1546693224512725,2.083071644356704,2.0162414449441175,1.9801521920762055,1.960493903232957,1.8471524023857333,2.332629976784109,2.112485057057853,1.9489095283338473,2.032747579702163
1.798504800062533,2.1708927499105366,1.785919747699177,1.873324372036077,1.7863061507914566,1.6500939665020762,1.7715032950788052,1.7411407096425366,2.1647726117743007,2.040045783080378,2.053474428162117,2.0600777915169655,1.797656803163167,2.0600970521937785,1.9791062292300037,1.890319650068733,2.0009739937550797,1.8862365555407332,1.843346089901885,2.0063364768989707,1.9815983646495035,1.7958172943115565,1.9448192443807901,2.1630748897142804,2.2302098700322346,2.09746686598513,2.3459901921029966,2.0655673707334183,2.4284845663079864,2.2449767604820243,1.907414185781649,1.9236405080894328
2.1676450506634533,2.0967572161159924,2.0194585795369906,2.327989468258683,2.059047444953662,1.8851468431093195,2.130269889477641,1.9759800101981042,2.0973430392344903,2.0002824661938554,2.197790359788292,2.1484808282206207,2.115698016991641,1.9983777888463163,1.9704097076151597,1.988123579710141,2.083279580232753,1.9931464411969666,2.096979442055704,2.1593834238197154,2.230894600357993,2.2136444970619666,2.0786640256960567,1.9924031880323225,2.2160330350208746,2.3117623027708905,2.3299187775242136,2.005911248911432,2.3689488865415647,2.196602890808024,2.090065672204736,1.987691119928303
2.1072161460749057,1.8624785012434695,2.0250780559418513,2.236586777897001,1.874398058342407,1.8913655588294978,2.11460348323072,1.974961683606432,2.02716502521514,2.056989272050662,1.9625597942043072,2.1242813309154744,2.0617212747142557,2.0442081180362557,2.004936048142084,2.046779458683203,2.152744745721948,2.1768781221189086,2.038773586096276,2.1710292859959486,2.1073796481037226,2.021955048749802,2.1220108548323355,2.1613961226210847,2.238840753177613,1.8706097466051725,2.1855865755239283,2.037053202563781,2.449085978524142,2.039058128058437,1.879336376804402,2.0561943059757097
2.099276635674623,1.935002268493397,2.0574445458190653,2.2663565369365317,1.9661681011504848,1.9572991288093797,2.0699950981705264,1.7723870856454473,2.0050939586613117,2.042983601734465,2.2186869737146235,2.031127098672891,1.9315039820030815,1.904894305897736,1.907076465364854,1.9076416662693014,1.9644423475682804,1.9496425310516412,1.962543671809035,2.096617863739762,2.062834254898279,2.0192158347084326,1.9814827374309179,2.1233808398944287,2.259320343637397,2.002133719452194,2.218370992483755,2.0775275751210964,2.4734665038232104,2.208988787792686,2.13166985990407,1.8079923678755914
1.9607402394008588,1.9652538687943164,1.8191051788141883,2.0506273697764326,1.8956071380603472,1.6840030839627294,1.8815789556339464,1.6472973255798973,1.9348478916028433,2.0011060535750267,2.1255623432104644,2.0019823968116883,2.1233427844253296,2.188622658878027,2.1463799550557208,2.0052982335970944,1.9603296408188948,2.054211759654086,1.9591912001940752,2.0587156666542317,2.0926773525893765,2.1545635876088776,2.0320427855338625,2.119058233663431,2.0289126907260493,1.9911934161909868,2.2068021428093707,1.9321833922193534,2.515806188654386,1.9589332111067348,1.9828637701448542,2.000744907981014
2.102156920803703,2.3651163298586964,1.9727288458038577,2.2284303684731497,1.9160401484862226,2.1241532835999193,1.863664642169859,2.089494515372082,1.8408121322069726,1.8914060651566762,1.8689523667561123,1.8006733106894846,1.9540583434122238,1.7995766607773203,1.7933757727783963,1.798788558540771,1.819827442736697,1.9648911014714212,1.8882249619757652,1.7930309222584717,1.8494852194826008,2.01769292377352,2.0548945897819277,1.9594988230690953,2.0010828711434856,1.867528572728354,2.2482937428148473,1.9317231930226073,2.3055300227661393,2.199265357240237,2.1439905119045535,2.2444818929680115
1.9157142982020465,1.910220013441483,1.7733994109487035,1.980345864503606,2.2155317288125587,1.7829569011318103,1.787163022519128,1.743441169984461,2.1119351034305884,1.7542159983949293,1.8185108730313517,1.9769509499590592,2.241916099006591,2.0239890257611957,1.9019506848937313,2.0661570758947723,2.066706169339634,2.148727451715906,2.177429945933734,1.9485665633679827,1.960620360795579,2.2112144913210177,1.923211579829309,1.8246328258365616,1.8522621599294986,1.985677317405462,2.1120272249769583,1.8196336687267594,2.153083418232565,1.8907331428261183,2.0094956523753016,2.161073249885927
2.235016645994872,2.2332520306378694,2.0725111375512175,2.2174802739828725,2.2445643763541456,1.952333836656607,1.927508326579779,1.8556479652046034,2.025095507469711,1.9629654683382973,1.9976826725468657,2.127458633842833,2.137245877058329,2.0218631701389254,1.9127932217669172,1.9540720454586018,1.923982614830728,1.9895626913296949,2.1959397201882096,2.0379568057832222,2.165071859684325,2.0255539487871475,2.174295744324281,2.183503623153635,2.3567751559218637,1.9848682940469935,2.420203633093032,2.176925289139596,2.532589756525845,2.1190710223926876,2.1076376911239527,2.3433887696154154
1.942206285002908,2.2505565105818786,1.9985102690585899,2.0058201605806563,1.9385430790861935,1.9280256934006432,1.8874649174807483,1.7234037895070822,2.1035796821970916,2.0301924533284312,1.9846658056477573,1.9896896618738273,2.337517964823431,1.9740490119290763,1.9117077568258378,1.9621363496111879,1.9788317528117982,2.064490059266547,2.1477836220829953,2.2491450876801515,2.0052528565850802,2.0439237961803256,1.9315497153599466,2.0638615034703394,1.971866336139738,1.7780928050546505,2.0876734299780173,1.884842948190907,2.126136037978978,2.073321186333535,1.91811076609983,2.222862615269363
2.159409624863619,2.5116391511241623,2.07146993484734,2.325692252791009,2.0502580635844603,2.0305124999266964,2.106248373792061,1.820949695208962,2.036597396070884,1.9256884321761794,1.9698958735847385,1.9241931639561136,2.059729707996528,2.0710875834269253,2.0558874090109067,2.247544328972443,2.1826374504505766,2.034073842377233,2.1683068139042034,2.102113392022764,2.079052543578787,2.1510528462949483,2.042189746988667,2.1383822868682474,2.3939937485956215,2.070793129736923,2.3305789753307162,2.2440679749575367,2.2148846781648728,2.4446389633611494,2.0661088853231777,2.2546741402991746
2.3672557985340092,2.3152800153393387,2.0554662181567864,2.120377518967172,2.107460229140135,2.0633485548607458,2.006872562409984,1.633091931269963,1.9430226704204427,1.9522845173733998,2.0201506224782286,2.0090500362437873,2.1754700676164345,2.016347306055629,1.9849001921885634,2.170137807697684,2.1197563525746754,2.2577554993514584,2.097311538340273,2.0332655159962223,2.1475362495905514,2.157860733414489,2.0647470727496606,1.9973640465217,2.102138641059386,1.8337239920282749,2.01372520229673,2.1219969609649594,2.371495972522118,2.1117762885964866,1.9432662511075556,1.940249269504587
2.0178664547481837,2.358388369070971,1.9009741341408632,2.1258302816614565,2.0300498761278973,1.9726673995481159,1.902697634900664,1.734963073430508,1.9673157309666292,1.7499651915935148,1.7699432278839986,1.9714089391722778,1.9259134860208922,1.874801033301939,1.854857516309259,1.9945971617611773,1.861583634428951,1.935606075124116,1.9586680635365055,1.9237506648533957,1.9227531449362003,2.1096172390850865,2.072533877699105,2.117084143330606,2.2758938780936524,2.025055174278998,2.2856306892633227,2.0334541410455147,2.0941984263323064,2.338967607448793,1.9943379498463032,2.0835970672478004
2.0460513159822553,2.4806315701693378,2.071422684912559,2.1112276919468043,1.9203428920519579,1.9937914087900799,1.9644643860858233,1.6442352811807084,1.8717977487546418,1.8990103626591361,1.9648077537130113,1.903278078746809,1.8783387317660236,1.9114220863734048,1.8993021664158791,1.9655461861563466,1.8325328335402584,1.8661192876123576,2.022576213929696,1.8669973988887418,1.8977250297880395,1.9832505599219628,2.005169210331511,2.1046895366854836,2.0332235743984692,1.9939714993121482,2.1589510614253555,1.9989007874209446,2.5060072485967555,2.185871548705422,2.103030273541854,2.249015417026028
1.8488739919011832,2.2295782258338184,2.089200942513796,1.9386001911762685,1.708119123213446,1.987893417598643,2.044631143585357,1.8888758839718514,1.7351304072766869,1.7840962038499473,2.0089480524000587,1.7783960868174704,1.6444484952123142,1.8382818120952766,1.9252026569133538,1.981499568324281,2.048990101845747,2.0477207440599914,2.062873756823404,2.129737875776182,2.1804262415937083,2.0162627936633166,1.932584541551512,2.095453720401443,1.9503030197835771,1.7165801856217533,1.9192320141906332,1.9315992262290562,2.1938549206824667,1.9854218927408507,1.7467323185137646,1.9226288275063768
2.108520029888938,2.399258765575974,2.3515644437374585,2.2789718742442098,1.9916581838840142,1.9988415601752014,1.8850223052561523,1.6781791313198555,2.0934808417951536,1.9611553865440843,1.941580544834547,1.7970095784606372,1.8604001969001813,1.814206297891039,1.9078679414747912,2.066036681139391,2.0271870512785797,2.012908293625872,2.2257716023994036,1.923326522029885,2.0754203682296692,2.21882823532706,2.1421071572477284,2.1282645813279615,2.1022405893573746,2.1663310105319713,2.537627186552541,2.1930898355103934,2.2373675867146674,2.33233916872956,2.140391652484583,2.127811388542407
2.0490960037087516,2.0158526748393872,1.9682595123755193,2.1654626785611515,2.1041800110486086,1.7882116083036252,1.812018408245006,1.8180877709945271,1.8920483648930524,1.8226963986911662,1.7551596139309598,1.8100073868917501,1.674040117184031,1.745325500108245,1.7732488423613448,1.8117780731335253,1.8245004849221211,1.9508648789102625,2.1804490159801135,2.0139584298407467,2.1420942717192126,2.014025098543476,2.1271941315988703,2.0895162935334897,2.088685068437842,2.067708412679803,2.2434353283708317,2.1267507295486503,2.434557243811736,2.225484421592022,2.255563455583372,1.933859764932206
2.1577699383563056,2.2434379907229514,2.295284015250418,2.0576430618246997,1.8909808503518506,1.8969771587791502,1.8015908908399463,1.753349900072479,1.8378918566509175,1.707191620962383,1.6963681867810378,1.7699271766362725,1.676764850281342,1.7763900353153435,1.7879012203345255,1.9431189772353559,2.105139773711642,2.1340901307882088,1.9492738243785894,2.0486303855483987,1.878569645620386,1.8725699498502681,1.9270261214239062,1.9673907911426183,1.8577454994493998,1.7756308081092083,2.373259386391316,1.8696346375556108,2.147771253951235,2.07963194071401,2.0489370482264744,1.7730559962326353
2.115795943589106,2.279266555067619,2.2847109912569077,1.9837867437963814,1.9223474841211448,1.9162997272178528,1.8844960706744316,1.6706724383119753,1.8354269669749148,1.9344448108816834,2.215513086685663,1.8583807579930436,1.7018300805377045,1.9087112239490511,2.1248718078958335,2.0580447475853214,1.9340105266297614,1.9231061078314855,1.9242043014920616,1.8990144874446035,2.0043983154253846,2.024788990057418,2.0842807619209416,2.0347058642870843,2.1523160023353847,1.903541980624857,2.4439199088175774,2.2050422435534975,2.397753367538612,2.2385897048350993,1.9341650135314516,1.9581126844249752
2.1653022128331134,2.4558608681369773,2.1596942833299893,1.905350538413604,1.9171274034007408,1.8744180357612068,1.8645536735141854,1.7374562630167552,2.0010626145389234,1.9771571776273233,1.9680820542067257,2.14037397102689,1.8585253132006,2.143628115007273,2.2700757536842766,2.097159035015698,2.0786902654660535,2.0032572094534253,2.222641837595656,2.0175482617771245,2.0593544373716597,2.145548522005339,2.230822827297033,2.032647175334257,2.1687844003737875,1.899785088772551,2.133228598256971,2.289342160200378,2.358402973631001,2.066166501456285,1.8646026147580197,2.067027694499569
2.108882395486619,2.299654833188235,2.2588314323766525,1.9760971441537825,2.1461124195008656,1.910201511992585,1.970864164083732,1.822806964294258,2.103492831618077,1.783773857537148,2.152237167573258,2.02019604900963,1.7290854803067146,1.9648467036479207,2.1033361523029095,1.9656035514390033,1.9422407829922452,1.8697318119593367,1.9769897009520736,1.845213755889459,1.8134856095457303,1.8959916896171018,1.9102477318553643,1.9299502991053963,2.1710868895060824,2.0384856499372406,2.418981955048183,2.3212473049471543,2.180570528761858,2.251220341828607,2.1977227858858,2.0831456307667047
1.8676249484584715,2.33994537033218,2.049791478780042,1.981032006670032,1.8493310854678002,1.7867520578565403,2.197549676404807,1.7996611528095858,2.0574359626355956,1.8901886874508642,2.0329919187793926,2.047126689284054,1.654395820171516,2.0163027420468382,2.2030606806027517,2.2035926826606946,2.1170813994248703,1.9111977234412472,1.9443179605252765,2.001706214758397,1.8933238565338466,1.8605716889439623,1.8977057758199587,2.1195345753151216,2.1400723364423087,2.0213562805374266,2.4042684151756997,2.101644710985689,2.046020751333643,2.1043325401428947,1.9084023937602055,1.9351514345461311
2.0169292717266605,2.1866746525551215,1.9398720405628014,2.0114534963732926,1.9019766303488628,2.0563975038013673,1.950303890281877,1.8502177301367468,1.9362615002104073,1.7616480650037525,1.9209903593489723,1.8563433096796165,1.6024058480586458,1.9314789623614717,2.021315093443258,2.0487955142501972,1.9426247236676994,1.8847576074553913,1.985126098530303,1.9543661696568662,1.912753253417708,1.9138387970231985,1.9672482574502324,2.171494527413987,2.036071013128285,1.8566082453787724,2.4558882522390633,2.2368654133402885,2.450537162474519,1.9750003276332524,1.8837519110527507,1.7920798958681814
2.022341817371929,2.252405001603616,2.194494199159287,1.8490453322733984,1.928039031068851,1.8533762764307355,2.1671765703833135,1.7809182884669514,1.9357852917117504,1.8915481032635684,2.1113710243005075,1.9443806919405742,1.552084562897088,1.93607795474963,1.9990634857994127,2.0143799216667073,2.0121003999768,2.0009713348383746,1.9723137421465684,2.0852876077106797,2.019056415033794,1.8241579997254114,1.9747922855703481,2.1568779783583594,1.9028950415729406,2.071414704121488,2.1961335233620423,2.101850298845753,2.4145404091498075,2.0022248092577617,1.9220182503941154,2.0861764976764268
2.035596883965309,2.281914622568055,1.9227416793680807,2.1948937713464116,1.8123911824141423,2.0063003689899506,2.164854178481071,1.837123367639361,1.983207257649009,1.8728769529114013,2.0217930344594466,2.243289718067249,2.0635918613177107,2.0915736881654987,2.10452152396878,2.175739166940223,2.1225546530130663,1.9939712039465785,1.8994770129107246,2.2076118389346644,2.050978325453168,1.8513864305317156,2.0494543299670522,2.2951247957941945,2.0894206531940522,1.8863735239632193,2.443272642984672,2.0164864312366975,2.249887874577814,2.0373917620215085,2.331403453487451,1.9053909851268835
1.7134058603432936,2.2440749410919048,2.1865093124961787,1.8869894083463044,1.7733269304673924,2.0482739127986322,2.2545520935561165,1.7507908478192928,1.8917436175816715,2.003243394844969,2.168402920062427,2.0987675314648677,1.9618701616325425,2.1166462612900463,2.1217505731890673,2.1598606876794157,2.109786911124288,1.927125769869722,1.9743490332726112,2.2375661620344043,2.100858410957729,1.9311743032432005,2.2125443245499365,2.0354132805082332,2.009112307762924,2.0062291471925593,1.9703745847397853,2.255930732594228,2.397794415521263,2.083286959527353,1.8228442483931624,2.124601029074797
2.093566057978998,2.3834651321381157,2.297965285090633,2.112398931748272,2.023320272870361,2.0339244413862723,2.2042732698389447,1.748738671244593,2.141147983627087,1.9284792505044173,1.9976381859870076,2.0561109098885533,1.8281283636142125,2.0841081264545096,2.017151724661855,1.9014299685542984,2.079421420185864,2.1129997579896123,2.1733984924858296,2.180993497753556,2.225508178263443,2.0340004039260924,2.2041182105951282,2.299430513724404,2.0156519024997235,1.9862204160544485,1.997423150337822,2.206529223164108,2.380599970869045,2.037427394909126,1.8782840231757318,1.9639971662510471
2.28056781375283,2.2730195065725862,2.1043719631940045,2.0040801629199545,1.9625613037003105,1.9020200709037067,2.1526423902067133,1.7238386614778018,1.9553388981223514,1.8041506317840794,2.0279166814059333,1.8831931994140063,1.7661802731828344,1.8866021650512081,1.878622669777213,1.7794413535058184,1.9567544025527328,1.9185028986894628,2.0555116502057142,1.982140121628556,1.995827718409638,1.9281810583313879,1.9580468963539006,2.1672897391301724,2.2738676753475078,2.1660705353149177,2.381702621196733,2.3796769399454907,2.622432995501047,2.213012173385988,2.071180109979284,1.874482381439766
2.089469589901385,2.2228319507859844,2.0759646178606497,1.99685211978591,1.7971815456452107,1.8833049226589025,2.0118330305805365,1.6529319510522256,2.091814135968149,1.7423235488340911,2.0996650815303672,2.0761048679968663,2.004074403961946,2.177514397180389,2.0406045302303273,1.8994989356381777,2.1047452955419788,1.981917348473475,1.9062483812237176,1.9876915593495208,1.9732829174910815,2.071088640684934,2.0445868960647378,2.3428455825223766,2.2492119053088295,1.8591119584343556,2.260009029978055,2.3032156395152397,2.2580917263646874,2.0898914798967994,1.8761398216597713,2.0218817323605944
2.021868980259923,2.197596095089213,1.8752465100906903,2.1225814318212803,1.995652356929831,1.7721573585674621,1.8244651633218278,1.6279054669684272,1.850798629205915,1.6454474899428717,1.753778190096652,1.8225795034207188,1.9742498400937631,1.9089163905829143,1.8348127339312297,1.7308359958089217,1.9167173551798409,1.9170051000357098,2.1169905097739523,2.1352164197402135,2.3283587253780333,2.1079085882815005,2.268790190863143,2.294211674605704,2.305513666784469,2.00981576499559,2.4579912531715595,2.498587212494703,2.7574373456042793,2.2521493427889694,2.2619155810604283,1.7514803276234592
2.306907325180053,2.2315796328651167,1.924769185528836,2.1805655813787452,2.158691491438227,2.04474769512233,2.132979974324691,1.957680962145996,2.1769265179158737,2.077838894763674,2.059215959426845,2.1053386638387104,2.1618752366454763,2.197061830047451,2.0165945301262247,1.9415302220543567,1.8741163233502436,1.903268139797075,2.0371265828986256,1.906140540938664,2.006337059876632,2.190994463826368,2.1232324426231863,1.9851540100491432,2.02479641993896,1.9462801642143905,2.1795826429420138,2.118449295913342,2.1489762567838775,1.8606919824628274,2.136323823871741,2.174934612008475
2.35365008981045,2.4761992707420912,2.1812975435142543,2.238700343106472,1.9892194603120013,1.9854893856386495,2.1938887632283848,1.8078482327374832,2.0257205330594914,1.8914182837559792,1.8883998587650237,1.9142424481871203,2.037826312829653,1.9752371011948748,1.885791538763266,1.9715796473173273,1.8686088806696657,1.7758549900867766,1.8864317736912535,1.9692376048366833,2.0270634637725515,1.9414024108155394,1.8990747391162144,2.329384398197428,2.1890866805177924,1.916618811500826,2.132521600786269,2.471047473539336,2.4032670545341577,2.3371311748359984,1.9538249604057796,1.9244742150847765
1.870044414680596,2.1419800190733747,1.8414452156066208,2.107231879619755,2.0687265730747066,1.8418176652840594,1.937377346430079,1.6710202004179788,2.0629959650900935,1.860470368972159,1.9212370441165048,2.0116936502944727,2.136500658260324,2.1389125846906243,2.0779876618841158,1.9421516593587713,1.9209207290671901,2.0210686901906367,1.921053962330502,2.0999256299233475,2.221087167174713,2.11235778651388,2.095707212095399,2.226858704721438,2.262665268603616,2.119423757854895,2.22186580765142,2.1499870798541965,2.579413068853518,2.2478586472662485,1.986766392377997,1.957561159388279
2.064996000478777,2.2943176104236205,2.007862423196483,2.3058611525338555,1.8540703514209869,2.069262191290829,1.8359038135556107,1.8602699482257563,1.9561594613288844,2.0105654933246266,2.021268073704526,1.893439401045534,1.9247975660140246,1.8983596798675912,1.9971264877318982,1.8872138865010153,1.8526658701454366,1.8113905812958382,1.7179954092507574,1.9152823464369158,1.8680385674400524,1.8277694368504385,1.7896979932631536,2.058650920266617,2.1418301296191586,1.900941849698771,2.301750651820441,2.226801930401254,2.6967202484272983,2.194713326030751,1.9623396258202364,2.076085957123186
1.9160482912830896,2.3456532356348405,1.977633895082764,2.041067819333845,1.99736139721551,1.9651736237822428,2.0391917404240676,2.023514009173302,2.1429897875571298,2.0736843632552135,2.1862863058759126,2.1298525742617715,2.2479664911038566,2.1804678560128687,2.2062990249924677,2.0916604010138817,2.1560014258182676,2.116279960440075,2.057726820540727,2.001519340996502,2.1962464874039016,2.088748220796803,1.9815694286672303,2.2167976206598055,1.9876136997610436,1.9037507261202362,2.1974000266908127,2.2709959562066944,2.5831579275604595,2.446758653855802,1.9112355935144882,2.190321924338739
1.9318132547195008,2.251500829565562,1.8666052447846861,2.3158300373340057,2.1201565191542655,1.909581900511761,1.8026696039634162,1.7064504112794858,1.7221867033969016,1.8871950852483628,1.7453542052433002,1.7553775991943381,1.8293593512820805,1.8051121960642451,1.8276589354395159,1.8917403207029622,1.841849311136911,1.840271438151911,1.8412216821175371,1.9682098693141314,1.9608139516737189,1.7637698010435041,1.9032918434053947,2.2821417811116658,2.053892087577912,1.826004292837928,2.303347554739988,2.113775048096864,2.2300362624842585,2.081936136780764,2.0096090591032194,1.9120813287268223
1.8119367655869612,2.1430222140395974,1.8934679940061847,2.017101663431925,1.8416269539737165,1.7666057900480596,1.9524762750986149,1.9927749056256367,1.94864540836907,2.096584827157486,2.0280407391145885,2.0376634435101915,2.0207715660300214,2.0539342852693196,2.0759985583388603,1.9163659343275683,1.9225174901637316,1.9024429653181998,1.8791918691739773,2.0140265743488666,1.9281109593898866,1.9480293038753407,1.9885104056336826,2.151531571241191,2.0764219914285094,1.910730249681564,2.2485839388644306,2.162693326334344,2.405965994364216,2.2095445238130296,1.8119272894882879,2.1047245756903985
1.8583172616112122,2.2982425932414148,2.0321331472045276,2.106806973488529,2.1357499761298935,1.9774347990522674,2.082330378755355,1.738820517982643,2.0244214880838705,1.9955004388280912,2.052250503588828,2.1106706631108603,2.07724156303489,2.1396998994517977,2.131719909032278,2.0926174372188715,2.0071085461153038,1.9366337869260746,1.9488656645107496,2.0690395484291773,2.091083492329422,1.9714552720505272,1.9491609114089241,2.0187337478435885,2.106399456720235,1.8745979290930428,1.9626279602021444,2.1582201386023687,2.328792389387897,2.1726733114039973,1.8169295692079346,1.929625915525553
1.8281247517254724,2.281570953794059,1.9409151118081633,2.1820269569253252,1.913105203577135,2.0241745050670703,2.057826865444438,1.805968413325026,1.8219030669631173,1.923210867815047,1.922087820932935,1.8103663450400418,1.9299494381177424,1.8664133365695632,1.8228789942094632,1.8828648155230838,1.9529890371774157,2.067585057028912,1.984322285344146,2.1595117847032967,2.062116727051633,2.0361917053630587,2.1498407336523413,2.1909720863324234,2.0928939925259007,1.8835053877312724,2.11372539454361,2.01666188557345,2.0118364459716713,2.181882927851168,1.9076505699547681,2.17103105753069
1.743269867040136,2.0698754381351776,1.814918723108839,2.104255645052306,1.9131187399535916,1.9297144855830803,1.9974657342432687,1.991475387729983,1.8531091769531698,1.8676540006919786,1.8921277207972316,1.8180995476690265,1.921824149295292,1.8745012706629771,1.9353023675709777,1.8616111354465494,1.8804713269808884,1.818623781791656,1.8386786134247202,1.8689390276906055,1.9371095146676212,1.9886172837126592,2.0423317746982166,2.044309803514412,2.064579612499347,1.825336077006197,2.0246591775144753,2.0031172031402833,2.3430189428610975,2.0241331908806175,1.8176513271509018,2.1561658885123
1.9809249773348692,2.2543328491053196,2.0179937964405643,2.0827020585613525,1.9547494045777976,2.0594707811947655,1.858455337214607,1.879638906645886,1.8336088727412856,1.870864478142194,1.6721314869436568,1.6868762702834572,2.158171375901637,1.7999923014371662,1.7271595057186435,1.7950883950782106,1.921257134968442,2.0269014947611272,1.9256045945108224,2.0480881083734164,2.0550025995214076,1.8920455645597054,1.9107839341129087,2.1628409518642653,1.9051325905873295,1.8869928659688289,2.1039942706695878,2.073665067126169,2.331589761680524,2.152470358481457,2.0071921467490697,2.1209640836001182
1.9460052613395689,2.2234659557224994,1.8999751406741037,2.047855291821792,2.1162373789734925,2.0221915992865718,1.9446741092230146,1.7412113617331038,1.924402335167524,1.8825702268258788,2.04102751590057,1.8640275754296283,2.040149669960477,1.9834132214368092,1.8923576812990783,1.9297537443257573,1.9842234933690388,1.9152471466012655,1.9901567587314135,2.0070521278897298,1.9575705526423306,1.9459756641483767,1.9760331039058905,2.017985547499959,1.9645348621112284,1.94646435941781,2.0965694682042066,2.0575483622042,2.327031489474846,1.9957241538960881,1.9451135768973205,1.9188718885080527
2.213037352117035,2.352547249085214,2.121028981050751,2.2437360082831987,2.104670965437537,2.084117249439987,2.2019960287607123,1.9778760541448652,1.787377948340055,1.950255713951137,1.9221309565536027,1.9202222279521421,2.031412790215418,1.8727864544469555,1.9567559060972464,1.9558073353956906,1.8512694090583417,1.7825241177523448,1.8825995614188615,2.028412190231283,1.8845172090835902,1.7005194341614687,1.8225659223474704,1.8918000753160336,1.8170226782906158,1.9110582897322899,2.0951922139828643,1.993345760975886,2.2688297224609064,2.0054331826764042,1.902297539889959,1.7616831772239945
2.2360712221706094,2.5527815280764017,2.104585232131829,2.203746070828883,2.0443947271077576,1.9634930073306422,2.175485133974436,1.9479585989606194,1.736249454109166,1.9587817052049192,1.911606392152663,1.6617156764185832,1.7963388354452339,1.760495542041226,1.899156244799651,2.014768801277547,1.9554229106427585,1.8743059205212156,1.886438263413939,1.8455809700925248,1.8764768950197526,2.0154374524501386,1.9440644431605958,1.813874456194929,1.844329643330008,2.1140834824149097,2.17271044429772,1.9132416972242123,2.184093151062638,1.8764130494466322,2.0352672622971912,2.0703894507853002
2.2087040844470462,2.333506793162681,2.2254707598378465,2.126994190666887,1.926868543856121,1.9820479308234817,2.2514897036280273,1.7945029842171634,1.8990197695641116,1.8388692253372236,1.9382842293183407,1.9653510846783893,2.0434875562040515,2.109854945400883,2.0109496497678503,1.9853961320729216,2.0066840641269077,1.871402024301689,1.9889304440570559,2.0238597034375325,2.030634793405073,2.0267808657350037,2.0504003999037628,1.9353448865011051,2.1597802470080065,2.1618526679576324,2.2254269500315247,2.0914516698131735,2.370738496622195,2.0645352097870604,1.8925828872306325,1.844297623324697
2.2221620731663116,2.414436920455555,2.1391596315270682,2.1749177993669195,1.9456406199432732,2.1545494790112416,2.3161945710020335,2.0599980277608814,1.8654759550669202,2.0200010311650898,2.0594298350820113,1.953067456825634,2.009995872635915,1.7863901306515606,1.8379512368175817,1.850529727259384,1.9453818786638362,1.9527446521120224,1.9099358920981486,2.070582539041958,2.075506636868306,1.9618100805339558,2.0028541872223595,1.9763964770091154,2.021741220346356,2.0137701092403284,2.2732124121785366,2.1758837061458154,2.354022525861301,2.0771114046918973,2.097980156290717,1.9272055788687237
2.2838348511069477,2.4578920074599426,2.2356504599854063,2.1145590640644816,1.983572485849386,2.0500151407455833,2.1684387486178234,1.6978106849278156,1.6859482954827854,1.8516080428490902,1.9013779892600606,1.7784118012292804,1.8884045671005485,1.7195103191803858,1.7802720940222907,1.7946446418636317,2.017000521390087,1.9323398925685704,1.9872251409609256,2.040417969768733,2.1591515957297482,2.00278189520151,2.0077867236375724,1.9992162597882477,2.228935712552336,2.0463585225490855,2.308398207296234,2.0772947643429114,2.344638367493799,2.054116244883765,2.036712415037532,1.9012920621485232
1.8316182067234645,2.17510981522287,1.9445224152720144,1.9780121611552608,1.7759525222531038,1.8680176253865348,2.0699004411131874,1.8048480562414808,2.1264820562141553,2.0355157268257322,1.9095454519262607,2.074836055598083,2.0145983951248225,1.8870677713484272,1.8095895023067574,1.8127987572122517,1.8086163075525556,1.7857758681000968,1.8297026433535948,1.780124324528683,1.9004649418150223,1.9381889973240352,1.8698758153639508,1.7606983866743138,1.8799165317326918,1.8261407742504248,2.0013313258219427,1.922785978035762,1.960761965797188,1.7653717150407489,1.790097902426274,2.0656339004408517
2.1630967544074498,2.2738308550045963,2.256243109424317,2.3600494450775904,1.762285405543652,2.246015465941184,2.2324662178734886,1.8830149230524507,2.196000851937291,2.2028095911043466,2.1637349762365305,2.2399199668313123,2.079692262165662,2.1177769562421997,2.0098692474675905,2.0417991197286716,1.993735967560156,1.9727248687076275,1.9423454171893049,1.930306424058669,1.8760095363344635,1.9087129839986352,1.8798033655537691,1.9973163402885812,2.035068947379453,2.0940795782487367,2.1816431102582072,2.1265060834437732,2.4776609988991716,2.156624886053622,2.125922240613736,2.1055744213415153
2.278844135387553,2.433337302946873,2.391578672591925,2.386709884198825,1.9652822014198583,2.075139337521246,2.013783838145834,2.006633643695312,1.8436443630181667,1.9391349599886143,1.9599243449568393,1.7436896438954324,1.9420540529880554,1.7628377050894843,1.787177404531086,1.7807891277870644,1.8678011399366543,1.826096082366021,1.883177103412454,1.9361689051664241,1.8845140622512435,2.037232616844236,2.046351661200339,2.1171722193150413,1.9657934949657807,2.2759133548233677,2.405873651028736,2.3840083330971233,2.5612374744441375,2.160564736441166,2.0885735415507547,2.192039096164916
2.244673906865811,2.3939084805885606,2.361427893774107,2.203100940104007,1.814057889099726,2.295725284426748,2.0874995314662086,2.1311395633390204,1.9598852818301578,1.9413134382537085,2.0090362334946694,1.8725453547983122,2.102157168759948,1.8794456728299025,1.904202837969791,1.881736531414585,1.8865037592751077,1.8679298990544646,1.8908620273645578,1.9464083705287634,1.9559337166937287,2.0196569664748716,2.0440070032595963,1.9420773625356165,2.017191293236863,1.9267693163828576,2.1911933676218665,2.1253115050014837,2.4498544578649315,2.109503898438578,2.2244368992436034,2.0390667888231855
2.1347743884439336,2.371529557614331,2.294154483625501,2.273243935871898,2.0301051436746134,2.06303923047752,2.143884964895251,1.938059881813741,2.049788051899079,1.7902524907185628,1.9306961420706643,1.8199462245797213,2.0850135856627054,1.8095890507486883,1.8548314978489056,1.8667824998547913,1.9654994613333858,1.9352377020706015,2.0474968006660084,1.974808246289689,2.074863812068311,2.0116990860781865,2.0444774119523537,2.034161233764153,2.2638833892152253,2.0251359173727224,2.460761040307664,2.3437759788253834,2.388526328203417,2.1752597051223317,2.0796933188661026,2.064561025159691
2.0988770392728346,2.682791546900518,2.1295276453640155,2.267543611697085,1.9791619332304387,2.1114614465988075,2.064660645003877,2.1031109030975683,1.9380280749153085,1.9587250100219455,1.8828720240151555,1.8380484902649814,1.886416376087275,1.9455830005493084,1.8446893419173251,1.8378343320508277,1.8046589677018785,1.8495361101961425,1.8366033020010581,1.7926759165543196,1.867485413153226,1.8603724387605285,1.883961982394604,1.8536836935375636,2.154169786265687,2.0203892129064003,2.409145112274309,2.4362645757756503,2.4512507286263694,2.1447056820853168,2.122302089805679,1.982454820845146
2.2125766848089743,2.429731460733417,2.4028028671164616,2.2257695995506324,2.038661642616788,2.2044915333111637,2.164797782831731,2.014496972590129,2.0887340050861685,1.987844139337962,2.044738832767447,1.9208364501618536,1.9384619686668896,1.815643530544468,1.8616694502989892,1.8122886271991387,1.8820042693390464,1.8358045978743927,1.9238806698740736,1.9463749658482867,2.090335036454772,1.990195525663048,1.8604233276528788,2.009009121656718,2.0966378350575576,2.1456918120842996,2.2290685869524967,1.9456762462589565,2.300552822648136,2.205819686808883,2.179025834000954,2.2017084552367905
2.0561086879495507,2.235644733999394,2.1455761811884533,2.0370450141096015,1.873340008332869,1.8949107096000568,2.0345813977367073,1.9572083810658345,1.953530022252513,2.0674520231573768,2.0033363575255505,1.8380668150943307,1.9176619363783045,1.810613250876596,1.8667662794893376,1.8631883025422222,1.9729516239606681,1.913176584025876,1.8765712366501028,1.8569820247362776,1.913989565818527,1.9148668528093105,1.8361461505593613,1.9396830715666273,1.8871921755737975,2.0128140820956832,1.9344799605833267,1.9904908466418667,2.347514666762767,2.0685453087281314,1.9303793554305855,2.0599182667319114
2.160514038757553,2.468118288586352,2.0722803792708158,2.049908119782428,1.8557709788996486,1.9411292910062394,1.9373080887305658,1.79900984259015,1.8051457195467908,1.886949177859945,1.8182374637889906,1.7370513968365096,1.8106472714285011,1.622050113941801,1.65428587209118,1.6622949243435299,1.7387222149382664,1.7590609444045733,1.8610134691583384,1.7859741186513138,1.8720866645025467,1.8492353293576653,1.8029149828170452,2.019638027307019,1.9303447013308217,1.9865961844971725,2.3732339436774126,1.8605201564083966,2.1465962198055593,1.8632434093728805,2.0548668665721697,1.9182146415605164
2.319514122880892,2.5397451628115726,2.3411080524021943,2.1277836712694924,1.8250973074258001,2.1863780540848987,2.1619371905845943,1.803681122841278,2.0015893291260083,1.800058847267771,1.9686324558764807,1.8145976771396568,1.992470414126807,1.7427407274801177,1.8500964708194734,1.9039627912734574,1.8894308104942787,1.8833336375105436,1.9727805571459371,1.967380144173151,2.0340135839107596,2.0338299565480216,1.9563723807589062,1.9885073201710015,2.1662365572714988,2.117383746976412,2.3567604069762025,2.086548159797715,2.482596279255708,2.2728066996844785,2.0980909629878837,1.8584898504713174
1.8473873696780698,2.5402364375230655,2.156676467123651,2.2024150573788224,2.160499912678299,1.8869945591720556,1.9079619514515844,1.9282463669178318,1.7675473159836688,1.8687085449267025,1.8283432099872803,1.7315426521892483,1.719801070917889,1.683508370004397,1.6763092869572223,1.6633589967298097,1.6301479757244954,1.6418385604240793,1.6931579313797378,1.6476874519431999,1.7160510182023316,1.7337791182587634,1.7062227715543754,1.6553644178076932,1.7877071496891759,1.9185635599724933,2.0515137736854676,1.7784879209118283,1.9584953142080241,2.0493280070700632,2.13463904742327,1.822235653195592
2.252670290513857,2.4724091765203142,2.2602123834141943,2.4083483752015415,2.22001099753448,2.026428610844968,2.2480974083184875,1.9174572187097034,1.8691141854449662,1.9691045615387444,1.90220781055195,1.8297713653367924,1.8479971487435796,1.8289787568331441,1.7766655145944712,1.8152337622210892,1.794536967937062,1.7879008285728772,1.7716054773083276,1.7367240675608744,1.7852384266264791,1.813168672054714,1.8824301384016209,2.0078109377244737,2.021267638101992,1.954157170218865,2.446211634675572,2.17391045536229,2.3818055802278657,2.298662178507321,2.270387861989886,1.9670602221109608
2.250967423503794,2.1297888559589184,2.0759691546782864,2.0668250904349974,1.8793527665312453,1.907330696813859,2.2646154624250068,1.8451559574565592,1.947382103337958,1.9495564921386135,1.7126203272627487,1.7497878274124152,1.794588469977917,1.654148099435793,1.6318995033723025,1.6463744048628468,1.608510551205437,1.6297058653966863,1.713055109320239,1.6875058185150438,1.888436913209154,1.9264964367121644,1.9627117665109686,2.0478571855430476,2.088919799484627,2.100750139028363,2.3195625712516166,2.2442238060974615,2.2747014859252856,1.9616329296750936,2.0098600349508504,1.8792262847335013
1.923720603717744,2.075519429293658,1.873063728788979,2.1893854172341984,2.135613729762984,1.7072041823438509,1.8767413669490303,1.8852130312128574,2.1885499013290666,1.864661469925512,2.0751817676561606,2.1699008197848895,2.2884652914032046,1.9474971276001938,1.933133592890583,1.952984725130889,1.8489788989485942,1.9367148779679237,2.26994686085745,2.1124308384611155,2.0742183104051617,2.1852818666516782,1.8960259596121174,2.017683456596728,2.104203848267264,1.8992592577049245,2.1283570421393048,2.0424143284259473,2.307073255658034,1.9888051531359343,2.2525547405027155,1.7777865982569667
2.1397232776635184,2.406652664266,1.9795261575172634,2.3435234761854575,2.123322868370942,1.7234993265943876,1.8679863981840834,1.9208450258306062,2.2268776152925454,1.7841169433817363,1.9621620022688406,2.1945228068933758,2.291843627278386,1.9682836902897107,2.109044305330679,2.0391382645251483,1.9400175506292936,2.0492680085798316,2.2961083242971543,1.996875573544199,2.0460659105250087,2.2245333907409055,1.7973432797257867,2.0705796922826574,1.9663727940971159,2.041119793763199,2.0670819342958735,2.0829790306252325,2.4355591694127017,2.1822654135940316,2.1394094479525654,1.8591595280617341
2.022948697971992,2.460153305483321,2.000686339485165,2.307362125446446,2.0768433229070316,1.7321426044436656,2.1207704115318475,1.8535322784765915,2.086304465567438,2.0459359886216943,2.0621274635905116,2.269326710281721,2.1086299796907926,2.249442622802876,2.241158308675497,2.1947175736100974,2.0317923827387236,2.0625541661885345,2.131596376403866,2.1016190599927524,1.938111353717562,2.0424886574204906,1.8626313229159759,2.051632068606492,2.1047510274668424,2.2001290376671285,2.3380191755553366,2.1876556979676454,2.4322638182085643,2.2578673080045513,2.0819265778572578,2.028284574980564
1.9560027304159753,2.1879051356304573,1.9933382661407286,2.0683088562950442,1.920537666508524,1.8106854063638878,2.0282036563941626,1.9727071966110077,1.9602024880603885,2.089163260399832,2.062728619482955,2.0960956667634805,1.810546300663183,1.9548774354531582,2.003495569325069,2.0763899438198243,1.8499775759303965,1.9362027096743628,1.9842083736253018,1.9487627583469294,1.8248680537517337,1.9585996137844999,1.9824878837787334,1.906523327021518,2.1431222600147355,2.139290283282849,2.3688324609735836,2.0995532337469465,2.0735576324826774,1.990340805901171,2.177941078289577,1.9844430414994902
2.0054976172728316,1.9706625871499324,1.7792202788348361,2.060385705363685,1.9367583119333416,1.8210097128630367,1.8158714989641327,2.1080493602210106,1.8629553016011926,1.8601187127513577,1.9807095329624238,2.2329458189599922,1.8485798603364214,2.181099194451087,2.3473414327727875,2.386908635862458,2.0725185028481983,2.24230922512357,2.011477910389033,2.1073444925125893,1.9289892597686316,1.8954901577173682,1.9475593232651112,2.1506373488620327,2.0943823221912488,1.912204955042121,2.400579527291068,2.21866579884763,2.4694635950682886,2.3009430237758894,2.109076737234337,1.7369718206818854
1.9376975432912842,2.2722445815744345,2.1062352185595152,1.7625032895125627,1.8615833356632265,1.7460412721257021,2.0599781332659455,1.982311055649671,1.8556689940203008,2.105875609116954,1.9091716190954906,1.9174420130362837,1.8782252232925423,1.8613147456538528,1.9346380801375507,1.9753928043394553,1.939106177545127,2.03945005683347,2.0783569462168123,2.0009162247727117,1.9660386733818704,2.112404386535284,2.0477557669137343,2.0923289299342307,1.9438813772400576,2.1414597080475133,2.1333600766021865,2.3836594537473563,2.3441597120041986,2.2485947460330147,2.1292116091427817,1.9614415509673797
2.124323803697184,2.199845409137946,1.989877913469983,1.8909848782337764,2.3155768321312444,1.7933346631120362,1.8900190985393588,2.158381725791743,2.1843813150032587,2.1238394980546893,2.131464849655512,2.3032244940091675,2.2594033629652714,2.3164043405825443,2.2983756924372205,2.266165911020232,1.9849802347800662,2.0484909731359933,2.216744087692088,1.990360844725908,1.9200813799044893,1.95579349646189,2.0475268155365898,2.026106643123114,1.927560555379558,1.870854906386349,2.067357212453643,2.1684728977032415,2.206261454312773,2.1827925220626354,2.0683273426895408,1.890480608233728
1.8775475734164155,2.2549362853297494,1.9751890372936722,1.7536560777653794,2.101108427046496,1.842504014012659,1.8740637914021674,2.1640711957317347,2.153614038526299,1.996781006360286,2.087980511020734,2.332369174746031,2.1186455167087392,2.2418581050563624,2.3396912669986833,2.297054710839503,2.0892170185259014,2.215307838449055,2.1165589057380387,2.1009923535537913,2.192514989779693,2.114771719630381,2.008547308255542,1.876949900462774,2.040179118876509,2.1247903890339774,2.2049280696236644,2.2612166263168376,2.4485801997718046,2.0472493814761332,2.2027181700210554,1.9788210398003208
1.9917308906655127,2.214188107049163,2.199814581856726,1.8783685868953879,1.8921675697938822,1.9913262673144057,2.0805521010492973,2.0455425726987935,1.958743074536574,1.8786917739760347,2.003761035387668,2.0232927200909647,2.01272847778943,2.0644822304595296,2.150294534611028,2.2723679405096804,2.1794077577362985,2.095132224726196,1.994080349617285,2.10809501530629,2.0173555017169944,1.843061889355034,1.991190036922591,2.1365041698910936,2.141820848183295,2.1941978295990694,2.2677319086193655,2.3126970074567246,2.4860593998117344,2.0917790804744194,1.9720788436025996,1.9003654896640298
2.0578016167050746,2.239369805614968,2.1861273648528567,1.8641589038608195,2.072234555570444,2.0549748215751293,2.15334712677951,2.1784238442703,1.9395358578609618,2.1576380447581953,1.9672221000127492,2.2004947015026795,1.8964712494647202,2.041201941600132,2.0836641541136833,2.0872129802018056,2.001079154772583,2.089648267414786,1.952814920640515,2.0194006622760483,2.1020210776552366,1.950541405595658,1.995398239393388,1.9526625367291153,2.292132187244605,2.1585852918279604,2.1426006632923444,2.563466626298459,2.3000484407640847,2.202789574646811,2.2244305933888233,1.80986645447035
2.3797411813437797,2.4473947273835366,2.2676546158369293,1.7305171474187513,2.0058983310200924,2.2182296982536758,2.2677985632817674,2.046140154748717,1.9172417120894176,2.236929532976431,2.1503227166466594,2.12230254390678,2.0162713251297966,1.909785741335108,1.987778659322762,2.0031769406149755,1.9768078358618661,1.880021851999381,1.8777733636804672,1.8028089817307904,1.8357439592835558,1.8467290250521091,1.9519401286110987,1.8881238170333856,2.0331471005915884,2.1908792953904195,2.2655182505321187,2.1241382822930444,2.5871569611755207,2.1736697166119057,2.175588882811811,2.0689328646605034
2.1037510188178707,2.176706909814013,2.1831334831446494,1.7980969651208951,2.1249275037129123,2.0127461698149114,2.346336717851721,2.156719538275394,2.071866438610763,1.9600363907722342,2.2344617098382633,2.25392070491366,1.9591738825015672,2.142785704910916,2.1604068368275713,2.087110104320511,2.0034522540056865,1.873622695595067,1.7861722598082304,1.7857013937221,1.8002826419231661,1.730354327256257,1.7640377354652208,1.8220856525067668,1.9483665875904261,1.842134512677055,1.9981279814138158,2.1540164273914866,2.1375067726657546,2.1200481094267185,1.954428887166458,1.9653154656814433
2.1623522160329363,2.232281533648587,2.0092481709789864,1.7949412556420854,2.1213798614041055,2.042054051695119,2.230120705292936,2.0241967754396044,1.8907458796900527,2.336616374350147,1.9953170401813087,2.151842449077689,2.0589115557700297,2.0256164425404144,2.1583789722454227,2.2756149773338805,2.126054682705652,2.059059484349856,1.9743836206004184,2.0090438615466293,1.9790521724127659,1.8366554746865893,1.8913813771025292,1.9271519837263797,2.070703788504843,1.9408676935556033,1.920465200039904,2.221036832830973,2.3133795215618616,2.2117758347109944,1.9872178547068322,2.0904188809156756
2.1538396485188502,2.0677759366136033,1.9947957108661138,1.6758336963979255,2.079803547786797,1.9680741005783753,2.005392836910499,1.9489608835188783,1.8118273931174385,2.105749700610409,2.26856488586358,2.2390425965208096,1.8395957417690834,1.9669570538869077,2.1383257786000858,2.1455017010160216,2.0406922683871547,1.9905926938055234,1.9349526376673287,1.986117828459773,2.01767443491773,1.7732805582523552,2.0708845169916636,2.0039853777749137,2.110372556016032,2.080219262883763,2.2872099454329904,2.0027895904886415,2.031239942239945,2.11731911307017,2.2195157695637007,2.0232207940651565
2.4272681120894926,2.4274605628850576,2.3239159953629,1.7654308902128695,2.210622271331612,2.260603052699825,2.321378200943077,2.0077772539215863,1.6865962760878062,1.9111152765380937,2.1470252404862653,1.9458655807609317,1.7520023162331768,1.8422877299953073,1.9790829083580266,1.8868177419560261,1.8684007269809133,1.7532474778891984,1.6846480996261826,1.76088420967513,1.770241382096233,1.6712530265794416,1.741746528324426,1.8137163239651608,2.0794740769056475,1.9511399375008496,2.5274573475386974,2.3873406355702254,2.387629281911711,2.2741205852089146,2.162810790644103,2.0319412464983055
2.0444286003415963,2.043244944429427,1.8977385112663296,1.7901463661279897,1.9308344276361005,1.8989490618445088,2.085858243626561,1.8772745344845712,1.7891984475036722,1.8968505611721338,2.1231710400709956,1.9051962089185863,1.8308841136225005,1.7841792467051896,1.868381696628656,1.8116345414220474,1.875458247685238,1.8985424887984803,1.7591855589341086,1.8692546077897816,1.9619106038279177,1.7300491826790343,1.9301849164690865,2.025241780512359,2.201381175095768,2.0664278077202236,2.503123077666743,2.1896746123397928,2.337297970168011,2.2743825008234344,2.1460905321534414,2.2850835531287275
2.208003539651698,2.2528193461038617,2.103702043953381,2.271701758320197,2.088679531316203,2.0905456306758,2.0422001293029584,1.951802774722449,1.931019990811435,2.204349261372314,2.218020155743555,2.249482855568021,2.1336847403274706,2.059296677177728,2.0239551407216956,2.0693814918583184,1.962489798270266,2.0184873772796803,1.968060935894413,1.9066971757387048,2.033288351023111,1.8927492829144423,1.8892439382067348,2.15341128044847,2.0537931217812133,1.9335686947634807,2.3387382300209785,2.0845146526757334,2.2791393225623677,2.179725879845078,2.0307181692568324,2.018031687219671
2.190205801556339,2.4215980279857767,1.9763330218284687,2.0724384644965936,1.9455279865453496,2.1738335789833836,2.054224042074484,2.106893513548193,2.1490348098956042,2.1315660494786517,2.2548455879252476,2.435303152867519,1.8972470724541761,2.134002994629536,2.2861193723625144,2.080081212052863,1.9600257986492702,1.9367087769074358,1.9265148293760712,1.90429754595584,1.917364583614522,1.9545328321062896,2.0226283325619616,1.9689335478877183,1.953072855351459,1.9133720538341752,1.957278625805364,2.1159821071335023,2.3171847502169127,2.2711701409027603,1.9017965855602534,2.065879725488043
1.9350346769296742,2.3964701374328197,1.910858278865825,2.2797948902310567,2.0470821530276715,2.075314741425805,1.8834190612995794,1.9978784136384153,1.8710977821663288,1.931945302034859,1.9308703809628416,2.087931245561798,1.885664659910753,1.8889876160274777,1.9314371408116089,1.9109322273580978,1.824267321431052,1.8666444400099447,1.826062089635797,1.7421231654091986,1.7838552345392293,1.7721966365528816,1.7728580609565896,1.8851117743434729,1.7808800450510822,1.768261147300969,1.8518255350160815,1.7920028329371425,2.1737948039259596,2.048890360275308,1.8715905445030172,1.9028511640074461
1.9065186420084865,2.3775926538543355,1.8969554900455838,2.495297681555854,1.7925739467069446,1.8612567280197816,1.7071588687014294,1.9122610842304246,2.0800791834059744,1.9139034626738365,2.1318900534624414,2.0705481972661253,2.0100907155052705,2.231505998452694,2.2713852932278047,2.0994899043063637,1.9877119629165638,2.0800585893765886,1.9521178605781213,1.9582787944079896,2.020831559556003,1.9147502293381933,1.8620403798012792,2.0758578437117188,1.9780303132067585,1.7703668877255607,1.8951156600794752,1.8580841668594559,2.1081861140685,2.2944401705194752,1.780047972640066,1.8841659467543006
2.1161699245397636,2.5096304368009954,1.9539574982607875,2.0625097183075565,1.8250214196687473,1.9916578172405843,1.7741273129839075,1.9895039657628806,2.1648998810305513,1.9786881949743227,2.1653897147477594,2.0642424890538624,2.0591939632519467,2.096962955566248,1.9791635134649397,2.059761126951307,2.0654981002607258,1.991132994561079,1.8295521838191617,1.8783750985391292,1.9098239010834683,1.971213873197967,1.8548959884940217,1.980790609068457,2.1124385696872876,1.9891258314756235,2.039557497877969,2.0352557633752464,2.203137705837998,2.299577206253573,1.8981750414698633,2.1660894809226328
2.0294586080226624,2.1668230703221,1.9101615579619886,2.18870009616562,1.9651984611525486,2.006313316803762,1.8569336279586264,1.9073734110191791,2.0434501727547527,2.01228326882397,1.8868177179708125,2.1057486331584014,2.081128679647121,1.923841304962228,1.7911744591524776,1.7739271327531956,1.7789151273074884,1.996416637521846,2.067512268937859,1.8883622265181232,1.9240502936887853,2.051539086849347,1.9528475900381421,2.092957392537624,1.9967452334501288,2.1776179836240055,2.2446878970480593,2.0694110977050806,2.399011930384644,2.302038172055111,1.9656084917015442,2.280410667412197
1.9799457535117515,2.3586600986926576,2.0409308613599415,2.0646974674377847,1.8809000625285557,2.029374864212612,1.9764722316361647,2.0496545030937026,2.083427374492158,1.9686453859052153,1.999989638014915,1.9623789109859242,2.034836781575474,2.0245545587492564,1.8581341088907701,1.8368253749840893,1.8576053443582778,1.9397297412421861,1.98882186485111,1.809919123274438,2.0378132652127166,1.8789477657128344,2.0391408014452432,2.1270375725573967,2.0469632501785906,2.275557372256765,1.9582837481706867,2.2161375796059466,2.2824139784156454,2.3802275412767635,1.885211208815007,2.1159092383414664
2.0732110368218266,2.1255087605517438,1.9532209102983713,1.9443263848680281,1.8281129687149915,1.9192005768151157,1.910146389790339,1.9504755341372755,2.1482894720745587,1.9508208592100316,1.931822066992749,1.8336305678566822,2.118355253369566,1.8535127080872085,1.8786916477080287,1.9389702327329688,1.8701491245985682,1.9547266792757083,1.958887417718546,1.8662620244485542,1.8552305625476853,1.9053583840081922,2.1258544153527663,2.105806828432039,2.096642156386464,2.0659979453423216,2.355831346701739,2.0709030552055454,2.076199361779083,2.1000912472545523,1.945253562746582,1.885447815524065
1.872307116611564,2.373907795980583,1.7474436767204213,2.0637315157620577,2.049886737241889,1.8539945916005651,1.668941057107026,1.8331911213021423,2.0842050595684487,1.7230415476869252,1.8435541111301808,1.7773659268020474,2.0531701657085715,1.8918863320457882,1.9434114982622048,1.9578736304147446,1.9503693533292437,1.9741722441868608,1.965798660981069,1.8305336809560662,1.83761298943877,2.0544988383344966,1.9671673063118564,1.9522848018727497,2.2063436622999317,2.3003661064746073,2.1423884117115612,2.28118640971498,2.2117986134640626,2.143835258319673,2.053100089068675,2.056114273545834
2.0027826140320006,2.2208066592689657,1.799673838109911,1.9960763542505144,1.784266553697934,1.9009879703786434,1.9324686367104906,2.052876214928862,1.7581602554236104,1.7663331367563868,2.018328941034351,1.871871789323546,1.7759501306209013,1.9855957206386337,1.909954835766996,1.8402299636457573,1.8093792954607744,1.9994447171773615,1.8901584334202377,1.964099147897069,2.083384296715776,1.7867736992077485,2.137885725100462,2.2068177822423634,2.032361774630316,2.339140431655918,2.3617234334531014,2.154582029729293,2.3362496133762787,2.0471052527433042,2.022448677851886,1.9504455744210782
2.1029690718065024,2.39245608129264,1.9936487083745886,2.1691494281118984,1.787885945758282,2.1305035674861412,1.9862896561432655,1.9873060368412911,1.667788206691641,1.6997349064460874,1.988496521845198,1.8563949853937953,1.6159698364725301,1.8805553931936738,2.040144727501756,1.9569126311861202,2.0003742755190506,1.7890677119901466,1.6661390766880453,1.8672066151111388,1.7058331680226315,1.6205853038810856,1.7396605609291331,1.87328773408522,1.9863654487666826,2.242342348743294,2.1014968199424295,2.1960722647630844,2.185224687489222,2.2570844478094365,1.994039072619827,2.050015004270099
2.1009602228745656,2.1303609065600075,1.9414042936234701,2.0894230407912264,1.876704281868749,2.0143872672408842,1.912203680743588,1.7793032628658199,1.9985368362161962,1.8361755769674095,1.7758187602860112,1.9177124324242893,1.9444682914062992,1.7443761803587494,1.713866212967176,1.682574689264549,1.6536481388877706,1.7572324536968797,2.030599924587374,1.7277409327541955,1.9951871885083141,1.8647777877947822,1.9164646495527333,2.1489665751251366,2.0610303970477526,2.0340537223005795,2.148468547531952,1.8763479074944054,2.171505207959077,2.332445016571657,2.02871440884933,1.8546133317397664
2.0778779658610995,2.4139205857268227,1.7617963111043011,1.9107728841471108,1.8785598263556715,1.8746575920001727,1.9358041889892985,1.9705272517051735,1.9315480805241851,1.8195966058990198,1.702607516460911,1.8940899193365566,1.88368659821938,1.750123599019155,1.717679292780247,1.7086950679751916,1.6676472051543356,1.7574593760325348,1.8475399553039762,1.738741137207884,1.8562901036999393,1.9462670723762339,1.9663392794111547,2.0399972797218453,2.0721662285628577,2.059346087708095,2.320884761628158,1.914906453118556,2.081124640106473,2.3249314155548095,1.8985425762031853,1.9847051448624375
1.9086470973084868,2.117528114380174,1.8703661053567926,1.9675805098042234,1.812719187104179,1.9941565028832473,2.1393504751308963,1.7117982254296302,1.7318745137534048,1.7317331942987528,1.7454833856690994,1.8395991246825363,1.8041550800371318,1.779555702496782,1.7504378820462485,1.7695905990477465,1.7189004315030436,1.7352088673736366,1.894624059837203,1.7743223149649352,2.073881085231045,1.873774179095752,2.166591943818091,2.1141480288589696,2.031180737407554,1.804437189856561,2.1098705844221195,1.8842036176727175,1.9758397833171992,2.1175433442575016,1.6578714577664453,1.9562304931165269
2.1255343545241767,2.0840349356024075,1.8146939456404483,1.9490526101599568,1.7847071037491575,1.8065202985372009,1.9061468233071932,1.6982948014404082,1.8809958222118424,1.8495485014428348,2.0401998905961456,1.9692463384854444,1.7830343806156093,1.8256300771429643,1.8678298082887153,1.8642410469435964,1.8892591090984645,1.8838299428187366,1.921197472907605,1.8640254689093454,2.1022527731909664,1.9882852268088735,2.003501796227739,1.968768122177264,2.245339900692407,1.9701653948269686,2.3547046780685803,1.8341031842178366,2.2028773869154965,2.1921578709104206,2.2525032669446508,1.9736283911485537
2.1155028408050995,2.4077146010444292,1.7753810602282518,1.8258113520975794,1.8940476686783245,1.7454897505024443,2.0775979098594473,1.6913581738705028,1.7189988069561082,1.9327045519075754,2.049527812399487,2.04119047661792,1.6406182088018055,1.797527523085627,1.8613362644072349,1.8451583219201808,1.7749624444075853,1.7497941639757242,1.719381352925685,1.757559396824031,1.8732171889687985,1.6334334156352617,1.8714160701640785,1.9578017065221989,2.0282699409124065,1.9365952813340908,2.172120386188205,1.6843324530784909,1.9956891374480548,2.094178036685578,2.1316425037554283,1.6322648612991297
2.0525914533486618,2.3759230350518763,1.9246931122182247,2.1865690889376044,2.0695016711067287,1.8187220936162198,1.976301657745852,1.7757669351141594,1.7226988957988754,1.8124343489163555,1.7765639317066324,1.960606822544762,1.768971041388874,1.8288677184317683,1.9212864189302807,1.893182912487385,1.9201176719737758,1.9655555578153185,1.8895945798282632,1.9391448975822585,2.0165829113610383,1.786253934086514,1.944185618013271,1.9089402344876323,1.995351217048416,1.962907541206222,2.06466478972369,1.7534166893460017,1.8277985965554377,2.0061803097662363,2.090293179809617,1.851835254367145
1.9736945266402093,2.387965581530706,2.0047395467892626,2.2128527711453514,1.9751168929327017,2.0086902279844083,2.1084542326995983,1.898937766005559,1.8705683288986366,2.0854305224398875,2.2256181545602485,2.1058470441490447,1.8491640120665054,2.1124744646224456,2.2257295552387037,2.0405284482346753,2.060458975151724,2.0447301666834083,2.0886332913236156,2.059187612554271,2.1420004622741335,1.8450432445626597,1.9871405408578895,2.00276546043259,1.9417125249492209,1.9826892111163914,2.0084324109152925,1.855596522256236,2.118002011492584,1.8970196263755357,1.9892897275097248,1.9050028419431217
2.1588149455272427,2.2290492445052177,2.010808982398331,2.049428512061689,1.834198822724937,2.0106550406448394,2.028620991671899,1.7691004458982693,1.746130627471836,1.8025420091184994,2.0166422261998957,1.915235775050961,1.736034417354799,1.762414150781077,1.8686042190979846,1.8055477327107652,1.8946899068064829,1.8378468078239996,1.8691782277081666,2.0055151318881967,2.0118609424067735,1.8788384902632507,2.2196474213721222,2.0292365669784833,2.075280459970327,1.8072965098346763,2.0946178896817518,1.8302822632344804,2.117015273534539,1.8740822307392746,1.7892655470207286,1.9716648759987443
1.9963283803725687,2.182661856583795,1.9222263841323406,2.1376288043515967,2.051032936073621,1.9693076844821282,2.1396544480259805,1.893139099558032,1.7820614577692382,1.9969577972642936,2.1043414738120756,1.9631420663563657,1.8236870627325314,2.0087976966167442,1.9532707838721655,1.80993503801196,1.8242147655127126,1.8605269290591515,1.8669147677659121,1.9265497619339254,2.058085621737358,1.954284005319453,2.0715285016180265,2.099219130944512,2.011042903892278,1.9980742743111244,2.135573141616316,1.73227303180537,2.120093686296746,1.9310722962274585,2.1033181626184896,1.9119742970203846
2.017386413631811,2.0748494109725533,1.855535101205155,2.0613006850063145,1.7845888977066036,1.8744445040208189,2.113200540494297,1.792850285199489,1.890327070735028,1.9408712696281152,2.138295574982288,1.8872709442820546,1.9255273447178736,1.891583569765478,2.0380972840469624,1.96739377831058,2.103152893025879,2.1128186461620135,1.799025580913169,1.771169127351112,1.7626741568974533,1.8022475807803582,1.8861950525819187,1.909317866588637,1.7507149336062402,1.7252032089538611,1.8253394836236663,1.5667488805928613,1.8340700067149864,1.6465331759603923,1.7046808048815707,1.7615995067401231
1.9886825176657918,2.1957158759105133,1.7126842761821448,1.9356700133902365,1.9406826066367866,1.6890304253344146,1.7537893422229482,1.682765977053354,2.016785208763657,1.6238521911192338,1.7440302975530344,1.7728262659866545,1.7576116053394217,1.8029205126527208,1.855240862659635,1.8567112510658519,1.8258686053443531,1.7878955329501833,1.8577920927310654,1.9025778757606273,2.0002594351924023,1.851096626367689,1.9555076659149635,2.095877092969596,1.7718891459799107,1.6411560298485257,1.8404515422425876,1.5805986098403968,1.984429969614055,1.727333293743234,1.748954134990008,1.6234219759106445
1.8650275090987167,1.9945771475197922,1.6241308616505294,1.8917973095303595,2.2114015684617376,1.6609868532297114,1.8542308575416349,1.9057245688304396,1.9649305808809547,1.9499930044818996,1.8844576715844248,1.9989508198187915,1.7151637764961154,1.7767122199048768,1.8163927821682195,1.7845372977791891,1.785200524061449,1.7905218858790077,1.9631109140839555,2.005054561747277,2.0602856121543076,1.744692560570134,2.161474613179384,2.1900157888830165,1.9726200097638007,1.7815284964433684,2.1003720780064135,1.6953146975995816,2.126228340264387,2.004492700101551,2.001254758231631,1.7241576813464081
2.1605914059822116,2.4224048864247822,2.2379272497541196,2.0904056817477312,1.9020940000755897,1.9367993356781632,2.0300813994383953,1.9173631345820112,1.9737846265393428,1.9359239447430885,2.111637054864448,1.9593560177732663,1.854109134545359,1.8892668907188637,1.8710980055422726,1.8982560466019616,1.8344278119777835,1.864618655939859,1.939046210502015,2.0166510158938755,1.9853131200866676,1.8205066485704342,1.899040604050262,2.0931561136126695,1.954418030435429,2.092628366643813,2.1065566426840237,2.036702119522574,2.1816514774178724,2.0004596315116894,2.0171707368985747,1.7472473335252947
2.057642863949686,2.1099577805401535,1.9122682859159652,2.0653379335949835,2.0088338452229704,1.8439436669502716,1.909631499368124,1.8991023671174614,1.746795024770084,1.9389117334462458,1.9623095228892509,1.7932712377256004,1.595065962197798,1.793286279412184,1.7731762868573542,1.8158800151126764,1.7910806721557084,1.776136760210429,1.7791919713113657,1.87194393232417,1.999428463047017,1.733096686562616,2.1912377376520595,2.3439100350082693,2.0681335535359313,1.9626737318160237,2.4956191707994466,1.9338403186183049,2.5280759532820456,1.8110517326202613,2.023774194738393,1.9220282566919147
2.106558298959689,2.415806072553849,2.1088767881820623,2.3664897191832064,1.934834460000019,2.1917980890754154,2.1981093337080027,1.8458062391580228,1.8076627423909786,2.0840182644492242,2.0009898344263646,1.7867918003641807,1.626116123406017,1.8230531016991438,1.8434496285220465,1.8694162858808236,1.8195141528318806,1.6873126923630286,1.7237483794050619,1.8898854168110295,1.8257577654876023,1.810689196543996,2.0132494641700833,2.1180631165291213,2.0440034478997746,1.9303374792541637,2.1147898156880913,1.807678784412526,2.2964774402008863,1.9079254297261645,2.014382288732141,1.9554966246338867
2.012462518221619,2.29758019362546,1.997314862672194,2.2467183377195385,1.9210206346102072,2.137044927003384,2.176466164275877,1.944391105950888,1.8114490507139351,2.1016107479952546,2.0100082993031934,1.947222470095826,1.853036341252427,1.9270623100114952,2.0124605238903785,1.9790548921811917,1.9816058117443023,1.9154424596379784,1.9697181796371084,2.0810390242672785,2.0682923208543684,1.8085952313443605,2.024813295651202,2.2649928851867323,1.8986143151285242,1.8413568236929614,2.3411204138984236,1.7916151360064492,2.327170803860207,2.252217458176643,2.0210208231040623,1.7992495628498664
2.0166261160041294,2.1727919490361294,2.0283116394377645,2.142702118211821,1.7474695557692608,2.009648478550464,2.1036456149289746,1.9934455743501809,1.8275862125292575,1.9265852570900384,1.9338355511880125,1.8883010047821898,1.9198602411039265,1.9204531850024493,1.9658993615353673,1.9844004517367964,1.9429289560446161,1.944416751285808,1.9460113089070363,1.9797115556342055,2.0677414905276303,1.8342561703124118,1.9733564712802554,1.9819359037483844,1.8404531832321493,1.8217103266332044,2.1190578980384958,1.7699737314795423,2.0460012865573876,2.0212220265145913,1.783678026494493,1.637309501658238
2.0484363438666375,2.143912898762811,1.9246862635266382,1.9599824193690853,1.8455349970977593,1.7638816367602492,1.8351016977036954,1.8195703054682972,1.7056505542958298,1.704735656934287,1.8779416484025568,1.7750636197684433,1.8666993323945895,1.9172553498734688,1.9754268710153524,2.0123496359973845,1.9450496385909795,1.9658959188509875,1.8527171993565543,1.9273353019791482,1.9949748848376203,1.9488042966464536,2.1785139857557856,2.0680167203060154,2.0463737514207834,1.846730382314309,1.896616991920881,1.9289311092436379,2.2994200766929405,2.106527557953712,1.850029504281435,1.918506811214554
1.905262497135228,2.084143806597973,1.8765116108232702,1.8073682254392758,1.631442992078649,1.8246330726793842,2.0413076836675144,1.8050054869850845,1.8372131176522253,1.97737173783661,2.1633672226304808,2.0255895055531363,1.8008639347812057,2.015451130893335,2.028028105922367,1.9440631968024422,1.9944998111943606,1.9142023029757105,1.9582449768225292,2.200080114138201,2.200713570878815,1.9389318193286584,2.0001076866033882,2.1631004066985184,2.0271041654782813,2.0328473014305386,2.061747553798826,1.7521419700156453,2.0683346919777703,2.118631435623545,1.954379140874483,1.9968937872329122
2.0317617784633932,2.132595397775202,1.9280815433248721,2.089565219613651,1.8476208835448122,1.8739310555685178,1.9990193558808458,1.8972535821838723,1.8928865831436406,2.010248955014236,1.9971068739571924,1.891195173523345,1.9556018952314924,1.9390007487053973,2.0942200536964837,2.1116833297162825,2.0642889093719847,1.9623390615147007,1.8306380528345219,1.9881617400300016,1.898946973756559,1.8603076389668995,1.9202860317839148,2.095948545117396,2.0198730192429677,2.0932552315163075,1.9674293383846868,1.7390067131942437,2.0408532125056955,2.015681320374509,1.9899031888331868,1.898746341901559
1.7482287725295362,1.8217993987483403,1.6869087124747495,1.8364307246400693,1.962333593204245,1.7844862352780233,1.794607314317576,1.8434538005054755,1.8338726592575652,1.9550282384786624,2.0542660909089285,1.8939037201591644,1.8055727253841518,1.9459869303818325,1.9945493764466475,2.0160690708799667,1.9673777476410272,1.8364986184593461,1.8159638951476296,1.9253101884095625,1.9778131958155076,1.9245632404531396,2.062543738624012,2.1981078692141343,1.9256610496036508,2.0231308060664537,2.0964986389124625,1.7613716632543461,2.091458694004763,1.985541945903115,2.047231708842391,1.8147039345059426
1.7405719056201676,1.8662462298359985,1.7149078626162357,1.9616568016789726,1.8576392781356854,1.7124671457165555,1.6934745630902925,1.9867946772075393,1.9253517502772206,1.7826488522453174,1.7612632416410656,1.9111532714630646,1.9263981137599078,1.8850321034316921,1.8995530577767359,1.9055992345610315,1.9376248990338927,2.0058540388862003,1.9780308190155385,2.0383148882708433,2.0117561069730026,2.0619377768835805,2.1304408521002953,2.0392676474369513,1.8454977002314286,2.06765839434473,2.049364579029389,1.687153578745922,2.0517570852519604,1.9278275751330212,1.9989694531720588,1.8484556718603455
1.7271504577157752,1.853597789331976,1.7238792522546003,1.9838934818265697,1.9607045840635788,1.8055265966794924,1.9501249160475962,1.8654849679584318,2.0921457641906733,1.865598318183553,2.0320379222214626,1.9850473554226236,1.8914609780439295,2.1256143043992273,2.1257349873171854,2.006707061618056,1.9322956002397473,1.978050009984207,1.9425570804762335,2.1023569718012434,1.994926736598319,2.050598076477068,1.9706417711852302,2.0023144978061898,1.837760528695858,1.924231148200495,1.8641798136936876,1.6384404563111437,1.9849849285248637,1.9506823657442691,2.0856656781455833,1.9176416005231072
1.6953039740961595,1.7730879173859946,1.6553909838461014,1.857892627745714,1.9362442707790777,1.7700580709167688,1.8595471249956543,2.0392754332616474,1.9461496784450938,1.9430097950124012,1.856034430524243,2.122451237210823,1.8390258903807781,1.93649388781343,1.8883984510977774,1.8359673561725978,1.7760936954698099,1.819758501704917,1.7318681854967555,1.8562085759568931,1.784405385411933,1.8179388721629368,1.7795314220544565,1.899481533173776,1.7480436915519237,1.7503405629974411,1.839255422036464,1.605548736898572,1.923850668262862,1.891769268042735,2.1213307395063583,1.9191521894403947
1.661952855922944,1.790859060703786,1.599075048109024,1.766752170877482,1.926214017218186,1.6021457211587358,1.715225880933,1.742513993162506,2.103493973901743,1.8221603173972567,1.7363860315040693,2.1118887032936193,2.083810344568633,2.057518652613529,1.9114017523297555,1.8530109408483801,1.772554809815336,1.9211704555936138,1.9023204211110336,1.8882019960487724,1.9863234643892043,2.162250802364781,2.0355725386998995,1.9037128149597318,1.9010916613601627,2.0408338483807698,2.1070895731995507,1.6111291166995025,1.8864750003615027,1.8644069662099028,2.149077755022715,2.1583359137563525
1.64985333518682,1.730240899053604,1.5975228224533857,1.7812475038445892,1.8651577349851503,1.6561822611022576,1.9039531884022578,1.8940952281812515,2.245689855063368,1.9827344017156985,2.0269292346225196,2.1255241619493255,2.065273459673188,2.0685358664612092,2.015745092920842,1.9962986112614964,1.9931369272756125,2.031180391899511,1.924391071086743,1.955125754480924,1.8623495999562925,2.0486685163253626,1.767372778191662,1.8646112108472686,1.6926789594885272,1.7348974686268348,1.8425877660297902,1.5835310855391869,1.811100033831444,1.8270084431565061,1.908790339025516,1.9699117204395613
1.8392134855253146,1.8835576292925267,1.6888975835192064,1.8975033112786257,1.8956955758755913,1.703530793964259,2.067818116735863,2.079305393189611,1.9999935990683286,2.019796298498659,1.9914360570460587,2.148679524621002,1.9433858983100807,2.080399273439963,1.9644060625064987,1.8616187697532207,1.7931581114657384,1.983650113941907,1.8700253412778083,1.964809303835781,1.9869073757021762,1.9781297205622943,1.956638199431692,1.996669140445928,1.873068761119336,2.0091877930968622,2.05762202624578,1.787185479193114,2.142988062436173,2.1153492700788985,2.0828503155830282,1.8310034796736734
1.9528032201037397,1.996916318680378,1.6850547688719193,1.8845331036335407,2.1409538677207607,1.6453644820104585,1.934257960873547,1.9947379115493353,1.9569497810199392,1.809323501235027,2.0675478644286454,2.1258420176228268,2.0315784860713264,1.873937234123647,1.7342261317188692,1.7140488775528886,1.7171633226502974,1.7990341193022363,1.8264082125857786,1.761314005287619,1.7729349922402522,1.9714317408869313,1.7367189979898054,1.6914650789490393,1.6625098079464138,1.6764253241090585,1.7283744627783657,1.6144801145923946,1.786819895628533,1.7493645171828922,1.737740883644149,1.9189734888388401
1.855127377351767,1.8255375376448273,1.5422919994951705,1.864228566917844,2.0926215810571014,1.5295278006879398,1.8625334520262222,1.8145078666388657,2.0196516459748226,1.8749828047741888,2.077640640442585,2.151394622987103,2.0334153177199,2.0075238728891462,1.8005111412069088,1.7518163270294953,1.735142090830458,1.7821212793449357,1.781855018699778,1.7032493305888992,1.7057598240273317,1.9116614611129754,1.6985015704658784,1.625767622342806,1.6213074891061259,1.731349654921337,1.7576608133915996,1.5206841073210275,1.7810439666579017,1.6686024014008554,1.7814335178484795,1.8724754476355079
1.7521522352346734,1.9071374163673513,1.7780729635148367,1.9302642248916475,1.8103597512359617,1.664546460118264,1.8268167753570348,1.6941245553625721,1.9543208483054868,1.833170527269522,1.894737118711711,2.035967498998367,2.0048250822710214,1.8595524835190953,1.714684053378324,1.7248875393610839,1.6696448912624675,1.7289390241329932,1.8129936982160753,1.8017270464452064,1.8093171236148402,1.8065842677085822,1.775860867354472,1.7996903440236174,2.0338202769001636,1.9241317842988592,2.0752488351096443,2.2236498373677454,2.265387854354446,2.1849310641990423,1.9352613767697542,1.5795858167882362
1.720220623261173,1.8492673832392117,1.606080676023513,1.7778945905144203,1.8327079140174212,1.5709123297620917,1.7713523905627562,1.660515873687148,1.9075252309379747,1.7292677733292792,1.7782033409177074,1.91326056592203,2.012852678011706,1.9190257650515266,1.79195574093174,1.7078093203282556,1.6907589535281675,1.743101019688202,1.8570973241088904,1.7398109502012813,1.8008331852825743,1.8113243566843655,1.8250573996042097,1.8296681155231642,2.0217492067502225,1.9558461713758521,2.2419243066339503,2.127595558223466,2.196374565812579,2.0388876560992575,1.937640782040533,1.594260712956737
1.6926531812243468,1.9445858764082598,1.660839311895952,1.766784841048745,1.7921009934602332,1.6337457277834198,1.8051407766025216,1.7098585304541154,1.9214418218225406,1.7633718754942551,1.8652723144289558,1.9024836425193932,2.0149935990947814,1.9246537659697607,1.8326198656238786,1.781998051418326,1.8039442298270458,1.880463690642043,1.941375566171999,1.8866218709876648,1.8369152516085425,1.8366949421603234,1.8159233924076188,1.9758042785738235,1.9633178436132288,1.8150247425111738,2.2732710588379574,1.9587296038077497,2.003068193138737,1.97311953525469,1.9132991064705527,1.6411677573412449
1.9490871743615499,2.13521950023975,1.99855334559522,2.126382521143194,1.9533548356863457,1.9125184663240258,1.9987912829059318,1.698567024372842,1.759624486002911,1.7594358976725297,1.890026549267153,1.8217775135461876,1.8810635368037858,1.880774361867279,1.982508459374673,2.0267664010909368,2.044781275505346,2.0834701235531465,2.0980556130311245,2.004685647730244,2.057192707881881,1.8632001935576648,2.023274809677706,1.862811169212061,1.8466598189554169,1.896685427135409,1.975739969183763,1.7933408278653749,1.9795458036006117,1.7529786983177562,1.765209919810649,1.6742096114908125
2.0526341421382233,2.0078559212980265,2.109205281609009,2.0402285269957234,1.8348061185073448,1.9360002858080663,1.9447518751121549,1.8914805050529928,2.0995898566154407,1.9663814962000792,1.9557521385560361,2.0417479064916404,2.100695140867628,2.110539381826493,1.9975485632339596,1.993718965214322,2.020709432131155,1.9526676137418926,2.1519159160470203,1.8541272115468916,1.9198504672142331,1.904321748894798,2.034622725347219,1.8360888607720225,1.8812394347494201,1.9547806903848532,2.116432525581068,1.8543925696039594,2.072774604820956,1.788184079323769,1.9811995757386336,1.6350117837995024
1.9611781272688116,2.2292854704448217,2.1842240063609752,2.0659697193796247,1.9082332351030342,1.976186096622178,2.0026991367906204,1.9650467354267136,2.0959925766094356,2.041308410904897,1.9372786518363392,2.194346634208605,2.0571397742924677,2.123525526721887,1.95305137579924,1.8774893701594977,1.8670218107213539,1.9625491476742696,2.100613446388146,1.852179660449829,1.9036023772974686,1.9814143145891088,2.009370411019085,1.842787752972956,1.8963709178762234,2.0515163378524863,2.044627749855664,1.9391279857723778,2.1832031070007782,1.8135771393634417,2.085417770027651,1.7565978705066159
1.8804111960033398,1.981956510799068,1.9361599752977963,1.989577582863267,2.031039938408514,1.7603668729087807,1.879682293988076,1.846434101999007,2.0911057889148696,1.8824973427555782,1.897526250828113,2.1112315249747793,2.0953745201503615,2.0959860512953266,2.028811800341818,2.126167409418046,2.1807814620201764,2.116415822927595,2.1349039920216666,1.9292346223177625,1.969362975209093,1.9509429475785558,1.9916793654123723,1.8327966979737025,1.9466438753932231,2.045195152916927,2.080721659112637,1.9540314661578566,2.20015433718789,1.8351390280596873,2.0416130162002495,1.6869083260448603
2.1271258289502124,2.209232746666039,1.9196329133129213,2.019633277886565,1.9358721557101182,1.7912184890804936,1.9720385713124613,1.841368102238994,2.054442105950926,2.0894034617752975,2.029151849225435,2.159564638519388,2.1328671221790017,2.1900013651751884,2.165941635375985,2.0416564116761595,2.2089359697672744,2.094712376139038,2.121071909232682,1.8902417315019358,1.9256103502198343,2.0634096743358747,2.0088465966605002,1.8990242904756893,1.9530346230405404,2.124863427629704,2.042153309588018,2.011574869205232,2.1577172011791945,1.9689208997976801,2.075159925480883,1.846043604568928
2.0278077571056277,2.1619711570004787,2.1524714062955836,2.063946806965408,2.004104423412658,1.8933127817264472,1.9238968679357844,1.777127303697023,1.7062018966733878,1.753753935988542,1.7980631287272166,1.7886480769111184,1.7774224924184658,1.7396946178930561,1.7424787896990286,1.7260316780001295,1.8057304115380786,1.917642125778553,1.9659856339946111,2.141805490711826,2.207443448783512,1.7861119769416822,2.0213909345166883,2.204241012073269,2.078148504749135,2.0622736872570866,1.9879640271873142,2.0143289401339173,2.034709612627005,1.9938455732369225,1.9522428520603452,1.7234183001664247
2.048918947896234,2.218005478144645,2.034937355800751,2.009523751452198,1.852955526170153,1.8233347151769999,2.033280946292776,1.6707395557397167,1.8923165291572943,1.9008609107013454,2.1123713614778006,2.091958950213909,2.071146759482053,1.9839711831812559,2.037735597861918,1.9760097693429466,2.012031744583845,2.064771959473722,1.9715627650564136,1.8196838171614527,1.8619325438032224,1.9966988174105762,1.9178007210034158,1.9074695279723342,2.0670231133594617,2.0107820320676764,2.0280107153488403,2.075463256717351,2.2723304426750346,2.0740849993095054,2.038602050002013,1.8547958694168392
1.7844981536360185,1.8655634342206637,1.7617377443238902,1.834681163557219,1.714890279993424,1.704288885184049,1.9686688370643957,1.7850003884664136,1.7822900330592435,1.9033827679246722,1.8647992773287723,1.84832771992797,1.8444488142337114,1.9508683292358142,1.9690402549053847,1.9170718331097532,1.8663367936545339,1.8017530857505917,1.8402295576447556,1.8562825168471337,1.834523374365231,1.721280775632125,1.86757739361295,1.884619631720106,1.9278464040243743,1.7958204872366266,1.829961869673054,2.0196689290927323,1.954689342147009,1.7713032851337045,1.744335445886727,1.6349532125746011
1.9138397644942222,2.048909093894943,1.8221813577171866,2.0370288944679156,1.874403170532415,1.7370016019630214,1.8944900204747797,1.8362874777458529,1.9078203908165563,1.8508374572400508,1.8152065191886626,1.919243898943015,1.9501945025361038,1.9395516025306037,1.9526668905197488,1.8904020718454937,1.868329221188148,1.8276927600130353,1.903276583737366,1.9232766973612705,1.9077365026275885,1.9441407625774905,1.8237301028825654,1.9519937804276795,2.1214320522040038,2.09515272573049,2.0283965226278946,1.8784636112948772,2.1039741175952145,1.781014380036341,1.8543356734914125,1.871178246677193
2.2113346057513,2.137681963123108,2.2199023874243085,2.3151461709577057,1.9671370633130292,1.8500234474950235,1.8261663398858454,1.8440263344721062,1.9718051001856445,1.7884677908808868,1.8448080947133563,1.890901411770309,2.0291848253272713,1.952964392554766,1.9729390218997802,1.9251842860940191,1.9276498515866352,1.9741417266694652,2.124346623088175,2.127643234421197,2.137091449950534,2.064972587632886,1.6351543232341168,2.2127671558310107,2.3110330370490013,1.8797500038298818,2.313364806865016,2.0855312626864753,2.3735331566371425,2.1902287195431818,2.0934129942352344,1.9673002944776166
2.0011765916986195,2.0544148765177463,2.058022308573568,1.949285580345969,1.8537021748897389,2.189303560312145,2.1531155828692303,2.0312692279333535,1.8514049320198107,1.8459672122716222,1.8703318886279316,1.8006479985002328,1.8635384565635287,1.8389192811992818,1.8591417127027916,1.9242879355254108,2.030037998409596,2.1957802536265167,2.0708810508697963,1.875756162616128,2.0000039280697384,1.9316200037651112,1.5669353427335484,1.8375183360554728,1.891760312396374,1.8784143840425298,1.8557175827753847,1.8459135304897492,2.029184533556387,1.7896461875322278,1.807665377768574,2.0792251283018293
1.9116602783386756,1.9395914127644114,1.996764245239683,1.9254695864798952,1.7386575285684427,1.903625821057064,2.264795820189989,2.0180113397244686,1.7842191517729988,1.8056156310615064,1.8795371448586435,1.7771592670001575,1.8230320198463514,1.8549459735398592,1.957703535892451,1.9232514607793862,1.9838487115551886,1.982494191385167,1.9243836484307932,2.03368538238338,1.9959761823716111,1.8601858457561362,1.5554921243578137,2.2518642772942004,2.026351571696584,1.8714228262187935,1.8869329580088234,1.8968072074804094,1.9934786131406121,1.960110107413354,1.7564132274200297,2.1454344025561345
2.1274198117454755,2.115217751694513,2.044507523713018,2.1426276598373293,1.874602154815671,2.077665723629468,2.0413218134735263,1.826570561650465,1.839352639041555,1.8965265557284272,2.036350323529145,1.7942604547222012,1.8403308971239365,1.868096110533364,1.9604395464654818,1.9553256544007855,2.034428583179719,1.9621764202469623,2.0304727281783443,2.1587837241631798,2.1291077528444418,1.95347064038513,1.5341898625539552,2.239111592168748,2.3282747775109254,2.1494321369439167,2.1349840164360967,2.230551431063367,2.226795643118421,2.097561531086394,1.9026385784433064,2.0614445314236005
2.0434997831358697,2.347726391278986,1.9087277777135283,2.2655681133012378,2.0241284393402785,1.896787252222407,1.974441777205547,1.795942452123647,2.126760394237032,2.051426266814157,2.050026186332087,2.166665975808293,1.9182194060257551,2.352020178450126,2.3715543364387455,2.154666203115039,2.2724645654185185,2.1273360180551775,2.0504488444291384,2.011883932062738,1.9917993888548502,1.9376859567833165,1.5256205846483428,2.2500768206648796,2.0739561125033923,1.9254630027720605,2.068933503065958,1.9471075288394866,2.2462086284490903,2.392737654330241,2.385144738669195,2.132646749174814
2.042096668089106,2.230812893953456,1.9826661218086878,2.304189621924238,1.942030746134432,2.026920460997812,1.8881654899041846,1.9182608869738633,1.8066197836390205,2.106155652848883,2.1367389232560448,2.006381127510282,1.7702000369712716,1.9571465805963661,1.9924265227336686,1.8999554190856844,1.872382573408019,1.8317595709227608,1.936184857271093,1.8998666702037919,1.8939415035080795,1.902774883395523,1.5053390466975378,2.0554271284346877,2.013977686590084,1.9889555630141695,2.01381903803703,1.9152754757682786,2.172429647442945,2.077806531671566,1.9886168346998385,2.2335885426794726
2.1960613358676326,2.2735770019284596,2.069261809303991,2.161016282268213,1.941563957623041,2.2140687563305326,1.9801308916086657,1.8013482361504316,1.9007519939798327,1.922620593789575,2.0389978161663116,1.8984247320712395,1.9860073620615906,1.8434271186559943,1.9350933245170598,2.016646145553599,1.9755115603068694,2.023261247681238,2.0662298967846864,2.064094841358092,2.0997629746177657,2.1934062151118923,1.4779239536105908,2.214823185389806,2.1070480948427877,2.017940290344477,2.084399857533502,1.9728560440225247,2.38809302848998,2.2400366149608524,1.9966771971380424,2.0073191384492914
2.1573618582416447,2.181227452006011,2.078541471326588,2.0857193212679332,1.9488431784270486,2.234120205017127,1.954390180248109,1.9616435198529603,1.9781779714365195,1.883231615514334,1.8559640418444605,1.9027303729037113,1.903242229735927,1.7930493014962623,1.830015496498018,1.9245416843889107,2.108411985930774,2.1524740485991205,2.1490081759201196,2.0818978860664137,2.0305909369168313,2.0092217260699194,1.440804612781618,2.094822114937347,2.1372812314954635,2.355987209550417,2.249221954443741,2.1609616733045067,2.29985751557886,2.3672948078441314,1.920573297758163,2.1818662733347813
2.386660126994469,2.4143770557418103,2.327610960676041,2.208100570739473,2.0561506319767013,1.9907406170702844,2.122079087124729,1.9548615242118437,1.967944980512772,1.9405396398807544,1.916053130139807,1.9972248716637375,1.8985975248880484,1.9140969377778507,1.9262420024505096,2.0316780606417204,2.0385786292845585,2.119897918917535,2.037006898354686,2.0722562279904166,2.0378955465593025,2.060278257963553,1.4103878623345478,1.9822763965654846,1.9654416183680186,2.1729621392525234,2.1543355182375974,1.9476437051558426,2.0965235028531812,2.074284870127013,1.9552995014683856,2.0377735623562057
2.3599417700850878,2.3669627916880254,2.2703298475273597,2.256960634771691,2.052553682140361,2.217733004238019,1.8902194207417382,1.789839242891276,1.9037697559315334,1.9747451655160002,2.105217269692016,2.026346382693942,1.8716916898038445,1.9099070497280377,1.931240745562599,2.0101578301681418,2.028703742629314,2.109874151115025,1.9921590275068302,2.104053933144041,2.0278459868064926,1.9302713948162933,1.3827845823844334,2.087495645641084,2.124828388037735,2.36660190208544,2.01484767803552,1.9748241933897581,2.315816621688742,2.1961346103034094,2.0982272953102217,1.980643835059506
2.169272370697754,2.3427347678037536,2.2415238815112795,2.033621198098272,2.0406243709761664,2.020165915217174,2.1540866258553213,1.877730038321215,1.936501896107572,2.120324236724584,2.0288438393125507,1.9784244405151308,1.8810609843398394,1.964963537051466,1.9560840099758896,1.9957045997874514,2.0888114326767124,2.1689545743378726,2.156137956679463,2.318304659780767,2.39794474477523,1.910654415975996,1.3681654924054207,2.212554813424503,2.131710817249934,2.076353983388408,1.9489354712157343,2.0270312088634115,2.236172353035093,2.0473257623044816,1.9124629928361998,1.8977153223172079
2.0757012979145926,2.0191615671721412,2.168472920374601,2.1866616384274917,1.8129312692446449,2.0284882304487812,2.0038755455315234,1.8320943580556301,1.9244213451822152,1.907693760641342,1.8121962145352546,1.808264694406894,1.9470363254618475,1.8207592581318572,1.9051170815897844,1.9999571223711985,2.058823519819468,2.1363366042357756,2.2172331741266262,2.347554664223772,2.397128821535802,2.224493125069417,1.3241111994017212,2.2458975326387263,2.1737392867614735,2.165146455614235,2.2529744244839205,2.137664029954676,2.2116504054925423,2.0845266495156083,1.9171622843494052,2.0560198790572524
2.165354480086927,2.214718637681125,1.8536529658818885,2.265126724525966,1.8754915154321163,1.9303143055559602,2.0976424984757274,1.9852994177075074,2.0119852897912707,2.120829952919063,2.116257811060012,2.059891152901832,1.8798135346414888,1.9507007614156096,2.022042986334891,2.053348842604147,1.9235976770499814,2.0089623457611676,1.963833501014095,2.068252251061045,2.068430853992651,1.9128149425347638,1.4802522429288738,2.0945630344451076,1.983062636557817,2.2711978816820393,2.334085750725034,1.9314867450156001,1.968470394163482,1.9837091716253705,1.9655655156073373,1.964749965697362
2.233659494890633,2.1841774034081305,2.2037054360081485,2.2228536654578352,2.052658453760834,2.224876491067983,2.037136945656461,1.7912852800848538,1.9153389360767024,1.9950531908045441,2.080859689483839,2.119545867248364,1.8713195545331345,1.9961165683830042,1.9462930427040706,2.075861020357313,2.0977895929052903,2.1208240313864652,2.1180184972975207,2.2047506052373134,2.210983899624303,1.8298685833953512,1.4334702985292374,2.3282819242202506,2.093592780909438,2.421035808530603,2.3687702552336174,2.1032414951288323,2.189919316823727,2.3054052750081238,2.0963586501406777,1.8705369410656565
2.0977864619418574,1.988383525296803,2.046154359378954,2.1756976685434415,2.0229789540397944,2.06761882002046,1.8737225137563396,1.8212049032211832,1.968085603500855,1.9174848522677757,1.9896864695911112,1.8736193935517493,1.908727382531411,1.8131826394187882,1.7762465715019886,1.8087291860300434,1.8517683064283454,1.9542483740914636,1.9928978649029543,1.967991266639947,2.005779922315134,2.1256258055144506,1.4315790011515248,1.963091568447448,1.8410368831907122,2.082347751812238,2.050109172743764,1.8156850443412953,2.1462128130046483,1.9398936711231125,1.9955270696083625,2.1822819111581
2.1954188884461168,2.6245384033133208,2.0055159993035017,2.0168464300596343,1.8971891940617343,2.0684914962175873,1.8913368345799502,2.0252790905441347,1.7796185088874106,1.8330016942705518,1.8426678833599686,1.9035486197385247,1.925597051023319,1.8487152285894455,1.8104714768036085,1.8140564953754919,1.8583265412379542,1.8367080270728655,1.8779186388410356,1.9171676989518533,1.9080533615829403,1.791291643206489,1.537699387554953,2.064441920165116,2.0936050903771486,2.236404312642187,2.507046452565512,2.0515193704376697,2.169501235842464,2.0930697433505143,2.1566498508230403,2.14702024581694
2.2484520489450905,2.2735082840107683,2.2262446053360323,2.009733557069939,1.7830122018563201,2.0461278816297694,2.225689203521249,1.9055189178696315,1.8447216519155694,1.9673048121021188,1.950008821509531,1.913144331883666,1.9218428334953381,1.926288442811988,1.979942893521861,2.0981465652478386,2.107655793154594,2.031818774714485,2.0359663713360887,2.135893160181534,2.1428985392913704,1.7862881446031222,1.6281037944225305,2.2756758382894913,2.1931015011371247,2.3344479662920166,2.5705560797337115,2.141458667129456,2.3078217726974204,2.2209342399226686,1.9997824142979157,1.9096788775493796
2.4886148790104854,2.2209952128195707,2.403752424993694,2.414234901300393,1.8099985958551568,2.32082444032396,2.2050256272443876,2.099586331167696,1.829099306484039,1.8897400408629563,1.9905537191165157,1.866554273462539,1.8595466772001594,1.8723952808586883,1.8409445819463703,1.906878660977298,1.8078928460058499,1.7640104755572934,1.8029317671224876,1.8215360988879454,1.831281019938857,1.806237293540509,1.8723471320402005,1.8892144040422647,2.107227631714791,2.210373597558633,2.652335115443262,2.229197941228951,2.3804758725785375,2.2354762388079057,2.0055383669073197,2.082598583082259
2.4249089522824634,2.132473933618104,2.239646090159267,2.2804779037003367,1.8492267472051092,2.242977918243983,2.132001954149805,1.9204221339406244,1.9422966906253538,1.9686271251028082,2.0046518112653797,2.0377391612138456,1.9695335725269776,2.015497655246206,2.0446700907113566,2.0972848093230767,2.0951529706058003,2.143856423808924,1.9167655677132016,2.1477936772001187,1.9002342359575473,1.9676173661935625,1.7176785213094,2.1080437129168237,1.8226817243719142,2.0104620464334086,2.296008927193554,2.0506780586759232,2.216406818410647,2.112751999812029,2.0108062088244107,2.0450146938913356
2.0209124533313965,2.212844442073375,1.8882036344118651,2.1593536467049383,1.8972860162066263,1.7031748977186687,1.7892744470808117,1.8152946886385213,1.7986520831926,1.8594844925228753,1.801118428392321,1.9184847085011232,1.8982604574077735,1.9670574891380725,1.8538917642203945,1.8996848108090187,1.8373716397345683,1.866546211233864,1.8677030399538643,1.8483169714026475,1.8519097038495402,1.7684239804040152,1.7523615169728821,1.9800332381120163,1.9367177060947582,1.9611409959822799,2.400741290720546,2.110382138059518,2.284556027902928,2.2205749375585504,1.9678840003090252,1.952611914401731
2.0971815093383874,2.3776594765460786,2.1662822234452057,2.181887011363213,1.9734232224882249,2.0042256323411856,1.948419632901894,1.9404024054693778,1.823068403706188,1.8426216135789173,2.1535653488331676,1.8642330664140971,1.9896861311498781,1.9657987994703365,2.048848099315852,2.3271897515032838,2.239057906374543,2.2558797353913995,1.866585004503776,1.9992664699133813,1.891674912574442,2.0820797429204303,1.9066667299421245,1.94532654760527,2.1159140847669677,2.152549970938699,2.386783116798763,1.9739102503603714,2.0399361107864946,2.0706997047333817,2.0325966400579714,2.1505947029407877
2.108546291657798,2.0775128397099047,2.065707588453888,2.093916172204409,2.0195683909067665,1.8477909196982216,2.0496789421392116,2.018834663430236,2.0325374187331193,2.0848857433038996,2.099411392165966,2.0817642719738805,2.064740504833022,2.0232588353805174,2.091419640130064,2.3407336479662177,2.290000340491052,2.229713749084417,2.0804945026266974,2.103353594367002,2.182160290373976,2.2346181381837633,2.0358983909584856,2.182034216045069,1.9332207674639714,1.9114786362624803,2.082035449994294,2.3654593407754567,2.0914761624306935,1.9448233303094085,1.9152175168145582,1.9428573037099028
1.8973773229330517,2.274450460584809,1.8533660920504658,2.220448198792219,2.1243386519958594,1.8154499625890852,1.9537148400809428,1.9825157306971255,2.342988429339525,2.1418713759003434,1.912190797489427,2.3050077121418426,2.16307766591573,2.096837607220388,1.8962448754191785,2.0032193287169213,1.9990089233460289,2.135780841533753,2.166020741516589,2.094385066383307,2.240467703742052,2.0412217435843987,2.100228199926854,2.2307999301739896,2.1731272650255518,2.16244555919136,2.265139413607845,2.1913986443289466,2.429602372516522,2.030416835379026,2.172249039090447,1.918778593289652
1.9854734348836873,2.0722062676647766,1.89590070446332,1.89204445195732,2.1449137314400404,1.7296542248497797,1.9183296547859083,2.0474809988960185,2.1758267870745884,2.1169297019079956,2.0254998556703305,1.9979150787290727,2.0796402742782876,2.098519070971089,1.9222323375924226,1.949648836989709,1.9481904143315005,2.0838961280414443,2.1991920884549385,2.0740781424572416,2.1595574678482077,2.1880835115821093,2.058911531913318,2.335349046472569,1.9324830614751898,1.8893056246884774,2.2989404306844445,2.4294802468330774,2.073765180332805,2.0468295041144495,2.052606022784677,2.0330823310769865
2.0175532900963327,2.239721873080936,1.7878124471660766,2.276477038513526,2.0774213290817283,1.7386668938511283,1.7400044101705547,1.8940020409740144,2.155009960100307,1.9272825664899105,1.8924809822634683,2.037108704750371,2.047259243765878,2.010513089381812,1.827812311799943,1.880900207071047,1.901887884073644,1.9052535306939367,2.0353975636940658,1.9482996483363617,2.0919970869251725,2.2566869466701753,2.0728078112487105,2.263940310715015,2.0203028834481054,1.791535297721631,2.3507834432727597,2.1133171521729928,2.3496785101954645,2.129108914486871,2.144983161116325,1.848259404451796
1.925076630236788,2.1782053397634127,2.103824738020128,2.1900558771902356,2.001141351579606,1.8181309042909684,2.018030791954655,2.1128071488934284,2.1663949621350187,1.9982774935666896,2.110152978109842,2.052693223472714,1.992372494147407,2.2039458260563594,1.9248577924435817,1.9153246135400694,1.923031520204857,1.939751173517911,1.9247513543261605,1.9304213550694156,2.0089450950180576,1.9614027074917506,1.8853349498151133,2.0150295409613874,1.876376911203158,1.9064185281116084,2.00355396947077,2.0514189134159175,2.441739991671258,2.0844675377383686,1.9582067320732461,2.0177956269543
2.1939777942171133,2.3468353575581204,2.1014968424809344,2.2814589400159813,1.9869725144211663,2.0084754712709167,1.9004821934315352,1.9398775421308314,2.1172985945076537,1.9980915091232925,2.227586281071909,1.8512413409021096,2.2036844535354234,2.1910120488464897,2.1621916752410586,2.063994833408182,1.940285832638225,2.031810754380919,1.9836452842404857,2.1716107313574997,2.1952688755276344,2.119320771855746,1.9447245219042928,2.2054633162119845,2.111168239112512,1.9436131048577565,2.302127330877674,2.2046070782787006,2.3708407777198026,1.8947774213505035,1.9786059125889452,1.9306465907569272
1.9228820332107177,2.096539281632706,1.9727683504076783,2.226577692070438,2.0898310609843183,1.8672398226714753,1.8716109278614514,2.0857735380585383,1.9326580417471446,2.0728684567916007,2.040471852828912,1.861389334957114,1.919506461380783,2.045544596504452,2.1717281207625887,2.0092845296935984,2.0504897659746684,1.9971901005484096,1.9694569220288236,2.0213649366741415,2.0479661077401783,2.222742956906333,1.8840580377899183,2.0402199433007855,1.8850101547138203,1.9684279118074046,2.137957392263082,2.1261948972955134,2.272905346879781,1.9551091916089434,1.953899557914998,2.030687886198746
2.13711992973935,2.020239653294114,2.1287971021609717,2.313281909748605,2.1062110955340727,1.9560131286212141,2.015929389055961,2.1406287043850405,1.928064493477842,2.0235776615009695,1.9759755259618985,2.084152333573425,1.839929372635486,2.082625874306361,1.9715089408403499,1.8899028467396681,1.8510862980415106,1.8224483049825815,1.7879856140433792,2.0697683038447914,2.073451438316699,1.920880830060559,1.981683864255839,2.283447805622567,2.1779689328454497,1.8231768263506012,2.1414301327725043,2.275996935925784,2.3486479774167597,2.2133964328975417,2.0334879077840764,1.9368354016484408
2.1462288670388223,2.0781531240129283,1.898627511492039,1.9939036333495685,1.9627877502574653,1.8409042095884571,1.9017173964084386,1.9645641891107049,1.920187744476054,2.0872135137791674,2.1061976573148105,1.9666906674142444,1.8726664271666549,1.9623964037611832,2.0506278423822226,2.0717895438215344,1.956332496815216,1.797069649433415,1.7864640548274233,2.1348632463842776,2.03923067920629,1.9221479143666387,1.9116484670270837,2.2100168461415803,2.0347016358806056,1.8958298163342688,2.3416684420968603,2.032688302056044,1.9966708503319035,2.019012307396321,2.0462791725127785,1.9110064520238792
1.9998503105408425,1.8723927107472267,1.7444447702405022,2.1037833219821946,1.8178431404709479,1.8553179031104776,1.7899698533097623,2.3012370644955826,1.9799228439467444,2.110106819539837,1.9376331902045871,1.9190175109797436,2.0964933749475887,2.215164026705046,2.100829419914342,1.8899713390818886,1.777770205507323,1.9970541185871957,1.7769214098941686,2.0195447864809855,1.9209565158842954,2.0144417937613435,1.9794878479962925,2.219953275654768,2.0464478045139893,1.8372986429944784,2.224498212655311,2.0168013926972645,2.160517485351374,1.9926992188024961,1.926352499773674,2.073593255883509
2.198082689730766,2.3215306965921245,2.151746714447509,2.337212381538701,1.9678432739320995,2.135983439458425,2.163646438411877,2.1570522523277105,1.8342669867287595,1.9418249700695087,2.0039372926301926,1.8838307013588316,1.820847992736705,1.8389380624951752,1.817387484658566,1.8382623554453374,1.8152883221188585,1.7249925962048778,1.7446791391115621,1.9635651753786678,1.9091061392423418,2.0228265240347816,2.080700192724323,2.129729004923999,1.9931498479595193,1.8581778779579494,2.141923947774969,1.9109083528356243,2.3009997729916893,2.2719324213594034,2.1228343649091292,2.0076434353784087
2.506510829531836,2.236666234161722,2.1993412402293626,2.1518178519939686,1.9351935955309965,2.3169334673450375,2.2623709379664065,2.1382022602584403,2.033575734477357,2.049913223668472,2.0581363340681222,1.873311715980442,1.8293114303882902,1.8727382419117504,1.8951492345289542,1.9359029311854883,1.899201821067847,1.8048707317868888,1.8212502999935412,2.02221216433325,2.0837848656720603,2.000775069671975,2.120463455187091,2.1399017380943683,2.0929607244028428,1.8562368131804332,2.140818030757231,2.0948328776962124,2.3966080652379866,2.3005294168027794,1.969770189552932,1.8391338829190171
2.1777245253355515,2.1769357314178674,2.1554250300246918,2.2517640801236616,2.0292681817337006,2.193327009801805,2.345883417099204,1.8698879741053707,1.8815062291429019,2.0732705068007236,2.168154389206462,1.9488758090968679,1.6937922799814178,1.9832952928131622,1.9867393328689613,2.010339823891006,2.055511549837482,1.8907044070700632,1.8263121590496931,1.901070851608269,1.950339064140389,1.7265972537245178,2.0101214678452393,2.2709703383452124,2.1710039212555077,2.032143513096055,2.212272814441068,1.9807096356951763,2.4259916421031664,2.112242020701384,2.1734498057370777,2.0603810816386794
2.2453448120002317,2.150242542615281,2.0627516334942335,2.1155781355940593,2.041583670396163,2.2390103300159576,2.4982725994518007,2.0226105068085736,1.843677636267176,1.8919468959191204,2.111863181696996,1.8321783578870474,1.8613768577273302,1.9928070156284237,2.063620450354976,2.2386376880179353,2.0112365450459726,1.93859939228708,1.772621805390277,1.9485184130633773,1.801342518148816,1.9471620287345677,1.883076905304277,2.071623998773112,2.137254133154823,1.9326665811619157,2.182433454016169,2.373190796812734,2.3362976441601253,2.22505505240876,2.104829470886542,2.0216978039059006
2.2593118833756978,2.2996453489107918,2.080717078746235,1.9942081361397617,2.0785285733055576,2.048118463654954,2.1991715534164045,2.1923177045277815,2.0231927634697318,2.079691056581625,2.241096134560536,2.0111566629972537,1.9041230615484357,2.192891781996328,2.293415546608367,2.2581524146872116,2.081030782335296,1.9867338653248323,1.7471032830894377,1.9206751207471588,1.76821362003916,1.907475850483513,1.983574051426805,2.1785775159826755,2.4309493234328965,2.2886457139292147,2.241636877012813,2.381952284574363,2.3681673340723406,2.2670586418872625,2.195303967661298,2.344109748215505
2.381849770865521,2.205331138034415,2.2414260671342263,2.0127535335662223,1.9319973366887015,2.1344654452087934,2.2945951491982566,2.203791897449074,2.078480039450823,2.153999973469051,2.124756394961613,2.231393414960784,1.9135390917323143,2.241886034943246,2.0949673608925647,2.2183519115114176,2.197647053545553,1.9991302974022276,1.777940620101298,2.1072599444064375,1.857566099183124,1.9019043515472769,2.190864621979014,2.0759049403154304,2.248254648284303,2.18703357218479,2.0926521017420785,2.1490289616081273,2.52140521354752,2.467746691412265,2.111366904604585,1.9610938676182892
2.212482321348718,2.084557414861029,2.235152735171085,2.0305431429202416,1.8928772461287098,1.8707744480027924,1.8876445468294871,2.081740559071658,2.127108156482184,1.8945739749689496,2.0256823298510698,2.203867062763606,1.8690233286476121,2.2067518230185965,2.11604512047204,2.0375155677809564,2.0999739585262485,2.1177773096574337,1.827216419937488,2.082092660893165,2.028791946384909,1.8588742985796975,2.062043137616162,2.255646723131322,2.342992190378409,2.320861893028766,2.205129980138278,2.082293477466787,2.274656067841054,1.87571270138109,1.929175908392514,2.1578227128716194
2.0362428871753195,1.8753579587719362,2.25366382421897,2.0311493231626225,1.8606291727452824,2.1114283325336376,2.070334373049701,1.9488079920046075,2.1133172514665413,2.1470844653683927,2.1879201030981887,2.3069162037014435,1.9745256953047257,2.164752851827621,2.1146009763742497,2.1335937155303295,2.081110334104146,2.082546750743243,1.8641138755851612,2.0362648783490584,1.9109130374676122,1.8521441356470165,1.9691573615142366,2.088807819115885,2.13057191449589,1.9660432704582078,2.156388890615786,2.158151916954347,2.3462429439308647,1.9729688551023337,1.8566008968446241,1.9440903049019367
2.1384938081373077,1.9863007390102436,2.154692228901291,2.0039707929835173,1.8142663744261096,2.1395260672900016,2.0161896584146386,1.9955258418150874,2.093345314063062,2.076757914989784,2.1949644716009233,1.9997141418816882,1.9847082590151786,1.8407757947033772,1.9709059173954466,2.13456855463428,2.0865908233524326,2.170322625416635,1.9374468770212776,2.165372257947563,2.0064480281913024,1.869881447604378,2.105285108335528,2.110038682457797,2.0870698141036828,1.8735505557585108,2.057948365278895,2.2193065654197355,2.1236620055206394,1.965319129663287,1.9455803251223527,2.0166306085999564
2.0042291143903364,2.0500772048167506,2.0549398889435095,2.0626271404717804,1.7910005765594084,2.075313251398892,2.1828696632522444,2.101845516907182,2.0146461639018614,1.9738276346503525,2.0502101451038066,1.8857544918218987,1.916080656543381,1.8652810440329717,1.9742955884047761,2.1218965785968456,2.1762511186944695,2.191311648024274,1.8479067720937739,2.042636725856723,1.8641390429811873,2.000240417840071,1.903868666139052,2.028978563184339,2.022666228697368,1.9706305293573319,2.0554676929220244,2.2583676385848883,2.099386128325702,2.0537030087002233,2.059872697187914,2.26362781246324
2.1401299865273824,2.0569527253353437,2.096923703288209,2.027615151710789,1.9611773864244098,2.0882941619119615,2.1830736866028433,1.8013373768690353,1.89500099799098,1.8969382475056245,2.2260118984849244,1.8700474475712623,1.943034266714838,1.953102366210039,1.9807865722784905,1.9975200498515182,1.9943469834459724,2.2378822181355824,2.063254890803561,2.1479747551117003,2.0996295995548264,2.0784124427063655,2.108306278707289,2.1675455579552816,2.308880820689134,2.0268163675922066,2.19670257533213,2.1209066016548306,2.383684165766198,1.8939295922649726,1.8954762388787123,1.8816750538993054
2.1198333966661624,2.048845596932211,2.018335448032649,2.0352900893678862,1.7477707443909516,2.136228922549541,2.1833208573985114,1.8854829177013834,2.0720639701226067,2.07040213761148,2.0247782924530133,2.0303664344067687,2.042218746460194,2.0331820432814394,2.001210772782043,2.1168285321237352,2.158132690646478,2.3197509468151862,2.100771707915825,2.118753923596184,2.1458569192130543,2.0451976300614683,2.1511925418555617,2.018057128599055,2.003565170266836,2.042885387117205,2.1423927576109323,2.0508911699908765,2.3940564243611706,1.9367281224018602,2.02397384423516,2.030838756736363
1.899045412687912,2.0441578661223785,2.033856683394941,2.091187050741678,1.9762378342033773,1.9596756208804593,2.0324201596056715,2.03818894712313,1.8346569096362266,2.191824498794892,2.1918492360592063,1.8768277682278978,1.770703926245946,1.8188879023788194,1.8362849202592904,1.88159880451041,1.9234040675354676,1.8945223046240907,1.8489915357555033,2.1072217521211245,2.1931022141562275,1.8173984177330593,2.030765849721156,2.2377972131901256,2.025461142051116,2.063491615718629,2.008593513596179,2.115735126843469,2.1374807681091723,2.010152813486571,1.9454062752649415,2.1767333079348092
2.0965031861218315,2.082209059518825,2.046438154607948,2.0959254084839953,1.7828354081259967,2.1933012605244757,2.0358398993471596,2.2142462154845965,1.9730077898214626,2.0151788020684633,2.0349066164714014,2.078915854304641,2.0862225157750394,2.0504084402908953,2.017964893189587,2.001274061917398,2.045821534118745,2.191722430687948,1.96143349842631,1.993431050621958,1.9963098414319402,2.0738324927060305,1.9690209551345124,2.074388848619619,2.157858843373683,1.9288169201704743,1.905082393331158,2.1692631652433905,2.3810782634479484,2.0783722916687495,1.9321297479843802,1.960082007956968
2.165879394894774,2.0794744209237774,1.9773388690204314,2.012957772106918,1.8847064034702976,1.9962761372290625,2.1956758059926336,2.16539786919011,2.133897442347913,2.1468760971091267,2.180426784388468,1.9105170913331566,2.0414473226268592,1.8746389303215614,1.9285934643382376,2.0481062401279106,2.083641717922253,2.114336185804281,1.89576185673474,1.927392721658155,1.9074091465495573,1.9737245184051715,1.908935516815044,2.1643554761635992,2.0333515883181197,1.9099469701045144,1.997556689323299,2.0381377466221595,2.405462003156808,1.9505234965129914,2.0858267710787324,2.16428913686539
2.0846576458602866,2.00835062859155,1.9346598867244942,1.941495687371682,1.9279776544937726,1.9434722148472376,2.026382827091057,2.07528875345871,2.1100754124089054,2.0690328585351025,1.9526253794460906,2.014853982344593,2.011144268696506,1.9063835149030681,1.9059563172316791,2.0009837290410313,2.1137942424546132,2.029380359673491,2.0814078030291006,2.1095167578938696,2.191776326290858,2.1165318750009847,2.2169483444845626,2.162518172528818,2.148123424073522,1.8170626725598125,2.0790893761408493,2.154187486063313,2.4460649910784777,1.9826038755377475,2.065634167033913,2.0785901696586
2.018416716943349,2.180275716615837,1.7529617526916044,1.8247112852834786,1.9654540499982385,1.97246508193458,1.8609455727236037,2.1649553346850388,2.11477209052217,2.0177344544049367,1.8739229307216896,1.9807638181506633,1.9548390056774312,1.8252806727862436,1.7863114853603081,1.8326231271924467,1.9012237210828336,1.9548472819497575,1.8636688806573705,1.8008900358491189,1.8113860763421408,2.021523501953905,1.9796027740007618,1.9507578217983423,1.9588272991902949,1.8936554861083248,2.1856474415756497,2.013407075290413,1.9993506071097764,1.7254669914400962,1.9725868427786162,2.0676923966955534
2.1495222236998712,2.1901486536451604,2.0212345004773216,2.245407844637443,1.976243808970045,1.9958928322778473,2.002501222988122,2.1075182802269805,2.087692953242694,1.9485360896605262,2.0461518545963555,1.9766528169358857,2.062968314170909,1.8754182960509955,1.8805400904689236,1.9332706949206007,2.0128278362112018,2.0387745296243103,1.8211660132823868,1.8820793213366527,1.784750313576016,1.9034372743207728,1.9288176396346925,1.8854503880820057,2.015059143248119,2.021992442766893,2.2506633179810422,2.1645345554767434,2.260997355597251,1.9113995578280591,2.023284372451736,2.041926403479556
1.8490995258947445,1.8526057457193381,1.8299756426364329,1.8171530007351513,1.738156197958447,1.8482283438868028,2.1296591634528705,2.1851917455507484,1.7888256198631836,1.9407823011175298,1.9540391181261203,1.793409529634126,1.755483640293117,1.728259823636172,1.7763201077665978,1.8904127281614251,1.913510506164869,1.9012326797110992,1.7679306267747736,1.9689558713773085,1.8957245372918978,1.8877807084379679,2.138774025272331,2.060202147475416,1.8454752799883904,1.9276361303335872,1.9214115783001873,2.0026681108913147,1.8925370022951475,1.7245584537326055,1.7655358316682417,2.1334815035064887
1.8182150965663457,1.8443794692837854,1.7560306863009807,1.8703393442347556,2.0079365255937853,1.7744433037377596,2.010184572662616,2.0579491726577173,1.7159398705321223,2.041571152544225,2.1701480945086074,1.8921868784359754,1.731719037916731,1.829818047458027,1.9335952523364237,1.9858876238918326,1.9036254542475275,1.8709154076275,1.8117788700630175,2.032392509867025,1.9633712280825704,1.8589087433192713,2.161032967174136,1.93264581587442,1.8294931100309733,1.9737186584620763,1.936181882576056,1.9186188183265338,2.0456351098941994,1.6984075655386754,1.808508574824912,2.0841687718067576
2.063721057520127,2.1776244736306007,1.887667375492474,2.291660860007179,2.010978974536254,2.0414750317597496,2.0009468827855343,2.065753981839068,1.93701777652115,2.121356950804384,2.166618789163396,1.9492058269027492,1.9068714202010506,1.8092503042870354,1.7636185966674915,1.7788412896046035,1.8255026804176808,1.872728749364624,1.9289218966786985,2.04616157794497,1.8962062200270353,2.068397969832734,1.921746004515834,2.213340921011182,2.194654769389802,2.3537924101453473,2.138235987549598,2.141986118441551,2.3265924863300143,1.9966318069510691,2.066487022269954,2.057680982752693
2.197673523204097,2.2630395231842035,1.9832576637479817,2.3055991152209216,1.8590360199926645,2.090713194908882,2.0714539131460192,2.2139151003194093,1.8904946373218507,2.02176776843063,2.1451837495417223,1.870212993489785,1.7656470353696747,1.7425130167439637,1.7078620084307683,1.7171599215862257,1.7970111198469652,1.7413226375013275,1.827795476880355,2.015612822960626,2.0506372190251443,1.9063907356782865,2.0170357775374925,1.9809980046740832,2.1537322984284493,2.036624171342953,2.1232744067450113,2.1480825649704407,2.1121976943066416,2.0191854187948963,1.874385126664254,2.213797081452201
2.2548508970105567,2.4109520610545583,1.8959562357401432,2.117259529551628,1.9501189164783868,2.147967035633165,2.0480946984471,2.238759850474322,1.7064802143299784,2.0524755228656946,1.9562946911997554,1.843992558430908,1.6425513585187816,1.725960030640155,1.7773624743400842,1.7766735137283118,1.7820696293146034,1.7011392423211187,1.6533969379106814,1.7102869245847716,1.6771469873691827,1.639151672850707,1.7640808771766803,1.8409723166920382,2.138030373759929,2.160430231239649,2.30554560413554,2.0449022725944204,2.234610944651925,2.101190119921147,2.0974278568478164,2.0617963663173913
2.3161590992745933,2.3061395341586612,1.9764803354122455,2.291665218647791,1.9552296493585726,2.0818044852220963,2.067004978635843,2.0847169034550728,1.9956242639558794,2.070055081944902,1.943022904702163,1.9139317175650834,1.8959099101275616,1.827473677353938,1.8252719453771618,1.83630751204986,1.8769838779321926,1.8721455694067606,2.0452584300581305,2.0938263214851176,2.102642053788811,2.0393797308667776,2.160281031402068,2.1730316827445604,1.8371601462022173,2.332008757299448,2.382385050879838,2.0742507153631355,2.0222752704700344,2.066423371369581,2.1692528415177565,2.163579150027777
2.2369744639594424,2.32595763340169,2.196055546034941,2.0743335612556995,2.032065425139121,2.2360363535048653,2.025372163070636,2.287182357430673,1.8633935413063303,1.9212615392493086,2.201114239583672,2.014311883055916,2.015058825193567,2.1122903686870576,2.200935896994432,2.0044902337771378,1.9710541186897297,1.8916230513261534,1.9601397670538219,1.9972896856223419,1.838136333476627,1.8010597217243403,1.9790413630205637,1.9003177465458447,2.1457935166274127,2.3265275416027102,2.4359016688432042,2.1057283932888295,1.9634451232510972,2.043546120729436,2.2001594030729175,2.0504998638912375
2.075107112600747,2.3933446787250316,2.2710837126280565,2.236201011359945,2.004254069547394,2.163008847136887,2.082508271992184,2.241082366314189,1.9334281250563805,2.0200456068002977,2.1067242278419576,2.050379088355088,2.0100981078177087,2.15335255819612,2.1062369269563073,2.0470419869824594,2.116347694500352,2.045783247486311,2.156017918591756,2.132026491209489,2.0919786792594888,1.9679912000377617,2.093555798379148,2.075958844552613,1.8107839054571573,2.1489025730013256,1.974480801243391,2.197161295750772,2.4784762081947487,2.163167237805011,2.018767775158674,2.21549295939539
2.049423760277618,2.352899422205813,1.9179874812155095,2.165651615345666,2.0453572025843845,1.8564365452746494,1.826611500886687,1.8790192684315328,2.1062850520740026,1.9177999045683343,1.984367546086612,1.872208166383699,1.9673721069920473,2.1936358409430756,2.04131231426438,2.013267903451214,2.111172047380797,1.9203370791704428,1.9268602529737808,2.2905459083748743,2.017047842239799,1.8065456728353313,1.9388405449917379,2.1756352410458573,2.077061751288861,2.074533657480687,2.300199677768746,1.8512382806979149,2.3666839631269063,2.3619518703382316,2.159639539610207,1.998058847983123
1.8754489686681586,2.1212490727527356,1.8285311218741425,1.8889967153056577,2.1278818420056145,1.8552806349120412,2.1935571299509604,1.9314988232749009,2.1660795827432233,1.9652007991212805,2.0377317824042955,2.0544488181429217,1.9625106836130042,2.097472392354849,2.153603868774371,2.0134801614158118,2.1393411195310965,1.9423934297085845,2.142855391740838,2.1969631362866107,2.2217960313538607,2.037319743604358,2.2378224560899502,2.2682534018364886,2.2966470026514854,2.0939946635715616,2.3611908543904265,2.101337130630376,2.333040152866834,2.3881903152177553,2.2158797789430946,2.2610670457486686
1.827723591971621,2.2288064991889462,2.0924110596947125,1.8913449930944994,1.903612484087868,1.8676229886423428,1.8381922476144998,1.9691816342011956,2.193658694490586,1.933044480251292,1.9124855864517014,2.2527699402592964,1.9497587793603042,1.9910481244173648,1.9954676864454173,2.0807934149551133,2.0228160291105732,1.8850349316740231,2.0513685138134865,2.1108725379954087,2.042717148867362,1.8905109464125964,2.016468358553404,2.071311905993719,1.9283539807866168,1.7691979128208024,1.9752929268733308,1.9337121141890674,2.2989659713607855,1.9776667172565905,1.7551233022868622,1.9275645925950147
2.1810399018381106,2.495325183979716,2.114316246908572,2.0968817482529793,2.0629037792882974,2.2532576160906896,2.180256183880915,2.0061713685795524,2.2095877515930926,2.1171404507841456,2.1689641849632957,2.1750231622587264,2.0840728839381053,2.1329451383998683,2.082861148022381,1.9553283887994206,2.072057964721662,2.0137000573884594,2.1182194356595065,2.310676732774377,2.099677311155099,1.885713947593947,2.252318651557758,2.2914859987987946,2.146001334131421,2.3519545014465897,2.6562861314751993,2.251376672490046,2.392666891534416,2.607883399653992,1.9844514421414283,1.968109825618679
2.2063463329830673,2.4286816466721275,2.181490126327035,2.2093790642763795,2.1149565386200395,1.9659406268888255,1.9038862218427206,1.9852033928671171,2.0228659092952386,1.9309602040356166,2.07715245578203,2.2106530231125543,2.1101519028794047,2.196502249388588,2.0217103956144675,1.8708590410146069,1.911493523924918,2.0661557787652343,1.9356962324757052,1.9326281500136497,2.0839939812734087,1.8959550866163684,2.0197122455492327,2.0185314695851466,1.887387554240866,1.8550872449765408,2.208812555192587,2.2358875291326985,2.548716473541599,2.1076884393467266,1.9601532864212197,1.7256109723367001
