Fp1,AF3,F7,F3,FC1,FC5,T7,C3,CP1,CP5,P7,P3,Pz,PO3,O1,Oz,O2,PO4,P4,P8,CP6,CP2,C4,T8,FC6,FC2,F4,F8,AF4,Fp2,Fz,Cz
0.46661573814127427,0.46142376330487267,0.41579172302506456,0.447119429759538,0.3376552304111157,0.45003106486490546,0.42483792195799547,0.30398034593630513,0.40024201159871586,0.45398225982634494,0.4240706340445979,0.24109626434220519,0.42050146606048106,0.4340632658848449,0.45946613226929184,0.4384467144869058,0.420193671871327,0.3675360842934639,0.41528533415847285,0.48955381577453694,0.48699739693664573,0.3865208450855281,0.451918648363324,0.5136311367074268,0.47075750414232015,0.449916526451213,0.43151644953386964,0.4327661576881194,0.5118490222713795,0.394384915712876,0.37746367449885354,0.44699465412721545
0.4525659561867988,0.4713454884527937,0.4002669944025313,0.43250375062386825,0.32662249284396466,0.45407777407138844,0.4246158516285565,0.3296824178553086,0.392267354302629,0.42984565810635755,0.4279235739101846,0.3260865122423478,0.4288836831010867,0.4263851918484219,0.4712850300286979,0.473687026309934,0.45764386097901816,0.39137716806377243,0.4630792837510689,0.4946239343654671,0.5062698147799909,0.455734230186883,0.46585303889934787,0.5115533409885822,0.4858823425629417,0.434256770072148,0.4588257273310964,0.4187904461480906,0.49849683854625537,0.42919513116665386,0.3893770792728076,0.43112928452460597
0.4639139899954447,0.5080351476947647,0.4313395309982692,0.4520683534498283,0.3890735530452288,0.48502446688755985,0.44469550913648703,0.30220828478842665,0.4190496883307019,0.44739155584722246,0.45211898709783155,0.4207283397565562,0.41103081274521075,0.4107451030287285,0.45007501582044035,0.4738485842471088,0.45812026401056655,0.38419720954441655,0.428815334658508,0.4914673305854746,0.4791811668885979,0.42943330105524485,0.4719703583506351,0.5094496595877819,0.5131297158386512,0.45743957539030794,0.4913831139733757,0.464045313891094,0.4774593113887288,0.4708118114941688,0.40283303907949103,0.3994160470539101
0.411826271703503,0.5081325650026337,0.44169080077716844,0.44698383280787685,0.39719748669170235,0.47733637614073665,0.4728601252994446,0.2984776030002264,0.40737609905929123,0.4579964989071795,0.48534567377351423,0.4263148776866003,0.4281501372726928,0.42797776264635473,0.45489123069599624,0.4779879944176949,0.46021504650798767,0.3965398924747345,0.42585865647355015,0.4864561754135664,0.4469209138509656,0.3955681076422006,0.42793064002076503,0.49459376451569653,0.44685448249039456,0.3635792965955203,0.40306600047737867,0.3563215161647972,0.3976707470643583,0.347652645684951,0.3687759780376571,0.4121983031147178
0.36601504564697,0.48346234165409874,0.3547844065187638,0.44170513500917047,0.38547430385653497,0.4295105923670964,0.4474281093136792,0.3765268797079234,0.40667178178456476,0.46167722718123205,0.4716331223552871,0.4485192961410357,0.4123011736872972,0.4502092781856191,0.45840662637723,0.4545720989703995,0.42533845239289325,0.3673492891455742,0.40179997035342935,0.4354614106653512,0.4019643598410394,0.35044165428455637,0.35283182529301527,0.4411582385977582,0.3503692344954072,0.32629493678838656,0.3204695236428703,0.25461808363494853,0.32282705851800847,0.2509633412517967,0.32457896034104483,0.3504184599971269
0.4112151801712523,0.495532365103411,0.36071734002086686,0.4454416647416843,0.4239687794573391,0.4570714519363578,0.43388146355294765,0.41730282345587394,0.4253826435994688,0.4586168173552385,0.4552551792668331,0.43809940990920554,0.38291705488932587,0.4438878772130181,0.4690570118883356,0.45680693667437905,0.4270786680046507,0.36434749571619307,0.38881817846627487,0.41448364406859856,0.39867327999631863,0.37585002751024704,0.3832405137380511,0.44410893587893197,0.372711524475665,0.39190967776880326,0.3503695956202154,0.2922255128849006,0.3462042522739847,0.29359551366539915,0.36516532117961614,0.35008081501349175
0.510660535185321,0.522266434400757,0.44990782455699346,0.4948733057494038,0.4674249415060216,0.5324221434492858,0.4708390898243394,0.426566141550184,0.4121967083097754,0.4595899009907117,0.4749263658077792,0.4158895869274971,0.38924157475918697,0.4015139443842002,0.4387307108524678,0.4608848070418547,0.452906246046192,0.40303419165040233,0.4173367528446888,0.4562012108244884,0.4505021112092534,0.4467884585451882,0.4600930067607847,0.5062722283639987,0.48927517581818153,0.4737900449594928,0.45616076948759726,0.4417149399573579,0.4742014785860707,0.45055755399185454,0.46301867688733883,0.4310124148630156
0.48617757535277445,0.4975940518718426,0.507064310094432,0.5021459092639632,0.39215725157522313,0.5460740806292679,0.5045573409021099,0.4395794737423399,0.3738990737700046,0.4599873045905186,0.47523429863092603,0.40286047989071383,0.3897373355254872,0.3600115625615042,0.39083143415248683,0.43282825697352517,0.44080534876364047,0.37996737024954386,0.43218078842653157,0.4715605149522456,0.4817769248637865,0.4413525511494186,0.4774221343291867,0.5203112336552655,0.48724805280723044,0.43571961023452244,0.432475151713916,0.43230598985220636,0.47154373210989287,0.41958436494626916,0.4263520587886651,0.41458144812686454
0.47081711374223406,0.45318761341499353,0.40885707876497657,0.4559478810091252,0.38206264711062793,0.4797133156878662,0.42776519433016635,0.4043747577693414,0.4064500587133441,0.4407603917105227,0.44181741520638407,0.4150555200300191,0.3960805018706274,0.38580860728548116,0.39808793844901563,0.41432190481535736,0.41913722372324647,0.37636993830743143,0.4081790978558716,0.45595542876587825,0.4675264309595889,0.39690460694097673,0.45952807322609024,0.5115237699812935,0.3977442665005994,0.4145216025421111,0.4504952287757718,0.43981847209062275,0.47231010775028914,0.4419877679651468,0.4303747261974069,0.3941764848498956
0.4768541603330748,0.47540287578735524,0.38646362733246853,0.47126377081472764,0.40642338962742663,0.458545770231511,0.4116616700122576,0.4040517515872159,0.4090114475250216,0.44305440156984277,0.4436702329726743,0.4326580058359935,0.40882667417321755,0.41755171874816527,0.4235176326247516,0.4278148719894846,0.42532263009665633,0.3923922586190074,0.41518687688861317,0.46926259187491015,0.46851365477158546,0.3940296806058141,0.4440935131293611,0.5137811489673579,0.3684888964716332,0.4039386913254936,0.4709180276316835,0.48626042495121025,0.46786996429414757,0.47883482176050707,0.4280848118499613,0.43359736889595696
0.487136094939254,0.5183593264100665,0.4526584033836372,0.5040349832461986,0.4154733290365365,0.5202583502146745,0.4573598276086127,0.38865347657190225,0.35471995068417805,0.4304163559087082,0.4537512588024801,0.4218744891428163,0.39569016823311876,0.4029853545331067,0.43523427103299916,0.4440172345995941,0.436195565281371,0.4070650653806054,0.42595743911935496,0.489607462483067,0.4812713737230004,0.4339352838942571,0.46811554999028837,0.5284022437383277,0.475696521310135,0.4245334134435551,0.4711991286493838,0.4767423299583779,0.4763288346888142,0.45337798475546665,0.4160645018233597,0.4421632579320687
0.4595183600453074,0.5138885760773394,0.47012626520785045,0.4849494651845345,0.4342045985397587,0.5305643444157578,0.4882423635119297,0.4012847787119614,0.39898843115808885,0.4624407732163806,0.4755379697463051,0.43097211928210893,0.4063021784450282,0.41113654551708184,0.42149652743760413,0.4355673168437956,0.43316672997376665,0.4136616210833792,0.41959884411027926,0.4680042698582076,0.4520373874228764,0.41650712214787783,0.44678729859766364,0.49501751634275515,0.4828313761461295,0.4274689871609078,0.46092573749408133,0.3948344751022544,0.47219498017798844,0.42125496167737386,0.4304608306249287,0.4293160235692158
0.4109657442282167,0.46957160490082284,0.45471511088041,0.4160973559847139,0.3859095242483317,0.5018951839080835,0.489936884339423,0.4016446404866016,0.37531945956167784,0.48829103812509556,0.4869741032096349,0.43153978451881836,0.38037801811133565,0.4038346103787296,0.41649625120777306,0.4368677817611294,0.4238257837670419,0.3862169914825039,0.43025294141362375,0.4679059778607564,0.44115200428114826,0.3874444997797287,0.4265867472396178,0.4776201972032788,0.4640979167325261,0.4095324704846098,0.4507340169733641,0.3810934412423981,0.46299902202747595,0.3885391005923927,0.41269886643283293,0.41215869903442176
0.407575201826424,0.4518589028776863,0.4599669081486578,0.41521083077075355,0.3515327688039834,0.46336600516796983,0.48051313612772306,0.3660978617030699,0.33346271990003545,0.4752396602782925,0.4903722404108565,0.4221726296372283,0.3749968202000667,0.4205743543368627,0.4583462441214736,0.4718265775651144,0.4406225459199399,0.39286391315110863,0.4230846517113963,0.4799853804106745,0.456243930861177,0.4000278300549871,0.4469232514330737,0.48564776685154787,0.4832319318573103,0.4086422118486502,0.4578196089491327,0.40825900166156226,0.4593153455044978,0.3950687653691107,0.38133848343283727,0.41134862738282557
0.4376530850224895,0.4593815688540858,0.46861918941642633,0.45296355876912064,0.37061390197163246,0.49072666159125483,0.4856765227052405,0.35684588931691624,0.37207049445112683,0.48987444938418045,0.5115408426032818,0.43444805541693593,0.4222409327957086,0.46361865367590543,0.4988639584702768,0.4991596694849869,0.47985298735250315,0.42599731872200747,0.44117849533001186,0.4974698765577875,0.4819562925610075,0.4393074665121102,0.45797146711574205,0.5079229513963294,0.5024446126645862,0.43403475611700154,0.4745151042230202,0.43428461574763216,0.47445291462342515,0.4642470264435072,0.3827365419665891,0.41147053137520795
0.4748554564534882,0.48890287657169595,0.4765177643857589,0.4791504362784249,0.4169387967156357,0.5246051875025424,0.48895160489029427,0.37490763009551753,0.399585283119997,0.5063576785779081,0.4948502794411302,0.4431604449788122,0.43118323215487236,0.4616079557388748,0.4894819344837539,0.464796206615611,0.4485093095187899,0.39527066900494556,0.44434204889556994,0.48524758938034823,0.4720900175984765,0.4698300585275013,0.45643564682768983,0.5045646009373582,0.48818274738623607,0.4411411914766158,0.4638964047572569,0.4302162999553815,0.4754178626954181,0.4531457496877496,0.4136058253611302,0.42619211617111663
0.4732147756149781,0.4867719468925257,0.4602632531754161,0.4778474859427075,0.417242742922958,0.5126574867947034,0.504064808102277,0.4189540506006646,0.3902985397326783,0.48906212160597334,0.48598767337159704,0.4078109048236652,0.379475871521615,0.40033275262614737,0.4335818060921739,0.4269395581935912,0.419087034596485,0.3708300048900967,0.4032647817313763,0.4347762239324844,0.4248315592248203,0.40976069349033883,0.4180425341728437,0.45552459876169593,0.4615888407077748,0.4137792331190713,0.44356096219957863,0.4012455362974313,0.4867990407251502,0.4244154311826471,0.4157746830547049,0.4268008713615966
0.45695461962225675,0.45634236100436437,0.4253720163039923,0.43116577642612547,0.35035454313297343,0.4942754427504677,0.4719708029569058,0.4032216574758298,0.36103447512294473,0.44054294039854575,0.46206139338070024,0.3872627061289617,0.3848123261275851,0.3867125376975603,0.42128794189889884,0.4287932720008007,0.42760797031812364,0.3739221112479013,0.4121049094134522,0.45541785122130446,0.44519691124052324,0.4065244592343214,0.43152337254952644,0.4973491851941495,0.4694604277560341,0.40591401326724796,0.4398460388598301,0.4227071608847032,0.4932952470400034,0.4485876822903458,0.3856437423858682,0.40943547136682196
0.45836283737452027,0.45950596222916995,0.46487326215552616,0.42328077112389695,0.3399314701157126,0.5108616707050293,0.4321858455858795,0.37527740362722617,0.34068938641378493,0.4297803688168395,0.46348100049898555,0.3988751864511158,0.41071175868035803,0.4138989631599922,0.44895501898808204,0.44765888865233994,0.43538706205066385,0.3998666564799705,0.4228765667603784,0.4505298539355492,0.44562203992725963,0.43160854338571636,0.44090853650200507,0.5010646070693039,0.4818284492218489,0.44417944715797614,0.4613240049601481,0.4241199498378352,0.46391407817083596,0.4421375304760569,0.40267150351117437,0.42710474697010226
0.4608664470459114,0.45897656336691395,0.4951310743632369,0.4547328325792739,0.3934129223573961,0.526140048873696,0.3995179489726755,0.3597131966065425,0.3201523660373109,0.4274306102787588,0.4549472855304647,0.3638423255924142,0.34407584704639843,0.37847897059405816,0.4113996215712974,0.4088500997372444,0.37930598348682487,0.3838793139423871,0.3765862800380123,0.4270057706693479,0.421188403256895,0.41999157019103883,0.40531265763502716,0.4753156360949125,0.4675945769733524,0.4267378328190429,0.4419833509089548,0.40791620637688814,0.4467210125184948,0.43234370437203223,0.415655547116941,0.4198827781295563
0.4710966533027931,0.5061085716853989,0.523064190002188,0.46962056381291933,0.4245697180567118,0.5291313976871879,0.431930354544431,0.41386216520792657,0.3545200721443094,0.4479196531633392,0.43464481426260704,0.38679632889049703,0.3677102522678366,0.3890336439574063,0.4028687097419826,0.3860551060840101,0.3743862177633205,0.3832325927473367,0.3965878376386356,0.46478336499555156,0.4490279047021937,0.4126818421839815,0.41063963848108853,0.5196612013286922,0.4926735530315363,0.41557116880965234,0.4502791623048408,0.4729826749562155,0.5071359929326629,0.4863283576994115,0.43046041340670405,0.44250425347427347
0.48734878747891586,0.5168061263010477,0.5129441372212638,0.4824661271209864,0.4090613247862321,0.5413288605104258,0.4604093682507117,0.45476808097182014,0.4193783546975471,0.4810411444841847,0.46610294514781087,0.44216927633169334,0.4418270114235455,0.44298080237419873,0.458051236881669,0.44281970862368475,0.4380284296427831,0.42961948433782304,0.46540297768380834,0.5094049994796505,0.492204265796016,0.42977127918661473,0.4389284009334501,0.5488994799886178,0.5402888265297993,0.44577698267878957,0.4979482899762815,0.5177558007138989,0.5514438951869273,0.5325852409593507,0.4466013307803168,0.46360401523098954
0.45508751452976887,0.4734027260978876,0.4242946570073384,0.4395835752393111,0.36438764460725875,0.4890587059934416,0.45797086871799797,0.4337617100217058,0.425069996268858,0.4712063810969979,0.46367406228752367,0.4220751103214558,0.40478791702524997,0.40701330173075545,0.4328007279779101,0.4462666950827333,0.4384793551329191,0.4106486467378494,0.4387902185844234,0.499326928146995,0.4867033731260423,0.4298099921431961,0.4333075518362785,0.5258662458729427,0.5155238775846682,0.434545152030939,0.4695676107547005,0.49685744168950435,0.5308801766640994,0.4993860731873119,0.40982149877011964,0.4468400311461775
0.4686302384448466,0.4763069349688835,0.44149053071759525,0.441208165775952,0.36663101922403435,0.45858969046033876,0.48172035269039887,0.4406472517692287,0.4084585394357704,0.45213784933874634,0.46066961952591245,0.4069610618556361,0.39623641367209306,0.3910882225823749,0.4177004478710803,0.45940151497718157,0.4479307527794941,0.39093230275205804,0.41635706894634567,0.4756910829473468,0.4723582212810227,0.4157566524352256,0.44100146818881697,0.5156253825794547,0.49434792527758525,0.44032564031392785,0.468575824796644,0.48749288756674297,0.5221682741605467,0.4705195602930469,0.40813483706440884,0.4147281941571825
0.5117731735524134,0.48478124511956744,0.4773583419827531,0.5084229574837298,0.4163869992417472,0.4960562027726699,0.47106119492040227,0.4167896750007903,0.4008375086632155,0.45631665154692985,0.45182120811118986,0.42186997852434677,0.41034149271551357,0.39681497945075767,0.41027214548120666,0.4463772675942995,0.425519319269704,0.3709784278956732,0.4107568871010061,0.439563628806683,0.45618660757145524,0.4106848416567587,0.4322124048009949,0.49826707720048286,0.4577796683598112,0.4335584856975424,0.4758442030212672,0.456675870253249,0.49781618662309235,0.4693339312766084,0.42708044860703887,0.388440257617157
0.4625471269913481,0.4416677384429699,0.4103813283358331,0.43238201440440716,0.33172575199266613,0.43440210371686877,0.4207212696745192,0.37608608370135876,0.39103027062669954,0.4447556600650999,0.44653364948928265,0.38776315383348625,0.37943847487387844,0.35671989918011976,0.3703315920218968,0.36756620645518323,0.3419438719434995,0.3302534947011532,0.37003365378777736,0.4143391834524094,0.4343083054433543,0.3894631543517405,0.43249891803593193,0.4906293668016229,0.44332113834508297,0.3999630285590493,0.46279521172947824,0.4555106521264597,0.46100701225445156,0.4466838277408411,0.3613525083221075,0.37849409372739734
0.4347844602578012,0.4378759846379794,0.42358604360734337,0.40996358833017965,0.3124703953328828,0.42935627196226916,0.42996704170417344,0.41199671919181174,0.37584011005848744,0.43529403540308714,0.4662268122556022,0.3831427188750851,0.3820542931658458,0.36284872861395906,0.38191752899196674,0.3755001637158358,0.3441390714837436,0.33840792938586184,0.3669104698287987,0.4271684050693315,0.4382884137144267,0.3808417007377526,0.43795806327509773,0.4988887208536364,0.4532453790529557,0.39685512948153756,0.46081298736937276,0.44302739661185964,0.44527128321890547,0.44338833571464803,0.3495690849907211,0.39714123019440845
0.46986452047479654,0.4891443881715278,0.48431959798050617,0.4737624233980489,0.34191697583868985,0.5054474002178336,0.43305947546686224,0.42206960806552407,0.3334787650215203,0.4322671818959179,0.4422241642247716,0.3836860411673216,0.373719221195419,0.3748747678629374,0.41128367674844235,0.4185287688663166,0.4013243499204229,0.358846665148574,0.39357305913828405,0.4381173380096634,0.4532338570138268,0.39315764558353294,0.4435970502678208,0.5032005284133305,0.4424163077587358,0.4201745544284287,0.45959282829640613,0.43705644600205484,0.4648884033690414,0.473591958547514,0.3748042573229358,0.43325579644736545
0.4928803202422958,0.5133076699380048,0.49541358539970926,0.4817187297606357,0.35728178223494367,0.528279070753821,0.4376591682060364,0.43689870341526893,0.2953254641031555,0.4445950088504481,0.47036177811596486,0.36726173503844584,0.36908407054989084,0.38839696374473975,0.4312521386031719,0.4308748967219455,0.42344647160469717,0.3540720593309702,0.4044572305574381,0.4388218108536488,0.4629174305418211,0.42792572617329944,0.4635946430902384,0.5003369550938666,0.45403425138318215,0.4388743741373695,0.4744835054994857,0.48327192409425807,0.511604464347738,0.4883911799195331,0.3962695774481387,0.42047107054135696
0.46521878328124366,0.4852879758027729,0.4564075093958476,0.43530898592565004,0.3768532170390064,0.523270443234956,0.4636537937273125,0.48361025067208924,0.3398142598713332,0.4905747251395941,0.5002067979278774,0.38428914400575387,0.4277013147944773,0.43531412762762917,0.45945238675231553,0.4517926770408936,0.4358706927159451,0.41119064905099006,0.45811546448254165,0.4860797043504625,0.4987706377562204,0.43558328043615074,0.46380488010717125,0.5094083626239996,0.4896500634467971,0.4891585846829439,0.506055298944919,0.4866995968470612,0.4967444275614411,0.47616946653617376,0.43881227270553547,0.42976069383883625
0.4847737681530411,0.46580331213385173,0.40656239081993223,0.4453941169956891,0.38242006741342244,0.47267993762433314,0.4393808574759663,0.4401560094366974,0.40508719168998497,0.4479053913022431,0.4509862637815509,0.3955475926697413,0.4284461917609202,0.41487990499089045,0.43720556701691715,0.4341371986274386,0.4185828043242219,0.4077480589608461,0.44651093727642877,0.47774725370973453,0.4878866289506451,0.4061628007782124,0.4622675499655517,0.5014552247247696,0.48809622853409435,0.4727096316057308,0.4946504438145378,0.469516481683733,0.47607742069097,0.4788117093535879,0.44161807557789934,0.41105274364160205
0.4620228970247537,0.44732140371953155,0.40773001823434396,0.4308342562601995,0.3673853815046174,0.443733335735709,0.39964290927075924,0.4208615062338174,0.4045334162494544,0.4003081785584611,0.4361140501109578,0.4035465746257615,0.4074400468859245,0.40688901191850596,0.4173113555762627,0.4216126778503425,0.409940678109733,0.39002037852162924,0.39936409233132475,0.41382896425946475,0.4293063264875912,0.38418868283154217,0.39377148278720775,0.4528773664230521,0.44177228594106843,0.3942114580187658,0.42803977790356845,0.4187460278690232,0.43649161764883776,0.42510745701982844,0.37225328714099404,0.3724024620225968
0.40790069851342436,0.4286850109073959,0.42573186105065014,0.40503199637291365,0.3364917976687154,0.45264952742436243,0.39500603147949653,0.3913385407891391,0.3375680780261037,0.401346052944189,0.43545088678900307,0.37374151175565656,0.3740075707240594,0.3870930712868083,0.40802865879642347,0.4122954782325977,0.3840393916176478,0.37367745176462996,0.38995708136319934,0.3927455145382646,0.40567277725475376,0.39755595101554275,0.39496486899348177,0.43250094064089434,0.4250617330813206,0.3745578711522804,0.3839109931303019,0.36922286018699474,0.40073742784278277,0.35227682699369284,0.3158835780192474,0.39114604460920366
0.422005444314837,0.4393964406008722,0.4652566337076928,0.4304781241589476,0.3389647089745145,0.47174829943004387,0.4466034796762621,0.39924652334727334,0.33166495216500014,0.4308081030741296,0.4633682485590493,0.38066433735001826,0.3600435366817603,0.38544697707144787,0.418283457707806,0.40606054921905155,0.3808413510624073,0.3646684271123091,0.41048504980858896,0.4343205453847584,0.42060345466646076,0.41227370818214504,0.41830961489651797,0.45950677692465824,0.443851118575965,0.3974778634036169,0.41281844082534014,0.39581420820898866,0.43603605396821604,0.38365851406505586,0.35575417996899283,0.42092044160364744
0.4175071038077074,0.4310169949799578,0.4853939372222869,0.42678617149461257,0.3447983353701226,0.4974390505070707,0.47103353990123126,0.4023999727013297,0.34720003182263015,0.4428983080957948,0.4613426435654357,0.40776861306256795,0.3753205471081003,0.4410144498876879,0.4766358744587622,0.4634376610225549,0.4685815065046482,0.41119823578882353,0.46638911179209097,0.48021251346332805,0.46796478563656757,0.43462518073536416,0.4367242099643815,0.48634649841975064,0.46631906165485604,0.3940565782796518,0.43173311079353444,0.43490657705914554,0.4427784672183559,0.42411125408468525,0.37509087080772346,0.4039693429810661
0.4255724234855726,0.4503124367339229,0.47447511183841706,0.4319915707164298,0.36362285575964304,0.4795878959241373,0.44594799168612714,0.35963582671009,0.3384820309522327,0.4157585253162502,0.42516420826389534,0.39561476632007136,0.39267901065195115,0.4317369541061491,0.46275384530572994,0.46102662633125613,0.45499824363831637,0.4176721531792192,0.4262763125167577,0.4544637420111798,0.44714354287581703,0.4069559183242668,0.40378355594600596,0.4731012447358575,0.4463277556345584,0.37863764237624015,0.43502734724866393,0.42673842800991524,0.413686235481385,0.416970685018193,0.3640925524842888,0.36500630228606046
0.45833710280275486,0.4787372977902916,0.43541606756674933,0.43543678000563757,0.3688168071638565,0.4570545715483024,0.3968831852845064,0.36010788063929455,0.3445873403806929,0.39204121129955966,0.4063195017064869,0.3624662832878979,0.3792261209885844,0.3627258881384708,0.3762290247811182,0.39842127496665214,0.3878950123577825,0.37216770315743114,0.3739639074021882,0.40173028652777254,0.40862450018681273,0.38271637766895295,0.3817749966353266,0.44966850860934326,0.41731796535668836,0.38998911652847784,0.4484164997047885,0.41763522062737674,0.4240149165646959,0.4223689527528675,0.3863262045326237,0.36200642497616087
0.4597654716614863,0.4570276035574323,0.4208854867965946,0.4375387444987162,0.391218893938934,0.4669616375116285,0.41850144334433975,0.3838494653391202,0.34515459524937686,0.4358373822879182,0.42641035206413813,0.3739286921650754,0.36921289891487785,0.364608084915471,0.37956834284829544,0.39680569597677773,0.3795222452448727,0.36892517121560464,0.37590969154001663,0.4019111652439829,0.4208716515437982,0.40259566455400614,0.40076389937876444,0.4637298287382253,0.40936805990667713,0.4270716658810723,0.43476890680785024,0.3913323595029763,0.42948400040589313,0.41214930332581323,0.42507960431161035,0.4061380541155324
0.46622630285767297,0.45842058912854405,0.4662591488349532,0.46701146917025615,0.4293724854894272,0.5275340891280095,0.4572531158119042,0.3978900458981858,0.3689525920234138,0.4766694356758958,0.44732996559379407,0.4169677425305297,0.4058247167359295,0.40608094914571596,0.41378977090346925,0.43327415430332766,0.4136223069038815,0.4027295872633882,0.41622146213021777,0.45071527529786626,0.47186490979073203,0.4406971785078684,0.4574937410406264,0.5087241621260618,0.4530012167645732,0.47448949857604183,0.4663432143751972,0.4324445662406629,0.4823762107934206,0.42372968873044925,0.42460348325146724,0.4580611659152818
0.4883617944046363,0.4880706987726691,0.4765450199753175,0.4695039889900053,0.44036362682405117,0.5319779828919973,0.45273855857180945,0.37047593309412963,0.39097896702883395,0.44914898803975906,0.4465719134173311,0.41673801970446406,0.39132736027837917,0.3951979834122175,0.40378170682254977,0.41950617358469994,0.40512340268845276,0.39069603035712425,0.40479001212865207,0.4463604308676125,0.4701973869040775,0.41161864431997763,0.4434458270036488,0.5174981133960203,0.48418309629079503,0.4842135972770899,0.49275972509761407,0.48278353096431403,0.5137608746700568,0.46669470720639333,0.4360678241976363,0.4286063385724267
0.48221760404525527,0.48130864771361725,0.4536880006158099,0.45061212876258067,0.4144340268866209,0.46093740619094586,0.4764980782515161,0.36902245500034925,0.36239459736294066,0.4634278837890219,0.47839482193365207,0.42040785945331033,0.3844113895876256,0.3945068671236991,0.4153490985582078,0.41248218104240836,0.41182997207362787,0.3972163829982947,0.4119897088075551,0.4299228792628644,0.43916719572284646,0.4011789370338969,0.4195290194544773,0.46757565263267015,0.5011522811493153,0.4462430320435587,0.47387541746843964,0.46923883384811443,0.5066832710682617,0.48704611178210105,0.4467023141741886,0.40666975896275026
0.4613990090107976,0.44158756516408865,0.44693473313453014,0.4230239059690222,0.35639645551075866,0.46551927906123575,0.4874127517969222,0.42439207788788536,0.3755121688668355,0.46122399300716305,0.4421799906155341,0.3846476599941989,0.37067096006944633,0.38363988326618226,0.41158112311464246,0.41852641964463255,0.4133507620467807,0.3907097788679213,0.4032229546017057,0.4398477332218269,0.43092275317114526,0.39882729586445476,0.42440159669273514,0.4702691183496368,0.49520945251628484,0.41418151844581425,0.4273340768804547,0.44119961813723124,0.4998417722274257,0.46591835962102773,0.40232234322644683,0.4193235066771631
0.45759817950825155,0.46823818343833057,0.46450464421032556,0.4424755142866962,0.3353940033359137,0.510176729759579,0.4822956403262332,0.42744024290470356,0.3869839240061397,0.4330534036385796,0.4381055479264548,0.37904015743721325,0.37116359034845575,0.3792404253027245,0.40288399113340845,0.4115781836768203,0.4058929945754973,0.37945216984914915,0.3911924532482102,0.4231590230566296,0.4406534803011098,0.3869085141343687,0.44110281189309525,0.4786982693369756,0.4850002636865406,0.42037539421912556,0.430243387939609,0.3951376842963885,0.4896036469684614,0.43034142707927636,0.3892818801011122,0.40506583335524515
0.4670136177876906,0.4869288010775981,0.47743650327287035,0.45537122957228626,0.32861168255184026,0.521758497014024,0.4810207039335065,0.41783545551418555,0.39334812900850535,0.4555116803448173,0.4444488314092642,0.38364670102746723,0.38203186806607364,0.3699437150541467,0.3867408218955229,0.37991530004031715,0.37600116094061636,0.36945060499061505,0.3885103403131434,0.4141123831804116,0.4549983953824743,0.4226534049258858,0.4631547364628961,0.49206957806630025,0.500285068983917,0.4111253637538707,0.452186822444886,0.40907865977715957,0.4750669053792126,0.4260092679903023,0.37729988719151847,0.41936238689973165
0.4655976074326121,0.5009165499604132,0.46183911361692853,0.45955356254012714,0.3527700604538755,0.5149647951389189,0.4589994503702079,0.4128823294236666,0.3535408163890916,0.4284601319886133,0.4162315883410925,0.361189993845989,0.3640855955300301,0.3524269489524018,0.36417207997568807,0.34816668216216634,0.33283623808370594,0.3315429301861342,0.37870570353375793,0.38939705221325605,0.4373449176387886,0.43140944015855265,0.4339114136767184,0.4754524823174746,0.47904797819515005,0.40460087479713724,0.4730474269805103,0.45032510008476473,0.49659672610556843,0.4611771678064749,0.39742851458959877,0.4321399618333891
0.43374963310239506,0.4711174300997298,0.4148968308754549,0.43473556367982025,0.3619732160634482,0.47745176783212595,0.43453467507262183,0.40807488309178763,0.33370282516445027,0.393564024100222,0.41079764461993823,0.3551445102805665,0.36782722275486984,0.3546839690990625,0.3650555459212236,0.3552442905986156,0.33734277261069345,0.34227622694390275,0.3797280832807931,0.39056072599442176,0.4207021859478575,0.39850001485326825,0.41989819833153347,0.47926148807385316,0.4611957939334826,0.40695604856982986,0.44608866504133404,0.4305906293964134,0.4708688915801473,0.4359445382842383,0.3805966951483366,0.39242873867822886
0.4257184105730203,0.4175985713649411,0.38168492836964485,0.4168183398964285,0.3442116947612785,0.44691061643081165,0.4462268081180289,0.39489902958636763,0.35147300820650856,0.40464619916609473,0.41820283639724143,0.3534310236685943,0.3782819085695613,0.361030866111948,0.3930939737652082,0.4015051640664475,0.38391778857987935,0.3580779819418716,0.3985111820658385,0.42607424693831913,0.4404597903196374,0.4078617425783202,0.44605999770709137,0.5074584328976861,0.47823523581598565,0.39123040013596905,0.4055477574042387,0.414936580657615,0.41561330575395566,0.3783305134401343,0.3520835556903557,0.3936543412387802
0.4557313053776288,0.4217208720225608,0.4177853554400703,0.4336655147404668,0.35293602757904036,0.46145671738610244,0.4673341542465517,0.4311523142037674,0.342152136419216,0.40042046607003745,0.43275567778905416,0.3594359184873327,0.35741667108516084,0.35759940411195246,0.3795301058391009,0.394074760739926,0.37935058117394516,0.34424569264474913,0.38920380265087123,0.41208050533883356,0.42159305592380136,0.3919922081785389,0.42668758063882245,0.48534950184461256,0.4831807603639194,0.358226462914851,0.40401198578132685,0.3870095608483523,0.4122421556541639,0.3490969044400659,0.3536051107792178,0.4030595400965455
0.46825965413740994,0.4588589705021071,0.46084900879407753,0.42136496277960883,0.3843403929811432,0.5115660202812149,0.470755666835851,0.39642688039357327,0.33914993211033884,0.4098510617992527,0.4307217712059635,0.3735881114139738,0.3744741791082897,0.3797072535333611,0.38927202651394194,0.4085357896653739,0.4006169615223657,0.3806882035260782,0.3990578997835711,0.4309678842218835,0.43099339053776514,0.3992959595763248,0.43175394787249244,0.4774939667171738,0.46633757093231337,0.3844114466503784,0.47037475290209674,0.4306280844649218,0.45134379212072867,0.40768116524303416,0.3931221793306551,0.36078336606896555
0.4641159582758435,0.4861596065286954,0.45641905351748313,0.4367668635200523,0.3925686228553717,0.5104386117053017,0.4931757688235465,0.34993669414108886,0.35882859106402104,0.4610653238654384,0.45361800554318976,0.39384632455946267,0.40158281598623974,0.41187941774266007,0.4310472797895776,0.4344288039218623,0.4301865480652372,0.40905520830113795,0.42784177425905634,0.4706504355600123,0.46924964171651345,0.4230976013488254,0.4519130150695479,0.4960629839458769,0.47818769035417324,0.4366168878595257,0.4745956239846588,0.4627503645189253,0.4633410570068761,0.45567113838660345,0.4297392005584354,0.38053147361495343
0.4632633922730452,0.4923700345225869,0.46652133122733946,0.4415571172586583,0.39648533295564836,0.5057594285671588,0.5156217273228605,0.3868332342462237,0.39097693642726983,0.4761221918192333,0.4879922266837114,0.39975194165716804,0.4000004701994779,0.4146927217017691,0.4467072047686767,0.4473026999410696,0.42212295448148507,0.4052378627410121,0.4330345479081301,0.4670556832070529,0.4754935390836896,0.4074562741556382,0.44869217191100214,0.503939518995185,0.48228038372713605,0.42457315563701115,0.4144798434066681,0.4408809998165691,0.4588650231887257,0.4533252668066894,0.4125139516807643,0.4284136207761446
0.4730425238456327,0.4857619135660386,0.4698685615682919,0.4322695982959818,0.415692985366347,0.4907225358704276,0.5168784490469698,0.4180060807357929,0.3917306877355054,0.46519216634606386,0.4809644133255941,0.38105489280143867,0.3767581410382463,0.38650355155300153,0.43409856830574384,0.43612998952003623,0.39635235978889416,0.3774692092753779,0.4058291601637395,0.44184767935181213,0.44140861635180256,0.3848234874566786,0.44843718087965606,0.48018030895861724,0.4738771159550251,0.43507235495791297,0.4616103930686539,0.4455071103369908,0.4956028600864902,0.4692565936066454,0.40793647964486607,0.4353291072412423
0.43680420577566365,0.47771465009684183,0.43978176626936194,0.4142529013174548,0.37264772037431293,0.47829952294034245,0.4387273980016367,0.41421106868301844,0.3919187795527602,0.3998619963810787,0.42127598161555385,0.3720640952966028,0.3847561386368431,0.3739996427970512,0.4136246571216291,0.4147384603402489,0.3861285957597848,0.3378862460414064,0.3853643336640899,0.4260492504919861,0.4210372318102349,0.3988343279080037,0.42444934812926655,0.45991487387410235,0.44687469595582985,0.381006057540796,0.4268310132912076,0.43574867837804543,0.47873702100706056,0.43103163609695966,0.3585927027700771,0.38616406530053277
0.427924645893995,0.467075364890933,0.41693366619959477,0.4205769573207549,0.377439592058924,0.4647869355481794,0.40339631133234644,0.3989163628071242,0.41210596663180327,0.40165763810026345,0.4122513683354268,0.3870780257456237,0.3868099137474482,0.379319445079731,0.40133266052224287,0.41410416929269056,0.3894034018136863,0.3317261630475939,0.3811161519022789,0.4169329990826808,0.4282990511711054,0.39332822725966465,0.42831350760298614,0.4795685658934381,0.43920365979247367,0.3765999495493336,0.4129756838344243,0.43209658076560103,0.44084705520992346,0.3888069279986236,0.3660597366071986,0.37124295451109807
0.4868593270573242,0.46117157221867305,0.4156166791419692,0.4508568434460809,0.4247637704172414,0.4523813878926378,0.44691792231800115,0.39154580137166106,0.41622822023961464,0.46355439112167446,0.4557413797727032,0.4064879127587339,0.38635574271625817,0.3871413445667374,0.40158071111539,0.4284649552130227,0.40585906540113614,0.36308583513474924,0.40245959146016075,0.4363038156618771,0.4604587303720848,0.4075721528199668,0.46261799727142794,0.5150116012783209,0.4857349919375914,0.4722490061297715,0.5034328110057189,0.4719737411789712,0.4861460175047917,0.4391533215432085,0.454384553711387,0.41763980499116343
0.5144629189066608,0.4651602727767711,0.42989104341340034,0.4522915959941726,0.39548178931092987,0.48500619045945675,0.4665562872798869,0.41094102849217345,0.384957510622901,0.4617117291670903,0.4399871626823234,0.3837559794039066,0.39802957083393753,0.3830634528236347,0.38712395992283377,0.40517231531492065,0.38893099835559264,0.3811983825833278,0.4048630452622171,0.4310649650332807,0.45564342726870444,0.44532600782385207,0.4581459190663923,0.4965987243450411,0.4912367265299326,0.4757105542930087,0.5208386560977827,0.4780531317654738,0.5239526466883382,0.49095781737515226,0.4761413145523255,0.4517421697574565
0.49762300899966594,0.4665326021755928,0.4747145950422771,0.4786415748234628,0.41100243681511284,0.513738640424341,0.4820016918629751,0.44905253382262195,0.3588226358838615,0.4693877749920458,0.42811330343207316,0.3987937503499754,0.39912857501602367,0.3850194149404832,0.3845701280770738,0.4062098481053178,0.388594154220667,0.3653490229726746,0.39625568255621396,0.4306469980051066,0.45566725117620965,0.44303419333619043,0.4655038152315251,0.4997517811693362,0.47741928110659215,0.46919298527159276,0.49805792300904994,0.4601484170133684,0.5387039555450396,0.48573524284665015,0.46144790807856234,0.42556550772891993
0.48751782049846965,0.46806421231864515,0.4964850771090673,0.47196966268367097,0.45487626752180976,0.501833595046683,0.5066574379026934,0.4419731037227935,0.35335178647617804,0.4869746594487616,0.4724517852034305,0.44279105289728227,0.4194771279941479,0.4183231521507559,0.42357007555461734,0.4450038919912095,0.4310031037631492,0.37629393956319185,0.42445277198745246,0.4485626344095254,0.4709630655537549,0.45410829051044804,0.47866045038758964,0.5096797923845355,0.4934146197157701,0.48385241357657727,0.4885263255242997,0.4474989778883309,0.5131694077082759,0.464307098885319,0.44067114565630466,0.44547810192911613
0.47313603375332663,0.46474152320789586,0.44471639166444443,0.4107376051234211,0.4260250953479115,0.4390768767142664,0.5038137411865512,0.38232698248178787,0.3398721671603199,0.4420590636756939,0.48660054067303554,0.4098584068359144,0.39576072365007126,0.40350932257554206,0.4248629257086298,0.4389155581792106,0.43063075801271683,0.3725319637773525,0.4200076109939586,0.4631107827757603,0.4628840396613878,0.4481186749846559,0.4542686304013941,0.49825520180241206,0.48328846845865453,0.4701505497727274,0.48073815157727645,0.43096745003929304,0.4513732185445786,0.4446407539642008,0.4305610149254255,0.47188320188104443
0.4370856751989866,0.44667828429281375,0.46566761393268574,0.4076904050191485,0.37007254923514393,0.46631084368904696,0.4901340199716952,0.3890085899914953,0.3386047451309384,0.44295834801321426,0.47528038324244576,0.3945952161797917,0.3752569129302358,0.398519437738607,0.40829631271268346,0.41489394605931096,0.4132300545722819,0.36472354303840326,0.39250039133884496,0.45720586006793024,0.45220904544191876,0.4179061118896572,0.43561767432121024,0.5044942216195887,0.45886167772258907,0.4294333050545629,0.43446651111119294,0.3963001984073315,0.41617561699326966,0.43650996813266646,0.3690355472293494,0.4454731227778127
0.4328724243419901,0.43119450078412447,0.4741761768759318,0.4034929844892631,0.3115378514705119,0.4903252334816573,0.4562122243318305,0.3592464255678868,0.31904859109281397,0.39481217625202847,0.43084915653765865,0.378999500569524,0.38794671632882916,0.40395214348015546,0.42488327655359626,0.42062471760256565,0.42440299608064447,0.37659374886290675,0.3893530721180466,0.4188747549624344,0.45308712506190413,0.4217692589388983,0.4413405806174359,0.49115105250522273,0.46633669967988606,0.4303511862404587,0.4412941308820016,0.4029132852270133,0.4283546653265356,0.4512585390129747,0.33577799666475333,0.4268232242526184
0.43847574747877677,0.43237188577378144,0.3806034276605478,0.4076563957529859,0.32137422760588674,0.453192579471993,0.3943073673941432,0.3581048351728411,0.33058392798736097,0.3593298678337086,0.40291318210056837,0.3846047300940403,0.4040305041400117,0.40277790969383637,0.4286500887441089,0.44742217209375,0.42459648957298785,0.3845037345687467,0.38872369550091024,0.4301985224438802,0.460489952999222,0.4246496036715517,0.449021060577393,0.49139224428773864,0.4754031833715463,0.3977338256473267,0.48065884306771656,0.44540790144415726,0.4582978753412418,0.4598313622582512,0.34913950767397106,0.38704972527024595
0.4219666483652734,0.42437631297832124,0.352150978563513,0.4045837995427741,0.33316091074255455,0.431123911392771,0.37367745107955663,0.4122736709372528,0.3580244788886831,0.3814132364964595,0.40156569710810064,0.3946374641837865,0.4047821286532334,0.41270925905059014,0.42698470151798423,0.44812029178553564,0.4271206053523475,0.39506773749402696,0.39404585882735266,0.44752009966014195,0.4354433153504777,0.4066161126819435,0.4118706190892042,0.46554852853469825,0.4306392460928723,0.37727359478064826,0.4338286821046623,0.397364926790537,0.45153785628711046,0.42532152654334265,0.33003251471207995,0.4029360209571836
0.41750395496755643,0.4198640703824771,0.3663004379550897,0.37154820681163986,0.35229103576582166,0.4454526168214804,0.4249514423679429,0.41839157095988255,0.3802850824384392,0.42286132892673567,0.4433406639827005,0.4198852617888091,0.3640468866103667,0.4043761480476578,0.4308958641849747,0.4121968124240224,0.40271483786998236,0.36032103028527196,0.39274610396932813,0.44858456754689563,0.44251131292237145,0.3945548100846784,0.4058458775963582,0.46416774076571077,0.44623052568924687,0.39985365668985956,0.4478833730712513,0.41495756132353495,0.4304291036691497,0.41927814931572627,0.3655231804446782,0.4259072055512683
0.4427567184213344,0.4826422684414499,0.4092118937504873,0.40295431680222793,0.390845189275214,0.4901272145439884,0.4580353072043362,0.41038121228435026,0.39608326766924445,0.4463266254807346,0.4569886937754485,0.42625977195476306,0.3645421078840413,0.4081610252364003,0.4345678705997227,0.3948782029257076,0.38697663400914123,0.34922769962179456,0.38668810498740197,0.45934047048050486,0.46774105488423556,0.394953937667466,0.43796102299961,0.5027960797261788,0.48505041339327115,0.4302417409387545,0.47961495354295786,0.4489600508013573,0.44464783291309196,0.43904123781963234,0.4174948715735498,0.43245218822874165
0.4627596613463348,0.5332633629617697,0.4398165075169854,0.46336890855640056,0.42308118336529016,0.5129266056566568,0.47284331596306484,0.3880667456084054,0.39008060679990986,0.4325106381262177,0.42875106756517684,0.40538934849380165,0.39370032585945597,0.4145606017112654,0.44249591814867134,0.42700071511249216,0.4267839211314116,0.38563163583182025,0.393848436608445,0.4557023713784464,0.43376931944292796,0.39670144622195297,0.4323453712892301,0.48708816183127146,0.48007555598074997,0.43012285045599086,0.4678381551301982,0.413516805643311,0.44269679365940945,0.44286695639445117,0.4240958258554112,0.3907813269758548
0.4254439843826111,0.4871328980127118,0.4147361515810238,0.4557540602502711,0.3677502071101682,0.4824120376153428,0.4562379900295474,0.34549464071222674,0.36039373605592306,0.40403556400509294,0.41600194013372727,0.3814765291664043,0.3788484080117514,0.3848733020821482,0.41320356780407247,0.4169883105669578,0.4015351093466783,0.36692248612308903,0.38686427827494363,0.44750130086426965,0.40855658497053693,0.3843641523247573,0.39967514628380374,0.46000127739148117,0.4525613000183698,0.41212671448025706,0.4286690445081232,0.3877258326684869,0.42689738952492223,0.4283187395773973,0.38588978686323305,0.3683670329376567
0.4670518682281995,0.5098672945224375,0.4486042419175228,0.4386126341719472,0.3722145098207462,0.4798766608550316,0.4653206934687485,0.35433665121577124,0.38050206179833795,0.3950073540902218,0.43730274983693496,0.3962390211718315,0.3723049193322376,0.38382923564870464,0.4090279467690251,0.4112936092088958,0.3953369386708769,0.36751263664478057,0.3892606125843327,0.4587682253962851,0.44437809421474683,0.39847856645275326,0.41576184957636964,0.48937349610804803,0.466794744354049,0.42103763286468204,0.4491414726277614,0.43286306529707197,0.47089698357885434,0.4467442389445748,0.39689595883934325,0.3980508815560954
0.49647469084727835,0.5261096459825684,0.4950060910579518,0.4727236803410091,0.4257184324110271,0.5249287445722256,0.5041137253302566,0.39194686316006894,0.3813471117532532,0.42371976270181183,0.45884928844976647,0.4037191229704707,0.3933524529486025,0.39329536788003877,0.41413867209957467,0.42701389557945,0.42067386757448083,0.4173379567798608,0.3741012605118174,0.471760333600094,0.47919384439608953,0.4292712444699202,0.45573740113137906,0.5100092560410434,0.4885642900373584,0.41672900130111606,0.48712984069097937,0.4542649002387566,0.4792177742607253,0.4663380217744409,0.4355878332195734,0.43013667231930414
0.46663348356147616,0.4522500168935272,0.43637626704518295,0.4843666157668819,0.4429725043236517,0.5025260214191575,0.45017307535900375,0.4351448031372097,0.35942753081454537,0.43018731181312847,0.4298511907830542,0.3730038698717625,0.3936498151637677,0.36616510863077073,0.38135056863054473,0.4008364564946248,0.3943341005666305,0.41740809689045677,0.3542688891134007,0.44333551657759873,0.43890129671203676,0.4082283217350329,0.42993354845331894,0.4782184477383262,0.46090052827379585,0.43619255981563404,0.4679369067131716,0.4104603346435652,0.44053494636163965,0.4310411827700393,0.44848273860235605,0.419330583455051
0.44886547780295466,0.4665974247196421,0.4051015900635456,0.453802654137051,0.396870799777388,0.464854096900521,0.420967966114267,0.42433317974656204,0.3884245866947829,0.42000448675705604,0.42198713518201303,0.36777735359779407,0.3782348526678354,0.35361780412038174,0.368885940978793,0.38592045821611454,0.381615891683127,0.38337136577572384,0.3694964922043089,0.4239785173085694,0.4200971088291642,0.404054179522235,0.4201189379882842,0.46433286968362336,0.45612721174240867,0.43696341197457117,0.4501227898213144,0.39031058278097047,0.4691291178397684,0.42570971237599403,0.3987330950874269,0.414064949119755
0.4368454669920207,0.457773893761452,0.40089191490883436,0.41772616392471956,0.3688513122601232,0.43480263950142245,0.4276860076808887,0.3884159860087502,0.37164262092405514,0.41506969115552683,0.43307287725457005,0.37627740222542916,0.3609409875750701,0.35642967789245944,0.38430506618554255,0.3899688457634845,0.38274337711029527,0.36042019226499195,0.373557046566785,0.4251717949758182,0.4298732758944971,0.3973812362207009,0.38251304326056146,0.4762071002101949,0.43716888454133196,0.4094503460275105,0.4439528793649547,0.4231192055330446,0.481851101541079,0.44261342425887573,0.37642084600657433,0.4004399524067491
0.4633138564280998,0.41954377910373364,0.3896585669785876,0.40694676308265165,0.3692148864752636,0.4224649187560264,0.4369244616512506,0.38929641880981775,0.34739264305770334,0.427787694178871,0.4647677777705683,0.4055102255089451,0.3378687269925956,0.39387289173312906,0.4299521066975688,0.4141647002834707,0.40514137824243357,0.3559666070859658,0.36617964843952877,0.4236069134648539,0.4303244477363845,0.36877739254678366,0.3429193097498473,0.4751081475650069,0.4490863372943753,0.3976365240300406,0.44505279622768024,0.428809799938736,0.4682170877217424,0.4757885678781761,0.3834043191589774,0.3649816060080491
0.4711712130074574,0.43130317585474337,0.38315342844676825,0.41014267870939536,0.4050418569557357,0.42849458329729084,0.4129765702495823,0.3601761678662816,0.3607249904758844,0.3868978440147742,0.45328359540958424,0.3754184405010505,0.3686356632590854,0.3943807879085506,0.4499320370691165,0.4439717100605523,0.4399549298865925,0.3900742472546389,0.404079553799055,0.43423947285675246,0.4509012117232967,0.3758242125963258,0.36393947019207523,0.4886658363740804,0.4900550190832713,0.4250868858712858,0.47170206601195797,0.42897565540774024,0.49938466594344105,0.4809930126138088,0.3987495814150525,0.35705322544157986
0.44029982119059186,0.46065495794698,0.37459827463408957,0.4237109514094205,0.40124519378623447,0.43784604438716146,0.4238431350357834,0.3393593287522323,0.3669870780318727,0.3860164019699506,0.46019040327786237,0.3898322442043222,0.41154164258457,0.4099400055883496,0.476964734560727,0.45229911297443265,0.4416512169882786,0.4214025454501227,0.43617598390747625,0.45689487659801614,0.47755058861036065,0.4349627855283285,0.4438557147490365,0.5065244054446725,0.48753622244071526,0.4337630912637081,0.45868547827348477,0.43035730131859795,0.4937775300361815,0.42525854778865724,0.3832759518480447,0.4371223589709309
0.4545094726481566,0.4854574224013938,0.3807943186777753,0.43276308321309215,0.34462981164432577,0.45180945162522984,0.4545846283886956,0.401355746732773,0.35478912015501207,0.40719509345013544,0.4598942041808943,0.3967185988994954,0.37746778450366125,0.39978962034116233,0.4602666462333586,0.44731962357113664,0.4361839228736165,0.3853600595017748,0.429339556290329,0.4771725352443818,0.4811337899930156,0.4189559469360206,0.4652595117149511,0.514743233771309,0.49443933294818737,0.38739513808092474,0.436182089029892,0.4279743034870175,0.47497799096849613,0.40805811194978875,0.31389286792962307,0.42533260802261147
0.5041894881070949,0.5022356814283678,0.40092874485584573,0.4272117651364703,0.3596220843895229,0.44974667637208565,0.42456885311812365,0.377276140875179,0.3757229791103683,0.4086951824411129,0.4341164116757346,0.3809328758454912,0.3569986055893709,0.37963840310265096,0.41469752970894375,0.4239841429293313,0.4382095958735676,0.3786971448313295,0.3967692896116049,0.4810027337570729,0.5000040829520197,0.38554922709450806,0.4611894368956029,0.5234551906145484,0.4997540025188225,0.3840111670641093,0.4490557875188635,0.46952060039697124,0.489329871381157,0.45434293896607614,0.33012585474728684,0.4051324347096926
0.4676663006558123,0.4858248560932979,0.39592118070655324,0.41361405703015364,0.39182653283783664,0.45361497494744885,0.4324563314437355,0.34298893761937466,0.4088597570883362,0.41985349317375326,0.4372452127058703,0.41352259370958105,0.4091456455029678,0.42079825234040164,0.4402597243888372,0.43863747539655484,0.4493909699837791,0.39779835358989474,0.4154636433773496,0.46637405390224596,0.49236273286246274,0.4089494464601765,0.4711024554091588,0.5085415895858316,0.4893908739222215,0.4536577497260013,0.4634251631100584,0.4583855654062481,0.48237222628559884,0.4558947223707315,0.39602006628159764,0.425221029479499
0.4400960807542464,0.4361261028089927,0.4048552138670437,0.42086672500296984,0.3904083308808312,0.4389620408094231,0.4460298692673005,0.3447429268780107,0.37409082978317526,0.3834522468865829,0.4036697248807687,0.3772308898743676,0.40514149896118745,0.3861849468921443,0.4179256656352083,0.42520004623200847,0.40674765174450545,0.38749463234681086,0.39833159050471323,0.45779100056890093,0.4636559585735566,0.40703782785338666,0.46870410223244424,0.4973497504450441,0.4975274721583122,0.456928108400637,0.46749126025085985,0.45519183597358387,0.4767223685808877,0.4457625101008149,0.41185499678261844,0.439814368923014
0.48489999775524834,0.4640575146711501,0.45740763516284483,0.45285372212830766,0.3780635029795136,0.45736916075304285,0.45395144493169776,0.3682818679630291,0.344914849439654,0.40147403951632266,0.40855803918455424,0.3565289874052097,0.35375086986339366,0.34277896987323275,0.3614837697314105,0.3670770262917419,0.34978291209861834,0.35296414734951564,0.35331254064332973,0.42593077952988256,0.4525557616012341,0.40183280861347676,0.4561242724866015,0.49562700881430566,0.49021563923447814,0.42028066887874654,0.45499567546946285,0.46017032714843575,0.4596977764893713,0.4517299550381924,0.3930653710254169,0.40857438003006974
0.46019854835596913,0.4794796333049607,0.42102974567809015,0.4119074992070116,0.38244361567103397,0.452776107606753,0.4167679337890704,0.39406611042907747,0.39986841903610104,0.39620370358643187,0.39064948442233105,0.35612706846711845,0.3320297948907812,0.33633191144186647,0.34218321138872876,0.34524223645552565,0.33875585311888895,0.33669946985243737,0.3483732898742256,0.368774738073372,0.4211506694744846,0.4005802052149318,0.43874530174561316,0.4551482842651114,0.4436567880417744,0.40463825584538027,0.4276202054207191,0.4180024082076768,0.4202456415464543,0.4236761710552468,0.36463239912194634,0.40022763936972955
0.4390307834998492,0.4579076824768339,0.38766653676828666,0.40613641343951506,0.4040712290710419,0.42085911832694706,0.38027697266651345,0.3258863217468068,0.3872353423776367,0.3889768129396037,0.38756421747623027,0.37938284759746677,0.36390673619394726,0.38195789268103153,0.3870561377216684,0.3917610653213672,0.3817066438399938,0.37532758999228283,0.3775211097147364,0.40202721837482736,0.42592623463723595,0.4027714878301806,0.45170327272979327,0.4678235026632329,0.48375628895902484,0.42963072938316843,0.44864763153495235,0.43509642379193425,0.4485299244636386,0.42871759626984346,0.4220340824776901,0.4056195852478774
0.47002461708080817,0.48829413190631216,0.4047733330381608,0.44443335000252426,0.4146932596278863,0.452710367917176,0.4181378968224697,0.3178998923882648,0.3378125444716022,0.43056547069528583,0.42581762993185557,0.40612844027091305,0.3890916722954135,0.4008069486585925,0.42359831558057365,0.4350653457888744,0.4313370597802745,0.4187508492961468,0.42023349827969664,0.44714516695414913,0.44384688047999754,0.4250378936871041,0.45500200121599993,0.4856459963868163,0.49597603921037703,0.45052418793817717,0.4640265680963228,0.45656140263025224,0.4664587845615787,0.45599512770869566,0.44347826640701393,0.41275982977613296
0.4903763291495371,0.5095258432997192,0.43922838577828527,0.47225437672586396,0.420624404829113,0.4954949524412691,0.47168992009633337,0.3689962678669897,0.34626099642830016,0.442593661285008,0.4387585846534281,0.39730654423484685,0.3770966888787124,0.38685932731196004,0.42014133991035363,0.4255024743267808,0.4122906163890321,0.39182266305233393,0.41171884067364983,0.4425915559731663,0.43873362214822925,0.42191051090393417,0.4308105658732151,0.4869421843885389,0.4749549731173476,0.44973795423166274,0.46639488387980493,0.4714250451148095,0.46815340076657097,0.47041374037648725,0.4090238276101123,0.401963304197007
0.476915981686062,0.4922179302340715,0.4673600137919613,0.46475699288147376,0.4097128461533514,0.5287963431214832,0.46908996807365083,0.40534003709033456,0.36662714705500055,0.4324235450945418,0.44503341609434055,0.3938500213602993,0.3795997772540752,0.3923363781965376,0.42001340768431417,0.41178303783006726,0.40516308328077616,0.39431037680732745,0.40111979469459524,0.461364397242704,0.45829761321831985,0.4182853574041244,0.43382984918597317,0.5097169058454507,0.493535389742934,0.432681176534682,0.4708771225162749,0.47541521888099336,0.4974542368781448,0.4667220120139625,0.3991779756423545,0.39320942390198715
0.4789352067403429,0.4724381257395071,0.45945695804932285,0.4576546222843376,0.39640679433289266,0.5200284691782744,0.47588393240353694,0.4413447872939374,0.3669961924099762,0.4497450769791318,0.4671471173814712,0.3911619896602326,0.39380002666719593,0.4037926812640878,0.42746339441988107,0.42379714679363417,0.41686052786280053,0.4285022189434651,0.4537118462724075,0.4946810176629182,0.4933265741591608,0.4488655895115523,0.4594761984930018,0.5232151007682282,0.5082183228077481,0.4454690118057267,0.46427949367288807,0.4739475234956606,0.49432405867942586,0.4671449227844328,0.41736490458643005,0.4201388505708894
0.4809841926341586,0.46573461480742984,0.3823826714669696,0.4664413381002409,0.4067025358881701,0.4615017009875565,0.42780826213408374,0.42142030937399994,0.3639359732143945,0.4131450920465223,0.40529713546265883,0.38458567344333855,0.38247512861165694,0.3596519472088297,0.378948121856144,0.3980971124943283,0.3733392608415963,0.3699040692673168,0.4074264208405567,0.44858391026709926,0.4657580983567411,0.44586010038253576,0.43405528380508285,0.5029977157808844,0.4848578590257748,0.4361879417356019,0.46148692801770863,0.4729411082363445,0.4734015365383498,0.45386534511992127,0.41470044072606294,0.4171927175375986
0.4570947271930328,0.4246579206775262,0.37327087407885023,0.4191989635205333,0.3327213456667956,0.4448702089678267,0.3894930327785035,0.3938443139286968,0.3521429420393529,0.39368360677723263,0.3769475391738381,0.36504056240107674,0.3675406450845157,0.32795018917778246,0.3558183048814209,0.3667423846682326,0.3491803602717131,0.35124951816036265,0.37645624558443336,0.41895986391227863,0.4517100992596018,0.4430774375312024,0.43459914286492873,0.4902019025444619,0.49039564180604006,0.3656808241940593,0.4675951685796326,0.46520433123923327,0.47971119791255545,0.4636149748352336,0.3824928151474204,0.3814664262466298
0.3896192717133828,0.39007016475233885,0.37659124275352546,0.3359383567414243,0.26366550779334524,0.4291717776439189,0.42243115957110555,0.37504270995103145,0.29951190245796083,0.396206033330294,0.4126021764296796,0.3603241221290645,0.3562322601846172,0.3348472911317346,0.37564813698088556,0.352667142266875,0.3278854614025162,0.34771381254076456,0.3900451784118704,0.42156970661564525,0.43557889557584006,0.41426642559692195,0.4411234717583762,0.4658481676527133,0.46441461643060344,0.3156879828000957,0.41187344829381584,0.42421840391533927,0.43559266515729694,0.4397580629914018,0.3294030583606289,0.35239893008962403
0.4036885972954889,0.42865576560481106,0.4096540302094329,0.38708948843032986,0.31230175990502146,0.46403851699959725,0.47258278290022787,0.405004488772213,0.3199832710657053,0.4332733543959594,0.45216843854353345,0.40010761479983004,0.3533922277102648,0.3710494754036828,0.42232907607381015,0.4060621991310856,0.37564699304567234,0.33370727327784666,0.38478823505785503,0.4268318871481539,0.43505800611096873,0.3943152661184739,0.44249581583685493,0.46621797773752965,0.462757808021215,0.37485453328718005,0.41445319435602357,0.40730144580201316,0.4436474588720262,0.43186284624651805,0.38739375427999795,0.4041921724379106
0.430045548297223,0.4380140939135776,0.44433895530323986,0.4005479677055456,0.368858370880197,0.4849117116212318,0.4884508821265151,0.45505718185796495,0.43085607294266026,0.4943388172575268,0.4961165438754556,0.44501176931796826,0.38977115680127744,0.4072885435910616,0.42994380951874284,0.42051382067069526,0.3941673067304629,0.3396172809093454,0.3977346139440897,0.4243092347993435,0.47450356599802646,0.44212691059165266,0.4472826468504533,0.49906531415580174,0.4939561309296394,0.45735994629842386,0.4509881870551731,0.42934394732119546,0.45470582501720364,0.4390750833329915,0.4336675867465784,0.44466079534186137
0.43442066236011007,0.4251642185632411,0.4313706645923632,0.3810502724224067,0.35026985573116465,0.4467194684837869,0.4761660641474823,0.41498847201727573,0.4183339608323744,0.4753968564868909,0.48726971028214394,0.4378406558583838,0.40443734212595817,0.39948057163379724,0.4111994576408585,0.3996626529821588,0.37876772852414625,0.34673442247036707,0.4123162589767044,0.42776436490933634,0.46362137151047916,0.43384525436106686,0.4002974052985712,0.49425639926460946,0.47349093867307707,0.3915034680058279,0.42884683502636733,0.43076198592416204,0.4252874697015616,0.39735298101634436,0.38991315564188017,0.343283278107985
0.47256131101250315,0.49410051218448425,0.4666212717659226,0.47269806505810974,0.37175104186716407,0.5043944423187628,0.49757835330205497,0.3873580421233715,0.3553099753759378,0.45402456312358136,0.49307260259372715,0.4167993587072406,0.3947036819338338,0.41883992409628773,0.42090271340251856,0.4078913850453649,0.3940066726176439,0.3643647906512148,0.423623014938704,0.4546669368125328,0.47041636733924624,0.4117151889532456,0.3896496200842129,0.5052516467839878,0.5029991488276095,0.40076891119648594,0.46331567415291086,0.45187253471835737,0.4567134764395337,0.4211564702771583,0.42186966188614,0.3475348228253543
0.44187662350403956,0.48214867339148204,0.48826499284337027,0.47007867316721164,0.38236397207768924,0.5254923159479439,0.46081603415793176,0.3894170412299819,0.30635999394468927,0.42298164683408246,0.4354428304447578,0.3538279568413485,0.3562333854350716,0.3572716116698037,0.3610165419922082,0.3690000364757044,0.36491374415048977,0.34823431882400113,0.4100000624322833,0.4454689677459635,0.47037300157245004,0.42454586610133,0.43189027350334597,0.5121257745811434,0.5114947901225932,0.4575090708226601,0.4962551224744794,0.4684751101051837,0.46005279328217835,0.46493194829319856,0.4226295830140457,0.4416160390125292
0.4353155188105316,0.47176057409621847,0.47679591814316147,0.4561656002541545,0.39079575420752516,0.48991331161629614,0.43977359926614246,0.40510411490588843,0.35092073775474786,0.4093583231559385,0.4040645065180712,0.347472103692761,0.3590943505225317,0.33965892988310314,0.35500678498556154,0.3690232455748246,0.36946659548538135,0.3483303578145655,0.39817631290242567,0.4400308646881342,0.4593148312058745,0.43014436562719044,0.46418424847980283,0.5091669882120682,0.49305307071058546,0.4531037212310507,0.48468454370891095,0.4682079909638937,0.4575276336389321,0.46362878959263243,0.4202467632178115,0.446857650289532
0.4657328340112171,0.47787235599527483,0.4602166656426339,0.41975650640175677,0.3688557894714179,0.48376355167751867,0.46383503624942524,0.42167026126566354,0.37867640898565547,0.4302307453966166,0.4405582577004751,0.36241191199059647,0.38051900292431257,0.3568607051168305,0.38175069035148285,0.40360608810869014,0.3917985800352898,0.3696338362677355,0.41290262981245135,0.4682918317502419,0.4730838297851699,0.4308617769993909,0.4372392378273996,0.5152081879585559,0.50075871331455,0.4221161091547451,0.4608562481549316,0.4831088997135002,0.4920842307343893,0.4652563191293087,0.4063373556469863,0.3913160724259566
0.4777288271766852,0.48238161495979215,0.45921661794445434,0.4178647854470097,0.3672420534497293,0.4726418283886371,0.45435146028081175,0.42443223590837525,0.37250175036159716,0.44176126245467506,0.45206767309479,0.3730963947537662,0.3751844805292219,0.34410576345092125,0.3532731989665383,0.3751722895999126,0.3667854293529575,0.35899949932133046,0.42210114627112416,0.4730382014760779,0.4880266687303802,0.4340620083172823,0.4181749458235161,0.5060256961499214,0.4768032774123664,0.3926429619840461,0.41717560847504676,0.4722662749996144,0.48771297860221563,0.44971179015156165,0.3783961344326738,0.3673776552650136
0.46771657524568316,0.4945895685836029,0.46253103154176445,0.45363823687729854,0.39461173391036064,0.4661222407114133,0.47069936210675645,0.41233658685132424,0.40414738629086844,0.44353209397357757,0.4515128546020616,0.39144562341728795,0.3706174509816284,0.35713776644612194,0.37757506056653317,0.3928547738767943,0.3862837701677383,0.3736839292161876,0.3961278834042428,0.4394999666384668,0.4765405160475489,0.41227571615005326,0.45171888073485866,0.5027855241318296,0.46966196100108887,0.3959937249471843,0.4190770418386611,0.4333193931704117,0.47917548530738424,0.4432835960701604,0.38958216080298863,0.39823643679058257
0.46211375587204145,0.472658605585629,0.4641194027086059,0.43877079789166457,0.374901710222445,0.48785111290561806,0.48646663155263165,0.4353869955044584,0.39693974283249167,0.44929404409533585,0.4386294133493673,0.3898602394768806,0.3560882067137755,0.37291618682935596,0.4052006007674987,0.422256135770458,0.405016108101405,0.3628137608056246,0.39531123490127046,0.4396180981678574,0.4720076270361881,0.40381677589455317,0.4700175906313709,0.5140612568174224,0.497603190498943,0.41894529037276546,0.4562130009115211,0.4351874394536957,0.47959662081154125,0.4640613849566806,0.4007198273711357,0.406768207599485
0.4351975986733621,0.4532676726629309,0.46485763161769766,0.4210989689887877,0.35507970510062087,0.4965114226902174,0.44384513286646227,0.402286435948533,0.32219055586407663,0.3957812402386154,0.3643059451999518,0.34426947453030093,0.33720991978375303,0.3456188177376095,0.35929965287879484,0.3793208056622356,0.35810727142960563,0.34414482457030554,0.3885222679627182,0.4038567289999854,0.46130674644072495,0.40990573618005655,0.4766739816345235,0.48655740667374653,0.49757991952772224,0.4396968986053558,0.4708384133026381,0.43231966225141016,0.4675673012611964,0.4588333111652574,0.3955266085270778,0.39427221552849523
0.43828090135802567,0.46956270962519914,0.45213344919988185,0.4188436698478811,0.3217629919588227,0.4645127261734886,0.43904546485011553,0.3478058246536818,0.30049599565647656,0.37916189711126325,0.3797662954731383,0.3208250040500346,0.3142904881014751,0.3340622418173789,0.35189867961599747,0.36878370479446254,0.3350762207909062,0.32966983266174493,0.3579546488995247,0.3826074258147486,0.44111958384452576,0.38878060023810446,0.47157215462334967,0.46095811324362496,0.4948231068595731,0.46005103459288543,0.4666235842641784,0.4398088549922367,0.49798222306648676,0.4591696426441997,0.3872471486983665,0.389373005894986
0.48350646308063167,0.5033870827505807,0.4421000138703712,0.43990042999756424,0.3511810914315158,0.42851590206640994,0.47120645728841587,0.35870325352997834,0.3482944310828762,0.41894708799633606,0.44190390652065537,0.35333399045537306,0.3537509689400701,0.3814117237576102,0.40756751222799775,0.4223123403071324,0.39270707650230224,0.3581341162436386,0.38863533789099663,0.41097978401469426,0.44725800725596193,0.417562310013812,0.46512492032690395,0.4806752600388857,0.494965602528458,0.4607053466177734,0.49241073138051944,0.47841054593651944,0.5287951149863634,0.4995087459199449,0.4514930165670707,0.43606054109163156
0.4968034200394164,0.5053493581333451,0.4561274640696588,0.474345857886356,0.39995669489393126,0.47307445376667084,0.49256634064126587,0.4118545060275119,0.3506734658808478,0.44866248199578823,0.45945176016056993,0.3831593893332753,0.39385568445166597,0.4045463115323097,0.4426726329709723,0.45266266302584934,0.43907992700518744,0.42009267046295445,0.4573555903192265,0.46076167680367464,0.48054574051804166,0.45284376742941945,0.4773807425898662,0.5263886107652238,0.5105712485140057,0.46314806317278745,0.5169776213528503,0.49020851338586224,0.5098476566557547,0.5079550562658747,0.456616261729732,0.44670638950207925
0.46924936000870715,0.4745028661650143,0.4895898011096183,0.464409834686649,0.404817953148625,0.5166233286081521,0.5214990540262741,0.455749282076415,0.35832028272179145,0.465792460110834,0.4706758764774001,0.39830268009519154,0.3889539927550551,0.39570639998588536,0.43541493306032186,0.4412188237657138,0.42322602154505934,0.4240531923934333,0.4379346615280677,0.4610165154376517,0.4668865147264308,0.408884545754376,0.45654600393858125,0.5212260578916397,0.4830645398564701,0.4294642089736204,0.46989549660655777,0.4483958430117384,0.481499349179975,0.4664133712762296,0.4178891662017508,0.4192662857184102
0.4343640305931163,0.4635931802896297,0.49096410121240036,0.445079004988824,0.3737927608249772,0.4997046326559305,0.5096119496466711,0.4396233948736908,0.40412344667221056,0.4636249016019612,0.4744434127865449,0.43570309062037277,0.4066064232688726,0.40601552130051544,0.42046360552883705,0.426675293187444,0.41737339956664116,0.3892578942129609,0.4296632485423946,0.44878127852448685,0.46717392846554767,0.40573796494200043,0.4575855372648432,0.5022862494172927,0.4622385127973287,0.4032167158731285,0.4515688671094015,0.424285610952586,0.46092873278468727,0.45298519046918223,0.40173304959147405,0.40194000844643885
0.44856261851852836,0.4461001898427455,0.45031834603317594,0.41924826639812734,0.3449347968741345,0.5086593197575581,0.47349561846706384,0.4335592619126061,0.3877727770842792,0.43898590074563903,0.42440510710806634,0.387980783287164,0.37149177710324827,0.36533575178871697,0.40410853775685635,0.42057765677149656,0.4008303147073295,0.35121792963989057,0.39338803207989176,0.4433982514670703,0.47049854024900595,0.41174756503693916,0.4431401915188848,0.5095859089201223,0.47917882276299045,0.39451464769857186,0.4592491061927344,0.4583544780647084,0.4688351136582638,0.4535918147267115,0.3518289461173851,0.40138527839464727
0.45756708693298825,0.42939067265669056,0.4186012147697653,0.3865957909896931,0.37120307187307755,0.4897879634027471,0.4718017541797168,0.44892551296053634,0.3736516099025225,0.4473950652974091,0.4466940239431312,0.37815067613854464,0.3592332650295504,0.35840939816255285,0.4133428910537918,0.4372373516756026,0.4115812544184018,0.37491990406274467,0.4016439000797718,0.46844517246529505,0.46866652235865514,0.4153576381311984,0.41390575503850624,0.5127885438143585,0.47200645912126005,0.38877243888487323,0.3925786973591326,0.4219968355866884,0.472412640869275,0.41213588007939467,0.3202287230500681,0.4058130838939318
0.46696405587281503,0.4653325425421541,0.450828961847039,0.41039696042713064,0.3499765793118701,0.5153280937691995,0.4966026146403614,0.4083151661549624,0.3607622299011642,0.4616790129304468,0.4949440228223414,0.38989762590407423,0.37544804441114593,0.37062340975591607,0.423612441213577,0.4340779790828709,0.43602897013839864,0.4053281424090002,0.40846986100018196,0.47304673839240147,0.4610983013332894,0.4220983571818297,0.42497559956268033,0.5079633648414424,0.4796479584811137,0.40170410836785747,0.4257770719288573,0.4082898208250699,0.501008523119617,0.4354990708084549,0.3493099644802111,0.4065104333406275
0.43919697621354475,0.5009875461868499,0.45187998468957485,0.45526947700050613,0.3708031750360122,0.5052400859039291,0.4582886802828612,0.3739394216941548,0.3474585272203417,0.4616022604250146,0.4842094147308157,0.3796689218152007,0.3794612340085294,0.38131443407514154,0.42533383929962687,0.4289701391745513,0.4347730102929735,0.38446712014185014,0.4143700022651692,0.4691514267013499,0.471872849724897,0.4223643841962351,0.455525780026735,0.5050490513069764,0.4940728653620594,0.41885345891600295,0.4943677076747285,0.44789310827387924,0.4872198731664819,0.44945911599200616,0.4090438085263608,0.4083413328998703
0.4138746978655852,0.49338965455147993,0.42166550586144236,0.44466583750432526,0.422390660062088,0.4529700959155846,0.4571024431041704,0.34234341604933244,0.36881477199154095,0.45597456410141335,0.4890319438526003,0.4196236103694282,0.40571122131957943,0.4235354489032054,0.45152810035333607,0.44410176282714875,0.41729111435820704,0.3843678360538314,0.4345631853722144,0.46589947261437065,0.4609400880842868,0.40510046165924385,0.44445681155217587,0.49400651283598107,0.4570723076645578,0.4108929231419316,0.48605936115046533,0.4346796091963297,0.45256776146600397,0.42437841064078824,0.4328278147276421,0.37949318141787325
0.43050918179860226,0.4954746765099018,0.4460678575128325,0.4365674577906012,0.4089063215359408,0.47124757686981467,0.4788850600133069,0.36437056279135305,0.39096561618877257,0.4527343999233655,0.48990492417977954,0.43758608099752444,0.41700777799251637,0.4434176128481017,0.46100593566040715,0.4509948024395566,0.42976823551752186,0.39753202795838855,0.42603510747519197,0.4560522093387939,0.44035938749003156,0.40567721832856357,0.419542693122541,0.4839517916306207,0.44410726551837737,0.40941282303823007,0.4689282453919409,0.4266415507692197,0.45830550357011723,0.42184881684475944,0.42840254723774185,0.3975978446392153
0.44465433322875053,0.48679354564269023,0.49538450768680825,0.46651734803257644,0.38232080968511367,0.5000734561205823,0.5012753601973565,0.4166694659323354,0.38221556526654155,0.4495346583437851,0.4641321317349087,0.3816842338147102,0.36768755035383965,0.38624520189224404,0.4095623508786485,0.4025592423407982,0.4062052560254395,0.3648965904845191,0.4091529676413197,0.46806437510971693,0.4508020368863293,0.39166527530064993,0.41412980233700114,0.49859910867990387,0.4963505089580847,0.4290914176369217,0.484976821616529,0.4552739968119136,0.48903476250828953,0.4861247211927938,0.4239062907169033,0.4282077881910338
0.4890541895970073,0.4669008008159713,0.5014601203760073,0.4761463015502252,0.3711033558931107,0.5123930806754055,0.49183496446574126,0.4019778870076062,0.3751382592035854,0.4339288505119828,0.44052370665054535,0.35968667087026135,0.3569831507364056,0.362544728574728,0.389648694910088,0.3901729691611055,0.39473144731463194,0.3752806639826743,0.4047311294496586,0.4487208207038325,0.46516130830341706,0.39118987548781453,0.4387484982013336,0.5201471499242845,0.5012828734368643,0.43285612796995837,0.4864483005307182,0.4698506879487933,0.4969667437790775,0.4851916817498689,0.4241990825373887,0.4155407065551404
0.4928509536009912,0.45466430219122006,0.4844996882868252,0.462231048527826,0.39781440657057654,0.5159881459982008,0.48219276330892247,0.4192804399062618,0.3914075742581508,0.4515042501964262,0.45919937168119973,0.37859403354779664,0.3816041722460562,0.3651758202837946,0.3819085929151937,0.40316624527079964,0.39621782977917225,0.38564349898845013,0.39030034650565293,0.43092273637261086,0.4534518281097112,0.40736551110926394,0.451409909905178,0.5116701677438809,0.5069506674144454,0.443978782682836,0.4654270684217086,0.45944441358973453,0.5035914841814957,0.4724069436638815,0.41547082545085173,0.435040712335681
0.446366748873211,0.43878285675711687,0.46184521508288495,0.45220747549222745,0.39588744965803474,0.49484678647173336,0.44787758644273784,0.4157753300316485,0.37697039176250213,0.4267704793679348,0.4219489459398575,0.3582768887713628,0.3458021926285574,0.33386029257020916,0.34472685710887513,0.35355846312216993,0.33735468781955524,0.3178260822208015,0.34026884555221765,0.3778240530715375,0.41452637040205964,0.3746960775306104,0.43453464034050915,0.4845875025017141,0.5020851599206959,0.42592908296441734,0.4502805088153438,0.4419175359138454,0.48144485542795384,0.469267047490885,0.40997621837722503,0.4312053541444264
0.4137223584250963,0.42967461193725354,0.42418608832023097,0.4358829173603293,0.38099445289863176,0.48378082512706627,0.4261702183607987,0.38178117168164905,0.3595466679489202,0.39430332101488746,0.3929413633908922,0.3465851408787496,0.3395637855627997,0.3367229519141888,0.3560613556334061,0.3521534633345533,0.3413853085677269,0.32182291551680264,0.34290876440893714,0.3738635670994965,0.4062984186373135,0.36854366305230407,0.42067131614523,0.47386213416948014,0.45626956064782126,0.409050162481317,0.42747137869699237,0.4157508284806633,0.43633137561108626,0.42424038886637844,0.40184101387659193,0.4145478761547515
0.4275934439444704,0.46610115726400697,0.42527272832644025,0.4417689883357934,0.40249832900254234,0.5056172118590532,0.45562322059288446,0.39833267453587745,0.3530048823253133,0.4197839158819564,0.40995633094209405,0.38044674278487345,0.3876587659713797,0.38080162763159137,0.3958995850576042,0.39117682512403734,0.37366852269932327,0.36944095181720993,0.40084084324200253,0.40716730366974113,0.43082846918035705,0.42753526702652195,0.42864502940218097,0.4763794616188135,0.4628982006738366,0.432431020429769,0.449583312796005,0.4202628230501373,0.44390821692774235,0.42247870760756884,0.41446501238828504,0.4268329678912894
0.4406018973873176,0.5135306946424173,0.4326104603900175,0.4523014377432481,0.38746016889092877,0.4901228255374488,0.4626608348802168,0.3644283951262109,0.3505977095293009,0.4342681948918769,0.42217782775521767,0.3904183293827655,0.40248263888173486,0.3870194154695766,0.3928111480166072,0.4068172562246011,0.38706272386568885,0.3780826993474507,0.42152193223701556,0.4233932432873641,0.4566077800261725,0.4570844231153776,0.4446693748736735,0.5121099756002229,0.48189797824853053,0.4280408081117077,0.47058375554321563,0.4437264391983052,0.46503586341245096,0.4432103362108631,0.4315201979343998,0.4110954644723487
0.43405415701608957,0.4958281813470712,0.4472888607981076,0.4422137271684006,0.364863094140333,0.503218621834432,0.4792992964178683,0.35271025565057057,0.36410364492682445,0.430041112257075,0.44666489678421467,0.39067187521454066,0.378078096033261,0.4015178274495314,0.428394437760582,0.4469812193915171,0.40376503004192643,0.3649606148847795,0.3710124428714104,0.4231569287480566,0.44314288535889446,0.412936010793012,0.4408790686517437,0.5271415256795726,0.48574475121223204,0.4071602167712036,0.4535212793716288,0.43922330252070313,0.46658339899522017,0.44335517926246887,0.40850502050502857,0.3824978509697351
0.4323438205886381,0.4591347150129496,0.45808026167765115,0.4339028337508363,0.375525738623491,0.5039091619659082,0.497958527127999,0.372747344011241,0.381359188020269,0.4245228138915154,0.4477555216396294,0.39333149633608655,0.3654162611859575,0.4002785577450897,0.4251726352656367,0.4423895435012795,0.39837365937322344,0.3558369885316359,0.3633885995537237,0.4071392674869426,0.4237861015892431,0.38165046716202844,0.419126497122249,0.500850655870752,0.4844331317991504,0.39000794459126814,0.42809548773386424,0.4444581053662459,0.46506859474946144,0.4524626575102174,0.36955319657456953,0.37182171894456717
0.3925445903460847,0.42486010054406287,0.4419369249507561,0.38820125002908473,0.3516060190115399,0.46326138373502695,0.4899546178823347,0.3850225096773587,0.3804642146683709,0.42282076143652636,0.4522369457704509,0.39378972601518375,0.3728964864228697,0.4096287164458427,0.42736200861704154,0.4310168847258969,0.39682918919738447,0.3614015342364406,0.39051937013525845,0.4213632681846579,0.4412503208185064,0.39297833281870076,0.4409396857331563,0.492765602035708,0.4662107119138702,0.39339228594925046,0.41901858027568234,0.42437241123727193,0.43555941346043686,0.4299604278401494,0.3465473708249895,0.3925736424727097
0.38486485426577466,0.44645102280479915,0.4403647600313888,0.4002039062145402,0.3615636582179643,0.4757312426679321,0.489322090066524,0.4344847251565365,0.3987005004550742,0.4171552101031093,0.44052568554045135,0.3951337797607969,0.3823572391402525,0.4200867030834814,0.45283081133822933,0.44311599596838275,0.42529307477074296,0.3793373255938129,0.3888492253852836,0.4270986209005207,0.44083043495372853,0.39028451755399857,0.4579719352812064,0.47110112614360955,0.45347702486577035,0.4199471671897095,0.44659808775935655,0.4065063998794083,0.4283097751093647,0.39508254670867976,0.3677704542274875,0.4396892718447649
0.43936998517050446,0.5073443425565538,0.4619091520473893,0.46044917916806527,0.4181057176933114,0.5045144952491736,0.5060679919519243,0.45621036313530977,0.41548284018168463,0.4415074712236365,0.47147220864012923,0.4005428032836923,0.39654012143748646,0.42783125002615896,0.4595038630648496,0.4496915901930726,0.45946290946536567,0.3864602944051238,0.40722338441249567,0.44790540665910916,0.4576624982162744,0.41850166123365035,0.46669427619797293,0.4887354355701194,0.46340071071479344,0.43918337892736287,0.45859787246553335,0.41301925527002403,0.49178370078511535,0.38276076955550986,0.42356657694890243,0.4435567802524872
0.445579983091336,0.5033888367935696,0.44492318431376926,0.45635880767741255,0.42282862051233616,0.4821276321131294,0.4895528713572268,0.45219562187590273,0.4018105322529596,0.43342895744529003,0.4625768268600032,0.382212899174152,0.3745720868524729,0.40187541376761593,0.4245388504352722,0.4107732301083449,0.4109711897019468,0.3618192257934944,0.39277407745689463,0.4480743990995954,0.4466112624686365,0.39509175343042313,0.45510614721619397,0.48308961058349287,0.4560846972311756,0.454518380289686,0.4417279948378556,0.3988391380973784,0.5068784220686422,0.4169125976927635,0.4351791461861534,0.43868546462480396
0.45546909912626554,0.463355578522919,0.38896205803241,0.41711405517143435,0.3549537547050977,0.4022473755767314,0.44781787543419804,0.3820132481351691,0.3835929521033572,0.4245958601906599,0.466036675326018,0.35728315216714646,0.36898740036093697,0.39972944414916173,0.42528460170196836,0.40306621755400546,0.4029748238159637,0.3719973785248644,0.3967166652941876,0.44871332965870614,0.450339042116368,0.39622352159574453,0.4609798053474468,0.4870371826906474,0.4672984386667203,0.4486008104129656,0.44450384793917364,0.4262610816373031,0.4704136251779542,0.4463622262740595,0.4196108969471923,0.4236130102470326
0.4435191694582274,0.4024057943479675,0.3908373926126885,0.3988069477561727,0.3390060377356782,0.38735016778819753,0.4272124097398013,0.3458786609899978,0.36580027325520537,0.4493831027603749,0.4810430781242337,0.3884752539809791,0.3968798839847779,0.43315431809757027,0.45447251247051496,0.44871277290249684,0.4523541898089271,0.4238848436052733,0.4330631404261692,0.4629008672790797,0.4751887470517547,0.42773668584077484,0.48030370887055157,0.5026237655427738,0.46826173015966815,0.4574974905852721,0.442671834135883,0.42872230193928845,0.4206119428548432,0.4334733968689426,0.41792904477322995,0.42365325260555226
0.4702338974751238,0.4388642918905481,0.44865698492803885,0.4115218939447167,0.38170896789518943,0.47716982805085306,0.44193519129452674,0.3947871052130957,0.36094799980909736,0.4428244113677296,0.4519297843983581,0.41853357312144757,0.38579772094776704,0.42175973302987874,0.4469899155969045,0.44660754877885284,0.44017860219878874,0.386653013473887,0.40271711558972134,0.438019483324617,0.4413708315808918,0.4064044051239769,0.4399946574973643,0.49626288581786665,0.454422105500337,0.4605276767101716,0.45303870975119914,0.433377792909012,0.4681099210015329,0.44975268901169363,0.4137980216831685,0.40042486091341517
0.4723588983253978,0.4877041718389707,0.4364547126600503,0.4602725317250732,0.4087459591047518,0.4802011335210208,0.42857472346458225,0.3633294123603871,0.34211674333936243,0.4024509981029944,0.41315036768589436,0.37897569090795874,0.3665346371019321,0.3786705741442995,0.40232469975191404,0.39474193233434235,0.3968757258709227,0.35932878114518774,0.39864248019654136,0.43601125104571453,0.4339716957639066,0.4001861629722803,0.4272307186957427,0.48280239060589153,0.4489892685919968,0.4620667516878946,0.46666317360953935,0.4249826249952731,0.4837966748147099,0.45431703226051406,0.4368526147214018,0.42892823101335625
0.4578868613837923,0.49066067720736045,0.43104063220590044,0.4639718028939026,0.3825077730532652,0.45860007730676494,0.4224054317040224,0.38253111555707753,0.3639516961090276,0.39642195278121284,0.41216004465856554,0.38470773335443176,0.3756146605510831,0.37724617301487273,0.39277491429769995,0.38182887796340265,0.3909959301679111,0.37074768647477707,0.42260430534361537,0.47857229308968013,0.47657689314525087,0.4121909628044101,0.3934846395219678,0.5054947446360804,0.4809585176419798,0.45247635376637313,0.46621464682938274,0.4259832729149834,0.4535372759181594,0.4582826861773135,0.4353056742272145,0.44817554858191566
0.4885776939956795,0.4801505204193161,0.5055263778708159,0.4764877274564564,0.3493871593605036,0.49900376734492163,0.4841296401536926,0.44233900690109906,0.3794609183186966,0.4349506492543707,0.43891112400621124,0.4109797079660561,0.38687152005234815,0.37705710871632275,0.389786240248195,0.39648911002027937,0.39792958879678525,0.3665833364255423,0.4198671078735954,0.4669256421299375,0.4815057821756977,0.4437308579387514,0.3473346254313093,0.5228666058327623,0.5184827540213988,0.43089634962135426,0.4815344342146727,0.45041361265574476,0.46265211757017805,0.47275638883051585,0.3849699494790959,0.4305648913974369
0.48630316209578334,0.4777885955177389,0.5155758575115836,0.4855667954806083,0.3862431098192032,0.5198667084375533,0.486704123955495,0.41874375172554185,0.326281846956388,0.4464607414978735,0.4311743750750367,0.3683109533824184,0.3716819222212366,0.3622815961925274,0.3765023452417111,0.3987628742998803,0.3942872648781999,0.3653504283428612,0.4113100934336545,0.43774597723097103,0.4575263871746777,0.42269271663638736,0.39371774179610325,0.493605588097677,0.5134567207679808,0.4427198031223395,0.49239435651929786,0.4430075103892098,0.4762338516357878,0.45415386666919033,0.380486389351509,0.46139556572767726
0.4564903116942793,0.48940191306052394,0.4670407166326183,0.43643294382720343,0.417035258599019,0.5123739885124318,0.43869361573845567,0.4097550234852732,0.32856709086907887,0.43952050889950695,0.4456184252090202,0.3810007993484524,0.36968048617919613,0.3796085582205583,0.3959031259805774,0.4075581399600212,0.39075361527207425,0.36829797704318956,0.41396255413200694,0.4393259292977969,0.4648440798263145,0.4148545869149151,0.4539298810315114,0.4570974404952915,0.5054242629015856,0.46521964960678824,0.5055185500768576,0.4633301858355835,0.4862776957343829,0.46184770683377413,0.4373420214415954,0.4760937257646437
0.4423829466299207,0.48763172085445033,0.42605206887604813,0.41003991434245246,0.3891140381179949,0.45280658764437637,0.3897334450161381,0.4373896382333652,0.39131914998578954,0.43105836247214646,0.4252093230822057,0.41151470980485416,0.39154285515423914,0.3986034393944126,0.41263175794914825,0.4035583551717208,0.3785746712642769,0.3744020060465402,0.42076315620518284,0.4544333570292876,0.4665579321048382,0.43240557742223346,0.45661582183346927,0.4561915967850728,0.49905740853625075,0.4490414763120531,0.507809185293804,0.45635828253450106,0.49620222376912415,0.4592419554079209,0.4433813096529685,0.44377968410548674
0.4504815143544452,0.46493623143481294,0.39663294438193386,0.4060829040016575,0.3707472787558495,0.4029948769176218,0.3845807872904718,0.40548500309827273,0.4142266694391175,0.4151475093111052,0.40122180517432193,0.4046543588524866,0.39590594968725085,0.4030694083961039,0.412450424806358,0.4015453939314392,0.39102747239849744,0.38021471162784387,0.39616640434482714,0.44476155468301654,0.436481995527493,0.3965685650302525,0.4246188155121532,0.46366475731958984,0.45705296085333363,0.4313191658377933,0.4774032891802928,0.4228820603449923,0.4610399988047919,0.41090594456456425,0.4303343142011001,0.4184662991141867
0.45225159471241755,0.4469151868563673,0.37947209500323953,0.40644708641868293,0.3660049446106831,0.4320934913245795,0.3939378416584074,0.3572599327403857,0.3501628657133354,0.4077188874607704,0.4273061458441582,0.36957938403501517,0.34963172517021057,0.363868140260757,0.3815533466251129,0.39809148331916366,0.39360679055233916,0.35028092223331897,0.37856831748514563,0.422633265386372,0.4246459482925979,0.38432707918068976,0.40654163445790803,0.4564651172684058,0.44046149318365874,0.4143096319916578,0.44803716425801116,0.4172913390658762,0.4612732384625607,0.4114313283355926,0.4116188195409875,0.3932356076175158
0.4540022886126292,0.46068216648934174,0.3874968177316152,0.438259653295046,0.4087376340307387,0.4692843807680891,0.4105326357958791,0.3715018345352712,0.3541171240685203,0.40537743657929765,0.4125136787811147,0.3645728492471542,0.3548661793107454,0.36035117645923276,0.37892531657119854,0.40368079518331423,0.4032247933001268,0.3573988836818886,0.39213591817112037,0.4303601324296558,0.44293080822567565,0.42392308881267493,0.43680854567991695,0.4932267475804927,0.4805588610088471,0.40839156128149157,0.4525156519081218,0.4663435993905306,0.4768618202231101,0.44133067423032935,0.4102865436651645,0.4002639840675676
0.43660292222175856,0.4675645697711815,0.4251609877401425,0.4537924600580182,0.42906496150333767,0.47023564994275163,0.42066553308913046,0.3995758021206805,0.3932981910809751,0.4041057410219032,0.39973527727364,0.3802726653562146,0.3706905499664688,0.3835035253308048,0.40540901577413285,0.4107318002391145,0.3980389380307962,0.36322035351293486,0.36897978297523293,0.415514037316443,0.4155288735832352,0.389611109604042,0.41315438634567475,0.48078650534458883,0.4637632191860859,0.40699994428973135,0.44322885633378634,0.4396804359904783,0.45428806618900625,0.4456150856259838,0.4195779192322514,0.4106030036815806
0.44364423563484295,0.47437816920940057,0.4343971262980887,0.4485245298265077,0.44723998317513386,0.458538402487748,0.442960104326066,0.42795660283106424,0.40380499811400306,0.41880060795499235,0.41987143096037194,0.3877198434910622,0.3774339961425598,0.371448396034565,0.3790441678256183,0.39698601908629366,0.38144187041035277,0.3588112339214734,0.37451944500036055,0.4301687296706774,0.4327264353573694,0.39748101103035016,0.41769997073303916,0.49066464168967105,0.45805626422314105,0.4182384314410388,0.45181110482464115,0.41891730177977154,0.4714399766883959,0.4602954999886763,0.43910897959860656,0.4246066208410026
0.4614830665945936,0.4730268677767012,0.4454605326074419,0.43871826204457864,0.4178765139182945,0.4723847692378183,0.488384324054901,0.4110839352800046,0.4094628182146536,0.44195493921772844,0.47102060618623115,0.4036642243431345,0.42325354193712134,0.3945784060815754,0.3945769521829697,0.41559167266055486,0.3986186862442799,0.39820680976384176,0.4370267839196387,0.48537746559493034,0.4744701724778807,0.45492113649025084,0.4544113276156942,0.5127136951225133,0.47905269639896797,0.436412267168787,0.4631582515836019,0.4322326437083308,0.49567753796251124,0.47011248533323446,0.43842633773551454,0.451802730462111
0.4790665795616032,0.4835751687029424,0.4839334429287577,0.45173177192484554,0.3822070304700374,0.4999844843005057,0.5159663662685448,0.40089289500812425,0.410178587574619,0.4809332169515411,0.5238030264708247,0.44337505770241165,0.41124564078959,0.44249772605755844,0.4673419680064721,0.4714569512567817,0.4357085063064424,0.393732333215622,0.4347234288864914,0.49463866557378033,0.47843084645630124,0.4267748170518361,0.46221031308074123,0.5126211854727701,0.485935931201566,0.41593060238625307,0.4595927070942014,0.460418639573732,0.5222354882146389,0.4817126183113056,0.41445006369386167,0.454982932962087
0.4454733663726316,0.4752563080852196,0.4645163887905691,0.45499045426128204,0.41725307898859554,0.4902964442915769,0.5081064728720588,0.40826554131673326,0.39667812972445454,0.452104613706324,0.5029790178889308,0.4149940866226562,0.3904221852137821,0.40352604250240814,0.4180253848077327,0.42867982586045855,0.41151004184570233,0.3715387741650237,0.383886251744167,0.4517159818732678,0.43892683024296353,0.39375237601021207,0.42282586440398895,0.4946399105342999,0.4747870935923562,0.4064663694822927,0.4747060097341692,0.4629887158163201,0.5141485531385463,0.4813190083547803,0.41771736816669425,0.4382128217872649
0.44838006859665447,0.4817265228672796,0.45801008349176026,0.4700380030722695,0.39075034702060985,0.4678229364185718,0.48917141496266886,0.42433155831421054,0.39349145962631604,0.43985857388822847,0.4727096866432113,0.3983727417413359,0.3943982955022205,0.4004585500809517,0.41788638351351615,0.43774642598414154,0.4281257164211836,0.37714552740956786,0.37026056744742003,0.4362295159324146,0.4268679266631111,0.3728490568236903,0.4199561423215754,0.4988286555410196,0.502594775031881,0.42549789653865067,0.49086528111639166,0.4728436553249794,0.49672715509255305,0.4857416006003719,0.4232945194278225,0.4249212787021172
0.4914964689473998,0.5229875423372081,0.49947149523197165,0.5035633587093387,0.41573965705103494,0.5048725061603099,0.47716666065817803,0.4802674845414512,0.4131021716648118,0.5160940816022772,0.49644898725729913,0.4560510085771549,0.43537009446292996,0.44725460031014036,0.4705368530729984,0.4988702858087521,0.479601199898562,0.4137490624075681,0.41828787749722457,0.4523023799484335,0.46091698780682755,0.39928187924501596,0.45915540636343655,0.5067561283702484,0.5163618135516076,0.47422407783754855,0.5218845863400953,0.4826683137801594,0.5167938005712149,0.5073165261000396,0.4634368315301463,0.4415747158349932
0.48525579337251995,0.5036675927950386,0.4845679218141771,0.49667305932770917,0.4080679701814796,0.5282367560642167,0.492470414800136,0.4477907984344423,0.3725989687096352,0.5102288152571768,0.5060596931158563,0.4336804508712862,0.41035464818101847,0.41392443334072915,0.44218043309311666,0.45137182410075527,0.43061436718513496,0.4196627268565352,0.43148669636189557,0.4798441475356647,0.47871555672237076,0.4424824341229819,0.462170937451521,0.5152819820770123,0.507083576430496,0.496593033539064,0.5035359726307144,0.47473529643109785,0.47701899646859863,0.4652277933285955,0.43959891143686913,0.4519162896206384
0.4649232577663225,0.45403952835587746,0.46606511415141155,0.4689871093120264,0.3681906097594107,0.5133982441984918,0.5015385233748061,0.4037359728298173,0.33998538663403327,0.46235300330658696,0.48194851528119165,0.4092935972537007,0.3837984556298089,0.41086456934913096,0.4337616054036814,0.4361472696742833,0.41894289556772507,0.42089477348064547,0.417475717478084,0.45816153265076726,0.46530890835170424,0.40752233381041786,0.44181664822633765,0.502146095715408,0.46788846699033443,0.45267802043515826,0.44314684134161786,0.44754788467488665,0.4468963177264141,0.4218440078676456,0.3968130160205957,0.4300956162756369
0.3884933121258709,0.4612267081621975,0.2795878750779271,0.43716574954821247,0.3833085272844506,0.40740781791526975,0.39209462475973644,0.359508325793034,0.35743654724749857,0.3889754357487806,0.4536408817082667,0.380282292516872,0.39669791472133903,0.40439544644814707,0.42350666057655795,0.4282628134434029,0.4311702681924165,0.4182508596310347,0.40751875118259123,0.4158930694737275,0.4141986103503505,0.39288421065077844,0.37198496186440944,0.4482666771976052,0.34906122783810856,0.35528557200058536,0.29978497886402167,0.2627487589360261,0.26953882104898746,0.2441745942113818,0.34257262259743526,0.3900260157727557
0.34379841547661644,0.5111588248055002,0.22164354922061444,0.40792121042428575,0.4041770745871781,0.35674438892718224,0.3380042922943514,0.33690444239059564,0.38375888219335796,0.3642322311709301,0.4120429626228874,0.3670299579647795,0.41700151685995057,0.3918493372469504,0.3975449381409484,0.41279707886569894,0.4279355088392326,0.3988525593555872,0.4135220672083942,0.43186248041752523,0.415415263727814,0.4038178088678305,0.3432287581136195,0.44526432137243155,0.31042805202577767,0.30130003743921274,0.24003531755523377,0.20264642470000635,0.20592383746567028,0.19580451560721526,0.291106514331841,0.3573086300641328
0.3410231303166428,0.5103990528650798,0.23344995259833504,0.38429500383255166,0.40480563396600394,0.34727904058587783,0.3560642683941905,0.36819237912678016,0.4013380919712785,0.38683556058588403,0.4131557309550567,0.3946593101513868,0.38981713653451616,0.3945929799953698,0.4055886610184072,0.42067971981805485,0.4175013668197107,0.3715222485289907,0.3745182814543321,0.41433174342061174,0.41724124120588585,0.36678092319366373,0.34282281849437957,0.42291421193818174,0.3053944393163835,0.30069922746714756,0.2506331180247829,0.21039882239502078,0.23075347695279963,0.196544757129513,0.31600508921513126,0.3531108014817393
0.37534771835582104,0.4902227463592472,0.2382791005717935,0.3468687076996626,0.3713545052936849,0.3227249511593508,0.3561049555581096,0.3622713369021324,0.3547148551488598,0.3656659932559179,0.39586963327737873,0.35629906629445895,0.3601359070786485,0.3495333654456147,0.3689316962313932,0.3833465369298148,0.3704675505918039,0.3474126177155553,0.3519862447151794,0.3636632677717757,0.3907292410567584,0.3664072974168189,0.3508299029676075,0.3971323680712412,0.3257368445522246,0.3018999908009412,0.27784560999028357,0.23191437415802374,0.2589071694347621,0.20719921890705506,0.3462778373014971,0.36317873869218814
0.4275714655736704,0.5002088493505803,0.2917197829649643,0.3654394406687838,0.37088339908873225,0.350814824372795,0.4103037790614285,0.3582369678884864,0.3751017991822096,0.3899480707716051,0.43199753410567204,0.3664133089679392,0.38720216715106837,0.36302977194539404,0.37184959586712507,0.3784777560169639,0.36920411745259735,0.35393134978603535,0.39943773800279586,0.4074810594935487,0.4536843487652734,0.43549773275665116,0.4301877437530591,0.4983469633339714,0.45652576816923623,0.3575360856389166,0.34105118365786474,0.3202365583267215,0.32464597553559305,0.2789938935430632,0.3569242062405134,0.39828960179666595
0.4563391426380916,0.5129961420596926,0.5126181517159911,0.46864592207366457,0.40233472611352794,0.4888120819452527,0.517301353544296,0.44541850779500775,0.4052462095249895,0.4648202948776764,0.49291895484917286,0.3982981443220842,0.4103090300721116,0.39266129830116925,0.3952742793554779,0.3801274925354282,0.3704815357196175,0.36218383863545317,0.42883569970211843,0.45438350420011786,0.4992646498158568,0.4541408566571562,0.45123492300954915,0.544147410799818,0.5247166060959585,0.4551675156720457,0.46303966555001014,0.48851299998746395,0.45297634133223147,0.45695598947164207,0.4191720196432756,0.40883957104876684
0.44991358989983166,0.4742437825300954,0.4733884151651627,0.4604385464210532,0.3739632495244068,0.5159830905186248,0.49096418310161394,0.44085709502445475,0.3987383166566647,0.45746751018362,0.46781354104379186,0.3903639796921622,0.40767616806797463,0.3796376979802036,0.38571056434426765,0.39147214856306145,0.3867706060512359,0.3835380749249538,0.438575456902867,0.4558706314923869,0.4868281034180294,0.4491170640402082,0.4311655816916315,0.5134623726313233,0.49212887705384273,0.4156723452356716,0.46433126789636714,0.4739535674770851,0.4758822695514431,0.46755459675176436,0.4210188390252904,0.41820252344933523
0.4410810310525597,0.43077084276013344,0.46827084635608357,0.45211844508959,0.37840650210264576,0.5230659383529732,0.4765717048848841,0.42342101204346055,0.4036569923264903,0.46932141703702673,0.47386453403645434,0.4057412965770203,0.4074097320360499,0.41076770267409,0.4162076658858852,0.43311964304394707,0.4307765336603981,0.41374428419186177,0.4402206740779446,0.4861351849078609,0.47216430996809056,0.4306333142678828,0.45007057650723203,0.5018527892244986,0.47322081561891494,0.3877178424637997,0.44129275077771524,0.43164749101709265,0.4762482459584673,0.43304173024509574,0.3910942216958797,0.4484422793792038
0.4519338220287025,0.4574435777990678,0.47480405316949875,0.44474865258295937,0.40840097345529175,0.4892213171507776,0.4669026219393083,0.36335142285346206,0.3554215513728722,0.4165199254567768,0.449256335053691,0.3751166487040027,0.3841291374195041,0.3802322231010275,0.3896338658160861,0.4135959861644883,0.4135955761697408,0.38706786485634376,0.4224248372724549,0.480207015372842,0.4663403493476497,0.39492161012558835,0.46499197056138003,0.5131395062754359,0.47181486547539736,0.4119075109532607,0.44538369829898417,0.43746622583107725,0.4573405843383219,0.4173720306030215,0.39946942002956903,0.4209617059377701
0.47296032028314666,0.4912320957408784,0.451500082634248,0.44926173815107523,0.4046064518248433,0.48301814212431765,0.4624888424047777,0.372773918728887,0.35364772676567363,0.4104360577096131,0.4453196334701354,0.3827050139432695,0.4064985356338947,0.368072087475596,0.3823291750662604,0.4209517442363725,0.42182948325167874,0.400440713005364,0.42906730008341687,0.4607401542525092,0.46374197116377663,0.41185320839367556,0.445659367495033,0.5188105968583897,0.46576506418047714,0.4258981254218882,0.4548264317231759,0.4700440962683584,0.4781331942850001,0.43584249685144727,0.41130981376226866,0.39471830405043706
0.4781259963730092,0.4928745878161699,0.47811476272805337,0.47743513887727357,0.4018220749918074,0.48721907352744914,0.47118562388619045,0.442605164644172,0.3747042590314384,0.4519031532457711,0.4634663550636499,0.40198674510482907,0.385522166209116,0.38815044956714756,0.41402040628774817,0.4378454401520717,0.4149891152689518,0.3621671843238918,0.40320397152987186,0.4435315336053561,0.4700878314587209,0.4198054954875317,0.4463557191349934,0.5284119510441906,0.49588201347782973,0.4334701839658984,0.44803194003558533,0.4817185058062077,0.5228471730312655,0.4599565541840234,0.4074988861299247,0.4158463932507838
0.46366883887978794,0.4720977485828616,0.48245911541703407,0.44213029938918313,0.3950822250178462,0.48914946757264216,0.4529834521292477,0.428699191781802,0.3818107379970764,0.4567038672390877,0.4461895198609137,0.42078693162480046,0.37469293086348193,0.4077092237590086,0.4297134427261541,0.4395380909442681,0.41238951159495435,0.3441140960739043,0.3858886800039567,0.4436320511200916,0.46907501809063057,0.3969646602759236,0.45482098581220487,0.5119227179302875,0.5018785404372164,0.4486612033795309,0.47295715636534147,0.46575825481418076,0.5155188603858608,0.4753437024651618,0.422047215544027,0.4454794488469154
0.4438605814600625,0.456522119283919,0.46011505569417593,0.4041284276390925,0.3921889942671057,0.4998959121268863,0.43874149057459066,0.42886410154617466,0.3899620250262767,0.4493351139375451,0.44789513056591534,0.42234246074949394,0.41526321911419556,0.4096961631143761,0.41843341917012195,0.43008766425658385,0.4254103056637574,0.3541412603033335,0.4170587412759536,0.46677909603395457,0.4791965051183129,0.41074655234374563,0.45827881271384746,0.48521869964976033,0.4862222492162605,0.44989048474029025,0.4827251246607315,0.4442498221804298,0.48597503868164926,0.4854687416790734,0.414639482562278,0.45557257230328313
0.4278653591532031,0.4942351610526423,0.45118206221079277,0.41309766418049254,0.42920549473969954,0.4839233379221094,0.4647476433643121,0.48810913762248714,0.38687391683014405,0.46035345754270734,0.4496136505394354,0.3749826385155031,0.374064757660898,0.36048550193662887,0.3668195975266277,0.40556104951833,0.3929219178516143,0.3433264831548029,0.39985791258855524,0.43334021760532565,0.44802699433497156,0.408491907363827,0.44816301523519636,0.47683293845027436,0.45105829074978004,0.42432291841174946,0.4481990528734165,0.42284812147719514,0.48050757569905006,0.44158824488493104,0.3985796767163647,0.4185969401390845
0.4410990068996354,0.5071663774963012,0.42690586099754196,0.4431703260474569,0.4120545237897905,0.4398062171766301,0.41685287626059875,0.3941065273843988,0.3809950247756402,0.41118112828719755,0.4117277261404325,0.36951670933172415,0.3553850442645481,0.3446886841220525,0.3472762866846289,0.3773544849466604,0.3631826849428475,0.35681506896277887,0.38517436572466446,0.415202945031161,0.41991602256492017,0.4016282043246329,0.429436603702326,0.4647166057831703,0.43099844235337353,0.39505219568795585,0.44296441211392784,0.42331781142944747,0.4571777433349904,0.40202378572273817,0.40191495128096866,0.38939367534804525
0.4684305424223727,0.4803587569400654,0.4310972438746715,0.43724560795304374,0.3641110083796752,0.44593096565558565,0.42441521821019085,0.3691442939571184,0.35975703983365,0.40235819186009936,0.42161158074406824,0.3577800414592665,0.325977460035037,0.3585592185250584,0.36888338545337074,0.366957236402467,0.36127451996009413,0.3563693025527514,0.3706414277686842,0.41972408159366364,0.4383039299207503,0.39048207825512,0.43928009510239163,0.4784830996773358,0.4622699787953476,0.3950872306995323,0.46868915804933303,0.4484368804442687,0.4632535499612177,0.43906278001134563,0.40795643180989755,0.3816665893725488
0.48267670771460314,0.45225431450964204,0.47359555277912047,0.43264556539192767,0.34901927011259787,0.4601696919804071,0.47235172150338645,0.39252954377214794,0.38770896494289553,0.4384260961878507,0.45682530354011514,0.3745135677601222,0.34155092009461285,0.38795003030392605,0.39831511110927675,0.3949781781331712,0.3921147561605269,0.3516446581866634,0.365128867785755,0.43983624624165085,0.46111912297932595,0.37840947706595557,0.44168543561560625,0.5002074837887994,0.49204411094828165,0.4043602049431365,0.4844726533789954,0.4727932527107419,0.5055359395264559,0.4571907817943984,0.40187107515743065,0.3914495868706078
0.4676328243100841,0.4961882260547427,0.4948379824375375,0.44773198287392957,0.38159344215482954,0.49979224974840175,0.4963945529560581,0.4172559829046649,0.4330701313741371,0.45809666452068315,0.501106934141272,0.41579989612569096,0.418411523645325,0.41142183662590637,0.43207452492575105,0.46592066033831314,0.4577208923578517,0.3812550707594764,0.38856343437975915,0.46556411537741094,0.4646840290808681,0.3877920200951032,0.4362379297476425,0.49868909758048136,0.4996991909245081,0.41808350817965145,0.49061394031867184,0.4728954455493346,0.4912881982055949,0.4547644611978904,0.4059067231897586,0.40857234576534046
0.45178790791376094,0.48831689292362024,0.4887439612713196,0.4384611260678248,0.3780264968923086,0.5055112459347659,0.4866145759175673,0.4138222490759813,0.42245442612440515,0.43924396613593253,0.4530942997622248,0.3946055649319595,0.3886395655766701,0.3693798860217582,0.3891027742977775,0.428983484466824,0.4373959364935389,0.36724766739124254,0.3933399897886241,0.4561695201492233,0.4633533704766918,0.3992497979527539,0.4429515330584593,0.4773192379528321,0.5012299573707282,0.42875039292893335,0.4775613444092125,0.4511359511267479,0.45767651355160216,0.45093371847374786,0.40772261392356446,0.40494203095166686
0.4508785250477662,0.48110237025982716,0.4639583297194531,0.4689030549730095,0.37943295240973823,0.48351109179787827,0.4506565581205644,0.36131531195269134,0.34879120824918575,0.40526905692449994,0.3814536712229528,0.33158671756858193,0.3632725082649269,0.3102383280211233,0.3229653283894277,0.35741930420538137,0.36403732769267233,0.3529771589925856,0.3898420369371848,0.4297860802321954,0.465849915485208,0.4065530105337051,0.4621983018194952,0.48995487145561367,0.502031486126976,0.4214251310711721,0.4679424524957565,0.45284799997076497,0.46159756776011185,0.45207470687457385,0.41084806541934865,0.3879047968876863
0.4539731507421103,0.4686463492878752,0.44514718995167146,0.4794465487151908,0.410074797307276,0.4758705993719758,0.46447580797999666,0.3930351058801958,0.3252330901981798,0.40136768636589776,0.4034027475499269,0.3175598016139503,0.34137151805858573,0.29869049837716455,0.31332684313814774,0.3515736936639374,0.3464189926226676,0.3382289165555184,0.3904214721140485,0.4314972688694172,0.47685827059606717,0.41455234700278243,0.47412218825506885,0.5150853492450185,0.5021132953925294,0.41754692960245726,0.4572279787038622,0.4503545291111036,0.4784534494628215,0.455067383027182,0.40577609967546,0.412089703572613
0.4663791517083572,0.4840850990274573,0.4678149484523142,0.45491155875882056,0.40049410116453316,0.49123865144605483,0.4806982104917299,0.4511596371931788,0.3847521120477621,0.44683140331714793,0.48079955518668027,0.3917107552777712,0.3553122265691682,0.35863590877404605,0.3845539349538842,0.3820300444083342,0.3930268781607952,0.35799384820206986,0.40899045660897454,0.46303498502836726,0.4726440115217815,0.41795839566699744,0.47354368821258386,0.5077422327959239,0.5015141103470218,0.43636336465737335,0.4598922149567925,0.44327417835762967,0.48740164257157603,0.4772001329422988,0.40137415463425946,0.4384832983458205
0.4650936026305615,0.49726749582792934,0.4790460108389479,0.40895569410641786,0.35576375759731255,0.4949501147768938,0.49753182269864904,0.39799781720500865,0.3553498350111585,0.4457362913178085,0.4829645587574261,0.3696618940113326,0.3568192740281778,0.37825420771205703,0.40466072300307054,0.395509975123348,0.42957211806564705,0.40155646430871533,0.4069311385423064,0.45528216603494576,0.45007173271842404,0.38577166849213257,0.4590448480868484,0.5020495485986044,0.4967005813358924,0.41460827271150913,0.47292718971280107,0.468899192641466,0.4922776047140308,0.4820968989209251,0.397979091924076,0.40039183024228114
0.4837785902244087,0.4857729874987013,0.46578408254898745,0.40748171349617723,0.3763693913968567,0.4927665190601889,0.4995787789132887,0.40015915998998675,0.34453840156588844,0.44463192753323655,0.42829667988248954,0.36296148719226196,0.34166966593168774,0.37323479821747246,0.3818864150845461,0.4094797312988005,0.4118621319638119,0.366642063097875,0.3872663561858742,0.40598464105940063,0.4307548285900708,0.3850902827590577,0.451366820732681,0.4958097789991264,0.49878526487053326,0.4178379349674622,0.49302013589963506,0.47943736909291146,0.4982736535670574,0.46838023984112737,0.3987112664728479,0.40931150988104165
0.4818873378698403,0.47551311215162045,0.46857697271344245,0.44136905246860103,0.4166417526699132,0.49365511928632816,0.47680420519434297,0.391934306345508,0.38995365225353307,0.4437682542379119,0.3916895438732272,0.378278713175593,0.3664915877130433,0.3545987043338247,0.3499618140148708,0.3783370776507539,0.3504963025079236,0.3251184416460506,0.357622078696099,0.3701436786414137,0.4175990949593248,0.41576857937363293,0.45314618051201117,0.47373505295710155,0.48430233545589146,0.45976864354014074,0.5004300124965705,0.45937454751852436,0.5041259138980353,0.4349092412620976,0.38915864544512296,0.44253884070049576
0.41504796738328026,0.44053858580998145,0.4495425730943096,0.42484603454291475,0.36787331988730493,0.4824356682011453,0.46133696051018225,0.37222028143708696,0.3510387168890218,0.4331032563924492,0.4065854835762939,0.3365561828463849,0.3394599997731349,0.30856498955087897,0.3166626632208156,0.3331824979216244,0.3262460046513137,0.31467855808891143,0.36531239306321023,0.4121956089505674,0.4396969957422567,0.4155039364293079,0.45242910281482873,0.4752324220949613,0.45861465023658116,0.41634836535068537,0.4435162629097577,0.41285376932193524,0.45963495700437174,0.3696854371241451,0.3689645123962663,0.41951384215573473
0.4388145443784983,0.4388304771094877,0.4491316382279767,0.4445876684861968,0.37192027023072777,0.4681855452916898,0.4545300073426082,0.3905769700930906,0.3273146098188084,0.4502933683473683,0.44992923085349884,0.36397998009862764,0.34921787526561676,0.33642438818476617,0.3422209368007302,0.35689690472243224,0.35992196608707105,0.34866331625928293,0.3942139215580683,0.43187224649861866,0.38507709987598754,0.42461599114274756,0.4505571612575296,0.4776207592162798,0.4536735492608012,0.4239039658915634,0.4404314417583618,0.42713564814869087,0.46249350740842293,0.42320937787749763,0.3999176659679099,0.3787446946841142
0.4354517258184884,0.43624949222056253,0.44550159492245267,0.4477117311045943,0.36354217470917405,0.4649157041166962,0.45296408584694237,0.41952227613824533,0.3502722283102444,0.4421652647452051,0.468449299418182,0.40267794469905877,0.37484577769850896,0.3827568694606346,0.39151262297015255,0.3966440549009935,0.390057838498425,0.38063381834922444,0.38498797987407646,0.41958202470177636,0.24159494166964807,0.42274708399915806,0.42236812363783155,0.44196498326897204,0.3960290957683041,0.4222950798858727,0.4116389532364105,0.3779749111059738,0.4323944896400669,0.4013550924456292,0.38761073790417555,0.40948723895170613
0.4045272930246872,0.43702559130738244,0.41570692454625285,0.44094554279880105,0.3407864831655647,0.46419975251807094,0.431902803925921,0.42476566418847084,0.3080181091975701,0.4395609190132976,0.45542599415019475,0.381901677181782,0.3432202405794136,0.36877782672764725,0.39811635677187923,0.39747923972121224,0.39283197503907324,0.37232562456371454,0.36228796835640964,0.3924237310380079,0.22885364456753576,0.3969365296492558,0.4018693264745932,0.4147921860196556,0.39596184435402487,0.40178707209706205,0.3936627854094372,0.3363268245981398,0.41549488449621086,0.37105056640100037,0.3618461312472218,0.43673015407527144
0.4183390960162699,0.44277536706282816,0.41421919223966797,0.4377722124584799,0.32595854400025615,0.4724432267490288,0.44881816125846424,0.4342193377146808,0.3081290606715878,0.4532821655705166,0.4726224349562117,0.3717922333290862,0.3577381937973609,0.36948033871246017,0.40188632393909113,0.385630712250414,0.3878258930166553,0.39011399288936227,0.38557491250390996,0.41100307065989417,0.37568351716926746,0.41601867774547246,0.39905135077895265,0.45775679081853016,0.46371231246166106,0.4180740799328198,0.44295185373167373,0.3779851099182232,0.45363394468278023,0.43701384714982616,0.3656825066585276,0.417866223480655
0.45219749358925077,0.46031869966371713,0.43772041705212916,0.4317379334084604,0.33919265342052785,0.48340460389809986,0.4737097036782098,0.44298561113368756,0.4122941747604783,0.4280610900758692,0.4675840173702704,0.3749809862363148,0.3830745546239137,0.37578970992773303,0.38310536899629916,0.37112903946364983,0.3669509403755907,0.37075676767927646,0.40602777224610576,0.46474997468788043,0.4460036050151908,0.4272378844794937,0.4371420243684887,0.49119407576117835,0.4963484710082464,0.4431203103897452,0.4853911658354594,0.41663013951026745,0.46682145755804116,0.43505391296210816,0.4062114715569103,0.4461417538982901
0.44090167332662655,0.46865167929283724,0.466783092691122,0.4197302358744493,0.3456180646088798,0.4519673609670248,0.4617011166921165,0.4338916940213613,0.37345954142112,0.43360684451425546,0.43133093108957915,0.34433105994238056,0.3237425060385603,0.3222294761641268,0.3386285413807344,0.35848275211801794,0.35091058469991426,0.33602604895856714,0.3841351006118786,0.4307952841249534,0.4550296260495675,0.40513460611266777,0.47650263532286985,0.49036248687627654,0.4828970983332029,0.42690332482312165,0.45900477094658376,0.42727507757310385,0.4670330090929405,0.4111373959207265,0.394134758561552,0.44596775615795314
0.4427030065797112,0.4731509231292563,0.47785852943855395,0.44178448074012666,0.34439837066716567,0.4600537419133153,0.45220583878801585,0.4571798801003619,0.36479748328179645,0.446319797075402,0.42574585405486365,0.35575675548694663,0.3220351723967982,0.3199185759901487,0.3400359232410882,0.372713648789431,0.34850545897912855,0.3283478057543093,0.370984886893645,0.3982313782720344,0.45057856975145405,0.40848519679579776,0.46465912984368135,0.5014823307936948,0.4990066413425292,0.3917274532917234,0.44085179529988366,0.43526797116530486,0.4797125087913192,0.4439838713829449,0.3780356881512283,0.44139833248167265
0.45763027799570793,0.4807466225276318,0.45057475483212384,0.4732600933244163,0.3633904556895827,0.4876889018516953,0.4952611085051473,0.4544034910411188,0.42620468323276706,0.4605586437523738,0.4712955371805266,0.4218994909367479,0.3979747978087117,0.40492617592741015,0.4138020767000578,0.417487701451839,0.2700207183948232,0.36384317761099416,0.39744791816245983,0.42153430519038915,0.46215739090226426,0.42591415111379866,0.4867310591147469,0.5206047360780752,0.5272978060551661,0.4032078994753193,0.4814716284141654,0.4716178896644089,0.5032169642632969,0.4643322246144087,0.408452607592475,0.4411469853336145
0.45179974144024704,0.49632521351994613,0.4400908953906625,0.4678621907321668,0.3696991613268083,0.48777154190483946,0.4936534691525213,0.3662443393472899,0.36261513630538844,0.4328211486306884,0.4822796281037952,0.37162759593779293,0.37472738408637074,0.37014766260194365,0.38398059158049996,0.3640501969945234,0.26252001744405395,0.339011073721604,0.4016418438108181,0.4477122701216599,0.47703078994406223,0.40983068755897767,0.5076011413170304,0.5291205582337705,0.5127903884969346,0.4391025682806554,0.4934540672255083,0.4760580557529412,0.5017844775833459,0.44336687663858243,0.4105811022549115,0.41243918097121846
0.4791701328253152,0.5145603594890258,0.47832953271574,0.48431860406061167,0.3682433298327671,0.5101956651108297,0.4759646154133688,0.34785065794699743,0.3208740344192595,0.4076133432831921,0.45268237963021635,0.3403684602120724,0.3344922121786627,0.3420014597623951,0.35888793857841594,0.3504545291653376,0.3212635786020599,0.3141913937323935,0.3560959998968356,0.4296836929869275,0.4584201800725038,0.3655665577208633,0.4641022528271678,0.5229714543564453,0.49361186438015686,0.4232638259903874,0.47784714518087584,0.4754297191304508,0.49511448459459506,0.4525419023253938,0.3788944602010862,0.38879275937390656
0.43838362199929976,0.4176947291210368,0.47821585165399466,0.4651700633140845,0.35725808064676956,0.523913800896581,0.5199085880051898,0.3624785484503093,0.38695759007187747,0.47227158210840603,0.4984724037034546,0.3688665740104259,0.3524445189322478,0.3531473040658193,0.3623537017607943,0.3617832005779587,0.34061871867467375,0.31513812893076015,0.34523444260007746,0.42624965584775837,0.4443834410842018,0.3628804273944426,0.424367103508603,0.5060035881476742,0.4658494268962292,0.4140200800962479,0.4501300508786059,0.4255616091446124,0.4621338321286693,0.3996990810404653,0.36232155983668657,0.38059291439573195
0.42141527925601596,0.4684073896219216,0.473750098144072,0.46776485956941305,0.4096814209340137,0.5026098482897261,0.5202094037345927,0.3695002736254671,0.40669295903867825,0.454556043943499,0.5045187858695176,0.39103123114638927,0.3932818737331705,0.3793979888660477,0.40666927723947,0.39474763210085945,0.3752891865460214,0.3345737919789895,0.359403949756438,0.40484529497849636,0.4228488346716839,0.4072947085399722,0.4331111649869605,0.47738679578667054,0.4491648240189015,0.43803088163376447,0.4604842766385017,0.3910368838543204,0.45827158873388574,0.41273565758516173,0.41374388164953235,0.42147638926827646
0.4562848103652337,0.5243415370142422,0.5008396090874976,0.47965273760268107,0.42212721439626066,0.513141551537385,0.5142921451166127,0.4117814966704509,0.4001338436453314,0.458728517420714,0.49040471703575733,0.37809704060546095,0.39970993482414663,0.38624669882274176,0.4248833465799174,0.4172762532032966,0.41422406204931184,0.3526948280869075,0.37364684826354294,0.4184393048536245,0.4452193317256113,0.4278189944919863,0.4679381634839196,0.49559856403063796,0.49732185289241926,0.45267565962818773,0.4929179461143658,0.46033916372495826,0.5105811493602339,0.48308571816509377,0.4465390509163929,0.4553514749482013
0.46968294906023944,0.5082360803735301,0.5118814798793548,0.46119198186408583,0.3878924234709428,0.4949645940063526,0.4953942014001273,0.4179526841698133,0.40880495189334665,0.45742443174411446,0.46480661742005364,0.38606940322525185,0.3859513168947136,0.3830998310651082,0.4069895160456801,0.41674068515148266,0.4205923814282187,0.39381387559626446,0.394751155866674,0.4261651131354509,0.4490831799933962,0.40758616525593394,0.4637343287930581,0.4899171369242748,0.47922497982491974,0.43961763604965287,0.47002689944607073,0.45898137533688405,0.5082690757678203,0.4746690703539447,0.4210395020740127,0.46573069644409215
0.487876340628577,0.5096943242743014,0.4873074817834273,0.40592679098386075,0.4030111851530071,0.47330868112237434,0.4841813024433953,0.4175237655074729,0.4188680649859773,0.4330138166860103,0.4399178596262215,0.41613126127372235,0.4066485867571327,0.4030902404122642,0.42235073510698096,0.43237757996435366,0.40492827931632047,0.43571184575795235,0.4050897505734083,0.43180904100440276,0.43268704310399736,0.39942002461117077,0.41287445919815513,0.4867013003823823,0.45874945109386533,0.44588307792691173,0.4783639210479905,0.444475665032524,0.502465447245629,0.47451733526772033,0.4280766180696174,0.45773361554914027
0.4268669959417073,0.47760249561958235,0.3977052206472561,0.39452717914856383,0.34941819412400715,0.4450374787838876,0.42951904305966854,0.38887983891514255,0.37348265618374854,0.41569368530101225,0.4276449682691939,0.40196798347079254,0.3918513780453846,0.4015903185742552,0.420760433658161,0.42024333788367885,0.40011863153933913,0.43361679356057115,0.40391992494428086,0.43219176592309444,0.42513980777235866,0.4138690362824047,0.3893504496530892,0.48021691991891086,0.44994451700396804,0.44329234770546605,0.44682371158828543,0.43229536461442597,0.4496665382682818,0.4437997432443773,0.39397335715309223,0.43685518298756454
0.38917007282511207,0.4411023733448362,0.39567565679977346,0.414146925024814,0.31492347463097276,0.4335516020558003,0.42414740527303724,0.3841576531253105,0.36237135963563455,0.42365899214982244,0.43623800269197177,0.40909003427653234,0.35771988830654655,0.3891414576514008,0.39775365213567637,0.3865042828924821,0.37462492730936287,0.3822302320087111,0.36981099831432185,0.396616847563141,0.3911173541648944,0.4024770150781079,0.35395079495409837,0.4464813558643605,0.41241321680797727,0.391861227250787,0.4105442498969414,0.3972925449856756,0.4141789007308732,0.4106153650012824,0.35452095637717546,0.42078803175788315
0.4392314848065064,0.4549798374884947,0.4742218999865984,0.4376766323895769,0.36553962495601827,0.4820468119032213,0.463065966175249,0.40083438704841007,0.3803428009842552,0.4348857202308008,0.45889825334222656,0.4105358471661984,0.35229768583993987,0.3925563624137192,0.40583470177252123,0.3940061650532756,0.3833571330358719,0.353605350163716,0.3720890133559031,0.4251527436961611,0.4096406345521818,0.3862888657903299,0.36921872506980596,0.46389235480667296,0.43631739530711205,0.3853366884911217,0.4176124989102659,0.40364121051072077,0.454950937591779,0.4247449763678055,0.3782875307417695,0.38761704630173877
0.4673865238355302,0.47139750669036584,0.4630016727920532,0.4263891040924852,0.3733416557052061,0.47190488199981234,0.46519210420682056,0.41039577662732163,0.38423291043908236,0.4100152933131358,0.4609566285287084,0.37592640085090373,0.33424680874467644,0.3611371484020021,0.39069901476446844,0.3993703490235966,0.38183564456931446,0.3427173101846666,0.37926318107281876,0.4411125328124137,0.4533810148716673,0.3793653124221265,0.42528609742195095,0.495622782763044,0.4645207109067979,0.4112219462763954,0.4385537344005374,0.4480269787230428,0.4697082995039413,0.4434461964433892,0.3936962489303064,0.3657211107416005
0.4610287042287407,0.4649357108525058,0.4106869334127049,0.4296403144433472,0.3519224345666251,0.4492143632523852,0.44059783616835896,0.39530169186383307,0.36571292788619536,0.3925668204161246,0.43531652406125243,0.3635998432157478,0.32639487200555123,0.33569449867667106,0.3580451987651674,0.36331594875469103,0.3507813426710227,0.3267485127028792,0.3659690049588541,0.4160637397075299,0.42907810089642995,0.36608653085606413,0.41166621866316566,0.4913822780527417,0.4444453651922834,0.4047427509364683,0.4480924728966188,0.456069267447158,0.46482969065953295,0.4641114794915466,0.3869522170012822,0.36743321721177674
0.447218605253152,0.4679028542340304,0.4251098406051052,0.4638580051111388,0.3556646917877334,0.46301016684014173,0.4348853506487941,0.373407995983837,0.3419580090927185,0.4076291001862613,0.42493573543305546,0.3610005779878331,0.3498486448516728,0.3388276608872268,0.3591742639954246,0.3545013472191913,0.35292914548090387,0.32483988515440176,0.3818204977034032,0.4189495647446494,0.43241480668696675,0.3753949039249147,0.40493416056000825,0.49808098061299316,0.4483690438673861,0.40030975408601127,0.4683460822300933,0.46037146318004973,0.4611294251393802,0.4747196027337664,0.40328980458738994,0.3879018515224851
0.4621139107877585,0.4793572670804303,0.45553694048050614,0.49287991431885825,0.4012442210872032,0.4406826300881576,0.42897285798567547,0.381631827018886,0.3378551603305912,0.43417864656434646,0.44069125786239416,0.3715250813654559,0.3589822450828372,0.3696285520328151,0.38652491474349104,0.39397223854745983,0.3973433125406081,0.3691637576820293,0.408003531228053,0.4400919279367922,0.45414962571137296,0.39448131451206453,0.46244685234324545,0.49199389639680097,0.47374524949771657,0.4107921071002221,0.48561236750753567,0.4731893424011367,0.4844158143471414,0.4755323256592632,0.44065905900163127,0.40046867173396433
