Fp1,AF3,F7,F3,FC1,FC5,T7,C3,CP1,CP5,P7,P3,Pz,PO3,O1,Oz,O2,PO4,P4,P8,CP6,CP2,C4,T8,FC6,FC2,F4,F8,AF4,Fp2,Fz,Cz
1.1701170514711308,1.2062666414990846,1.3058131140133868,1.2724683773439827,1.4451039627624116,1.313586058260238,1.2944276470804945,1.3166232217071652,1.433267168805557,1.389188609547494,1.362470549496229,1.3559183681429916,1.3749740170560047,1.3855103999000196,1.431561941842995,1.4148372457804754,1.4563947059132556,1.464572361910849,1.4106265730581715,1.3777210122067827,1.4077144604137084,1.4382277957648668,1.4577385119048623,1.3905031640953704,1.3757539177013047,1.3735628070636399,1.2545499034449374,1.4172715489548304,1.3728608219577363,1.1670955163081806,1.2914114100403737,1.5375765118122977
1.1894164790695714,1.2449646373711005,1.32917100402279,1.304572960739383,1.433828750596892,1.3505609949396509,1.329601288705316,1.3481548760553643,1.484947314425674,1.438423941280824,1.4171378644971657,1.4673691362880033,1.4694048286164825,1.5042710156435999,1.5390826306608196,1.5116206611248173,1.5378847413044674,1.5167672808762964,1.461412672780743,1.3917041654668847,1.3726108774694146,1.4311960272392636,1.4221269910004286,1.3328711903644983,1.2589566634519596,1.3291497364557738,1.2472832690883593,1.2445176155881588,1.27675802421018,1.1855085241969094,1.2771941150877864,1.4701279200692492
1.199272803157962,1.222303842772441,1.327641040119915,1.3194197267730488,1.4387752044476942,1.3159849269552826,1.3234039842668903,1.3181150900939071,1.5300897383077026,1.442514312174371,1.418781480085861,1.4275370702524228,1.4678479109062572,1.4519702974407669,1.4734605960305853,1.4798788406671821,1.4923522098845705,1.4970144555378524,1.438346648832751,1.390428207651896,1.3329032118715614,1.442094249285978,1.3821399847086546,1.3199154585252983,1.2690115905947477,1.342699414782823,1.230150556670299,1.2705078682826998,1.2860890461118628,1.1996391956611607,1.28920109963652,1.4918529635595164
1.2285634221178336,1.2700650396024653,1.3199345129564237,1.314341749159851,1.414258504782486,1.3224224842621544,1.3308702498806873,1.3277775670036944,1.5073293560244974,1.3561718046169855,1.4054900329432927,1.42671497228041,1.5411274267723467,1.4686834399056559,1.4580874316491428,1.4870769682592146,1.532528748178092,1.4958780802096487,1.4805185260704548,1.3596824900233113,1.3884692857179757,1.4918264567106214,1.4361147107632322,1.3824364268113327,1.2975870770453741,1.342579312634023,1.2649393386605714,1.2851416211011824,1.257683813493517,1.226720764417766,1.264839654988059,1.4812191122779212
1.2436066583239325,1.2851670573266383,1.3303770097818344,1.31003367270567,1.4300339634331958,1.2958765096341731,1.393188161872612,1.3464404760925237,1.5491710943385792,1.5090386195929568,1.5040375576167966,1.480379395362197,1.4586613384626252,1.489766985045213,1.5205163675420152,1.5260388137645278,1.5440772411947443,1.4851581408872534,1.4491595906663621,1.3868257014499705,1.37020575401093,1.464338661164615,1.4118979005763224,1.3799978695959152,1.2916101340095554,1.34055248943137,1.2593780857696402,1.2912781135025744,1.2276990301684418,1.242655424773427,1.2725804492411938,1.4705201701124015
1.2302577331539581,1.2997849414858438,1.3216668432540568,1.3166243732573333,1.494533860928287,1.2992313244373168,1.3473038764128646,1.3689988391460999,1.4768414987207545,1.474203937893589,1.4848602704346983,1.4484781437742507,1.470220979048417,1.459577093561903,1.4901186717464898,1.495485468278896,1.4929473583032913,1.4782029642000944,1.475459412238908,1.3806590576156832,1.3735176708782977,1.4822689095915036,1.4680076470891383,1.3693854278682884,1.2979072865225325,1.3722547919318728,1.2773417419954634,1.257079099272682,1.2312648619741504,1.2264265695062082,1.3272371245809467,1.4987213764317717
1.2455322120844012,1.3067524417258072,1.3186429799468649,1.324929416274401,1.451713833002046,1.2966792290862021,1.392864302531758,1.3537425261636258,1.4677443275766875,1.496596536638263,1.4845056724484442,1.4529414599088928,1.472349988887733,1.4621330049852754,1.524232384403179,1.5187666523478065,1.523516391595596,1.4885404856292195,1.4711102767931672,1.4308486835288643,1.4059306393458966,1.4993020339011944,1.4640342792045993,1.3775615190135913,1.2987927522026992,1.4142248317391701,1.3118756776082152,1.2617934927346102,1.2361313073674467,1.2665383779982162,1.3389254829189101,1.469854061302786
1.2316325443528833,1.3546972248088065,1.4141688649588755,1.383903198983872,1.4694489403639468,1.3357542635252542,1.3290347081766387,1.3707097573764377,1.4842475743757768,1.4099062102650037,1.4387407169311517,1.4383706675651082,1.547167373736633,1.45950635932415,1.4846975394767574,1.530238456751218,1.533788819645415,1.5190349815910384,1.5290022970895312,1.5002468581951476,1.4874826889291264,1.5426262856379587,1.5275944367182894,1.44965881073811,1.3683029977956174,1.3934723371700939,1.2894824178090294,1.4869013548208865,1.3078778176075014,1.237159008396015,1.3063403334600148,1.5053848751484407
1.2551215461062466,1.3355179535781694,1.3300413780730165,1.3581757767713059,1.4524699746864713,1.3139368122823794,1.3273265977814068,1.3453197595968285,1.496178340781449,1.4849465750863868,1.4682528457403923,1.4948053569056945,1.5076969967831535,1.4695037086918767,1.465293479203179,1.522853206394695,1.5401274143996222,1.515166096535197,1.4817193374519193,1.49056521821105,1.4634470594620397,1.48336863994002,1.4629526214175312,1.4193295980153584,1.3458533266527577,1.4006300549736552,1.2724170010516909,1.3669688689049853,1.2259494549189098,1.2598826504663152,1.3115645947032921,1.4402191533359572
1.2040626125189469,1.2941625618762804,1.3203417386537921,1.3345652029667558,1.4812993721388439,1.2859841210661498,1.3621907761648613,1.4013543901739993,1.4833901791997324,1.5308482056016623,1.5077162847838057,1.4929489297508127,1.517929174595853,1.4733803559077436,1.484105797326776,1.539001140583305,1.5643472864632808,1.537654749541899,1.5309329465602226,1.5279154548970226,1.489796789108944,1.5521584669010318,1.5135783779982288,1.4386247908038257,1.3482679643250912,1.381940602455765,1.2191294500763674,1.284355252573914,1.225719004066746,1.208504144501916,1.2997281634881115,1.5034518949879379
1.2459539418367442,1.3151236106867943,1.3329967888247543,1.4020395652579387,1.4676701035296318,1.3370982477461533,1.3452746875034864,1.4390239343794002,1.4922717160998349,1.5021731994937912,1.506478008639036,1.5147709600023975,1.5155133735230193,1.506691499395005,1.522367924906094,1.5568995987613148,1.5920469847298226,1.5409596942742698,1.5443644760145578,1.5243474292435613,1.474818295731606,1.5653072386421545,1.500209678349779,1.4482216774261758,1.3225934000224613,1.4173072083641,1.2728398977777384,1.4351802174567236,1.2752525144904217,1.2621786048081731,1.3153123982458392,1.4987491797983958
1.2779558079050073,1.3415982798146278,1.3747033219895655,1.3877360215100334,1.4732250120798323,1.326201395855857,1.3243396404448697,1.4158400336807517,1.491270400174574,1.4696723351275989,1.4674988758515883,1.4873516818314136,1.5478566193450394,1.4891827147926449,1.5069904236246598,1.551304877014227,1.5795739112710938,1.5629653776377537,1.5531833570872502,1.54522300202208,1.5196741573267467,1.568715716196805,1.5776313072196375,1.4757770192320816,1.428397774411902,1.4537881926462264,1.314813091060081,1.4421241621157213,1.3195749915710047,1.2904912176601737,1.3566177657554481,1.5054458632839671
1.2863059956763558,1.3752228811554514,1.391139768616424,1.393188245525676,1.478702457442612,1.3566508200925538,1.3028393413548647,1.3841282450402637,1.5041216940577788,1.438447542157942,1.4216759605069913,1.4863818672034994,1.546414461628818,1.475549237339238,1.481298778725266,1.4998934463126745,1.5586258653472436,1.5561103962806577,1.5756312180213246,1.5304331853622866,1.569018199669993,1.5936056833735917,1.559189398362194,1.4539077658051414,1.3857811444454269,1.44159504884756,1.2897041877403146,1.4532135609627759,1.305107128044239,1.2755726774977658,1.3305877454873591,1.54759052355824
1.271043945115646,1.310313061417905,1.2687577524436884,1.3281615807519032,1.4832055932903867,1.3387766408880308,1.2848591501399127,1.4181776648688118,1.5009449633842373,1.5079876264555758,1.4721702641974324,1.512103138389175,1.5013526221236886,1.4764783800497805,1.4818801525228378,1.4949374787329275,1.5281898275448254,1.5585811464648411,1.5311222453437794,1.5223326583223444,1.5107785741998572,1.5370867464021172,1.5387076131514248,1.4547771216081455,1.4508869917881162,1.4374789658225002,1.3179516146810373,1.3697039999109095,1.3094844446337293,1.2788697837458582,1.3811234808013795,1.545213524861368
1.2257248354300858,1.3220880559210155,1.446161868558078,1.3953385866391768,1.4806413754563175,1.394197036347329,1.366560919818996,1.4936751984139864,1.4959990795995546,1.5665629172299036,1.5116605086053512,1.533848843078505,1.502808028267683,1.5108054179228303,1.4910265396646627,1.4924745534861326,1.541222083626338,1.5459762908152133,1.5361544858562102,1.5227512207003457,1.5556148513888106,1.5600985042673265,1.5244643397198396,1.4641839502833005,1.4015708872418342,1.4651428038435739,1.3224370612414258,1.4584731833867848,1.3834858159090413,1.2594786803990816,1.3618157509543027,1.5663829207639508
1.2304229026341484,1.3315211572324017,1.4096387499658307,1.3496258155628047,1.4213876666172474,1.3871901915644755,1.3323868442693336,1.420698944757013,1.4075431147341957,1.4826058229136319,1.4741764903519505,1.4692632664420417,1.4920991066570186,1.486775797994449,1.498664441630747,1.544186820608624,1.5786344864986637,1.5521502813338732,1.544893148663523,1.5428913138626312,1.5626917277765087,1.5239126567504828,1.5303774843487845,1.483065923382331,1.4589502397040846,1.4709460462197497,1.3238750915620574,1.4638649667610648,1.4180944920125615,1.2588348982428923,1.3414055125812618,1.5175293480184164
1.231569926461198,1.3466186071222308,1.3983106015210574,1.4125698327972955,1.4286916312271183,1.439546418874526,1.2632507810595204,1.4170525639402403,1.4953962454793774,1.4696550753356044,1.4470481574035305,1.4749460353413346,1.5224740946541675,1.4889200902200523,1.4927142855436888,1.5272687376865337,1.580790726722654,1.5775840278055453,1.5423142564807086,1.5664050471634676,1.5630398518924362,1.5259270372202998,1.5702076824528586,1.5078087614683398,1.4542813193360626,1.4272225454875598,1.3241142063302245,1.5542956609940717,1.4307219901536383,1.2522920116892655,1.3267653132907649,1.442319083385075
1.2457768123764394,1.3535387026206607,1.4348361827988925,1.321844807477039,1.4154664394228906,1.4108606292812689,1.3479512588162623,1.4415949667145624,1.4650721518311511,1.5386543976256721,1.4830856803362584,1.472311956998783,1.4706055028128686,1.4581848650756193,1.4395786288121857,1.46093137963986,1.5209302471547503,1.5478032028491457,1.5266410703048965,1.54305547579368,1.5626589154798065,1.5181611018911818,1.567606741112734,1.4289519837763898,1.4472666840328337,1.487323279591509,1.3719035684983991,1.4412232080321428,1.4338213658691532,1.2653805870172565,1.3865049169146364,1.5250271869810093
1.2939723892819315,1.3699515837059126,1.4515907992723207,1.3721948639830615,1.4639614779386425,1.419916778385345,1.3731286020156221,1.4560901329734663,1.5300510385847585,1.5874415200271863,1.5593689624944949,1.5159605395410738,1.4774043073224703,1.4961248155768343,1.4771802151392701,1.4703307405462984,1.5231878111634733,1.5586314012451294,1.5195247215207786,1.5379661643072815,1.5160156889859246,1.5015648250495113,1.575072261519258,1.451567041229288,1.4770180140741322,1.523397940554193,1.450157679096998,1.5390523595214094,1.4668891146268348,1.3352778649093633,1.4416620686732682,1.5359516461934197
1.3197818302651851,1.3950271526650155,1.4665877959809106,1.3521206303278783,1.4269154871417147,1.3899174495350244,1.390071889403034,1.467880573843111,1.514048936909258,1.5895185091767845,1.543284896615655,1.534138194534047,1.5123319707358434,1.525319172231748,1.5082374156928133,1.5079496943412194,1.5538437250621542,1.598120131451801,1.582152317588828,1.5691528318823282,1.5913132630533642,1.5559336197178277,1.5840780423438687,1.4111610754619062,1.4579252727367786,1.5573760073167082,1.4770049981150655,1.5405341094696878,1.4927510424958277,1.383539288302885,1.4607060888921075,1.6219270723849026
1.388212868228214,1.4533726667119427,1.3771355469381819,1.3712577049032817,1.475468066997722,1.31978174397921,1.241161906878198,1.3707663852343022,1.473164409684053,1.4825085696463134,1.4630047569721902,1.5000128845798173,1.5076516000442275,1.5175046745853868,1.5088149415637402,1.5152396992920665,1.5352757611877987,1.5758258280954682,1.5434894980839635,1.5888109422982313,1.5615562387762707,1.4952354888587485,1.5767645969055761,1.3720777834646802,1.4287811615167414,1.4643062122626158,1.3821348598785739,1.4507528284545474,1.4351712970534596,1.3959675538585854,1.4342915284481865,1.4561318562838652
1.277942431774844,1.426852126372509,1.465159234280728,1.3921127553369814,1.4607320666514285,1.4142161937073032,1.3558269930811795,1.43046000842981,1.4908275537437083,1.5432357055257788,1.5580449346156584,1.4800125085003875,1.4732940262039043,1.5045494491216278,1.5039016008824664,1.4579923273341096,1.5087738397377621,1.5063695339236696,1.5296165618821986,1.5611698518890174,1.5572650653242714,1.5031832963819136,1.5600132449084323,1.3688498121226835,1.4598783738569376,1.4987556344453634,1.387544245460534,1.4970418092419355,1.5010433552761966,1.3020119764558942,1.4162739580715318,1.5044225346673834
1.2930525769181758,1.408644583154758,1.4975446968579371,1.418103718134065,1.4646051666159683,1.4245448086203762,1.3517446488904792,1.4516545389049824,1.4615408582716498,1.554865033187229,1.5413212891684498,1.4702354624916147,1.4723971932572582,1.4639368467324005,1.48113487150646,1.4791739089000895,1.5167251894229037,1.5085073304104701,1.5012395831367955,1.5626923374072428,1.5299243145366175,1.479418509975997,1.5546244242279632,1.4127491421392473,1.4837832899472223,1.5207852525049357,1.4443851470453395,1.5653707944406332,1.5301523298458877,1.3352823727505765,1.4306489762762158,1.5014007056683036
1.3067928242247082,1.3642611792606936,1.5514758685986356,1.4103868056346696,1.4641846634255016,1.4292976078164026,1.4851677937456522,1.4749401946894096,1.452411862753977,1.6168801835757662,1.5734440137990306,1.473221795792089,1.449082819580509,1.4741717123470806,1.496170867859321,1.5036043363018254,1.5194971814047507,1.5030056840337427,1.51399636167607,1.5416449060326582,1.525689280007987,1.511580862657434,1.5763535455208557,1.3207252330120642,1.5172763044922448,1.5637657042624102,1.5046654437351406,1.5837722555147804,1.5727938967056727,1.38199747184599,1.4354924086163894,1.5754873706991328
1.280337267861009,1.3478075813363108,1.3714189209505847,1.3669799984936115,1.502045945897302,1.327383599951419,1.3353337208214415,1.3528145815132002,1.471118846969657,1.519458374046099,1.5321165760333384,1.5062505490827376,1.5288645602118316,1.5380422434704424,1.554640849935388,1.5573190270159198,1.5589148511908313,1.5526472806853826,1.5151979355162368,1.5573634867797674,1.532366036433275,1.4840016795573592,1.5391746464725464,1.3502284049443432,1.3325042253334458,1.462495976086858,1.3303260703998039,1.3582035157730135,1.3896573347244845,1.2960893985284825,1.4013026138904594,1.4833936375884138
1.3039210530377614,1.319070505556132,1.3558091356349145,1.277281213485574,1.4630179206934075,1.2409613156968335,1.3633035920940886,1.3124619999912368,1.4925320131367559,1.4845878241527262,1.529946300382655,1.4958636605740259,1.5427951435330007,1.5254592409294017,1.5496107361546831,1.530481831482673,1.5675288354240238,1.5791763039826765,1.5584029195755322,1.5999242142294783,1.5717555749088197,1.5304318829895958,1.6012011419317695,1.3171935482833352,1.34171182769139,1.462231919364333,1.3246191785773664,1.2734179024999348,1.3587110994303866,1.321202414746036,1.387970962550255,1.498191235211729
1.343066769021409,1.3687187651006238,1.365095151808757,1.3171622906937486,1.4502255566714934,1.297552499907618,1.4026695865310315,1.3670543274987024,1.494083539544981,1.488426650640671,1.5667866610938144,1.496362332682651,1.5194055714264416,1.5235645200286463,1.539054593594061,1.5079274885478622,1.5416823193598992,1.5191184339626727,1.517418193220633,1.5576418068821432,1.5288266960125685,1.4810428284801975,1.4988862852938118,1.308677138567959,1.3241637055090147,1.4345182842689073,1.2850067110837529,1.271188664703707,1.3635669740425604,1.3388076678751601,1.3645643465067299,1.4349437058029368
1.3333086503639973,1.3403742220494799,1.392999960133723,1.3687120437182276,1.4429763811356155,1.271368185050646,1.3752421989188155,1.3334785877237474,1.5330643156624657,1.4451774410601104,1.4977129654647736,1.4603167814144782,1.544234422735494,1.517025206111746,1.5256498582920446,1.5198660082511424,1.5497382232899721,1.558764935215006,1.531512261118995,1.5816607279025114,1.578946710351776,1.5272173065351933,1.5743291034567801,1.3612313962718336,1.3362350047898919,1.4529682410414013,1.3165752496926466,1.2577266817234376,1.374349992034458,1.320925595184395,1.3691694312791214,1.5237832747526172
1.344804278102354,1.3779438455115394,1.39692893420457,1.4745396043463033,1.49457952959934,1.312020719741101,1.3729741859218456,1.313619682219451,1.5223129318339823,1.4901496457181052,1.5148523387563264,1.4913870427169558,1.476971114941085,1.4884499788886694,1.4991051242948565,1.4625997001640505,1.5068948773370638,1.4844337829905903,1.4445961293576313,1.5109328501847425,1.5366730204915315,1.4571914861514,1.5285006656832123,1.3349459578731158,1.2703049921705025,1.4343179960035137,1.2710993950743184,1.2490784367585535,1.3705222187694084,1.3283795268288725,1.3909531859017434,1.5099679770087624
1.3152655470136947,1.30348974770938,1.3512858228696858,1.40288969376449,1.4759340809335566,1.2828330800326861,1.342895574068661,1.3213213817991327,1.5128990034085696,1.4642721055060508,1.5162108000074026,1.4827299246776873,1.4606346921609232,1.4860314642740986,1.498155528961606,1.4661710609431258,1.50233432650513,1.4686688272705977,1.4172381881662284,1.4925716896976409,1.500540597006712,1.4278959933846203,1.5088162864169874,1.3274733600725233,1.268701983235296,1.434267991260585,1.2641952036576547,1.292997711885775,1.3531261049274863,1.3105089135271843,1.3508917082420273,1.4810912566357632
1.3237542471140853,1.317460916355453,1.369332831167552,1.4331563377982228,1.512541335933513,1.35007184601656,1.396847986956531,1.3926865823204624,1.537671896640623,1.5494113311763944,1.5651077210294224,1.5195449322563246,1.4855526842492806,1.4847017071251538,1.4757641016730738,1.4541748847515878,1.5110202047250936,1.457167026669491,1.4303178902460216,1.5143920142360332,1.5463845124664632,1.4394551291496451,1.4949846086925853,1.3864564079796113,1.327457739647852,1.4818371105932695,1.3197286362968281,1.3028146041004478,1.366126207904864,1.3323621005733721,1.4150012371098872,1.5197450885807577
1.3334412035270853,1.4072026222007834,1.4413104691483045,1.4189028304184486,1.497417241402545,1.3533764512847637,1.3843191367508136,1.3723025768632702,1.5488005423818827,1.5165992917003719,1.5662013124696081,1.5586081079268048,1.5133188032868077,1.5403318788832,1.52196254539813,1.5220575555176543,1.5615498369371945,1.5174990293269837,1.485820780477852,1.6033318448617875,1.5929171490166545,1.446860304819231,1.510136531090958,1.5230781443186123,1.4260987098319309,1.4632839828525295,1.3614133023506516,1.545070780300559,1.4674260965636987,1.324066814939861,1.42495757214589,1.4872607158193507
1.340198967187521,1.4579122396300634,1.4656644862652044,1.4859053166715408,1.530919796609432,1.3512970492654122,1.3555691560831027,1.3636855156266159,1.5914601266684532,1.5187562278928657,1.5318657449304736,1.5487700845995946,1.57327108227849,1.5406491952733283,1.5132475304100537,1.509588643878753,1.5373648577037324,1.5293298629620062,1.5103554769704155,1.544458090501437,1.5679666062848876,1.5025257497971696,1.5289798370954597,1.473383224243306,1.4115345518093676,1.4737099789212802,1.362114128414988,1.5313010786354164,1.4433607920304772,1.3192076378107045,1.4523196515309653,1.520537401177782
1.3361448222520351,1.4374074970863768,1.4223777267507338,1.4796894411857033,1.5142604769767742,1.310625297016669,1.377717372920998,1.3222407764085504,1.5403682732427737,1.5113167173256585,1.5371246346814795,1.5037375207351407,1.544942215421431,1.5282564424661633,1.4700927649515756,1.4612958518245345,1.5114451963200928,1.5277468650376675,1.4722063239190943,1.5222843503147494,1.5588096960938893,1.4896047217714712,1.4863085064638943,1.3651129075290913,1.3171027848313812,1.3846053110271204,1.3116036603857875,1.475011985143434,1.4368479790109638,1.322855431690327,1.4076008982617607,1.4951794157733171
1.3915246408024098,1.5067789501156168,1.476959878155256,1.535359150382304,1.5710936698578875,1.3501612652091353,1.4409560936767243,1.391986647316842,1.591856805933784,1.601262094286307,1.6358996312707783,1.5849328087756906,1.5670645552403348,1.5720543342903925,1.523914404266922,1.5160074658786535,1.5565083556509836,1.5573174387159059,1.5191222331871461,1.5341696672976644,1.5625380367215629,1.510256739809849,1.5088436069197533,1.3524689577644733,1.366773095170581,1.4491055286664225,1.3581894415667368,1.4805561562996379,1.4108604623913656,1.3724044689963857,1.4627953975679167,1.5336333912834883
1.3443951512868537,1.4168743729672568,1.4614754107076553,1.5236160999728843,1.6723540810717128,1.423814525861089,1.5163920802204558,1.6301140401215566,1.7360121551324772,1.6829290350702948,1.6998535247685804,1.6881446400371973,1.6808342597691313,1.668550064866843,1.6444697027577693,1.6210441938356315,1.6435319895872411,1.6645799813117468,1.6561817861381187,1.6377382653883255,1.6840941532199614,1.6871645794474268,1.6364741977059765,1.478386509510636,1.4813834518403117,1.5559089502033565,1.4112119021989142,1.5987717896098084,1.5008472187539723,1.3489293490848362,1.500124670387754,1.729362572236615
1.3720048614573086,1.4766053149333391,1.494122281909392,1.5160584222117843,1.6756421884635702,1.420418181966952,1.4632433894727215,1.5527458856518461,1.7400328363500015,1.6339090824494298,1.6305024591749475,1.6677105373432584,1.6922396665951784,1.6653252711319977,1.6527149189463668,1.67870986179943,1.6984676659059796,1.6963996602168467,1.7227887274177378,1.7030755255249355,1.730603540087111,1.6872510645672518,1.7101553277904749,1.5458276671457372,1.593854629563234,1.609739688540223,1.4889705405309774,1.7132931349295657,1.564125835704893,1.3693428670160723,1.5611299018505367,1.742228122603373
1.3610318191568564,1.4654480770012388,1.4435574808103124,1.4690392519506072,1.5133499931931136,1.3562643411709439,1.3927568019037981,1.414019596738692,1.5709593645325468,1.533748805410345,1.5753596853706502,1.5631954058656734,1.5554429147461375,1.5615858276020917,1.539866737726218,1.589604474530006,1.5921058795827885,1.5870003250611666,1.607303464474492,1.5850919127331475,1.6292088761808505,1.5836088468639344,1.6203030295487728,1.441023931229326,1.4856939087958543,1.4763917756098583,1.4316327491435743,1.6600428213771534,1.5126098524334044,1.3654093068807722,1.437726120010924,1.5615897609209788
1.3475882218942326,1.4921080686528352,1.4661524102806098,1.4896993359959083,1.7105190405309862,1.385834985700961,1.4461716527676913,1.6198622573104648,1.7157936505347995,1.6481776010106903,1.6680938139826074,1.6917673770201318,1.703209979266153,1.6865555591789876,1.6628241085650455,1.6600832616154375,1.6833768938146643,1.6999954546020912,1.7059379967347814,1.6747840215945282,1.6869077790203482,1.7224996087102955,1.6934024017165765,1.4654383099173276,1.5156462460932019,1.6045512415712353,1.460477081606644,1.6639703321331456,1.5695265886931666,1.363219552498562,1.5605214196428914,1.7409784354186444
1.3954281446893604,1.522962833352089,1.533265519965803,1.557739876549452,1.6490707439224466,1.4175868110546466,1.5191445937936985,1.6722943449109255,1.7043681616716855,1.6800570446419028,1.6944535802758958,1.6757341020695142,1.664707433077594,1.6511579091134025,1.6423587446446484,1.6221925904591943,1.613336713781498,1.6346885624796192,1.643727360166931,1.621498748261613,1.6539999549689117,1.677036809463044,1.6653950998617026,1.448067444073118,1.500714004445434,1.578436314471375,1.4583884291853522,1.6287985461524381,1.5247235130923247,1.388969665448571,1.532934616887557,1.7088417871137005
1.406458952701493,1.5288714950037694,1.4610207072763441,1.5328928215073094,1.7151667873308012,1.3952155020172392,1.4191858159665178,1.6530058776574479,1.7799873222898748,1.683040408448734,1.7133972151781183,1.7309880030316493,1.7497625207667709,1.7274222239359116,1.7323046507414817,1.7130220212362843,1.7155182957402706,1.730120629860302,1.7201263309261843,1.6978454601919541,1.7049399458603036,1.7609805067238598,1.6944167117938218,1.5294955443690967,1.525386824285993,1.630284969235408,1.5089191055343896,1.6094754152766297,1.5434433127027989,1.386593351128965,1.6012249639634355,1.8041576039754845
1.4725940311749306,1.575226205433778,1.4234855335572452,1.5959011918838932,1.6350593602229895,1.406945737729403,1.3753441593327587,1.5013749227932998,1.638989332160538,1.5883561462545384,1.5729932337694343,1.6119583674068123,1.6609656245028446,1.6187651878272202,1.6191764930756571,1.6436024819698627,1.6424641477370683,1.6778275827948885,1.6797915365153688,1.6676327720728221,1.6878256485491063,1.6695153141983137,1.6591360471400878,1.4916389501002478,1.522086363271136,1.6058874540977675,1.527039470991563,1.6498151912784118,1.5638094912435951,1.446196875515644,1.5988603980492675,1.6361053082687362
1.4514306780594972,1.572637398394262,1.4667542439713588,1.5953768084336066,1.6640467612309962,1.3941356555050581,1.4465572645311118,1.5643556532691274,1.6396250604132785,1.6701004194430575,1.690838557213126,1.672870486725208,1.6640582579817744,1.6776885284395195,1.6791654698707719,1.6617424442591147,1.6537350375008035,1.6517149484114053,1.6312058563157326,1.6589883496029967,1.653718730538664,1.6533406694272907,1.6353764422700081,1.5449304896509082,1.5096201865390122,1.6181394552834927,1.53664726763703,1.6545981002515082,1.5989207543505057,1.4290650345846558,1.6114138330696295,1.6966625580142969
1.4506619914103944,1.5539146863325755,1.493478773296062,1.6201179409118411,1.7011742172393785,1.4491165004836055,1.4086893248071095,1.614491470986723,1.661253205355664,1.6815934320171428,1.7006205058470016,1.6931313344661414,1.6685895185147335,1.6826132409829488,1.684707501333559,1.6887206633108058,1.678010894241344,1.6716188831733423,1.659105568197431,1.6899386807041301,1.6612322754192026,1.6603692205927538,1.668964512343451,1.5222015693774638,1.5182662598536552,1.6289823036591802,1.5076033533428237,1.6429606582806682,1.5850948398606348,1.428717385974908,1.6080122770231422,1.6843955318533177
1.4648364016535274,1.5584829485216947,1.4791858743246793,1.61185653132704,1.6873847375873847,1.4163263395316807,1.4067305183902907,1.6527984664723145,1.7013809065214311,1.6855379915600912,1.7016568611534304,1.6859288764106202,1.6778714119508644,1.6932360933272699,1.690184527282495,1.643109412160718,1.644278624760517,1.6700954265945567,1.659372858982409,1.660371622819515,1.659738315380568,1.6848064556101874,1.682504772268379,1.513819943413308,1.4815362014077726,1.6332450513199321,1.5406884345420813,1.593986405567206,1.5462669757205725,1.4456254735949146,1.6103084281964812,1.7001783261524424
1.4007566700785048,1.4642590927390453,1.3994608964688298,1.5305853511184015,1.579419696082528,1.3815945584916327,1.3330569869717084,1.5082210263924989,1.5713426271563091,1.6295028409384291,1.6531857573769024,1.6079906161085487,1.5633943668036006,1.602822403089361,1.6325513076616767,1.6337389907184654,1.6297458184642628,1.6416536949036407,1.6185016135247234,1.6730590686615592,1.655393096871353,1.5940283663773196,1.62864059258916,1.4894701310705005,1.3860607176366186,1.6068835961443408,1.4346815127607067,1.4198766967997885,1.4773073356145896,1.3886664588804125,1.5466793971772599,1.6220332451116046
1.3923805003932714,1.477285483671611,1.3809803422273839,1.473239873212743,1.568350964931503,1.3446822972833274,1.3489120166767254,1.4725588598669683,1.5324196589680472,1.611672569843651,1.6160646652162975,1.5662118871583968,1.5515496698491595,1.5581427925760258,1.603741079943674,1.6061240173660805,1.61566675740353,1.604166015751456,1.5755728464597067,1.6563830382641214,1.6328973993811091,1.5818247319384406,1.6133171587572133,1.512654740604131,1.4368263976627107,1.6329927892531542,1.485376278519485,1.4449395597967283,1.5075009738168519,1.3919425642996859,1.5619618813640181,1.5703013524395792
1.3968389721572791,1.473796050274863,1.4271210193527053,1.4966419738866645,1.5936103258123606,1.3867464195098638,1.4283836469351199,1.537613546715679,1.618415988230447,1.672463297131549,1.681891491577372,1.6582658367679999,1.6308105379274194,1.651895788644903,1.661858551057865,1.6528726827058675,1.667369250970687,1.65364195415606,1.6061576935962538,1.6802932354731785,1.6146594776004906,1.6205685971999733,1.6010096215015435,1.5199010976447331,1.4459211145389081,1.6280990425934454,1.4920904378059672,1.4791005062621363,1.5506338084591942,1.3972878256178176,1.567541895985716,1.616257663689428
1.4102698335884785,1.5474121353047716,1.4637000656581969,1.5463117663695038,1.614007333859676,1.425471802067169,1.42846053507549,1.5332002962592692,1.625051781853742,1.6289420498185838,1.6669903721598534,1.6527775588895568,1.6356383277583557,1.655627494069267,1.656021352445721,1.6407370841192017,1.6531891351366275,1.6472770529199547,1.602090915676909,1.6550348492247722,1.6056254357647535,1.6021864536856498,1.5938029421544142,1.502954316124077,1.4683497607641096,1.6041950950942165,1.4949515235244226,1.4761935979913599,1.5492974576759144,1.3932412128771356,1.5757346780089527,1.5434959800525114
1.4173180904239648,1.564395642596437,1.447948256029607,1.5794087879961376,1.6983235854368521,1.3553007020070338,1.3580136994004857,1.5229029295249663,1.6645101086825322,1.6724546109267218,1.6735914661801683,1.691961100470396,1.6398169815936545,1.669995332241071,1.6511505488131684,1.6233243760557605,1.6439396495361636,1.6553243787804737,1.6103320149767644,1.6433489023799863,1.6301900404084788,1.605445281442269,1.6067122014107451,1.4926625700961376,1.5098694388201965,1.6679520781168247,1.5558185234224657,1.4472850685763927,1.5595858448169404,1.4094668639393313,1.6542969413859894,1.5937514237561923
1.3234543548270317,1.4884862395212206,1.4656275757448582,1.5572619086881347,1.6905345826808509,1.3893098634841956,1.4246062075777999,1.4582250479639196,1.6474358105457438,1.6371080949941887,1.6883440999589765,1.6640133515625994,1.6433610100141962,1.6460710304832014,1.6557926609368256,1.646240192416981,1.6688382097451846,1.6645781078669553,1.635728559598204,1.6625981330668766,1.6294181673717325,1.5891246478212069,1.5761199973893292,1.5003630707167153,1.4878676347363207,1.6471683469553362,1.5279177555926633,1.4898925136682803,1.5350242237421912,1.3365568656717355,1.632917041079727,1.52758711726953
1.3510505017634484,1.486771223736091,1.4339847982667888,1.5241393724062535,1.6631705545024802,1.3194446164274571,1.3983865532927469,1.4314029738796865,1.6940432047549847,1.6234468899927021,1.6472822144715302,1.6561407958905965,1.669363537114216,1.650349782714483,1.6494609642183131,1.6359492420279536,1.6437818358291194,1.6524040142812744,1.6377320442262007,1.6336709222492547,1.622579660771628,1.619893005897065,1.6461203879911515,1.4812514039758924,1.518656854370327,1.6611552383362806,1.4992632468756035,1.4833812815501595,1.520039923743554,1.3533469021051392,1.6217894942236386,1.5904161467149307
1.3515843310059736,1.505098470307012,1.44495001448134,1.5460883406681944,1.6861055403864869,1.3905999830063536,1.4356866834639765,1.451826160579641,1.6483171293004586,1.6242639094965754,1.6484589375819694,1.6286108448218712,1.6062151756037228,1.6051090562738988,1.625432293361957,1.6002381216920998,1.597636568529927,1.577104198469827,1.5767728172931608,1.6160156629003815,1.568974043725519,1.5909971501783464,1.6052582554085102,1.4663804532237734,1.5235913813783921,1.625370773733313,1.4959627245972256,1.5206653896634648,1.5662401513885729,1.363314070335853,1.6076277442420115,1.5367927810965232
1.4059008767206884,1.5851463421680039,1.5595282563673913,1.6065445707800283,1.6838960817098088,1.4441980758716302,1.462418116777721,1.4329425190301686,1.6576119361181372,1.5861990570218765,1.646202662423985,1.6368062561657792,1.6575820321127486,1.6344950135967273,1.64090502812556,1.6204314516218055,1.6267926734191194,1.6420335542203979,1.628585603434374,1.6495455788970539,1.6256633874307713,1.6067717231227963,1.6007395243920988,1.509464262804905,1.5014687341708406,1.638050580440969,1.5303529342015167,1.4858030611786426,1.5517744505573992,1.400701119614114,1.6476507467292665,1.5109289563195558
1.3565061814284638,1.5541247987822489,1.5432506059564506,1.589452551258741,1.689725113992805,1.4597372247361555,1.5188994155860869,1.5006295964598133,1.6731521565710696,1.645551893309527,1.6817478149502414,1.6685937995072369,1.7055207499944516,1.6447955857650363,1.6808440235846234,1.6840904951196263,1.707957706316728,1.7096491891530996,1.6963992657210196,1.724090812178779,1.6737335093509957,1.6732475574546202,1.6021632790357472,1.538769122256994,1.5475627504105358,1.6313152839281675,1.5219035573627602,1.5419605261805014,1.5427087344131727,1.372890293297689,1.6266954968052107,1.5726906691544578
1.3915420682044086,1.521030479045438,1.4843160331650826,1.5225260237986158,1.6362043776040858,1.3908584274824793,1.5269941140982617,1.4823372886283583,1.6308677598726147,1.6515750115698264,1.6449486192356313,1.6372183064695613,1.6465361644606729,1.6335066037143917,1.644795671535855,1.639156169875313,1.6808606794594256,1.6873422415087929,1.6730958198116932,1.6904071757118637,1.6693528873933694,1.610125198359107,1.595985691047907,1.4736719429561957,1.5648170963622126,1.6196584712358213,1.518069851830433,1.5142521699144627,1.5890810232138304,1.4297231267117816,1.6079707470798938,1.4976757205903246
1.3441217391983311,1.4945852460937674,1.5095464438022022,1.5307762980125192,1.6381762425309343,1.3852391569834734,1.478558405060615,1.4708279294822315,1.6333512602792437,1.6198526531648776,1.6290731048270815,1.6440990717308621,1.6399916171396305,1.634966868533832,1.6445373515801016,1.6020391855701595,1.6195695414084768,1.6338036318711198,1.606901476803011,1.564615033403361,1.5591912475648946,1.5617347133116217,1.567106375940365,1.3636175604161813,1.5382305732631376,1.6164715013186939,1.4908508294166885,1.4696296563654176,1.539368553410902,1.3690882353611238,1.5856817928376752,1.507326711603869
1.3537718638277243,1.5789059332165782,1.5414308423339138,1.5560339067369542,1.6695076783822091,1.401318322331715,1.5432916444542408,1.4865860713355383,1.6183421026071314,1.638852124872584,1.658680263259801,1.6606732186191917,1.612721325690897,1.6314865021338487,1.6190076919038416,1.5951704928668524,1.5935439050832272,1.6242426310326465,1.6175681376858317,1.6345203853031867,1.6363370035134737,1.5638934073999469,1.5813118748495552,1.379489275552212,1.5695049479124787,1.6397093643648089,1.5076385821130593,1.477781837864206,1.5107450491300227,1.3636886038552278,1.635286190985133,1.5425898977501922
1.3113295979656703,1.459199350406691,1.524001233414196,1.5024242365118685,1.6182830122407164,1.4275318971867859,1.5324405127763592,1.4904844222548266,1.5878699118572492,1.67529832221486,1.6970419942628585,1.6661379238277265,1.5988948021266531,1.643255727495541,1.6518980208757479,1.6148725197690437,1.6116894789697094,1.619326134263504,1.6161925780516722,1.6436379889751092,1.6222075353056535,1.5645321672976227,1.59133749860881,1.4015281861815132,1.5509797532193919,1.6140159688374658,1.4613225346507115,1.536743597788665,1.4776172500896614,1.3303344700014939,1.5727303627195206,1.5491208608510052
1.329568688186588,1.5525647659755535,1.5079744723724002,1.5981283051260078,1.6402586524437939,1.4413351274372215,1.5609586049382267,1.5153549147443417,1.6151232728552096,1.6592332258782985,1.6698152838375888,1.6590991652921014,1.6505555181399756,1.6647131958208046,1.6461734570051172,1.617675661654814,1.6259829535809303,1.6790397769784051,1.688919071976754,1.6581219779496008,1.6552295293665524,1.6688220070409954,1.6177746807860118,1.3458276604693558,1.4759530519682058,1.5996351449495025,1.452760794197652,1.4863115664670987,1.4526139136803977,1.3463283363121794,1.5831490416347882,1.5943701050779797
1.2863663745599574,1.4618388768161188,1.4550571884905712,1.522714899788662,1.591238094926542,1.372450821064863,1.4857612055102496,1.475490469995509,1.6149383903125687,1.6318231475362164,1.6466841343073462,1.621643292738146,1.6049187552548356,1.6426507755244757,1.6316555515733615,1.6135611661822642,1.6195041735111884,1.6274299442314466,1.6137744461441117,1.6150568191294108,1.588761410489692,1.577672118480047,1.560372600671701,1.3139226425952897,1.4265250875708748,1.5501203254711493,1.3760394561624214,1.4335431200322648,1.3823047221148526,1.276767201668403,1.5051912469162179,1.496343027310187
1.2615994182396209,1.4698962003260552,1.4177035244591945,1.5184377345928646,1.5663097327538822,1.3967915843884082,1.4649625121112415,1.5027124584086065,1.5686753292511044,1.5833695850556482,1.5733337546631867,1.5937189095373128,1.6198320815990526,1.5726457479467697,1.5231074959502313,1.5160702765360323,1.5360474299369287,1.598288723992153,1.639248702912964,1.5473400353062419,1.5797241598394935,1.6526527676491953,1.6269491918128232,1.2526439706395796,1.4414602918253852,1.559661530008605,1.374166489951835,1.4095755795805898,1.3443935208994,1.2870866298223804,1.4922559384117227,1.580952802677441
1.2917714928612665,1.477577850285906,1.4828679941782235,1.4966071712401565,1.5349586144786465,1.3862376012566666,1.454835578998419,1.4907507435282497,1.5941464925692748,1.6063320686253648,1.6130361205822434,1.6292245213705694,1.623386802460711,1.6077144102874337,1.574134694286857,1.573581070405053,1.5809024590798046,1.6280972021509879,1.6396000873130747,1.5738506373684311,1.5889683050911183,1.6276864347960485,1.6091509488254212,1.2742737466074934,1.4699682931907458,1.5572617332970722,1.3861661364453766,1.4316086810450026,1.3688140867536693,1.3001733173744068,1.4866957008759687,1.5666068544690246
1.2677017187788338,1.4595951754826768,1.3422387551156758,1.5052131894048906,1.5688551979713705,1.3215663755457125,1.3793886197799752,1.4796472047500981,1.5505712441860156,1.5932910095835742,1.5783965914249534,1.6252327510354967,1.5720030093928388,1.6029876579791928,1.5537064493724448,1.531712766728989,1.544226631018237,1.5916170162158807,1.607522593346305,1.5285144126077002,1.547578252226784,1.6221317126750203,1.5776284054777014,1.2510826880957564,1.3891410756853653,1.5314933647896114,1.3645202076381238,1.3864239854061748,1.3378987454481057,1.2748270401671837,1.498255667999693,1.5488231571985565
1.283934570399689,1.4464910934153528,1.3600347600865466,1.5340086667135462,1.60539526103313,1.3698005378848173,1.3836914488681924,1.4941027138186553,1.5430772745495036,1.5980064037950439,1.5859848993487349,1.6127555137653076,1.5946375784468279,1.623371117548124,1.5873511140672212,1.557726840644429,1.5586156885856126,1.6094517548180995,1.6055897620114679,1.521681291000225,1.5186348197835395,1.6184309763967537,1.5743800852578926,1.2500202376051477,1.3875865402928353,1.5573819034080412,1.392933292122059,1.3769300442275259,1.3552299848065703,1.3042015257721662,1.507191588049594,1.6041836571536114
1.2164975862887808,1.4157467474157226,1.263240407968055,1.5117522878002136,1.624146699842796,1.300763444795294,1.2959839931920654,1.47073762268156,1.5716700115312852,1.51723869447667,1.532754014341825,1.5578716151728982,1.5518854267979258,1.5325636202370052,1.5164560514294652,1.4799838630588962,1.4993383218038046,1.5489614997851981,1.5706147428749664,1.5086559099249803,1.4741267533611828,1.6085160467453419,1.5555338714059783,1.2934866197144042,1.3720103035520141,1.5674160230523508,1.3732887611843085,1.4082584476475608,1.3584767702618148,1.241343799432578,1.5106046809045832,1.6076592660733529
1.2811644889351812,1.4207859731826897,1.3140987996157303,1.465669067694989,1.5619079152416055,1.3300696058179662,1.3211586200999517,1.4400049483415545,1.559242895549741,1.4813483966004772,1.5114791913133443,1.541334491862596,1.5350087876201473,1.5088918311042898,1.481412463507299,1.4645048276394474,1.4885320170481333,1.540506230471812,1.5760037405631917,1.513815741652128,1.5046515308053683,1.5961492313257033,1.5717587213289301,1.232076186142419,1.3926856324363366,1.5452101320634535,1.373544806356304,1.3777809109089172,1.3706231432058582,1.2969375771405545,1.479174147800277,1.6031691423161427
1.2871198603452902,1.428112576762438,1.2770763857983851,1.4693613800129626,1.5780857875000593,1.3278875461272366,1.2960241763311737,1.5124732378470813,1.5430421246579218,1.534521244806569,1.4547207551400643,1.50390287028546,1.532440877835943,1.4626466378195984,1.4520317836145065,1.4453718890687168,1.478245574818351,1.515472549560023,1.5535203436812215,1.5025552386224557,1.4587046500397545,1.5758273523580655,1.5502598802246048,1.2863028969163532,1.4293595876444953,1.6039653712021706,1.420355936881807,1.4186959237449321,1.4228606943216868,1.3148631087701468,1.5240101909560286,1.6053200319602223
1.296834913358496,1.4675631096040667,1.261851489101472,1.4891541064906721,1.6033701956508395,1.3267030562193753,1.2818649225661947,1.480523598067616,1.5370094803337648,1.5189088322387037,1.4787187234044203,1.5052519828001645,1.5401529904940636,1.4776024592347583,1.4624807990187723,1.4412372205788717,1.4909900816264448,1.528341260438745,1.555580471239667,1.5230756430053993,1.4539376032015556,1.5873347620489964,1.517526831728094,1.2947686261487283,1.3836458792036463,1.5939558087284775,1.4413448848366215,1.38738464778728,1.413858259578238,1.312867761110827,1.5610940610399504,1.601528443062864
1.3022640681327702,1.4311447892224327,1.2736645498972685,1.4571125587617562,1.631270963504003,1.3259466810857754,1.310321907278653,1.482884589246218,1.609400218310737,1.556267812929532,1.5310355246755463,1.57915956982707,1.6284075986226079,1.5589704915609013,1.5250068844847606,1.5261400517673067,1.5588792883636393,1.6034886678265823,1.611400247907035,1.5800191055379544,1.4650808327502411,1.6433204166833535,1.5337239053769383,1.3130241326858565,1.4241800075247202,1.5961709658966885,1.4465198040616476,1.3939443861214469,1.4030115738494715,1.3219662256010638,1.551531140629891,1.6398341429654928
1.320599254149017,1.4749804799558612,1.274630864894769,1.5111121043778246,1.6522306834838172,1.3133237510061564,1.3461745218107735,1.4966146073592381,1.5758790615013787,1.546534343398563,1.5205800617624161,1.5404413774439398,1.5963750173240414,1.4819380868783614,1.4568142357274243,1.4481266055139397,1.5022542173510665,1.5657448172937976,1.5975339632155372,1.5543511135578378,1.417425969884896,1.6523345278473582,1.5078957626643343,1.3309509767689607,1.3999254884392633,1.6091295828759784,1.4445708994051396,1.3866572368707586,1.4152715655624426,1.337768031329185,1.5668439183683276,1.6490706676644673
1.3340810814591064,1.501247148842138,1.3556788941652709,1.5183741824043395,1.6609155169929621,1.3074773318349717,1.307415499109251,1.4427843293548834,1.6149264887072745,1.5167159040288858,1.5237107748730971,1.5360668808282936,1.5757362510544348,1.5109377263992259,1.452299499023273,1.4537525852414372,1.5018433061666303,1.5613191821179626,1.5669091179411687,1.5689337308437963,1.4272742291860403,1.5771898736709773,1.5060879569265586,1.3419119362307859,1.410319852337425,1.6230813141588227,1.4727854250900694,1.386011628282899,1.469292179297807,1.341988972646927,1.5848383151477325,1.5853076578067906
1.325798018999227,1.4500794188173471,1.3212387729407593,1.4426636987799664,1.5976571994857185,1.274968574095988,1.3380461656979563,1.440014456705757,1.5722440905543988,1.5616938621403844,1.5603143810566151,1.552700911505093,1.5644222738083806,1.5113355826357826,1.4831401645444893,1.4582412664021187,1.4968302669652715,1.535337042392106,1.5386701262624696,1.5543190013117656,1.4187141733151776,1.5355973125211255,1.4698080036989243,1.2588105607611986,1.3732575474329896,1.5895365400948458,1.4491189399640836,1.3681237569543823,1.4258131309710407,1.3228655461531027,1.5605736829994168,1.5851621970923404
1.3288494927531584,1.466196910669253,1.298000214056314,1.454059182902,1.6642282473942227,1.2578310386303102,1.3153919403370162,1.4430582686825237,1.6148199078938918,1.5294037055621759,1.5105645858118972,1.5766313936327934,1.5890871593443954,1.539308231940558,1.4720964174052826,1.4766087703870425,1.522115487503655,1.5513143977037835,1.5563653563999384,1.556844037443803,1.4438750003326637,1.5416104000561042,1.4679758713987285,1.3187974437147134,1.357669715743326,1.5829092024603586,1.4588215900507018,1.3720786213517706,1.461553296077218,1.333067902370157,1.5957344997182614,1.512565071449372
1.3563635237129013,1.4902017742835474,1.3150217940895357,1.4762117379097415,1.6638480780779952,1.2622310571915583,1.305924669432703,1.4376105193944917,1.5559767999571708,1.5809870678798288,1.5593171800434782,1.5973843760348883,1.5484288105361093,1.5384184205725013,1.490626228438559,1.4901045011647172,1.5293531349601834,1.5455593676737656,1.5552837671749098,1.5498631244436762,1.4363394524668962,1.5194438943008228,1.4683023165708966,1.2888846719664526,1.3576615647152401,1.5681692841074661,1.4513300495719808,1.340495497391417,1.406976878225642,1.3489760194398537,1.574105525795894,1.5233359781902958
1.3343062518886313,1.4962314700440624,1.3632349684369671,1.437576302661281,1.6395100028054501,1.2415088604155702,1.3151194452125747,1.4324493362941022,1.6073285022479542,1.5563911755072386,1.5489165797377131,1.5945102900817874,1.5548541869236003,1.541025643715192,1.4725282557465955,1.4640638018600927,1.5013209571178598,1.5272531258644588,1.5409597168152358,1.5215878780974226,1.3782837675061645,1.5160419065672357,1.457676694985377,1.3049910700247458,1.3735353054571386,1.5829796084017023,1.4534134860830117,1.3891738942498693,1.471776753245494,1.3455461888791622,1.5737234475168396,1.5356141866254502
1.4011058237639369,1.5127149673955977,1.3642638186101892,1.4845976251143855,1.6742477312652648,1.2312489253019203,1.3509376271606897,1.4156685693406983,1.5623431353680142,1.5543279747752854,1.545959664713581,1.584851441775052,1.5430474873358098,1.526815169089134,1.4714156723031004,1.4739664025413246,1.5043886503754358,1.5238835568117177,1.5236110650819885,1.5355409373273174,1.419016017644788,1.5069113037758461,1.4925678822011528,1.3301578421250926,1.431296176624399,1.6042954115398051,1.5145981991520818,1.4487147915184693,1.5286694894498292,1.4090135809688447,1.6218441688377907,1.5580704333914346
1.3272594971353875,1.4371908934478548,1.3430461312074131,1.3986982531562555,1.5989761484768554,1.2181129860569224,1.3374282682765732,1.4421700107747053,1.5820628533208987,1.5715165428879294,1.5522534521610232,1.5756728785836218,1.5491696350198731,1.5211496099612283,1.490509216082482,1.4802363003431858,1.4926569950385253,1.5424533418528212,1.5652047122753598,1.5477697309411451,1.4934984133191387,1.5647571348046692,1.5369300708360019,1.2980843841236502,1.3860339985328682,1.5779761602870572,1.4428545794633492,1.3795827970476677,1.4299015825616541,1.3356512271343153,1.5621550110935447,1.5401730241445557
1.3447093494773585,1.4216293612188726,1.3371235907853956,1.3896418328265836,1.6059912256029727,1.226364108960243,1.3459866368548183,1.382774067975005,1.5494256452045703,1.5574996524591371,1.5384394698704773,1.577983004226798,1.5252460599376152,1.540934088372708,1.4789342641669347,1.5110961980750481,1.496893391006547,1.4930089179020043,1.5287072384768094,1.550921805972675,1.500383575896254,1.5129284509937908,1.5355030377123449,1.353085240433462,1.42829485016543,1.5777340457064464,1.4666372311649445,1.4350644868908524,1.4474761927543862,1.3564485596755946,1.5500187818239122,1.5846874853062107
1.3060594319036576,1.3982966502303824,1.2828612127549506,1.395449159879736,1.564268730073281,1.2348336542541751,1.3005250148589536,1.412775660444781,1.5388656049643274,1.528295603534643,1.5261256691968959,1.5602650194218475,1.5399988276919803,1.4976484953687519,1.4699031067751132,1.4782389529520406,1.482431636228433,1.5216905385408068,1.5458329942477227,1.537216691472965,1.453997814741562,1.5440306899924263,1.5506599348788346,1.3154537594461582,1.3927897777855989,1.5658229839383022,1.4296582059228862,1.4080904046524385,1.4035724314854834,1.3190312680962561,1.5203878273619034,1.5487341459892345
1.3606802155889812,1.4226225590118626,1.388179784496707,1.3465412611268055,1.5904658512269272,1.2810827977665977,1.3083818458725045,1.4169761734524335,1.5966475891570218,1.5329634852615237,1.5369241481060363,1.6162318813109984,1.5743802117129202,1.5541504658338505,1.5251259803211317,1.5085080727646298,1.5102381934638984,1.5311661426522787,1.567938001012954,1.5715833152049532,1.4931973057441725,1.555517032115785,1.5660782424668058,1.3387613482417633,1.4324270136133528,1.5608163311820284,1.4307982284621712,1.5076518118211815,1.4787224890297004,1.3860812721443494,1.509520044517093,1.5566790248975433
1.348919305886023,1.4541991938873098,1.3686898843814381,1.4339980589081527,1.626709163766907,1.2668350275752769,1.271938618731686,1.4454102068124715,1.6038315583585923,1.5130101319928881,1.5270067555141362,1.6055159065712123,1.6067667159912788,1.5580847790070735,1.543260709839052,1.5328484253761618,1.5448646034450326,1.5847561583623857,1.5892447166134978,1.5680666197292759,1.4736903147626619,1.5673384572727496,1.5259373993635832,1.293191461771485,1.4489754334449862,1.5914969111704584,1.4892945797152206,1.4682709254108837,1.4620019642945428,1.3879903734675192,1.5751634021887424,1.5414517812026636
1.337669130480214,1.3980256129110167,1.397127626588845,1.4021064494083693,1.5942477397336083,1.2327699897803162,1.3256555393586442,1.4554899759844606,1.5611601946637035,1.5496197111752916,1.5348354285463568,1.5637922472011614,1.5785684921961132,1.5903663195129811,1.55630366167076,1.5829672044418315,1.591179763108061,1.5971604495376774,1.6126657139453835,1.6077189365420272,1.5244587676385217,1.562212800091381,1.5520828319318478,1.3180467633412494,1.4696053013296513,1.578934149582429,1.4379109106976904,1.4585411518708493,1.4899527776771495,1.366110656852696,1.5412482008859698,1.550085813379277
1.3171807031827663,1.3891937393226363,1.3868416866299358,1.3752494919770124,1.5475181685593336,1.2686719993605395,1.26406949415064,1.5378870456416578,1.6017512118398032,1.5613805150957163,1.5886925756410075,1.627013467277266,1.6289579706348452,1.6236142120924832,1.619472009073656,1.6211420349858028,1.6468071913271782,1.6369062591669061,1.644303232836522,1.6544997516407072,1.56831167563413,1.6136545382251042,1.5901690319144788,1.3314468546455087,1.452140958556105,1.5569138279801744,1.4143524359748194,1.396807829222677,1.4022613860132223,1.3246570921054077,1.4752030415421054,1.5978496771544757
1.3175175893869153,1.388516173236434,1.4144470052823375,1.3782049458675596,1.5824499707962696,1.237897163036153,1.2734429770124833,1.489052074767257,1.579750525022368,1.5638469563417459,1.5720154809962301,1.6412578415954568,1.6467732363142313,1.631516071848569,1.6114650223640197,1.6193827355931756,1.6346371707373988,1.6514416832008487,1.6453501349252224,1.6429768708827608,1.5611244202091514,1.6322782492090189,1.600566682921678,1.3437769522089265,1.4371991809409683,1.6310212237216952,1.4444975488321612,1.4072330898729521,1.440880879234582,1.3281004821281315,1.5340479577203703,1.6137511165492846
1.3465768114282253,1.3797118715818917,1.3674621546714945,1.3680936439138445,1.5431997214514845,1.2386366808444729,1.2194847014482022,1.4807509087708661,1.5965788369102034,1.5518757583858074,1.5936064691450345,1.6453853092643151,1.6458693377142473,1.6399610577291097,1.6468408225207476,1.6255683448210378,1.6342717804882576,1.6298327193635254,1.6323121082141343,1.6241710116860388,1.5437027129446874,1.6241784860205422,1.5590243588036052,1.3186239806107531,1.3994357715828731,1.559287570538747,1.4114590562381484,1.3433621949307706,1.4345088001892945,1.350114118480436,1.4905359163313256,1.561944700297517
1.3092252042700456,1.3634478748241474,1.3566130948662798,1.3794563888472693,1.5643285976773629,1.2741992612295017,1.2132290269891315,1.498947984334827,1.596844646761748,1.5405533358682448,1.5628590824696937,1.615950131785012,1.651743257719219,1.6464650134056016,1.6206662596920673,1.6032567424782962,1.6248367211283248,1.6323277923349504,1.6141968619353682,1.6031937684723498,1.5184702308571583,1.6313931039814964,1.5274233279825142,1.2889965027655848,1.360326779301506,1.5474381617649204,1.3856383378594468,1.3209460212814668,1.4373409678683409,1.3141531573110563,1.5033233845180263,1.5182614207039693
1.2243629728187846,1.3059538215474382,1.3346532845602748,1.3281341851762176,1.5306697539807415,1.3210808918637575,1.2942630139658438,1.5631134767263644,1.6094048604004336,1.6108937057912553,1.653957106304461,1.6815051322077927,1.6801488781935205,1.7084486756100572,1.6763948183852702,1.6551917698194378,1.6640708584338957,1.6445234837226723,1.641172533900297,1.6674495653012196,1.5601862876219104,1.5978639968961936,1.5039865816068674,1.3323091826672333,1.3267923909297197,1.4730671943471043,1.3559039275180655,1.357037255111168,1.366241863666104,1.2408950474931464,1.4473986213542427,1.5039749695375568
1.2771968878360065,1.3430516967444661,1.283649310845315,1.3566161609828622,1.5394089520611096,1.3180523076041901,1.2671003325506425,1.520213742393127,1.5906995483848207,1.5785537669147998,1.5981771590182263,1.6308117669493527,1.642681441051759,1.62495937025468,1.5863536121128419,1.5747473610402138,1.6238907466289911,1.6450904600836487,1.6432476933014364,1.638230616127759,1.5241026337916725,1.6517019746998804,1.5912808568929653,1.3222467067067376,1.4011611481472193,1.590625183834817,1.4207832585419613,1.3670503220114094,1.4348709598081921,1.2987312487045166,1.5023335396009883,1.5689088945404646
1.2915071378389986,1.3983488935404949,1.3955974704516199,1.4353673101737636,1.5701723648632138,1.3136390091670134,1.2650178375274805,1.4819180781971548,1.604717776775352,1.6362849366757728,1.6703312995795654,1.6779039537317657,1.6464078155901882,1.6492005875732705,1.6254697518647963,1.6373769299415337,1.6647147803443971,1.6890887296231167,1.6759156175237653,1.6791179256489137,1.593909419681332,1.6363330697971552,1.5855004261893662,1.3389127918200219,1.397720188482927,1.545055288821639,1.4391700195010937,1.2915394749235254,1.4235521303633092,1.2934627731825843,1.522150822264714,1.527261241594752
1.3188148729254578,1.4112266096057282,1.37857733258211,1.3954016208406526,1.5583721167595914,1.287037190787578,1.2972762885836957,1.435763201601338,1.6152984994727952,1.6198082630442467,1.6504609946848805,1.6608063449028199,1.6433218430792664,1.6456063435695023,1.6087479077192945,1.6233107059377927,1.6553167647995315,1.6733641020477252,1.664397611867468,1.6297440012477298,1.537239750344308,1.6474627917055835,1.5976197078527665,1.3528463919226499,1.4336896551816676,1.5822454576519376,1.4363198860666044,1.291053395471858,1.424250776292351,1.3281008270078354,1.529581299467563,1.4876172661873923
1.2793178879433393,1.3524092159422922,1.3461268009327272,1.3932817626951086,1.5369350982924765,1.2739035972361152,1.2600392521489048,1.460217742396232,1.6120575572965161,1.6422575771228618,1.6664328258913692,1.6722250249072994,1.6369140080832205,1.6666926805510007,1.61956625620267,1.6076326917356845,1.608614526656048,1.6035952070413095,1.6244362971046646,1.6014343932493564,1.5643299789197955,1.638217922987666,1.6226127565192172,1.3972456261496553,1.3897001658854244,1.5456352025126945,1.405703006015684,1.240700115362831,1.4334648657354954,1.276613887610219,1.4925715939495294,1.5406382042855609
1.3262799743724567,1.4307538065997043,1.3280167059487697,1.4221401532172104,1.5301248367025437,1.2850824556005447,1.291617842024318,1.4392582180159554,1.5871025582267637,1.559406572366114,1.5785960862047668,1.6149710198632372,1.6149187709630468,1.5618666581558234,1.519761724249237,1.4949050168736127,1.5126507283785005,1.5561328417887783,1.5882870626062071,1.5353306731626817,1.522196615821611,1.608053317625006,1.549383738372261,1.3557350535280888,1.3972020498649744,1.5382083444415158,1.4374008602610036,1.2324370445655008,1.4115489793712872,1.3139598609503063,1.5232403393819436,1.5462213726170566
1.3129436956370284,1.4417599398980705,1.302821939850027,1.4030138872526703,1.5767753573756411,1.317467917724648,1.2878066257781275,1.4554231293032005,1.6199922371399613,1.6252053634666392,1.5997411613316868,1.621281626562139,1.610373490663502,1.6107111597305082,1.5743655696730834,1.5387491554188855,1.5694876328437655,1.6016012233122157,1.5698176974751743,1.5729349024440522,1.5125142292483904,1.608859579419989,1.6008515298393564,1.3971800396608185,1.4285521441369677,1.5976083015474278,1.477975559315259,1.245338303368603,1.429561061202388,1.3129591844784807,1.5576989358822333,1.5571540927194845
1.3674841644080045,1.449977364560696,1.3427109928804157,1.4036200529237313,1.502988554519485,1.351416172551799,1.3468494777757571,1.451130783832302,1.6176789265655416,1.7147776564095196,1.703809233864572,1.6888661048419402,1.6259920752733068,1.6940196619260057,1.6794062029875956,1.6770873657281138,1.7030863059626808,1.7259951187716476,1.6472715212271742,1.6891796939708037,1.5471295882392089,1.6173569108250236,1.5804874513219747,1.425622194373733,1.446071571529138,1.574963709656989,1.4881967878575715,1.2777151259065394,1.4583133474914514,1.3854052670259611,1.5358154549465513,1.543651595307134
1.3886360034651108,1.5255282753054176,1.3787795686701219,1.4625448206376257,1.5869532653777783,1.396619233819381,1.429178174533819,1.4975764770979474,1.6164790152255823,1.7074657988576833,1.70529851821561,1.6807573538171103,1.559988039358124,1.6615170595315896,1.6421584751687364,1.6449890782912342,1.6454870510258315,1.6288799132009104,1.5639585376468856,1.653342093827438,1.5358759557373378,1.5549070223065145,1.549411430535975,1.4331385038651971,1.4565732084266818,1.615513157615996,1.547173347158655,1.3361368508895741,1.4720482691473455,1.410153175573322,1.5892370966607685,1.5776934031638332
1.3864196395170685,1.5016233940522112,1.391737828995037,1.4516232861557972,1.555678588633388,1.338099593538857,1.433029394844381,1.5173354323208483,1.6087806993931553,1.7194449606761155,1.7156386862894955,1.6568884107023034,1.5621485316272492,1.656455480483567,1.6327440675233087,1.6365391906906,1.6523379078304377,1.641566004689185,1.6059594433138056,1.6565147191121932,1.5570078274279329,1.5863065401149317,1.6126833467715675,1.397555451306187,1.4576377346873979,1.6232372978327103,1.5147136613503709,1.3057973025313112,1.4425805521888138,1.3841726031279442,1.5777953247553504,1.6192470537832215
1.3939870044240636,1.5051098578500295,1.4457176701837562,1.5032332735407024,1.558583378951041,1.321383912875076,1.3922849798339028,1.4604518927898504,1.5940640145731095,1.6967356131012996,1.7186542772522437,1.6494415842861558,1.5615173183170856,1.6387740641259028,1.634976667429117,1.6250548906314848,1.6280002411938819,1.6086759530430972,1.5552462079276892,1.628679677351918,1.531585822328185,1.5236208717801771,1.506780945225566,1.434453499512809,1.370054440184228,1.5540772413067372,1.5058734128284383,1.340058903816729,1.4550604209629248,1.4013183776375746,1.5419881335281693,1.5625454348326637
1.3997845321364337,1.4559923374943768,1.3975265141578699,1.4434814413795074,1.5816174490138268,1.2600852330150565,1.3919760480346168,1.4844397708024613,1.582350298548618,1.734398270026732,1.716750089495589,1.6632949080496306,1.5508165586256706,1.6870753488765706,1.6747993103957866,1.6457796718706785,1.646923001239642,1.6337181076587177,1.559726718218999,1.6507143617507134,1.5365345337236127,1.5564155018160315,1.5181426774444542,1.3902298513114009,1.3687220334107422,1.5704777508951369,1.477800370325279,1.3473598334351091,1.414708870019489,1.3982215810905254,1.5409016243319211,1.5332836312045999
1.4293621448131597,1.508564803666487,1.4439104844385153,1.5029172641366333,1.579786036506495,1.337194434771771,1.4854301871174527,1.5019989095086483,1.585615067656792,1.682203325375687,1.7114071304355216,1.6402811397739454,1.5598147760606056,1.6443246998366572,1.6697332010691437,1.659761982122592,1.6565005631903162,1.6240003641715877,1.5406515268176986,1.6397973751642343,1.5053567491008166,1.5192587934575454,1.5200348055893158,1.3241223162345455,1.378782939910176,1.5852213661746295,1.5311226266452145,1.3831120441840838,1.4322016974195548,1.4419429583102612,1.5774765223813294,1.5708070727228471
1.4306511118370555,1.5821363598276665,1.609359623525071,1.5589691477134637,1.6015282427995676,1.3488070172599962,1.475954672942852,1.4984812224999917,1.6274808187899379,1.7026491028588773,1.6861680366342235,1.6268693706433832,1.5977370606434351,1.654078632007165,1.6496849200665173,1.63405482380876,1.6556360525722802,1.6516630778629904,1.6083551164839833,1.6356572214650538,1.53922792406514,1.5641371023017427,1.5307783368140926,1.412411445445138,1.4993623827695879,1.5918137428056833,1.571310109854232,1.6311872877122005,1.536163575128966,1.4563600266735583,1.5907955543899117,1.5887640831738714
1.4141625058131824,1.5806949429140733,1.5733236996879543,1.5615548647694373,1.6324151845849535,1.3902723825810133,1.4530208387826757,1.5050493536291352,1.6144325097022645,1.674003163522111,1.7029654323117227,1.6161409765567476,1.5937827692430118,1.6380964892504983,1.6470446471042102,1.6318638149908036,1.6546142473052818,1.6235681418004637,1.5813386510013643,1.6463190390555984,1.5284798520946459,1.5509661942184176,1.4895352652019866,1.3866798924935793,1.460399693736373,1.5806987691525025,1.524079422590896,1.6031107902277224,1.4571823302277773,1.423216954930966,1.5926223791767407,1.5420752615585056
1.4229986983563652,1.550170175978746,1.5602837038161554,1.5560146403162909,1.6083051869935778,1.3693100874668542,1.4402265815105948,1.5227080249224696,1.5793710423599494,1.709389545717324,1.7169413530756392,1.655486658806868,1.5829904786169946,1.690579998200468,1.6796850258143141,1.6477500109004828,1.662975788182022,1.6428163025923017,1.5489844646082818,1.6310387103227906,1.4741366191975191,1.5132111196231448,1.4444397102694302,1.3462852077264154,1.4469307979124253,1.5627512400414891,1.5372448894976505,1.6262109765724895,1.5274623775163303,1.438991804528451,1.586925920062202,1.545755262714959
1.4032449646750889,1.5088355039387993,1.5692615011554718,1.55519088547114,1.6203773016487604,1.375656281352946,1.4171340801832144,1.496139387150441,1.5869294976570851,1.7197861097853409,1.7280276035402424,1.657762127643894,1.5797558066054016,1.7025003087808772,1.698142380959569,1.68186178824617,1.6821115563851299,1.6345857548180882,1.551030982112206,1.647370747263773,1.4888887525799486,1.518015417994529,1.4782649970147625,1.4244016390623042,1.4625790189740673,1.5728023515997027,1.544803086247022,1.649848949992201,1.550644479876057,1.4576688419506827,1.5791511806161296,1.508287814052063
1.37043470068088,1.4647637743342878,1.58135514589309,1.5331021323899343,1.5895816722792797,1.3434227736330402,1.4441507346980587,1.48951816328166,1.570468908890796,1.6729977102171476,1.650596893358249,1.588205069646976,1.5608929122577646,1.6096703210437349,1.5911121640958943,1.5445214533805665,1.5564406049674442,1.5698076300939863,1.5496907351169107,1.5129961462002532,1.4218486401106563,1.51204014228968,1.4891823606846075,1.4123869519102121,1.4613329699107171,1.5304110347793745,1.5235157670580783,1.6890626836491212,1.5542438027351102,1.4319956384928683,1.5474529381313569,1.5423055738304536
1.4267304564869312,1.511515849899001,1.5760493589869278,1.5376820654065912,1.5884306441291414,1.33746352750615,1.3994770070522202,1.3711281629882193,1.6223535692499214,1.633440848840563,1.5982576113475546,1.5835584234169977,1.6024252128510845,1.6273371480123326,1.5802555738318198,1.5586038351437506,1.6036403484365866,1.599665847110717,1.5946743867528734,1.5951395714151568,1.5408453323274922,1.5451912686964924,1.4901545761160453,1.3939306607764932,1.4604022582809344,1.482197830710042,1.474382322688041,1.647284746574949,1.515933261023553,1.4524908127028047,1.5056507522585432,1.456220951721235
1.4177539940001072,1.4949655323951159,1.535299154665912,1.5392406647964803,1.5588036390621502,1.3126759020320506,1.3825386629335414,1.3733881770889782,1.5866318038690441,1.6420526459502043,1.5937210352849935,1.586070954176557,1.559001574496997,1.6188731432879362,1.5718541483471322,1.5452545090814593,1.542234448885632,1.5594255184446535,1.5186851938171155,1.5306534308453084,1.4397793753582164,1.496349709371461,1.413596881862045,1.3930936724928136,1.3555194276398428,1.4573429869887753,1.4069124115405398,1.5528015129954167,1.4576564983299334,1.4000742839672267,1.4979419171442805,1.4787643632502157
1.3823440681703927,1.4155801464164397,1.4956678774682217,1.4902683272796964,1.553684597800485,1.368111287475384,1.3806328922922375,1.443490722675616,1.5388312244752964,1.55454251084743,1.57797887560944,1.5378851645776177,1.554154747743569,1.5866386397972179,1.5861162000984066,1.5725068034226153,1.5901744353995748,1.5952883951358305,1.5553501361290512,1.609046416113302,1.4844253492089032,1.5345680416825949,1.4750292834690335,1.4227507152017318,1.4888071825699247,1.5377927187729545,1.475837637473473,1.646878574397951,1.57473589279553,1.41690699269348,1.5225801664475787,1.4750310715372952
1.4132070014606666,1.4892726224056405,1.523727347668303,1.5129135621465464,1.5426900300033204,1.3686119009582518,1.4064930827170135,1.4677461078503513,1.6077829911872226,1.6655593616529587,1.584353470754857,1.5959146009163077,1.5984897355392038,1.632823458005699,1.6149834776446903,1.6171781342763063,1.618125642969879,1.624163880692005,1.5841883546900675,1.5837041842927615,1.489373594464873,1.5282455921211664,1.4722535722018508,1.3840867094938827,1.5000297081473881,1.5375089896117637,1.4889583977246117,1.6169833750041749,1.5781314576100822,1.4549281279829676,1.5289519758762848,1.5126723394677617
1.3996043764553794,1.4433394855787527,1.4933659471027845,1.4512792148281042,1.5359621949474596,1.3028244487871665,1.3919556544194889,1.4626528374191237,1.58037441034553,1.6401279154394024,1.6024381159413394,1.585380738812719,1.5750859083138458,1.5837481103265973,1.559975248640733,1.5454853758076668,1.5604029491134175,1.581561464809906,1.5698970754237596,1.5435184536956166,1.4830328838127111,1.5432536152482585,1.4859604916143327,1.4276476096019168,1.5627991173829705,1.5528854677130897,1.526033242273643,1.7158484469390687,1.6727128066433956,1.4627502713158933,1.5338029356757128,1.5480184330136224
1.42124259150259,1.418445791700276,1.381261189903847,1.422100773997577,1.4778626439149418,1.2543413219096051,1.4097221410799865,1.4094009638866911,1.5903217299369006,1.681070224148391,1.6120797513003389,1.5756714030834378,1.5341430600993946,1.5707904327053879,1.5680271664020342,1.550028375369248,1.5279807103878604,1.5247430942286682,1.4942506913771723,1.4824467782470185,1.4271598213182821,1.492741196798722,1.429274184014315,1.3534104009223182,1.367843514841158,1.4672352530368802,1.4271026841503827,1.40778958635996,1.5129563419111114,1.4297479606227044,1.5000077426181235,1.5039584900490577
1.3520490942296082,1.366719698373099,1.3637059221213272,1.3814016256323172,1.4429683729785352,1.2376068566250393,1.3815179143525216,1.4061522075573039,1.564536447620829,1.6012556323715987,1.5942819745610661,1.5859713915071094,1.6083785214167148,1.609980607078409,1.624610545567783,1.658952150768169,1.6254063380483894,1.615338397834962,1.5593739982517614,1.5713629682899035,1.4637932773631488,1.5841211177288466,1.4633893538775031,1.3437894836699404,1.3954694756769366,1.450832494224906,1.357978191790367,1.4237711484038875,1.4811704790830016,1.3499729926910162,1.4181175244604425,1.510872239294412
1.3993370098194122,1.3602265467436634,1.3297054420473815,1.3792156975000955,1.454798240193011,1.225966250149936,1.4195836130618147,1.424473894638367,1.5556990055605893,1.6442160636869878,1.582832463162397,1.5891406168250897,1.5926256034294195,1.6194798653125773,1.6351211250899385,1.6467627378881509,1.6277707569950977,1.6238060963258272,1.585562186758877,1.58290537732183,1.4653647549888826,1.595105830046686,1.514529213401637,1.3732722297913613,1.393794327451552,1.455063143204451,1.3694429346788277,1.404147252237181,1.4637824729122653,1.403030323911278,1.4289290894178288,1.4580561514938852
1.3614103746608617,1.3472099856456767,1.359413166521048,1.358101161640747,1.4047917641424996,1.28883523441521,1.4738031711237118,1.4386361966816024,1.4791317289244037,1.6368089349451391,1.6059549621336464,1.5754712341694848,1.538350752692631,1.5726131207072414,1.5787411564900766,1.6052149872385801,1.6138458056139198,1.579800447581424,1.5632113080960943,1.5907417482452006,1.474880806200319,1.5531493873011184,1.4779729840697773,1.344812854879228,1.3835620321518527,1.4500957688771918,1.3434485659210635,1.4278964894812267,1.443041700112955,1.371833471084889,1.371199563642256,1.5389880156361948
1.4069420906854666,1.39879392715386,1.33147631426698,1.3756324874816668,1.444179382214715,1.2464621794419202,1.4469869362151493,1.3965117974321255,1.521855681647804,1.615850142276121,1.5962299851814223,1.5777492069688017,1.5581923461516043,1.5938792179210735,1.6197506582556134,1.6364484504285488,1.6398075562273957,1.5894558925365134,1.5944049071562234,1.6177146090951764,1.4859280142418267,1.565832745312309,1.4644310745303686,1.3375839581796047,1.4046148227629613,1.446808140679331,1.3589531133226946,1.3865725499098276,1.4585151586613068,1.3925282353859931,1.4124176957974162,1.5204540119114451
1.3449142940882242,1.3376494396299259,1.3174315456493917,1.3331285242498039,1.4115994862650703,1.2662039771987188,1.4322621852378998,1.4203781120675227,1.5334782778319818,1.5891507957803686,1.5977372388154767,1.5786196908059056,1.5239431592274768,1.567916637765404,1.5985889605835328,1.6296502702733147,1.6308054028015895,1.6010076924259993,1.5624133025971707,1.601836407083296,1.4893288616123936,1.533002633981895,1.4644593610645453,1.3156100050658366,1.3773880799877298,1.4359761685333021,1.3516319142075506,1.376433312404469,1.4404491891553084,1.3456536669019437,1.3834506240528475,1.5008593610304297
1.300386990013353,1.3209981634211612,1.3849448084383942,1.3879216320248364,1.4268676525558786,1.2872773107833992,1.4190074165404216,1.3845397130431067,1.5146970266941784,1.5892726864126956,1.5560136240297422,1.5642665266673,1.5777157599613676,1.5840479957917208,1.6169328696197276,1.6408426287806714,1.636796416066653,1.5982236889657513,1.5882488664080765,1.6061212542311871,1.5262097703841604,1.5716670279335927,1.514908101447746,1.3156992178317108,1.393515399761971,1.4448136827742448,1.277997530356492,1.3460008655073736,1.4290843488962994,1.2921202462450472,1.3468034692270094,1.5243325408523027
1.3416276924500778,1.3737655296789255,1.3966327525657702,1.4113150214111438,1.4734055190702022,1.292522031115109,1.4248664430356233,1.4293321682723072,1.4855650991455618,1.5863869374392146,1.571125914678327,1.5435075523887791,1.502953433788906,1.5414947716163436,1.5633635985339975,1.5704584902989709,1.5997053431728294,1.5372362895787681,1.553984361299394,1.6093990987847788,1.490323542140207,1.5532602276077585,1.5251329861000638,1.3660586762298361,1.3954009813726065,1.4615361836965135,1.3246444357676639,1.3688503028123622,1.417151505708597,1.341424774662271,1.3780675413444181,1.4832051628824272
1.3014456399683678,1.3384783390799877,1.392807062601452,1.4211591107652906,1.4805302649433905,1.3377406812542738,1.468523188895473,1.3929422989997429,1.528475101716364,1.5662687700527402,1.6123576237920483,1.5720688133864993,1.543842657934837,1.5861564790808593,1.6323093207234767,1.6510566883096625,1.6728015750065084,1.5936935589812895,1.610184695961332,1.7105759549365458,1.5531041723628902,1.5891233973599663,1.5716487685451868,1.4237097984958083,1.499336554397387,1.4692600135745164,1.2963014598887315,1.4233088459115126,1.4740855143529252,1.2859795736234718,1.3642653945963077,1.5715893559358525
1.2919395413540933,1.3318485933194506,1.4455922621044741,1.3859289719054733,1.4593177143652754,1.3589748764131726,1.5135706796153947,1.4928242147220012,1.514866355053529,1.6264033094728305,1.6338109799635836,1.559187692790027,1.4952938212186162,1.5748199553975868,1.6065879400310648,1.5980097695665036,1.6294745913491022,1.5695363311544095,1.5546959306166597,1.6722831275710026,1.5242876065063113,1.5387733938678616,1.5664542100845806,1.4067929843609976,1.4414457640445366,1.4513422878502071,1.2894319082786676,1.321099776852772,1.445855971452601,1.2997123647918414,1.352150032372009,1.5425931414398852
1.2811552179606782,1.3134233539763758,1.4783905992253608,1.4178023995696216,1.495420383167674,1.376411882352639,1.4438361611404695,1.4955533893591375,1.4815334469256836,1.5901592669009734,1.6066553499845129,1.5127083086043838,1.4604554133146377,1.5243231630625995,1.5550109260846259,1.5266481108388195,1.5595871070068672,1.4906469766081514,1.497341335048229,1.5980939881843463,1.4878147895218277,1.4923388069198125,1.5276720453132826,1.3393282575806316,1.4423762427401696,1.4674115175576212,1.349962054606686,1.381752463689464,1.4770598264613972,1.3124277544801877,1.3855716294744522,1.531102666801122
1.2557697747535344,1.3183153367156915,1.4651705383403015,1.4343576167480507,1.5271011597147817,1.3557758450323711,1.4378461162880303,1.4559482024308277,1.5239088653752815,1.5971828082698365,1.6324093277199545,1.542149003301904,1.537204886042708,1.5878464743182308,1.589029536314255,1.530832502063111,1.5794005594426734,1.545802590807468,1.5341963539845627,1.5935850712687059,1.4787552604516474,1.5062323435204004,1.546683013307678,1.3333369018141676,1.395341928027904,1.4711840492177863,1.3363079798783137,1.4150403041549238,1.423107064250833,1.2841587734110218,1.4273752150630277,1.5497630510037321
1.2722973448064705,1.313908077438533,1.4501926754702372,1.460075159409276,1.5232791183734753,1.3553483906737085,1.4300774347940142,1.4259265331807933,1.4708467324788288,1.5628802628960548,1.5614520961126332,1.4772561544575442,1.4336374079551994,1.4987067222472152,1.4839300899266001,1.4770527300031118,1.53128001105295,1.4678547991422013,1.471787211857859,1.5434467245832193,1.4813187770985277,1.4659475708640979,1.546945790667256,1.353404023713701,1.45811755407555,1.4659498764405774,1.3562365118141086,1.399397417269097,1.4748793719228508,1.2937968457354763,1.419916069608402,1.5414766844913537
1.2324435861596772,1.2822484902373434,1.3869039632211537,1.390457749619838,1.5471110750926156,1.352725671232885,1.423330455461196,1.4559390555417793,1.477761183571242,1.5443896779638953,1.6125244015172084,1.4703124040443443,1.498680098271285,1.5332849424717185,1.53392788653178,1.4919799632689383,1.4835500112294235,1.5202857814665682,1.5434729289256592,1.6049096829940481,1.5625367559368433,1.5389255008922227,1.58312528798378,1.394858352794216,1.4608433287367466,1.4728583089445446,1.304280212904083,1.3802931228757322,1.4332817679385783,1.2664861597461452,1.4124971742010166,1.5468481984618996
1.2973592521022648,1.3641424408064171,1.447926308380955,1.3996425249102844,1.5093250903756796,1.3935128918132818,1.3992060092282652,1.4808565398558804,1.508393765277964,1.5519635152030842,1.5575315763198394,1.4654601231824018,1.4704231950017048,1.5105496689205058,1.4817239521925418,1.4785015619034674,1.482528698940752,1.4840751620427437,1.5013816567868896,1.5244504856937051,1.4924166933367236,1.4777428941156419,1.5363481608090557,1.4005196401625497,1.4388845169234232,1.496949874222329,1.378390111949207,1.344603339858136,1.3231576101679028,1.343185400270814,1.443303881893801,1.4666001536521265
1.2741593315527984,1.3712884609467548,1.457803773360384,1.448988751944074,1.5213612165123753,1.39008395832643,1.4318758405174652,1.4742826380547638,1.4848944052285495,1.5318107585102676,1.5386409455608665,1.4335945792243878,1.465282991168727,1.4895872915547959,1.4786237343321675,1.4249581330705725,1.4117054659287103,1.4166964083316262,1.44609488519083,1.4581978612287245,1.4086515913052036,1.494347606501781,1.4811944154014323,1.3665056713032637,1.3622292426256202,1.4753124332113978,1.3395811276650067,1.296341892972776,1.287832374123597,1.2876867135818701,1.4258832478384693,1.5266832816986673
1.351116236706043,1.3992717511336235,1.3881495980871126,1.4027564409114741,1.5160652481051013,1.3523381160050314,1.4359804946928152,1.4950044748642568,1.546403874872274,1.6236957235424552,1.6410176522691662,1.5762079559236646,1.4882059606918672,1.6042797800521675,1.543225518011322,1.4967539785062913,1.4779468125081352,1.5112294231054026,1.4747708785331004,1.476327267714913,1.42480179536931,1.4493751895187563,1.4968146397703634,1.3414423297775016,1.3554867043773162,1.5024348279988695,1.3965679480295066,1.2549980937310976,1.3333021334618855,1.3485077306692952,1.4933146282866794,1.5647802963386899
1.3445942782029854,1.4973935819390332,1.47185419140552,1.4412970520726667,1.5893459446050238,1.3512331229318741,1.4156336008595876,1.4980585734864116,1.5725730067324475,1.6612755572671458,1.6192766314549356,1.6065208108554792,1.5178416739091358,1.591350658798422,1.5446491707109287,1.495035223108767,1.4691803688860567,1.4871649958714026,1.4702900227077946,1.4318774875482632,1.428881952468247,1.5115065656353381,1.528976096593788,1.3623202075343166,1.404978851802907,1.561125335517607,1.434473294430107,1.3714058262099864,1.3276483910042602,1.3591055140753223,1.530354634459119,1.5938446242097328
1.3197553496037169,1.465585289362336,1.5055729508337348,1.4195503089934076,1.5224945450305138,1.3675016340054778,1.3925612568736423,1.4809087487041672,1.554879346274505,1.6071477854410008,1.6158062161383422,1.5847512901836387,1.5317817664709419,1.601696529270678,1.5434103438354552,1.5183163633034185,1.4965095901992438,1.5582554277587222,1.5166097075299718,1.4896989775677687,1.446461464019663,1.4902195005997196,1.4742229579745612,1.3470155932381163,1.3887484910145267,1.5064991245257877,1.4271539524776078,1.3871473041998303,1.3496668224561164,1.3522404479568098,1.4784458586404512,1.4801869594169135
1.3372827023387497,1.4794409343635904,1.4626859793526377,1.4139910422322024,1.537690042677152,1.3440746248886866,1.4225195065447525,1.463194516606406,1.5659751384774718,1.6230870726063433,1.5885017595284663,1.5851140040605407,1.4946840770779652,1.5624594483657757,1.531435601912038,1.5067375456959942,1.4856533379554764,1.5094576400611297,1.4898470688813332,1.486985789807701,1.466088143965788,1.5087173769039357,1.516831813674809,1.3859060082402384,1.4617001230274669,1.5582133146356247,1.4317461140209886,1.4131309277387678,1.3718742315190067,1.3756580271041687,1.4942019491351397,1.503937502637713
1.2849719178525074,1.4115180645648284,1.4713006083263063,1.4403552127903676,1.531393227936897,1.3825497968452507,1.4975843604541506,1.5598711253273443,1.5538487507590708,1.7309971613312918,1.646016793418062,1.6184038876299933,1.4936230768133083,1.5941753138592085,1.5516846425141329,1.519040540429292,1.5046098461006183,1.5518883027834434,1.5331946988011,1.507941565589287,1.4358484663628053,1.5722631890922827,1.5670748805555135,1.3770557023864034,1.4359902039619252,1.5698386290341293,1.426095795757861,1.3697317839657417,1.3190229425867148,1.2996091491568784,1.4898828778926203,1.5847794321437043
1.2859824230131685,1.481180264472016,1.5382192408197213,1.4514090086345999,1.4867643345910757,1.423377183867758,1.5652478352205044,1.5553451094232025,1.5100873448687548,1.6807878698994574,1.5865729904472028,1.5571879753948699,1.5116890143332908,1.540295245011342,1.5171790457452878,1.5030988344667668,1.5174238412758687,1.5372000923879663,1.5354120092143158,1.5076169681808596,1.423746249208206,1.5808446847429651,1.5219771648830265,1.414585190482246,1.436066785345468,1.5583781587318006,1.4048823824814616,1.4486688735028257,1.3489290626780652,1.3140204423345327,1.4564433367835152,1.598761810727522
1.3103159051780364,1.5268477306510493,1.5820925810927202,1.480315422054399,1.5379607571036513,1.4029789535284198,1.5295609384236806,1.550118975517164,1.540853942902038,1.7032167037402546,1.6159348711312775,1.5920008096573506,1.521394964360858,1.5841171879381595,1.58544457897444,1.5328592183366077,1.5345262665048207,1.5885022578724346,1.5648295242535992,1.5745859648973293,1.4637003513009232,1.5675702413934904,1.462208437179008,1.4174044218734485,1.3934535878446161,1.5654157202611745,1.4280774836585681,1.4749276071098998,1.3647678664279406,1.3306209277217258,1.511109406293645,1.5800002829672277
1.2880667078765382,1.5013079835883836,1.5872853859255198,1.4676788247493016,1.5614928927040939,1.4203129051134897,1.5464479605636068,1.5318475542291172,1.5323920406225449,1.6900748035265287,1.5902238333989038,1.591929699978368,1.534485665733151,1.554304803129282,1.520775369905762,1.4876119319456163,1.5251965133362686,1.541042980362621,1.5304651549316484,1.5072078417830397,1.3825277938285268,1.539063503217925,1.4589889482726526,1.4066380506956597,1.462221697653914,1.599217402692006,1.4325669485868435,1.46582341197698,1.3544177357059102,1.319339703859905,1.5142128303495337,1.6030067824123178
1.2947518431449538,1.4966498194076596,1.5397544175038467,1.5156834805205701,1.6000597322787822,1.3704082002476123,1.5859153146710123,1.5150624602965517,1.5847573998239521,1.71815122242277,1.6320019342432646,1.6211715228873258,1.5525328374977339,1.604597938109789,1.5980615389173807,1.561656015550333,1.5886996812977585,1.6084712619192607,1.5737389107078168,1.606348305232007,1.4837813489666216,1.5364451280188072,1.4640707957905217,1.3735341358628,1.4108621555110166,1.578599355735178,1.4261355150688642,1.456478059133164,1.378817240714697,1.3146089221939052,1.526563864532672,1.523429326940715
1.2990158959418545,1.4895132739156165,1.471852310996156,1.4629131768257773,1.6751621778109467,1.3762067587525995,1.5077583753544184,1.5507328956452677,1.6274421536420782,1.714818514925159,1.6510077122836098,1.6576407064195346,1.5825874711522567,1.6426339404334058,1.6104237648458235,1.6044844946466337,1.618816464428501,1.6143753722919938,1.5754375069095397,1.5834673800760846,1.4798020888798842,1.576198052732609,1.5305055706203985,1.3743021974196203,1.4820154613248633,1.6609976790740497,1.4828337981646533,1.4782555963618478,1.3970665465407388,1.3292939839114013,1.605327501301093,1.6251493936979655
1.2956084132923127,1.534885380315765,1.5635529495825433,1.5392502791993494,1.672829328215804,1.3872860999001682,1.5339752032159282,1.5098468210019376,1.5392817363532392,1.6588583254372435,1.5758398613935245,1.5792569152770053,1.53268451081548,1.5495391024926648,1.5658621910842072,1.543590154463366,1.591944394265491,1.5749967884482743,1.5359312019102733,1.591197547934057,1.462467013704554,1.5418102197472943,1.4398669993231068,1.4157435830265872,1.4302687117609836,1.6056350163609279,1.4651686746333212,1.5878019393503402,1.4280286960134696,1.3324235930740436,1.5973648286073596,1.5895276769089475
1.2653855058067915,1.500681921059833,1.55918538905976,1.5218301649788455,1.6659473094318094,1.3658949219853183,1.5066228167609794,1.5131277894657849,1.5849448098585228,1.633534862017068,1.5556218464621037,1.613417030547504,1.5671155028665529,1.590626272840364,1.57934427742454,1.5740362552295457,1.6098102220865516,1.5908291448944223,1.542779149494589,1.5847898145027584,1.4360910903820885,1.5449304058446633,1.459598042586306,1.4505330027949257,1.4305126985102667,1.627503348942251,1.441714817027028,1.543022216092631,1.3937011308173661,1.2958085232987986,1.58425786195951,1.6143157381339137
1.2658302582197338,1.4994093236033137,1.5771714231512743,1.5482828848764052,1.680366109851058,1.3662672655870376,1.5000968982049776,1.502760447960647,1.5666679654576983,1.6315090639859946,1.5623343068783102,1.604909964449008,1.5573570595736816,1.5814035599488498,1.5658168039464322,1.5590439721111256,1.60432350785212,1.5896987926866533,1.5630044307499573,1.5933443507569522,1.4674350176516384,1.5723048249352136,1.5144908592270776,1.4490793285707175,1.445998250246305,1.629121025269663,1.4456335021877558,1.549850859152191,1.423759888184168,1.29113539564456,1.5840261237229905,1.6207707769900577
1.243086323862795,1.4517702842553146,1.4620609201302721,1.5305263455398312,1.6923956009023968,1.340743372380717,1.4448312441883882,1.543510354833215,1.578767316209339,1.6230267843520185,1.5664690982121279,1.5910667165091341,1.5718396036241762,1.5743249265027828,1.548278425620932,1.53989795766598,1.5756612009625166,1.5574918770547135,1.5680317821337646,1.591617400143093,1.5001261706674753,1.5693063781264909,1.4930264985479744,1.4891167805167513,1.3875111601170318,1.6044951955157245,1.4161212764229736,1.4332713861832143,1.373930414954642,1.263771014840085,1.5925616331491648,1.560530579205871
1.335376206276421,1.4641409488440804,1.482908954103257,1.5001002849399243,1.6594733814906213,1.3451838935267963,1.5131197932501972,1.5365203514171852,1.5394243796307756,1.6245090357693757,1.6144815221987814,1.5743993774013876,1.5650185598368085,1.5647847831420083,1.5986899745114775,1.5875633088536074,1.6521514841986846,1.6196992493137983,1.6244112597572795,1.704631478390719,1.6178880155340805,1.59702421262001,1.6000380238987497,1.5816520925390516,1.6174062619240153,1.647481383276876,1.5636360737198287,1.7557122851633018,1.6019048487937633,1.4144433119003363,1.6119847742171596,1.5655527897838628
1.3484810026489886,1.4771323526514237,1.483736662358227,1.5216170829445905,1.6616227561876673,1.353975128019808,1.4579595826001441,1.5097948052017989,1.5983138743246808,1.6353395339886778,1.6205389588607793,1.6199595864691896,1.6239429875229296,1.6006344196046556,1.620921419491325,1.6073776814982392,1.6564121776594158,1.6297081002661875,1.6389352817558782,1.698735755406338,1.6282370267430257,1.58565568267678,1.5547878566588722,1.5438723490423139,1.5196689366820784,1.625785970449809,1.5019431150780402,1.6665557441833623,1.5649701103147067,1.3818841363364633,1.6225348698909854,1.5923094856385718
1.3077152396626897,1.4795901222067374,1.5492600384448783,1.5479262660973427,1.6591729335780814,1.3625247890997032,1.4989561198786094,1.5509888758469594,1.55073580860715,1.634899058541201,1.6407465724118722,1.6035158434648806,1.5970848828637396,1.602303166140376,1.612535628082151,1.6157458329476024,1.6689638482261622,1.6495443350598413,1.6514280206136258,1.7278330271493902,1.6430660268651265,1.619073096072348,1.5980592820752249,1.5972529596547047,1.5339443692040549,1.6126758139106898,1.456289583321659,1.6490878750776583,1.5021994052400178,1.3293283542746777,1.5886789415830782,1.6393934577690301
1.3837569952641224,1.4954655030196307,1.513467185477496,1.5262146536099381,1.686621266577546,1.3521429093480541,1.4536603258053409,1.5781272389663998,1.6146703780766458,1.6548741858274898,1.6522725422867477,1.6503319367088216,1.667341269486463,1.6266975338266032,1.6373824625208024,1.6562201546663033,1.6967730098928977,1.6811729126217159,1.6955896649849986,1.743520482973805,1.666986312571908,1.663984360224773,1.6495465022197033,1.605094044983751,1.6250445348428393,1.680657252846781,1.5590763328651847,1.7379492062183746,1.6570082134690416,1.456142702690095,1.6563983861616856,1.6278777807566007
1.3889981633363022,1.4828067390323514,1.4760463893344238,1.4397076252436025,1.6518243053676296,1.3421376122855901,1.4470393501316074,1.6288082530539958,1.5714729788499608,1.6373193542208022,1.6295428525311713,1.613210286826427,1.667805066511835,1.5923912466111412,1.5791521382798586,1.6073045924531393,1.6656832732218678,1.6830354026516579,1.7042095594019333,1.7436669830040081,1.676488546414805,1.705396194134828,1.6850419161248171,1.6496733514200372,1.6598336269339582,1.720300857085018,1.6156319556494718,1.7368594661730345,1.7007132321659775,1.4752122104861245,1.6854545222509874,1.6523588997399015
1.3490479576211387,1.4496598226969177,1.577892181114376,1.5019441252256973,1.5940024426191037,1.4010285137232437,1.493879122311298,1.6266795671552383,1.5521726622673029,1.6295544387154461,1.600299182220246,1.5503797344731798,1.6442481151846144,1.517270667070928,1.5272886015936458,1.5565872907332425,1.6350133360285024,1.6350324977122626,1.6768724106519448,1.7203869058097077,1.6879808155284137,1.6665889292148846,1.671484505793885,1.6726704161334804,1.6941868095210206,1.7169590361070257,1.6229536475818906,1.8096064609750737,1.7235148067323718,1.4379410476182932,1.6703517839396638,1.60482202678231
1.3492859388980094,1.4895318109448517,1.52285114886473,1.5114861723213782,1.5877694771382045,1.3944899589370416,1.4489991583813582,1.6113276968546364,1.5913107023694435,1.6188614412235942,1.6096900918326553,1.598424444958752,1.657060684104159,1.5890422799393984,1.5341657515159255,1.5638035324567536,1.6290865184534136,1.66984654046442,1.7110652016474774,1.7296482693524402,1.6974870892068876,1.675996645646244,1.6363063989690043,1.634172852263739,1.5138024788552702,1.6283332401284891,1.5147254888050128,1.6744814995170052,1.5629723250044794,1.3765411667923741,1.61712777657845,1.6325990143601037
1.3598128755120986,1.482576023363904,1.532226246707547,1.4733197760630143,1.5671748681289612,1.3534508491335404,1.4100593183648398,1.6155426242596544,1.6221572916969222,1.6305560705637165,1.6011382913092527,1.5880131854211295,1.5889591963965655,1.5470603950337716,1.5316898212181924,1.5526735368384323,1.6266281631301425,1.632302808043183,1.6892834566859682,1.7191031651324629,1.6946898748375274,1.6415951845982997,1.6278891252989744,1.6410788208967864,1.6073422194898366,1.6459133212854513,1.5510549116825685,1.7224788347910445,1.623308027892003,1.4010144647331098,1.625350050975371,1.6186510982158817
1.3889468566832057,1.4972547769718747,1.514847338071881,1.488310836666057,1.5457802932899352,1.3484525534856786,1.3777229988960025,1.560965134594356,1.6232763459417732,1.604308080955934,1.6023953710302414,1.5854603572141142,1.6824447578497048,1.5734622422778188,1.5524831837596182,1.5816551425499281,1.6456346719484443,1.6670804039593663,1.7380727319466556,1.7313861525958987,1.7368051723185869,1.7506740802028782,1.732722629352697,1.6215061855760908,1.630061935596908,1.658269774591372,1.5688596875652567,1.793348674184728,1.6490426717719746,1.4481278513551223,1.6013160949942618,1.6577413298400918
1.3520407535863617,1.449986226268814,1.500857705571698,1.4732668733042216,1.5250339008069551,1.3220565974263496,1.3261396225873567,1.5710662352500824,1.648605957244339,1.5527826192426126,1.546239012245427,1.5558013428743844,1.7204425892965398,1.5468378014289355,1.5289394712892017,1.588002133270813,1.6580039601241752,1.6978529336428085,1.7724628786090757,1.7872944190425186,1.7918790085287277,1.7766469754646215,1.7662742813051353,1.6739842186238516,1.70944213043703,1.6937000786383125,1.609149331633744,1.8197702546181396,1.6597319297991158,1.4346629700022477,1.6143223268569555,1.6407511599607945
1.3701634304875456,1.4376404299517334,1.4426144451608878,1.4889302227380525,1.560878781967771,1.327534082857351,1.3617992440192233,1.5813887635759225,1.625845935382907,1.5428133062121565,1.5512355734504149,1.543815182075549,1.6900143627257205,1.5602085899018496,1.5080999054682658,1.5706449264638922,1.6330297171605193,1.7058003343039916,1.7361391634554788,1.726864416115309,1.7244577672786348,1.7464311451582408,1.7173254361133747,1.5609335784176308,1.579083392192191,1.6455760921214408,1.5391029814535333,1.7136286218039662,1.6015518991006643,1.4129213425221192,1.5835172637616581,1.6340593463755262
1.3025748037205358,1.372015033268129,1.405378942867157,1.4612799738345372,1.5604146583371423,1.2854765508625254,1.3220016761776638,1.4985860429235356,1.592234380256779,1.5054570859433152,1.5306861141856603,1.515894890324415,1.657698043738846,1.5199027922729016,1.4693171729041279,1.5201372375679938,1.5742386662762784,1.6639629128359,1.6968203538615838,1.6566154215369395,1.6974656433599065,1.701510237786449,1.6642150297287066,1.466826540116219,1.5144042935203097,1.6001673522073887,1.5004268333180364,1.6365845631953668,1.5150087042856866,1.3428981823167496,1.5504247344444944,1.5603110823801252
1.2886872149353676,1.3910068286531654,1.4367489612420241,1.447842115344919,1.546394875650042,1.2448475904337353,1.2956357929216364,1.4913249221591756,1.5880558474559896,1.4882226141141703,1.4689202079248458,1.4865076600546907,1.6288270139852215,1.5121348246593047,1.4724476731239902,1.5241917317834934,1.564051216297832,1.6417954277433149,1.6224862234674304,1.626287506054979,1.6439170152138074,1.6639433786286202,1.6521946343638312,1.4914522781894102,1.5816502749752146,1.623934326848862,1.5270719899410914,1.742124602108387,1.5748539993534174,1.3488614402554802,1.5701358418824989,1.6234853841927523
1.2663643460100842,1.3929627078214075,1.4030650538607548,1.4689318444170432,1.4941159214132829,1.2901112283807918,1.2743821016372405,1.427678452340295,1.5902284245473826,1.5114609907699814,1.5045488524595665,1.5289324819544587,1.6317340148757353,1.5264741110301394,1.49510796754422,1.5530873281349609,1.5847940211978042,1.6284406811652359,1.6589270435178771,1.6468733454599178,1.6866498394934855,1.6871650101008393,1.684058271911863,1.5149048328863746,1.578841871521591,1.589720104857265,1.4840798371377653,1.7534597587652114,1.5642639106997993,1.2745026118209772,1.5001156438601693,1.6195026393084315
1.3059388788918582,1.4707175116870006,1.4473854221380378,1.5185575311160613,1.5688997697208358,1.2704638213784882,1.306045139136428,1.455675652631397,1.5914138627315775,1.5162417682795815,1.48078929344578,1.5093797088709824,1.6203746324055406,1.5066264749385416,1.4707474197411816,1.5264121956726742,1.5860832482276526,1.6425300435060017,1.6660268233342774,1.6834938938773472,1.7343849789117396,1.6876178034824778,1.7047765120155745,1.5246899855033735,1.5935644382362841,1.6258712462539635,1.4970090196114114,1.7358870879328396,1.5280321211003383,1.3012625538413405,1.5570874829028354,1.6262136603927702
1.297526837942356,1.4211755024984716,1.3362221453131249,1.5147507065320511,1.5715159698596008,1.245387248473347,1.2165726861367563,1.4064693276933395,1.5594663376287028,1.4959894198145554,1.4973562147327466,1.5415100335012129,1.6018923635397213,1.5502663122880673,1.5216030950211363,1.5592295681371284,1.5866594757810262,1.6593753238289672,1.6524129835806718,1.6956285226018397,1.7322560627589099,1.671965562964648,1.6824981117603275,1.481313057177782,1.4935362113030495,1.6268033033041465,1.4440156603630618,1.5784823237316454,1.4663898195356895,1.301991648165225,1.556079899825851,1.6298958332027083
1.362455770655438,1.47729719990758,1.3549014346884387,1.5066759300618526,1.5857991885794662,1.2589965053710206,1.2789854304403117,1.4367629918632867,1.5903431336534484,1.529517863347489,1.5498041453919953,1.5396131839098768,1.6248810786421028,1.545703361281126,1.5452378858847853,1.5846904157861745,1.5870957993335069,1.6514041190371618,1.6321137703271031,1.640543136831089,1.6813480572207244,1.6447603799844266,1.6425158664168853,1.4179374140073167,1.5460866046110113,1.6567962089213104,1.4823378998412196,1.5730310758127952,1.5158192354998494,1.3658945745846893,1.6036145451122013,1.5986742776617733
1.2937335636175984,1.4398428239219754,1.3470782134091335,1.4482442260155741,1.5521209069926178,1.2612313816006397,1.2978524481538736,1.418178151037,1.5735189273555852,1.4836019215604834,1.5526227592053417,1.549040429362134,1.641957624437304,1.5747401421582534,1.559588927445562,1.6028318583589634,1.5942655108709312,1.6558445623355666,1.635028659543496,1.662682777098187,1.6823849116752703,1.6530603660759577,1.627793505161005,1.4363773041155612,1.476813741204765,1.6109240660356217,1.427830786821936,1.5095340346409951,1.445207336769032,1.2936902660767693,1.5474841647020177,1.6260468913908512
1.3649017393415233,1.484617896923856,1.3735831230445865,1.493364933347356,1.526999541949721,1.281578713047942,1.3164372198279302,1.4472556020376472,1.5908481626362252,1.5340592623843914,1.5671648863127883,1.5307198791051806,1.6587735126266723,1.5881189032382224,1.6023583113381885,1.6371782845473826,1.6164462643281114,1.6455116339531193,1.6445422532327896,1.7017205244465714,1.7087182941703196,1.644179298495956,1.6250843762986196,1.483461412525573,1.4893005164035522,1.599968887381871,1.47130609700265,1.504416494511993,1.495063505273775,1.3867821636921454,1.5545759062400855,1.5810398691142105
1.370719720149633,1.470978520535198,1.3007690257993418,1.4805627409713007,1.5678551050700857,1.2636560601516738,1.2944975051351741,1.4325548615139096,1.5390895983252213,1.5248693875362576,1.5316717934130253,1.556517129951845,1.6220222354822615,1.5450031715343133,1.5398978796968623,1.5796063617508753,1.5856714952354054,1.6200139890723309,1.6296811555283215,1.6257883247737879,1.5677625825590358,1.6257650862344153,1.6022044027738922,1.3932890505440274,1.5133141969608823,1.6299768861998258,1.5188480215536724,1.5048394151679703,1.5175972946944285,1.3969486890280622,1.5977195584447978,1.5780346667003837
1.3765385098231786,1.5123753279511245,1.2739940074648732,1.5014878105949065,1.5842702175809933,1.3062690080142747,1.2812080877779648,1.4327901325686205,1.5680217255024016,1.5470896166707049,1.551193848864776,1.552578714154062,1.5957594866804263,1.5389501832310775,1.552162835172942,1.5731688654424387,1.5696291139854224,1.589133665825716,1.5789201844297118,1.5984665672884688,1.540437895157632,1.5839518676894844,1.5605483473686779,1.4053249619557566,1.4634672886228692,1.6253189124453127,1.4550586765504474,1.45318592039924,1.4841500749329215,1.388080003155685,1.5833548852384465,1.571978360261556
1.3986035705250413,1.6331093712241982,1.5435712124670031,1.5382465788987083,1.5627630376892327,1.3882873625709895,1.3320738916089516,1.4489316550664177,1.631718095815809,1.5375208766719264,1.5831257344136305,1.5887569082969193,1.6762001237593884,1.622118484572053,1.6335205377565574,1.6753764056091378,1.6609395932617177,1.6855681460138106,1.6598563568753641,1.672886491605939,1.5738555516545016,1.6598097192005363,1.656388785273726,1.4852833114297277,1.5659303206979107,1.5929928013787278,1.4254516179084578,1.6373172865499568,1.504167047822747,1.3572239153933718,1.570089839799526,1.5893848931731949
1.3028148880984713,1.5274328393721786,1.5744936247814523,1.4686636618876534,1.4690228588556735,1.4545761887582758,1.3629203508316285,1.47250720070719,1.52417784396479,1.5267629589089726,1.4811428273368448,1.4897093853950167,1.5731657482671257,1.5189767186837706,1.5164173570811355,1.5374323481512449,1.5610380893641154,1.5709663182362887,1.61553799497868,1.5814603613615374,1.5626631437739487,1.6042666848847345,1.5645555984698782,1.405215580820694,1.4918283166545179,1.555381726473133,1.4237748065148421,1.6886792647920181,1.3911160024100178,1.3064029309174245,1.4720866426559263,1.5472075733415738
1.234946915510653,1.4525367667306734,1.6782893091535078,1.4239328717165045,1.4842754808404415,1.3984499954837308,1.4032240466133006,1.4847882905216947,1.5267569514715924,1.496165555447837,1.4381896242752608,1.4183148176040081,1.6228731399227554,1.4763188907130869,1.4768119711875345,1.5425465857889085,1.546887245258175,1.5840302417692276,1.6311588805233037,1.6346392613574634,1.5547100432281262,1.6552917952901136,1.6323895939679032,1.443181466400316,1.5915728803046638,1.6380848515419386,1.5074381219511557,1.7306191056550069,1.448268037714166,1.2894865425303514,1.4882402930575194,1.6017625431513791
1.2282060083031752,1.439081825378216,1.5874545881127629,1.4104839068894348,1.4349774977873588,1.3810291350513062,1.3545761260488922,1.451830257106444,1.4785798617715085,1.459228458456762,1.469747826536019,1.4497356083929773,1.5772581992039785,1.4845902010337972,1.495658154652727,1.5177834985088534,1.521327066582808,1.531044296941357,1.606590287373183,1.6009031148078332,1.549170692393114,1.6163715875142801,1.5964008009420023,1.4869939649747435,1.601485747822503,1.5796959233471635,1.4571248487268254,1.697986337684546,1.4437451165590043,1.269008034647148,1.4441776268205198,1.5654248960780999
1.299308141296618,1.506919058597815,1.6678704525633796,1.4085801087187186,1.464128662192344,1.4390646028902074,1.416186902852496,1.540433574615226,1.5009219912476912,1.4473403388668031,1.419137203859398,1.4360393311816408,1.5869001931183304,1.466890911896179,1.4658027574537396,1.5280813333300005,1.5481145206508726,1.55179999489989,1.6394114675604914,1.6556723242399205,1.5885157985012741,1.6648699214224614,1.6606019597335415,1.5486923459033561,1.632925591162718,1.6292133816667171,1.4899019437797987,1.7445211717346898,1.484301589890503,1.3094091165821116,1.4733699682981658,1.6029245874860683
1.2671678877256936,1.545497720714175,1.6426749963605822,1.4616750538442356,1.5150479403088863,1.4516517756009737,1.3167187801452707,1.4745578643117643,1.5247929487923222,1.4348149541501511,1.4466458832081497,1.5066509374675254,1.597906920056378,1.5095983824117574,1.5174021634471564,1.5580882395425188,1.5531920013315677,1.5377985340215448,1.6035980761519808,1.574114876774889,1.5579262023273124,1.6084457846724773,1.6112847802137595,1.479581184922497,1.552237127405956,1.5597173310510049,1.3999199450458055,1.6566888298538074,1.3885310809064637,1.2637000263058797,1.471968753088939,1.5768408996033665
1.2292652334255223,1.4602911841452393,1.7199096534696527,1.4140850190732768,1.5029538421141182,1.4483419350211635,1.4490028596191589,1.543858084466976,1.4884519056844974,1.546538808178618,1.5194362341973906,1.535535114744581,1.5679678314262748,1.5156620315265525,1.503163730029708,1.5484806422755675,1.5690115921742729,1.5645873632787641,1.634359046792024,1.637860929652731,1.616731947607499,1.606234095005446,1.6128475044391792,1.5462453989268405,1.5678960351024458,1.6246207170999072,1.4306385902264347,1.7180137051872209,1.4121249297799012,1.2543475474086963,1.4731211732398832,1.5470972522088509
1.2432406773394316,1.4426109675789982,1.6332243993392097,1.4077897517348386,1.5094831783274159,1.4056755201041502,1.4402481423903088,1.5246127489557766,1.541221069306101,1.5337150505791832,1.5261808064506281,1.5535955112856026,1.5729693746447497,1.5297335308384625,1.4724410722900778,1.5245671937918326,1.552719396832117,1.5765110076032705,1.6215646887780673,1.6398449571454474,1.5736160712817868,1.635759082081517,1.6395896345517709,1.5631426907692796,1.5929919645226773,1.6378704525548804,1.4440565874914537,1.729148644003919,1.4259652129559723,1.2658392560779292,1.461728088411906,1.580549300804339
1.2299897411696155,1.4622513080228738,1.6958477834229393,1.4205481482059183,1.5433064379761465,1.4614469063744386,1.461097784215187,1.544213353914537,1.5860603571737042,1.5421401471218643,1.5476877632405956,1.6253286777793154,1.6186363679004174,1.6130555513981455,1.5785131070987803,1.6084484626343205,1.6300334065596027,1.6014661709374922,1.6353685614453297,1.702749868671164,1.6509183653775998,1.6364129038294053,1.688172510450119,1.6218931771931016,1.6457057755158673,1.67508204778291,1.5037025212652249,1.758872333045157,1.4848624975472942,1.2576817600569348,1.5049216869714597,1.6249612505561202
1.2222109908253311,1.5103046175648176,1.6500005302553664,1.4458953863726722,1.5396090905891493,1.4515757555901672,1.3953202869405918,1.49946305824835,1.577113166263021,1.4953139586956163,1.5038620486649068,1.5740570305512294,1.6206445208699618,1.564605109090444,1.5099988743830566,1.5575506613001229,1.5889805094121672,1.6220633463109246,1.6403901276253903,1.6952740469922658,1.6869317237482924,1.6758434009932104,1.6999377772899067,1.6152016626204326,1.6228309376380574,1.5838526352615387,1.4087571097066678,1.7014587179788327,1.3795093826680338,1.2004898071258936,1.4006214688845013,1.566091674533709
1.1585622946127634,1.3687579950143052,1.5272306615852966,1.333933069843076,1.5459894636886788,1.3977156779964555,1.3578509235566156,1.4905085048590927,1.5371123556477486,1.4652777118640756,1.5024231543829163,1.5739561745934385,1.582974449771939,1.548299065787597,1.51111071666214,1.5468925347646665,1.5691681587434225,1.5910604530470365,1.6052798032868643,1.6432997308014816,1.6684440419572681,1.5874265115200887,1.6554650222723493,1.589766970810709,1.5357497182280702,1.5922480223414117,1.3900335213604404,1.5583244583256999,1.3014073323958473,1.1523789260158421,1.424266868918781,1.5349702669057472
1.1601402614997134,1.386439566927283,1.5167952140588514,1.3311499420449049,1.5581423470180729,1.3948973803235525,1.3748856776133207,1.5336328347637436,1.510701161420401,1.5306812720311151,1.5498241382448177,1.5398644609120975,1.530938838192964,1.508802411917878,1.4763442203350168,1.490252501507228,1.4854025793943504,1.5304585324996403,1.5512004101807755,1.572586892116284,1.6020240736902862,1.5630121872249751,1.6047804682790003,1.5272288249709036,1.4491543716642241,1.5596426883189771,1.3591741529255623,1.5274410468384794,1.256120076907473,1.1463730332131468,1.3968746395422051,1.5691043017127693
1.1192646485316058,1.3428328901854432,1.4204747471512442,1.3314213371033694,1.559667534265827,1.4239965239232069,1.3889154419088803,1.5397860700945045,1.5408058771284443,1.5132176385192337,1.5148344537057432,1.5800374788429044,1.550921037861511,1.5445817470684944,1.4906196388613726,1.520716204169614,1.5561524096713468,1.55602683504019,1.5614557089007701,1.6243413068161,1.602925942250516,1.570603917614757,1.581805295470663,1.5579521646193153,1.4462007903698513,1.5512269395897333,1.3331041643111108,1.5071662536759884,1.2494935531913562,1.1156080280104115,1.3631929239936238,1.5570664532749185
1.1364247137684331,1.339020308554961,1.4372450097129443,1.3367808634356368,1.573849010376953,1.4421060212108596,1.42972504727974,1.5873766540145047,1.5411253803688234,1.6176717559919285,1.590522956618737,1.604433313078799,1.5153083150705127,1.5613296494172642,1.545999514697216,1.5730701322560243,1.5750894875062247,1.527905066661182,1.5183568276015527,1.5988843855952004,1.5759841599182596,1.5470254024589916,1.5817993424959913,1.5491438324950288,1.4670576624622154,1.5476640114311317,1.344840501601217,1.561086209961403,1.276148264205507,1.144695423489245,1.3830314354343545,1.580512730684543
1.1099018568270305,1.3080167860571497,1.3976133152405152,1.3193727526437933,1.6039212746424292,1.4082024216438687,1.4094785150331732,1.5054849429689439,1.5501440238533097,1.5750160229544496,1.5376038036462296,1.5791508430486456,1.550899234566555,1.5329839737208955,1.5340572541538013,1.5689390296791386,1.5766906784586712,1.548640030629732,1.5312372830370253,1.612933152629809,1.6005152986296818,1.5369168071620225,1.5218862457103721,1.5288841972254212,1.404279242632274,1.4977972993917918,1.2961939142533587,1.4312651330907546,1.2214072334060553,1.1184661610045077,1.3664513395699476,1.4783088888176859
1.1343942596625611,1.3001433162582343,1.387984146115153,1.2950703672614519,1.583773691000457,1.4132956243106984,1.4224989648163606,1.4830716820312395,1.510648876784812,1.5353187416168301,1.528804112935306,1.513097708478123,1.4896610713296574,1.4847389079803273,1.4579261307242084,1.4706867530351297,1.473289916428641,1.4590027135536947,1.4385527116324257,1.4951157417019179,1.5094757140065604,1.515456988340703,1.5052392114450663,1.4594216664698816,1.383492253091753,1.4853983263106474,1.2828815619092864,1.3794378238727776,1.1804582004400554,1.1425387014150268,1.3536018967840753,1.464441413899914
1.2027443156982003,1.373881758981387,1.3834903455352692,1.3802358548439977,1.6842362212094397,1.4720064003464695,1.4713019593823746,1.4712283546699847,1.561684762749058,1.5310916995519193,1.5229109854665988,1.5398228351914958,1.5441461633840676,1.4949403428001418,1.469566677610655,1.4990737067679756,1.5046472966595286,1.5196264408905389,1.4876079222455991,1.5111954306409878,1.524232490529248,1.5336385807445614,1.5083560654476182,1.4326331432149833,1.3785843181614887,1.4927135762246617,1.3196309566536197,1.2780114756422079,1.173308046832723,1.202096144705965,1.4350972702086915,1.4662851864552697
1.2571276063411245,1.3986757709352287,1.3240053976694124,1.3057946386201063,1.6585021545133807,1.402128939379717,1.3808427136804349,1.465486080377375,1.5357615156376359,1.5242292605375944,1.5188917507360813,1.562931221131032,1.5233618668044657,1.5070061141888396,1.4761759751559274,1.4967596066317377,1.4922538206940492,1.461703444196362,1.4703350695256514,1.488114344234375,1.4958836605795824,1.4820531662214511,1.4290155779858986,1.446318427923851,1.3606540722397222,1.5126600681938498,1.3745946910114955,1.3424665380129348,1.210888209571489,1.2589846673245646,1.4815407101999392,1.481622652009582
1.1911310723716442,1.3112123337332964,1.3100178316328368,1.3362051513604718,1.6375420247348582,1.4526923630444017,1.415254496036506,1.5493979439014607,1.5881412733122866,1.5937538846978936,1.5428008886166906,1.5767875455979659,1.5431682100713868,1.5008026700820605,1.5121682130059575,1.5297469453786858,1.5176509917331489,1.480358395731361,1.4908145705625697,1.5436282447060181,1.531879586188576,1.5556269159018026,1.5118271287912237,1.4806162810222248,1.395694579551464,1.482909485135832,1.3291895372850207,1.3368037861783841,1.1572110260534025,1.1995870813523424,1.4152589839919338,1.4537685827046214
1.1911412318770258,1.3918735445721884,1.4015780989945432,1.3629298101510738,1.655028136734207,1.4692165180553916,1.466517070771942,1.5245465863365288,1.5708033069705565,1.5719350525147646,1.5182942297646769,1.5443687270722328,1.532953681711958,1.4905220297331678,1.4815589700640037,1.5181313130059888,1.535005320800814,1.5342404725590295,1.5253090840837127,1.5933927894953395,1.598949628250176,1.546566901502503,1.5296584080328313,1.532291060405668,1.3595521869551903,1.509799069378215,1.3202495381905073,1.3386795781638494,1.2142518368962811,1.1917007677108706,1.4545426521962452,1.5039363527719474
1.2234990846014853,1.3528336824384408,1.4262311967183336,1.4199714349931674,1.6567139197834557,1.5291369089181224,1.5033131078960265,1.5199886145404422,1.6166993148481377,1.613801480347515,1.5565253662548317,1.5626474614098917,1.5830582876068473,1.526217289630096,1.513061143356234,1.5390134701196678,1.5428577856358177,1.5536986624650844,1.5495683809215133,1.594818484199837,1.600010051091035,1.5755807408697218,1.54210229991039,1.538580561866459,1.3724818982046927,1.51485928770814,1.3248245969225465,1.3255300048907903,1.1765930052499685,1.248336106458836,1.4609667808891469,1.5627930129798837
1.3169588322201182,1.3875065382476122,1.4462312963875845,1.4210293141044288,1.7072703075917783,1.4904172024523388,1.5726094984764893,1.542179833568386,1.5665671367199805,1.611039541247588,1.54936512187399,1.5463278232888982,1.5681443426707802,1.5093702225480896,1.4902693561337983,1.5211157810914606,1.5441567132151621,1.5566118854017865,1.5672596002017227,1.5995187040150634,1.604659686302222,1.5880988192464436,1.5579259228171929,1.5802371872593834,1.4413095260578876,1.5544607887128772,1.3906461189341646,1.360579245498728,1.2226782579083544,1.3177154543756293,1.5505116503531797,1.5509696398072585
1.2669062661101937,1.3558756027900298,1.5014046302973036,1.4086538375495836,1.6026889686649537,1.5019186481916493,1.5254914344528316,1.4552140971260719,1.6000616144567676,1.5724908191204994,1.562542582922072,1.5753937062893142,1.6173065873788137,1.5411510753853952,1.5239322863263676,1.5746683594210744,1.581371595673642,1.5938282340501106,1.6258439664791478,1.6259635807723967,1.6390996313512864,1.619523429973181,1.5968731584309397,1.563453019159288,1.4690103044119145,1.5243006269868988,1.3922833633097846,1.3830289543679524,1.246908487215007,1.285474402382039,1.5177686671390387,1.501523409578158
1.324947558178939,1.405195133354833,1.5176130375620336,1.4176211292853405,1.6244074952249485,1.4660311801650956,1.5154466874737325,1.4989424487064829,1.6077967816030176,1.5653870042733768,1.5389423665876805,1.5765430801570097,1.6134976538524792,1.5350008277631693,1.4944046545605814,1.5157537556671619,1.54572978949973,1.571815659041208,1.6146822182764438,1.6191247799499973,1.616359138289873,1.6150981498204973,1.5903007780332545,1.5897676540959855,1.4420252910456999,1.5439462183043964,1.4178570081542594,1.3914592743449097,1.248705866370872,1.3240693033287287,1.5546898951140447,1.4809401935049364
1.2867633713558675,1.3849346169746115,1.5099921221771917,1.4005268267986328,1.5956651294408348,1.460138039630351,1.525581430889915,1.440759899380884,1.6382802916964092,1.5340467606362453,1.5284592453893422,1.6063399833314593,1.652787474330538,1.5728073712832331,1.5425851467516392,1.5631942826572232,1.6069473226642934,1.6314813482548922,1.6436830067101502,1.6610628294611185,1.6675419223059444,1.6353190026402846,1.5915629961025886,1.5953265645075003,1.4469455387325547,1.4592656365378238,1.308319033175366,1.3420004226045945,1.2032382193413185,1.2823744859460025,1.450804169142867,1.5430308538899877
1.285055378681873,1.3956754797268112,1.5918649909884033,1.4813394218179254,1.5968239575689078,1.4936855667166022,1.499797716508291,1.5071617487476858,1.6157520976661968,1.5789380488329408,1.564983184627587,1.599241070218364,1.6532902439031172,1.5886496742545315,1.5798511802471449,1.589819460365128,1.6402289840964852,1.6459087474151683,1.6851331985057405,1.6945749683947464,1.7002233108612324,1.6618898528959325,1.6749116273708062,1.6678613703616143,1.517704352246035,1.5713621137938638,1.45465449994576,1.6232891607324633,1.4650719056784096,1.311377893482838,1.5503401546863638,1.6917812544402653
1.2835982605909961,1.342015926380405,1.5568582581045152,1.4627719440835671,1.614337140682539,1.4889780151352245,1.4919028146868385,1.5325451156204288,1.601593845438559,1.6458482658594014,1.6173081069846145,1.6166104695981356,1.6323824555163904,1.5951552088844028,1.5794992048288967,1.587133364930384,1.6382257748437172,1.6431364306395684,1.667019986532803,1.6695316384782173,1.6650670130585914,1.64096261471856,1.6365878009412922,1.6013752086358397,1.5131776048916286,1.5891814077991706,1.5279758802323316,1.6872964576379026,1.483583464917985,1.3611582979749985,1.5820599683408199,1.6547167318825917
1.2977286500078136,1.420169697087531,1.6644544992072976,1.5343768725406775,1.5886612938515658,1.529476432674732,1.5000633738563558,1.5264777178835822,1.5974327501357357,1.607166055279064,1.5936228716919396,1.6035498825297885,1.6284454209091646,1.5786437769209012,1.5639703543465495,1.5782034596321142,1.6271128122245673,1.6305673335658397,1.655184733171103,1.7136977983978778,1.7040333481511825,1.637469610618306,1.6534017615032912,1.6196238825718987,1.550379278408066,1.587176918414116,1.4721720043143507,1.685781541930507,1.4390360926886614,1.3476078245862946,1.5447334819674947,1.5956437785890352
1.2743742962721016,1.4233255282961685,1.6241022075861828,1.5025703706492086,1.5932887043647355,1.4551814183716656,1.4760906928214217,1.4852335722239318,1.6096635833536586,1.5985024395380054,1.6022658913849441,1.626637967379419,1.6415692943569982,1.610388328982682,1.555145293803408,1.5571252668996536,1.6094814740699275,1.6314927408291202,1.6597000465621277,1.6765444934548965,1.6661620188905006,1.6347288826428854,1.5967411834736094,1.5360256516938304,1.497631469291038,1.525732265193504,1.441137738184266,1.663900039020449,1.4195725150572158,1.3099040254537127,1.509573447620369,1.542339569699776
1.3153594209158102,1.5021437728020042,1.6216405586428928,1.5844918523640397,1.5685764294424691,1.4979282742954922,1.4734037478241708,1.5462081223147688,1.6134008817535421,1.5694971830554512,1.561670113949513,1.594272176362895,1.6189986421809686,1.579649079689071,1.51156633284014,1.5272787202575264,1.5612845327214582,1.5855007021642937,1.6146904025318554,1.6168110178506778,1.6253831507651244,1.6078434692978265,1.5808855795713004,1.4357673608218007,1.4262310352622662,1.5146134790340455,1.4099960692913196,1.5732568567138914,1.3779313544609184,1.3264316962550315,1.5083351123781816,1.566401475834709
1.374919434489173,1.504575759721664,1.5529602485515537,1.527679100295356,1.6292589784108258,1.4215913592822922,1.4293607278739875,1.5085730547095468,1.594514773235998,1.5850990797847344,1.56793889373068,1.59755964650416,1.6145093751828423,1.5769982193218992,1.5186580014550126,1.5186772924528953,1.551418793192893,1.5851350131947992,1.618206398675074,1.5818828948216204,1.5777821126280975,1.600830732552216,1.5363490225818797,1.4046178138020164,1.413196281031441,1.539659193359865,1.4359661464095876,1.602924350623569,1.4678228545745293,1.3917700397810817,1.5507050933790494,1.5905622589427917
1.3875752230787917,1.541744887960192,1.6347922972996243,1.5537689068053744,1.599727402144936,1.518132664029259,1.4820143513599118,1.5903658536812793,1.6479072107076769,1.6391197789247895,1.6062914629559417,1.6152284198477467,1.663407701187759,1.60337727813344,1.51086947976729,1.529195990180062,1.562125776061498,1.613411680230345,1.6545719704676602,1.614837371089904,1.6262219175211183,1.6508458220463713,1.5842369869812203,1.4379842726921046,1.5004403345514068,1.570670119606123,1.5121745758438028,1.6834432708808595,1.461479361692732,1.4261340015614168,1.554684554527644,1.6236961711437445
1.4008611912396618,1.566371295280379,1.5992020234981636,1.58292675126252,1.6292495594162206,1.4261054323263629,1.4560350118841965,1.5130247171399285,1.6678075464571376,1.6122588553433175,1.6105707811272427,1.6470387696732467,1.693854152135466,1.613210526456325,1.5871727994501685,1.5789416997143486,1.6276360051338419,1.680334305346697,1.7218249056048456,1.7329458294270446,1.7063782153536147,1.7099497643879067,1.6521844339098626,1.558809170129163,1.599033650974002,1.566210278194144,1.5050560156117838,1.8122559990347937,1.5341560380364456,1.4185110998081354,1.5333856570170759,1.624750355893729
1.4021283089832064,1.6055798558771082,1.6254543421681846,1.6214979815176884,1.6761785205752049,1.480540875234696,1.500456126768726,1.5300374734205313,1.707481444550767,1.63685678195235,1.6087674782710482,1.6642587246900142,1.7498862330207605,1.649727129403816,1.5651303816176343,1.5907324288246796,1.6315003700480841,1.7158302967316272,1.7179061418685517,1.698165733478496,1.694666311845896,1.7264971154496493,1.6536629913404879,1.513247641091048,1.5920273878077351,1.588801109425641,1.5325186961654023,1.7637438137291348,1.5197064037407613,1.4343285606996408,1.5819467216501468,1.583045799900195
1.4034233282530735,1.5774222338148822,1.5952432664669054,1.6306787731737067,1.6207374605056515,1.4451603018479735,1.4759876750882654,1.5423855419169832,1.5900265158260352,1.5612645470665965,1.5294712035102418,1.526204066743793,1.6540043105219167,1.5372460597106232,1.4702576400473886,1.508753634550836,1.530548165470088,1.5954460938846406,1.6467345021143558,1.6086149893792006,1.5776668171195662,1.6278223909483323,1.5736116796646207,1.4429807565732742,1.481859708515144,1.5497922037135887,1.4922908559593353,1.603779188684623,1.468284397995063,1.4011922102913785,1.5530550926047841,1.5419929947395654
1.4267803977448439,1.5924480697296968,1.5744373747365528,1.628385615927234,1.6170931543096045,1.4165766670710733,1.486292781573832,1.5176818270173826,1.6516767768608702,1.6015121824557745,1.6097323503189267,1.5874197343610545,1.6747944088300661,1.597567658539614,1.5334490286117572,1.558720045912823,1.547819298929863,1.6339125121968723,1.638903047506388,1.6339486799320206,1.624364604500875,1.6371211518754099,1.5391570169057482,1.4867347386196945,1.5263737387888159,1.521393918918389,1.4811307137515919,1.6586521630901294,1.493762323798731,1.4187957529339104,1.5316439848993855,1.5301550889756999
1.4056088755462013,1.5992359433477252,1.4931101120804091,1.5571253952827986,1.5820379093249621,1.35171203517551,1.4875716725592896,1.5244838943249488,1.577192313662004,1.6239788319141568,1.631865170921992,1.5834811139337974,1.632777308033009,1.5954563596457998,1.5716380697242118,1.6002929363811929,1.5999160598170472,1.6705193102504807,1.6503839989379836,1.6945615872454676,1.6638072772549963,1.6146259097361093,1.5830957272727852,1.5246443108649086,1.6022711454404117,1.5696304735677393,1.5373878906667797,1.681264617477259,1.4849516741070523,1.3974673255608243,1.5642060633852117,1.5581534464893574
1.4457829375148419,1.6314457211203581,1.452191925554993,1.6068691835742321,1.6328898331656725,1.369164623143572,1.4921208404066175,1.5312042925363523,1.6938557115653894,1.5922451248968836,1.645534443561504,1.6846534116007448,1.709873908938999,1.6587913363470363,1.6355024517176593,1.6611530930288088,1.6631905506258133,1.7217667140219939,1.7306126191466698,1.754336383295505,1.7510836028218806,1.704635376545291,1.6735544073665,1.561159316638409,1.6800149279014858,1.6155095765863068,1.6113508754178432,1.7506701733759704,1.5550039444005657,1.4744522288772748,1.6179219413750312,1.6406492611916268
