Fp1,AF3,F7,F3,FC1,FC5,T7,C3,CP1,CP5,P7,P3,Pz,PO3,O1,Oz,O2,PO4,P4,P8,CP6,CP2,C4,T8,FC6,FC2,F4,F8,AF4,Fp2,Fz,Cz
0.5916433829784579,0.49704409054147164,0.5818531595618062,0.5204854833935724,0.29438328546672893,0.5350692353759834,0.5560432297592839,0.4716555799698303,0.46942000492222336,0.5021846522754929,0.46218897549912397,0.5031080031264086,0.505548566665147,0.4979222189300828,0.5339637774780768,0.4868183857853133,0.47650361304177247,0.5643014661687583,0.5159562320353636,0.5518774447122513,0.4896086884664358,0.577884605025184,0.5127905022073099,0.5021682332802593,0.5054518931990378,0.4940501147085963,0.4515898548030087,0.21194451444804607,0.3519022419324121,0.38891990575705837,0.4400348563899508,0.5757643850529913
0.6322877805843137,0.5478451763150421,0.5914560806334995,0.5816009908129116,0.519441061671606,0.5433872871501767,0.5039235522988114,0.5413581849616341,0.5316283940230934,0.5195126145794604,0.48660298619014436,0.5284707529221492,0.4938273691436923,0.5297990421317574,0.5136842535712877,0.4859739076102272,0.4983382907873898,0.5524071063384791,0.5545851217686391,0.5417269588901652,0.5522655818460626,0.5339746955906555,0.5982037506504115,0.49319650641648677,0.5125499648289012,0.5222276966592819,0.4800019886965121,0.31248568779354885,0.4323123581443524,0.43286830856209824,0.5020818514013516,0.5547272088252061
0.6068342154102453,0.5021787112749118,0.5759489492416247,0.5447576031465344,0.5587062835525822,0.5687848877819606,0.4951370719960284,0.5343199528487852,0.5188681179906227,0.5413525783757646,0.5236016395894033,0.5085827846159993,0.5226912870424916,0.5189315210518602,0.5050468771414107,0.4796438735896446,0.5173119554690238,0.5397217278879679,0.5352083304324652,0.5475217015560466,0.4741246357478538,0.5036431152890863,0.5215517620246529,0.5719864865462094,0.5244356110366892,0.5323855491810949,0.5448250499340264,0.4667922612302861,0.5254347709941846,0.5385731190109304,0.5290682523879068,0.48344920995508667
0.5974427447570643,0.5042410829974034,0.596399185985993,0.5595138632576713,0.5984182271596611,0.5962442903313323,0.5258357382233427,0.5224190885211174,0.519552889043442,0.5298134003639297,0.5063004753347923,0.5169606123335067,0.5217611546429695,0.5254683485316349,0.5260586404648768,0.5033749402475084,0.5235956361572057,0.5680485568568933,0.5294816810913484,0.5449938065591029,0.5137361821847292,0.5110655469917098,0.5262135778246356,0.5895437135132445,0.5791342989798935,0.5710578105178445,0.5538495266710346,0.5109917229275718,0.5842530923208079,0.5715608991499305,0.5297589492148215,0.5076710470174752
0.6145202448195924,0.5483970055885052,0.5329267078816109,0.5045719060974438,0.5578529387152962,0.5591011640283622,0.502529828767105,0.4913588359889802,0.5190554555526957,0.44024246433455183,0.4826047156385718,0.5020149940838359,0.4766848043776988,0.4659568904813077,0.4910246035396325,0.499355841258263,0.5557724328631957,0.5156221670793563,0.5232243254506451,0.5445250497524933,0.5667891515753749,0.44055017762645204,0.5623552270103153,0.5629800857038403,0.5990536765185184,0.547203406788438,0.48090419526708506,0.43814745797841154,0.573475396213546,0.4808883619005182,0.5530065498548832,0.47245161088437554
0.6344515539680352,0.5124330268533572,0.5631043479510295,0.47180242197025457,0.5152434963682326,0.5190470541484449,0.5078558900014538,0.4872009576301521,0.5063024763335795,0.5215926929960116,0.4897318407061911,0.5397972908883917,0.44364184584552,0.475049450600707,0.4841481366319001,0.500139992705752,0.5268382962528775,0.49905174831389926,0.5341405849309715,0.519858737949762,0.5779811142508259,0.45437800070603757,0.5767688671616722,0.5318841685299293,0.5737266793338205,0.5580371472973406,0.46070269072806147,0.47451898589403513,0.5600797174264623,0.46459848631213996,0.5365235141489887,0.508567011851568
0.6354544980165947,0.5232248838936391,0.5729186973909224,0.3995085193150821,0.5016171490885758,0.5014556345695749,0.54429854694885,0.511880167187872,0.45302284816776534,0.5736722792955095,0.48789950697125195,0.4699226936299736,0.504783309310028,0.4713820203620771,0.464109111707386,0.4741603766493556,0.46883472204075366,0.4966890486068781,0.5528316498685424,0.5266476157255111,0.5816801810388992,0.5138501080268156,0.5695332245927687,0.5357238665106924,0.5215760849256412,0.4753575141989442,0.45960552778274766,0.4058288862075378,0.4724276531777126,0.4375458208345752,0.5211535946212942,0.5403209681910973
0.6284102270375578,0.5621419116808644,0.527285325507107,0.3897531876593192,0.5175633195275291,0.5261794912245736,0.56099288248401,0.576454692530648,0.5112367234634556,0.5696524922892545,0.4993818369056888,0.43541966113958064,0.4584248884083273,0.4692766208531182,0.4808535656733585,0.4617982899903344,0.4559409136769427,0.5062291897908915,0.5165872952991514,0.52238940605613,0.5136163038785513,0.5043480881718012,0.5351520683009282,0.5119074196524876,0.4923864578644953,0.4963765817759564,0.4580119120568777,0.35160368561490385,0.45775796412096176,0.3846896880047867,0.5274862447419522,0.478500078624296
0.6303091335355221,0.5607935056548726,0.5709978641681314,0.5230804690530946,0.5681930525834272,0.517564639979414,0.5107853572013272,0.5925005082907175,0.5718108416725243,0.532637393929413,0.46572115949978277,0.44792886953798533,0.415025127697859,0.5053311044483499,0.4945828802882226,0.4131081942718056,0.48841667833710484,0.48767392276785265,0.46775668747994564,0.5144841644321239,0.49204315058196607,0.4517436361784932,0.5761925848037728,0.5655337608224977,0.5465437063680699,0.5766424725721994,0.5566592975757255,0.46914978632402604,0.5801628923461908,0.5142483310434929,0.5640815517904043,0.443372937405683
0.6081728098764426,0.5770710421473405,0.5887270705592532,0.512854563540452,0.5173861341952026,0.47152280918090556,0.4592175281898056,0.5261229539218721,0.49320694532019327,0.47439523426547,0.43698990862456855,0.42871143791439453,0.46386368428211433,0.5126666798245191,0.46227399265498925,0.4308717364372163,0.48481056396396355,0.4810812749390249,0.4598703765955868,0.5476927945586616,0.5443915041843465,0.49234038723275025,0.6017825628647345,0.5593788491829814,0.5721453470157334,0.5688514372945853,0.48552005875576415,0.4686811692778162,0.571554970418016,0.5459784182427323,0.5283387562945948,0.49691719371985876
0.5958149046148518,0.6153906789712085,0.6174147421804317,0.5240734234291538,0.4675183841020175,0.5963969041084489,0.52657398073413,0.5752687205034703,0.4615627869288221,0.5339912402969499,0.48633460375769494,0.5157039632848471,0.5508256589485837,0.5046044557607987,0.47898902495471596,0.4864476852511243,0.47241100029719,0.4972301673425488,0.5002080331015883,0.5152097816692099,0.507897753694643,0.5618696274583211,0.5557794062671394,0.5325670199738094,0.5248550706833827,0.513641759348061,0.4107835503555996,0.4416892390755783,0.5315225055371454,0.5010739085172329,0.4569515302627925,0.5661041073453023
0.6117680044286025,0.5582602796730255,0.5501198217538722,0.5424953141330485,0.5528049593583516,0.5856874087108461,0.5405821929613218,0.5696819089839901,0.4979606832326841,0.5869582788268585,0.5409241883523361,0.46561674971939776,0.4898813569254267,0.509996878084271,0.46482411225834064,0.492555832859237,0.4818380868927383,0.5133347616121584,0.4905229559155639,0.5173497498429339,0.5361992961116258,0.502587663065048,0.4921732986054618,0.5446476845367144,0.5411172707362867,0.5401048159346671,0.5111164603386621,0.4363760579191143,0.5256329440385492,0.5156103218893269,0.5548459489245091,0.5230169842594752
0.6386399927200314,0.538749077266164,0.5091414128415603,0.5211835717856964,0.5402447929276417,0.5557078511851551,0.5590219740611526,0.5761114732396665,0.5422722630425139,0.5645344381510177,0.5932696562309556,0.475050874031517,0.4409681422821633,0.5180561548289767,0.4934887041127137,0.5090014570230895,0.4920804000802643,0.5034887276341401,0.44487186666893686,0.5297693053101455,0.536022337590563,0.4501562050596212,0.56169359083002,0.5271663987804283,0.5743382407356147,0.523351223644183,0.5391056412512127,0.49340659412046795,0.4527433149518664,0.5398878988009227,0.4981630087217591,0.47478669268633505
0.6398527814472119,0.482940420276455,0.5779470133218159,0.5450056631653075,0.5032924852024064,0.5433243876922789,0.5630836068657007,0.5535996621469216,0.500061798191516,0.5571018471393634,0.5642248206350325,0.5202726697389007,0.5314550390381645,0.4949787983221149,0.526885264783336,0.5109856429686365,0.4805388955612601,0.4652690921636235,0.45819305841119135,0.4417581337661515,0.4196809847128154,0.47997030959256454,0.46744934944063876,0.3647638300401994,0.37890796287874073,0.43494746067267137,0.367970510560268,0.3129231297704491,0.306630037212793,0.34943969621480986,0.3561122696866943,0.5096825637885529
0.592961914927283,0.49711587255488004,0.5570308817171583,0.5612196375173972,0.605002491467935,0.5803269342456908,0.6010665576357616,0.4440426979298421,0.5539556276290336,0.5837485861528388,0.576722936257055,0.5759027929101217,0.5255063534645231,0.555197721933563,0.5151397300960913,0.5250605910249377,0.5122304665720323,0.5043018894480389,0.4842156414168238,0.4367105059223704,0.4104336429669949,0.5049540192807688,0.37537320889185893,0.35052231975916054,0.2983309974712648,0.40435803475979304,0.3420250250001368,0.1948013999570789,0.2752247794881653,0.29546914309451977,0.41751820278773216,0.5611212970133228
0.5558026279290084,0.37082820982611725,0.4083475123925218,0.45489129150966157,0.5448280877810433,0.5014670648966225,0.5136738170898786,0.5735874874169974,0.5070359460898014,0.5475383464456498,0.556455798217685,0.5688712179095834,0.4912468606198256,0.5633653236369022,0.5361114209946638,0.564544986806727,0.5638854728186529,0.5316435264274282,0.4702657868039285,0.5153565333914278,0.47384007581396687,0.43830085972622135,0.4030583680775993,0.38437132504836485,0.25292564023018893,0.3996507048470962,0.2530450609026147,0.17068235798127304,0.2836848517066016,0.23137628122797818,0.4055154517032112,0.49662291552101295
0.6007259986537279,0.3880442076063776,0.33886362875328857,0.4703386937487866,0.4951370719960284,0.3728950301265256,0.4420789212752975,0.55074539322177,0.5231262237682982,0.502993048883824,0.4623233491868564,0.550518146317031,0.4951741024721895,0.5333532833619417,0.5071632867664456,0.5519879858865365,0.5464362672859261,0.4846140367321722,0.47235091697189424,0.4787837840948258,0.39509769019736846,0.43773582651120907,0.4407250845132174,0.37451014818528394,0.24758168785122217,0.38456984463763594,0.35186596901403916,0.17109835149460426,0.3234103458918602,0.23967431136652068,0.4655256212420941,0.46267928040250317
0.611508103938942,0.5347776087571782,0.3895035610356933,0.5257785131881445,0.5865426902431782,0.4718467021469169,0.5663159805052423,0.5182895558698175,0.5470950312846916,0.5100814158234543,0.491649802274332,0.502034620632669,0.4914733552488096,0.44438171543027366,0.4158417868731157,0.45597051593281035,0.45628485245850753,0.45573525434421186,0.4755296794399898,0.4517981146414026,0.41545600683127293,0.4495420287369137,0.4673579894167043,0.46844380986848855,0.3971348819742214,0.46076091219935494,0.5119119899782114,0.2889971205466125,0.44328373542942195,0.4069356966084867,0.5445558644724895,0.4208723231122937
0.6272219185739765,0.5861946301347407,0.45601980562436306,0.5831222356107639,0.5685793938449972,0.5341502963323997,0.5398277479412621,0.5286748529246338,0.5663070028336872,0.5977167048274925,0.4812873087748426,0.5231952431081894,0.5107496618988114,0.46331496413153456,0.509594765267908,0.4687660053253856,0.4655144326965514,0.5054297836600752,0.46733633339905367,0.5042196397800977,0.5351264914841004,0.5166874374168724,0.5238461127498383,0.49976659371998433,0.4764492655650447,0.538696215459423,0.5244293377039337,0.39572003685602697,0.5423536167685593,0.4747023079448872,0.5555603469206749,0.5461177938440626
0.6466809905837569,0.5303981140084836,0.5455193687782658,0.48077064705150685,0.5515363236097567,0.5507135001750992,0.5714594152254056,0.555952840615512,0.5454832108995091,0.5477561295223151,0.5250638534831107,0.4985197326537529,0.578324916866594,0.5366705655181331,0.5686062321951418,0.5953646499138814,0.5245017314984032,0.5442699036369039,0.5573632914957464,0.5124321620223278,0.5803368055729403,0.5069510578339546,0.5737508865057149,0.5352631779221779,0.6001692458058133,0.5438401450344008,0.5765371655659253,0.5622824561823381,0.6066666410487305,0.5643392274197104,0.5679457666860931,0.5323053527181346
0.6457520751725145,0.5428075258736986,0.531551064389803,0.4796836874957121,0.5591475303852187,0.530185871050532,0.5556445886910456,0.543127624703981,0.5565258412302584,0.46166859389059184,0.5432618916658076,0.48069804522537607,0.5530465039185771,0.5030992120132262,0.5321708661000494,0.5539256326859137,0.45976855295202645,0.5144779894099266,0.48054388062491765,0.426313977674581,0.49563936472320097,0.5216142349960328,0.5440804547350031,0.45970689693909644,0.5613397139872933,0.4975527998547962,0.5648715687800356,0.5487266313721565,0.5712190612483931,0.5475449956115191,0.5394570934882655,0.5230296361705395
0.627645415329994,0.5049124839529504,0.5853382699097562,0.51571805797142,0.556708961856542,0.5735578788251424,0.5640223036420295,0.5532510173669363,0.555463438618052,0.45369242661988274,0.5160508420502478,0.44685172209921303,0.4461287597581961,0.39147320286566234,0.46957728091269446,0.4474868628203236,0.47318002414962373,0.4995438882896806,0.4529722592199803,0.3930592191581121,0.44949982160062196,0.4363679401206823,0.5387384695094776,0.5124425096471199,0.4997992019394337,0.4841175277114296,0.5052180941836928,0.51975639040442,0.5830575864693733,0.5230808441472737,0.5030951301921747,0.47287655681765906
0.6162845597772254,0.5448175668364728,0.6423614574547579,0.5394936916145048,0.5731866381490203,0.5656418243905461,0.5112922593320876,0.4997280992701857,0.47743011296390775,0.3794965405161136,0.4727025677662299,0.39991570429949486,0.39525804472515164,0.39647996488206905,0.4250335875455484,0.37278335834266546,0.40854817643186875,0.448408565549241,0.41871033485818493,0.44693674457482596,0.5341506762722589,0.44433897502082725,0.5805498739342972,0.5282204146728712,0.523972501335846,0.5754270993560364,0.5441196943387726,0.44165353759729287,0.5599068287316951,0.5091074102848542,0.5718773321085663,0.4623124048033798
0.6266641023819204,0.6101004321241832,0.5950979923234557,0.5724574944636955,0.5950389722752646,0.602068417586073,0.5131622971779237,0.5104937561781111,0.5161620789512756,0.5020919437972361,0.49357692381222973,0.5094207497034043,0.47430169296511887,0.48128947724549603,0.4659014338688452,0.44454003344550275,0.45271968487582964,0.4518759832245314,0.3942619534570742,0.48314107954724606,0.5294934113654265,0.473479356317527,0.5576569234500898,0.5361745769827265,0.585195273273031,0.5906486922249526,0.568617579823358,0.5133661141765106,0.5463871523454301,0.5007386451247018,0.5118648162585611,0.5150885873678943
0.655957674826475,0.6322475366417868,0.5270992664762283,0.5914123338267716,0.6176300131756637,0.6403884318348774,0.5515321016004774,0.46690453874887355,0.5513964656738354,0.48840533851525086,0.4893947206533975,0.5060835354590782,0.5451385762219026,0.5448906979827347,0.4289361639716719,0.5543756012718666,0.5271056296358348,0.4705196695083269,0.490804092280111,0.5485855651683399,0.5268120848023455,0.5044968866173148,0.5327456642040338,0.5446822397915579,0.5571713642956412,0.5401492386124953,0.5754105777037003,0.5479788139316996,0.5308571102003704,0.5509415921267834,0.4915098344666992,0.5377191214403872
0.6431415887920133,0.5467309481797135,0.608861838879554,0.523370748377087,0.5901323630895401,0.6243555961267717,0.5549530736143,0.45748241185527555,0.59476379012699,0.46305031218719195,0.5210092840647267,0.5159234085124527,0.5872658874001903,0.5329412729702075,0.44323602957399005,0.49738589932213256,0.49663607958181727,0.5435785626884311,0.5832857498627347,0.5611946134317134,0.5711401199790715,0.5219777360957566,0.5418698486453073,0.5279107737882023,0.5021487797403018,0.5425388352905248,0.48781425993935684,0.47835022828125234,0.5517106084283093,0.4822031775886406,0.4725811856487984,0.5638966163905764
0.6398106863956226,0.47173823505794393,0.6017773541576802,0.47740580525338316,0.578077850775158,0.5502537351097255,0.5611599679416865,0.46310921146329814,0.58828647748281,0.5186469613174073,0.5670013732893213,0.5710642959395746,0.5533057340459427,0.5877583487236686,0.5296078225262001,0.5837045572385213,0.521422277933451,0.5296764410061974,0.5442581322811029,0.5143900608479376,0.5370398180391398,0.531999900159825,0.5015063634206472,0.5146898961751514,0.5219212083273727,0.5757559176803652,0.48671236681962055,0.47280940112035125,0.5534938492306368,0.5307648384876478,0.4503281472706767,0.5862177294949726
0.6264730472919526,0.5322134162638242,0.5729301733700727,0.5351143244921848,0.5609342242583175,0.5528695050057619,0.5440816706890497,0.46241499187583157,0.5363449765324348,0.5462399041643358,0.5632350463197359,0.5297976066260522,0.5296246353884345,0.5752416484251824,0.5698136045405856,0.572617329161364,0.5497924331474369,0.4789657612283894,0.5055242904012628,0.4799539600989036,0.4672698493008081,0.5213030873223773,0.5242399313614171,0.5215625565980455,0.5317520834484877,0.5259117575236508,0.5278369695925273,0.471904522492234,0.5833721629880484,0.517416408718452,0.4847182177237329,0.568914392281283
0.6303905104729224,0.5548547461641465,0.5902229864422794,0.5447550820290237,0.5516192993011962,0.5772931517472784,0.45474202640009753,0.5466764937977217,0.5184213365925743,0.5318472931456896,0.5962708297228755,0.55172962797089,0.48382984374287097,0.5545379826104685,0.4973103992938187,0.5568269620820441,0.5318436678118239,0.4982420594442402,0.5258368068720584,0.5188283065215231,0.5346494993994584,0.5396020108934824,0.5949062009682262,0.5303520461163459,0.5299480479296834,0.4864907423009212,0.39557430786574993,0.5043542858327004,0.5899906159510608,0.4724123016266473,0.5177435902873102,0.5737751232618754
0.6353604159174314,0.5542545818850855,0.5875546732527779,0.5826401887453431,0.5817196455009025,0.5877015621404831,0.5359662507003146,0.4516470574788503,0.5458755697761006,0.5073889755672083,0.5514111455063081,0.5596784701055,0.5111897898297385,0.49030865056501544,0.42908555255345343,0.44255399284402225,0.48327215472472523,0.5192280803770989,0.5886446404284859,0.44057576353026895,0.5326321196638357,0.47760914668162124,0.5492287820584235,0.4954168760253524,0.5594877715491503,0.5503136946929981,0.2448235070605185,0.5151887151985509,0.5489348221254026,0.481734036882924,0.5278576656604229,0.5439884161177689
0.614187499177048,0.5128272993051443,0.5364196006586789,0.4966804323452946,0.5883400280535172,0.539354090580946,0.5557231184592032,0.5329516231074168,0.5117629188013363,0.48707407766757527,0.49790693435518,0.5075779372740158,0.5292455744767901,0.5389604172354705,0.4567136962714834,0.46760528513307537,0.4657319439804324,0.5224696306851342,0.5792517624522816,0.4515712507133932,0.5274698191691771,0.4819524623250203,0.5788839206525995,0.512692012845952,0.5972628904439176,0.5472197422237159,0.34392072232496146,0.5072520642751256,0.568324115827207,0.5069905279820481,0.4636929854209259,0.481250631431164
0.5438063044958497,0.4498967136557867,0.5383196817559196,0.42612653103005765,0.5763432892097341,0.5031656858912359,0.4943348048149196,0.5075946031845443,0.505145676359719,0.5145863418593153,0.4743142291456481,0.5429824794201487,0.5176088483140949,0.530677495165199,0.4023172488288803,0.5234685327900666,0.5295752387791075,0.5425611110017601,0.5838114586037916,0.5511950078693337,0.552957273760439,0.55215922232325,0.4857398896066472,0.4589350826679404,0.5787083352947222,0.5061974385357234,0.3991100281415613,0.4536186824910472,0.5524863261469614,0.5227330576743514,0.4530233657466864,0.5060858976691966
0.5441308853850721,0.5621166418022138,0.46472377517169006,0.5275168057785061,0.5626847075500304,0.5273750401684294,0.5201788351878293,0.5068661360167243,0.5436497703928862,0.5210492939359673,0.5566458006022056,0.5792132701243505,0.5498747398468389,0.4867201144900468,0.5310823836766964,0.5515936148994488,0.5172294879562107,0.5919638160251226,0.5884212114492684,0.6006028515617036,0.5916359435419628,0.5589083241634322,0.5406496777453919,0.5525784612148464,0.6095087526048534,0.5624179805727748,0.5138251645474889,0.49735141457253507,0.5771597999021219,0.5683827444143726,0.5239871490646082,0.5587684499381073
0.5994577105052906,0.5901100070250229,0.49667682785655753,0.5908188619992637,0.49422184655501317,0.5627210590364234,0.5571649264566714,0.5305030867838919,0.5428075872279747,0.5205572968645273,0.5694197880320436,0.5632829288574479,0.5338008659637075,0.5442808186415988,0.5480660618626827,0.49555167388142807,0.5053165516697877,0.5523794969945326,0.5630534703666492,0.5268938553113761,0.5378442458521496,0.5170235749466982,0.520603339260671,0.567769208241008,0.5936921390411761,0.561479225184342,0.5941800676501667,0.5420208138439291,0.569255553842974,0.5934328132517812,0.5279685150666916,0.5241389011753153
0.6108722390542343,0.5074239908680298,0.5135809458151293,0.5748048006125764,0.5523001044095682,0.5489031792601632,0.5322314904920066,0.5661620754565607,0.4926070163602168,0.544203429147363,0.5732465698750071,0.5644523163947809,0.5611666462753231,0.5505758888718664,0.5375646950588275,0.5416693245812241,0.47848771675088675,0.5203950747821413,0.4840650685411724,0.5208322809265572,0.5538382393250362,0.5703296978391286,0.5676652617026979,0.5399054429683647,0.5666378404091424,0.5699257592371902,0.6185544667419999,0.5712416196123083,0.5941547241067467,0.5813943139301531,0.5596828862680543,0.5057878297360335
0.6235200544228926,0.5293639976541296,0.5925613861306424,0.5396688739768754,0.6137965797501642,0.5351590636146824,0.568984828637155,0.5743816032681422,0.5876946304811806,0.49040186497942095,0.5832131975598582,0.5578324147903302,0.5969528081759651,0.534791454410858,0.5906954556503508,0.581630537590455,0.48637471710475316,0.6095109080937015,0.589665481800499,0.5676066078977411,0.6031135118855792,0.5941458246175773,0.5752281552385667,0.5651106754462529,0.5659145226260051,0.5661360648179173,0.5438125232853003,0.5199211892504759,0.5393272029557571,0.5096968644749766,0.5102287647189139,0.5861359232809606
0.6006457593142753,0.555147259090784,0.6034498274138601,0.5711897912742268,0.6344695867848267,0.5634343739365067,0.5781084913156597,0.5228991671164538,0.607523343684703,0.5366860376967922,0.5824788876948729,0.5242186811024288,0.6024431267687617,0.5313596844429159,0.5456010088368065,0.5242098938977703,0.4862637961622159,0.6060572273710058,0.5849374465091416,0.5693154658652272,0.6032120850626932,0.5628735080307855,0.565201707710332,0.5439039386430263,0.5679370550599464,0.592091789184197,0.47153892105068146,0.461303913141883,0.5098369929390512,0.4998666099762712,0.5019979208367599,0.5815819471535046
0.6031601390167582,0.5193466734979245,0.6339644745307662,0.5708921033004096,0.6116501979350645,0.6086037360652202,0.5630801389779039,0.49681285286565174,0.5558159100256479,0.5415197014882187,0.48442766384688807,0.5307497798950356,0.5813974185078528,0.5541795146940292,0.5803942599223298,0.4951860401162388,0.5189385216880882,0.5438708277121829,0.5658665896358938,0.5813254382384134,0.5072854423917632,0.5281639270800328,0.448504621932443,0.4770884187306122,0.3833010958767825,0.49216904206581225,0.3165248562430635,0.43142993068844443,0.5233123306768583,0.4274799466283844,0.53924041003716,0.5364801097617554
0.641230497752898,0.5142031276262551,0.5887092805828341,0.5314440902097624,0.594939709578139,0.5980510533063388,0.5865487304214608,0.5612541733223966,0.5606444409884812,0.5275459208586407,0.526253240026838,0.5045238794281,0.5626073593805428,0.47972975867975476,0.5118145946719577,0.5464825476550748,0.5560602286340895,0.5611851489934501,0.5501887769166641,0.577467597251932,0.5015019569626402,0.523837463622319,0.4357118309592656,0.5228822428025368,0.4583335212889672,0.5299930092371925,0.46405643662506185,0.5517406623751463,0.5364978608704067,0.5173973889292253,0.5874792563537407,0.5531838370073476
0.6790822510925418,0.5388496147159716,0.556889087878724,0.5545984708781506,0.5563181224078269,0.5838887432452392,0.6188241662033626,0.5032711395540063,0.583490392513815,0.5749866780300035,0.5568080801220296,0.5150869938509585,0.543775523426205,0.5164711959527599,0.49396412850542026,0.5314927448546952,0.5675097667884177,0.5715351856996941,0.5539523288204807,0.5762575148819377,0.5117621970172397,0.6035219537614529,0.4858502463572484,0.5127352889096091,0.5029579321605135,0.5424377801075015,0.5111033629706646,0.5416332853849903,0.5567496352138143,0.6045068125167007,0.6083786001813289,0.5454755360860731
0.6243910234781707,0.5516868057619336,0.5921121721969368,0.5652792460132499,0.5556340043719494,0.6046349992864689,0.5998041428420078,0.5882598696903174,0.5566156405167784,0.5706461225813854,0.5881372960417561,0.49971660255714473,0.49519918580314337,0.53995031422442,0.5199503555114618,0.5581689586499977,0.5312041589328312,0.5407064649770332,0.583863799906069,0.5483349043904756,0.5566279109253904,0.6135228272386418,0.6007293655569568,0.5254990320839498,0.5775432974873579,0.5978370007556204,0.48983636305053413,0.4364157559976878,0.5797696062554013,0.4643010635957879,0.579867962246101,0.5826237691869876
0.6028112515522169,0.6007188266748804,0.5702301562519847,0.5610134122020607,0.5713286026100567,0.639414902465618,0.5790816509598252,0.5582707514339086,0.5930252478864199,0.5640480725999036,0.5157956264943961,0.561377902928822,0.5382011570661632,0.5802083749268376,0.5810096806230952,0.5742587361846055,0.5548057738516378,0.5780046241086363,0.5195360587078592,0.5422352409870768,0.43773598163916927,0.5541020687218274,0.5538570344885495,0.49594269307428035,0.5297718247542418,0.5640399621640271,0.472247739400834,0.47499813259978335,0.5216630675319271,0.502396239771589,0.544007168210495,0.538196865175104
0.6123620429854135,0.5753641449035618,0.5273240233686204,0.489833883958576,0.5534969499189792,0.5626299240612123,0.5193786346331868,0.5086125406237618,0.542475454788161,0.4980049353369292,0.5101602600786169,0.6046301443048696,0.5176542272509145,0.5656779253892523,0.5348564768112825,0.549067239642567,0.5197079915649204,0.54964261110129,0.4549654425150261,0.49269026080513706,0.3963809157482871,0.529494549268192,0.5239621016713606,0.4487028963860646,0.5504443744265823,0.5418626752156184,0.5351534293328608,0.5510389194588817,0.538065711489235,0.5153719239108474,0.5571466938118457,0.4683011879023512
0.6161706233996427,0.5782154061414098,0.5758267796915022,0.5250247697870551,0.561197043206321,0.5747226605855932,0.548412380672551,0.5242997328613451,0.5171723328923636,0.511689981416891,0.533904356643551,0.5486042321913642,0.5321553165806804,0.5560094876284021,0.5557086703213099,0.5302665400403843,0.505202745336052,0.5642430546295178,0.5561707070138304,0.4770318249054559,0.5060606661769647,0.5821799221408831,0.5617117236919448,0.5391612861001193,0.6054452508351105,0.599673439765858,0.6510300338978093,0.6159710000039217,0.5722623440335466,0.5870726341684619,0.5877000135438046,0.523959187292178
0.6186355960703876,0.5624766481441292,0.5488765314261129,0.5862117728504103,0.5390804391219586,0.5163197179078238,0.5618133573166101,0.5472801323211295,0.5071596061338267,0.49906820907047134,0.5511048249293927,0.5156094844732413,0.5735803828652294,0.5110998808249315,0.5105065936149358,0.46851009757367484,0.5366785028752893,0.5285577391792591,0.5708664474985237,0.45317722197687427,0.5238173795318495,0.6027800957233432,0.5687147647118924,0.41819311435031936,0.6264191438900828,0.5933284803346631,0.5948020970604665,0.5235996994018476,0.5692374604973706,0.44751275205899066,0.5263476843841542,0.5643053673322246
0.5906602300978508,0.5824506459911648,0.5299521888386982,0.53403971128136,0.5200380334607337,0.48097925298695904,0.4711709579126072,0.5383799398894297,0.5001641530160008,0.48338212498916483,0.49862228740547804,0.45939262067086767,0.5313856583610728,0.46586521191570823,0.38908551462388424,0.4160323394823372,0.48177500337013357,0.5398178560150022,0.5273582829596966,0.4314393473183888,0.5027471032007892,0.5668832084328844,0.5400790731699615,0.4329568523546235,0.584413119909004,0.5806190177419205,0.5029413254251102,0.48535037941786946,0.5767048445796628,0.4670802246722773,0.5117024322395252,0.5436228639136268
0.6419326139318433,0.5913120199774573,0.5748665885370148,0.4666117049329431,0.5603326852347477,0.5233031283099769,0.4559468110158434,0.5306401177517794,0.5012678987598894,0.5143812503133577,0.525880496124292,0.5034103355504944,0.5412383663554333,0.4921838796532453,0.4584079571112374,0.4631087089617195,0.5077083570994012,0.544672529139847,0.5589327537192118,0.528567119919704,0.5817085997713586,0.5474918108885979,0.6215175244206904,0.5421847032527239,0.5598863873146953,0.5954471416662284,0.5539897368430725,0.5646410124335177,0.5953630541196747,0.5188368823147556,0.5721519507547169,0.5622918630028343
0.6227624064451934,0.5714322290252088,0.5653085285359495,0.47540487024430317,0.589569290026831,0.5628648044857727,0.5169979815412838,0.5394815844191333,0.5770140380348036,0.5428227280274027,0.5597542058192342,0.552465827128667,0.5334495028003947,0.5157128596684061,0.5276411577843887,0.495676487828465,0.5067664706135291,0.5702253416567644,0.5629552331076726,0.5762850158493841,0.6086728992455674,0.5247297957206845,0.5984997157020064,0.56677118118073,0.5687365397108293,0.594080313777221,0.5590805992686478,0.6531418459462461,0.6416829281421748,0.6147578782439576,0.5802317278858341,0.5285714354442413
0.5937179938762561,0.5532111830650213,0.5819729782827384,0.5373571097665749,0.5955047552607076,0.5535229242332769,0.5559917284456873,0.47861972993652663,0.55387810308627,0.4934338810541215,0.46264826661409214,0.4601607938091859,0.5179833111338707,0.4401084995804781,0.5390676472589878,0.47724243905774394,0.4681310344619594,0.4635697729249748,0.5515185777028032,0.510215149757584,0.5814673879432264,0.5070914435102304,0.5948427506263277,0.5554926673342752,0.6339060243217517,0.6130409546090032,0.5932424210742031,0.5856392182634781,0.6370005494753932,0.5575432483334504,0.564346725204005,0.5036002161754504
0.6214176485766136,0.5278943112457029,0.6017594289705166,0.5276175838903974,0.5958878109572171,0.5943561021119559,0.5348900369757873,0.4730693282292129,0.5621355396651019,0.49223481864885205,0.4371423121601288,0.4124317545720969,0.50231194272371,0.4665209848214054,0.49581476712972794,0.42576556859052045,0.5415896269010484,0.4885648262437504,0.540445671336278,0.5282109331066769,0.5137392574609202,0.5186011801338862,0.6049148021976208,0.5498528750874261,0.5908683314395271,0.581344526926804,0.577708885656624,0.5736683831082603,0.5986929478262096,0.4874563796664904,0.5639046761293602,0.5117474121005029
0.6069181584984343,0.5121038762205569,0.6448286032891376,0.5611553238725921,0.5956069337106566,0.5667904492185578,0.4539412066960957,0.4364996580143338,0.5458295251581442,0.4465463344396084,0.38298632054786286,0.3926321911659899,0.5059085886595681,0.4173996575060223,0.435937275171946,0.39393187229449134,0.4881278394081156,0.44878188404885244,0.48828527853852066,0.47160228507595114,0.5269590717613055,0.5175762607972307,0.5758523069830632,0.5316618180415815,0.5473962266052811,0.5414475033566013,0.575680259569604,0.5041879643888325,0.550759202292949,0.5324933433031666,0.5479896172203842,0.5198431039815231
0.6071495764851315,0.527394358105895,0.629293996354591,0.5784067107723037,0.5761642857710362,0.5481510785385102,0.45333640506711786,0.4665887141456665,0.5253756815781372,0.4818600973256844,0.41512799663973915,0.43789488772208124,0.49527988051549326,0.4540594206266556,0.4244267355270097,0.43242091809669264,0.4453289527031052,0.4619034376807289,0.43784077466999677,0.4575005915442789,0.4764972290688741,0.47568810530406835,0.5536719223187834,0.5275912638372118,0.5102962754628141,0.5535446249061535,0.5563673422814056,0.4802922460605916,0.602809043316713,0.5521836676156191,0.5299225538855284,0.4781362984055235
0.6422285661376449,0.6369315565905588,0.6134159508518613,0.5435164471899684,0.5599612946244141,0.6128773188977439,0.561133689563276,0.42670263335223013,0.5447639479211526,0.5249709748729471,0.4889918039042749,0.4571866041203408,0.5364958922678428,0.571857744174841,0.5280110251217685,0.5078202668932386,0.44869517882409704,0.46673185601494,0.4866301503551796,0.4810037993063074,0.5754078502421759,0.5548392071145145,0.5844295943101422,0.5322736088656161,0.5320866438754419,0.5796795967180983,0.5267688840477911,0.5299968213294446,0.605892918089625,0.5809618453930414,0.5683329722948641,0.525545188841538
0.6142123618198275,0.6036354697766886,0.5346623354684824,0.5302889273571539,0.5932907344173892,0.5452111067328744,0.5200228853197704,0.40125060897267334,0.5557292692461417,0.5047594715819009,0.4899878576128328,0.4825350357438355,0.5076032794095188,0.5642698073585273,0.5700144951563213,0.5400960060661039,0.5131635908005581,0.5095030697644705,0.4953670281040429,0.4877092990022662,0.5363578337158035,0.5666556575231492,0.5712046523059814,0.47481483708088545,0.5542538447940373,0.5102805160937302,0.5589320272250222,0.5060761127694476,0.5960271668333177,0.5283138428443549,0.5637882557412233,0.5811091921277524
0.6444692435383782,0.5223230067539505,0.48628684549635937,0.5203863809821248,0.5795958359578522,0.5406338931794916,0.5150412277205817,0.4463595041541487,0.5619658097037437,0.5396476296983734,0.5807211149626128,0.5234140028557833,0.5451847143769686,0.5911176921983854,0.5831925974162047,0.5781174552583908,0.5605730739115349,0.5335300491643806,0.5178576758187606,0.5045767521179385,0.5384432121094015,0.567856803048862,0.5509743515400818,0.5160456949926919,0.5905297745634938,0.5423388894720673,0.5753641449035618,0.5140322661439877,0.5691082739110057,0.4916935550764088,0.5212380460365217,0.5829440404263311
0.6266990887569639,0.5585038597016311,0.5852048068782976,0.5474961557351943,0.5791830060493144,0.5789641199917065,0.552405551485199,0.5507517224327584,0.5602318304255982,0.5584098146753682,0.5902060335904435,0.47804933494040147,0.6006488958754438,0.5972574877822483,0.556574625056707,0.5700334747282634,0.5441936400397029,0.5987011805587895,0.5547017731329935,0.587815110762537,0.6002701083337858,0.5668644341484556,0.5687099394537398,0.5470181906794495,0.5942832074725174,0.6089412999450207,0.6097978250034705,0.5205287854769677,0.6239981932347249,0.5642939502035549,0.5431386885346591,0.5722577962244038
0.6180670100639254,0.5743314070238975,0.5453745144387075,0.5390387795615698,0.5739586632948269,0.5597615499063827,0.5191180839183532,0.5296594372374249,0.5562454715868677,0.5466178500090509,0.5629723345611498,0.4791565718215691,0.5604625606275648,0.5805744283689687,0.5360523508213536,0.5308322424952377,0.511967129862465,0.5420469082873822,0.5673140553611751,0.572734640364537,0.5519862523627699,0.5759283198127435,0.5629168991623871,0.5176557025475957,0.5308458236778888,0.5590354890652284,0.5783648973428002,0.4890246072221371,0.5538766386860754,0.5258596691917042,0.5273805344270907,0.5417716351487295
0.6162415395512515,0.5534091670681465,0.5291288848589216,0.5483101311768583,0.4862117338183973,0.5305729122502805,0.5372730377130556,0.528622963725359,0.5505803823258231,0.5420085512026785,0.4895864321102406,0.4510359192896285,0.5192832237874591,0.5513046485037979,0.49788240748098445,0.494408409927953,0.5196830776000516,0.5359323034523378,0.4995756766081088,0.48926345011120925,0.47583478732655965,0.4484791161198104,0.5129388958965061,0.48963929740801937,0.505780262681012,0.5496266684511976,0.5227023432373478,0.4495250979021948,0.5470286724299512,0.5098537539200431,0.5315725616614047,0.45471697411875434
0.5868357591695105,0.5263610920725066,0.5529566393580002,0.5046554851958348,0.5078163670069832,0.48894083026548635,0.49810580640953317,0.4022227733825919,0.46101330275681845,0.5212832921336165,0.4709406368529435,0.3734616304577725,0.5079398297229696,0.45943995659878506,0.4107532222022801,0.44523943359597573,0.49621326323351517,0.5009871747657028,0.48987442307898865,0.4551096912435985,0.5260658282512023,0.4746578929666543,0.5424497247314016,0.4441070414183966,0.5046446219142696,0.5055615879223494,0.48289423907681306,0.47959989242924944,0.5440183164930904,0.5077058320902708,0.5060007567393362,0.49647965370632696
0.6345714292479082,0.5277206354474937,0.5006684560123823,0.5062748231934332,0.5724988371587787,0.4730293501622726,0.4748493240296049,0.4047552589213034,0.5065296109239215,0.5284191423277491,0.4991496301590748,0.49764113928653475,0.5264664060062636,0.45622807817159144,0.42214057273869693,0.5107535231134485,0.43678188593911516,0.4636822323453664,0.5450500850967198,0.5182687006982025,0.5659373941421834,0.5544029177468895,0.5574960952036525,0.4697103178710484,0.5276050024465915,0.5138763997211961,0.5489246318100718,0.5712116193342417,0.6474802455455084,0.5243009102187828,0.5343426993066936,0.5278719681765167
0.6263905231505026,0.5598501171690666,0.5184837639598864,0.540427092343221,0.5410584167319776,0.526028277781019,0.5381993555822584,0.46807799479622675,0.575783520040763,0.5112295009928053,0.5001111096757755,0.5250900544809388,0.5007935829938571,0.5182918273709957,0.5503327116220698,0.4959825211273892,0.47585790571002295,0.4991427491282007,0.5279241167943061,0.5570720041549566,0.5418605311909865,0.5452203065082217,0.5567812317967894,0.5984740934187495,0.5351525769901023,0.5269853556035327,0.51633865457464,0.5498936288205054,0.63326070779455,0.5463025972650334,0.5342787345628083,0.5371083455651854
0.5934666123083907,0.5738993724137471,0.571399534357485,0.45452935326765853,0.5412117568622925,0.5405997913065165,0.5465088581032197,0.451145933512333,0.5249703585085653,0.4744143200522243,0.4897103421010427,0.5015622138989332,0.505352506214655,0.4706795332930964,0.48573604812321425,0.4564084146288182,0.42545572299771656,0.47182844727036466,0.4385005350471156,0.47096102520206296,0.47065958204065594,0.5176798320688217,0.46946838328744506,0.4920260747454062,0.4956654873733988,0.516585029770993,0.5413845835032629,0.4763845314575198,0.5897419937946392,0.46807982585436236,0.510099337921485,0.5094277696552181
0.5843029477401024,0.5679593946211797,0.6260995881572649,0.4745908450810856,0.5586368353364385,0.5762214825714123,0.5939214775952248,0.42719634557027353,0.5113707526635334,0.4592016962129219,0.500123155528996,0.405275534647881,0.49718778367147376,0.43399289858443896,0.4947709411713176,0.47350036271864504,0.48453028568444123,0.5116625939828421,0.4701434665685449,0.43310918593687947,0.4671487895981168,0.5412207009378815,0.4981283561812723,0.4804268311114936,0.48479999432538284,0.39014965072940305,0.5049968425132205,0.43050735386722955,0.5762539665782236,0.36378708321963465,0.5343032765753294,0.4573067395501866
0.604754890264197,0.5828474131464176,0.6388494533280654,0.5050949490570057,0.5424499900273372,0.5668293320530323,0.606030089737562,0.5210929460701108,0.5308699798055311,0.5042932778652268,0.5736879147386605,0.4229673832443064,0.5374727617033178,0.5343018643589257,0.5173545677316983,0.49246537836767085,0.5464112911136392,0.5217791811290284,0.5287912599920102,0.505417587338928,0.5561879847764416,0.5337991367409671,0.5992550692266106,0.5445215340110541,0.47451437958385073,0.4274722608213065,0.5436532453408713,0.5016012978611172,0.6281979862368032,0.4732013096853734,0.4727982281767514,0.519542002247682
0.6362767229526395,0.5801261402330642,0.6208866133284637,0.5875945076620038,0.578907284619851,0.5599612946244141,0.5480942946100035,0.5377611701246942,0.5714021328060686,0.5322516071268275,0.5401150588263731,0.5318657434857671,0.5445255422118328,0.5190403991623311,0.49889942397081644,0.500833673549639,0.5345404763943332,0.5131730426842956,0.551659195643251,0.4522161239750846,0.4948351231473699,0.5521296889413322,0.5737489556819806,0.5408869319357775,0.5245461556288976,0.5861211379430362,0.5660064737587825,0.5588269369873367,0.6155454776808074,0.5245389934017671,0.5203508393612241,0.5661290623691452
0.6717783753984219,0.5540003634505174,0.564268790353056,0.5170906156968202,0.5351293460027735,0.5753332038308324,0.5519976623261086,0.4914380046816114,0.4590842647143687,0.4869173011078874,0.4257895635069185,0.49461816224693955,0.5098375790259919,0.485401268447947,0.5006826138009359,0.47572080593739513,0.45236401527936426,0.43921326178304093,0.5125383280661199,0.42234968712208276,0.48514023628849745,0.48703875553964593,0.4903470924224501,0.4990201722247752,0.4961886039556456,0.4927347535641337,0.5743647521436223,0.511320244772736,0.6224289181618478,0.5433398332491263,0.47590335137292383,0.5022289165474825
0.6515847195119664,0.5396055919285372,0.5642725716189512,0.5292343731760606,0.5502097700475309,0.5952579202089802,0.5564826261033857,0.457314985743832,0.443853203871874,0.49863281253484226,0.4762489484760375,0.502784224890997,0.5553830121048271,0.5170376325085515,0.530576101183407,0.5208046765152984,0.4536109352548029,0.4771822241433013,0.5266878737647861,0.5174445340896275,0.49563490490517953,0.5311308899267363,0.4235039286978428,0.5026811673927817,0.5080473408893256,0.5179898335127712,0.5723983638850245,0.4923062179908595,0.6125359572653429,0.4914214935717484,0.5213856593204487,0.5104367456743701
0.6213787244519046,0.5948020970604665,0.5989187244072836,0.5323801940868901,0.5821024781583248,0.5757768105708735,0.5478491816182925,0.4966399621321644,0.4649727473794585,0.44830159169222805,0.5594855541656223,0.5475592908395415,0.5517355265101168,0.5170561735166267,0.4912680257362257,0.5063986612974749,0.5724343931104785,0.5680278386615518,0.5661002942146836,0.540110106595413,0.5498563183240235,0.5411990611491917,0.5052627882231441,0.5299192825815704,0.5500551100419335,0.5680098038289988,0.5814621203355893,0.5016872629837006,0.5852548294592561,0.5237678996988675,0.5638711135055611,0.5601792335861112
0.6191207201779269,0.561930084058258,0.5639878929649941,0.558245611881828,0.5902843427805022,0.5628663980038294,0.557060273197281,0.5317012794756062,0.4953181435905374,0.4818922009109881,0.5104124006196149,0.48094845938654013,0.5217125045157341,0.47961807079138735,0.47558079057421804,0.5209101369965466,0.5582342542134983,0.5528761410938263,0.4962395645082944,0.5255247526021399,0.5229488385779202,0.5340665878054415,0.47689576537000894,0.4266768981385638,0.43900948671089796,0.5447035735582406,0.5516906188667603,0.42474396538419795,0.5423483151379671,0.47530868147542865,0.5853036806220334,0.522255724240835
0.6394242970884491,0.5761145160462202,0.5340081508574497,0.5901660931319139,0.5993068944529992,0.579818495252942,0.5413000850023052,0.5110300182480512,0.5344122043107439,0.5308585247859263,0.5183254482513351,0.4785375305071624,0.5401496817176789,0.5239712042601369,0.5197002281994656,0.4817515302251161,0.5355909069155941,0.5402625907941963,0.5218707657890638,0.5217909255258801,0.5370335794926502,0.5567467520526026,0.5489626984312886,0.5041473996461086,0.46566419323803576,0.5186454364680815,0.5148241602452853,0.49479780498539067,0.5361445785386139,0.5156866710639714,0.5513919465072575,0.4569800696037816
0.5996070867719255,0.5377139050170399,0.5114787540118488,0.5858829272084206,0.5896609663668105,0.49573403672121513,0.5531995152577615,0.5313710092047608,0.5418998416117999,0.5708289154854471,0.49224130165362445,0.5511426626118816,0.5611397912783979,0.5360451950981067,0.5545138211187034,0.516736628459409,0.5393369649021222,0.541250453452349,0.5107391709259611,0.48430661443606676,0.5359566923238579,0.5080605470281867,0.5639763336586906,0.4918774909768782,0.4638068091761096,0.54503029691653,0.5176593633445558,0.4662078843525739,0.5381493707949159,0.49647219081521876,0.5278992604028534,0.4897203190856485
0.657935817391695,0.47743860773325364,0.49221791498904693,0.49790572593392235,0.5964725701936151,0.4522449474746304,0.46931290607570614,0.5599528173612816,0.5020791649249713,0.5634917617801157,0.4258041387849026,0.553692453559143,0.5692619263948943,0.5256290697514706,0.546263387778065,0.5462392846401553,0.5545160022597316,0.5325496085287224,0.5919929926909585,0.5086041923350467,0.5374551962613939,0.5141031840573136,0.5508172433102569,0.5073423963736234,0.5195207982605456,0.5579380915777009,0.5425355444618998,0.45950495948805475,0.5570325636701242,0.5100422962332029,0.5411343957212127,0.500252963935906
0.6480149381373354,0.5094107675420944,0.5400830297543607,0.5515948696423134,0.6142532380902823,0.5412087470640312,0.4726631739838589,0.5925232406692784,0.4872803733578642,0.5369585949937664,0.5303012605042532,0.5461852558944057,0.5317654166285851,0.5166577586057076,0.5398514081388174,0.5430166066493527,0.5003437700874501,0.5750634020664931,0.5651922358932636,0.47459573702953883,0.5475344394707228,0.5675472263213208,0.5292040875173993,0.5482653925482772,0.5340595022678104,0.5412341387216152,0.5726720039999311,0.49682866250152213,0.55423862785454,0.5954129250456265,0.5661607898463852,0.5827105118702582
0.629078694683672,0.548952259745519,0.6202193014486712,0.5745956319382522,0.6100915148975784,0.5619320706833258,0.5627386522779344,0.5987822775249373,0.5090912380861898,0.5752838074863665,0.5740484558894754,0.5734826768038562,0.5423513951363039,0.5054158806784017,0.5662788135242323,0.5377454684680393,0.5291232850129796,0.5478189456482225,0.5391799970724499,0.5374301661567192,0.563962710884789,0.48921201761389205,0.5347883953731509,0.5301950341491052,0.5427342211429491,0.45625407366263304,0.5588207700056458,0.46537163768433476,0.5980181942638133,0.5692385514768792,0.48129672332005125,0.5780066358484793
0.650151009558163,0.5233743124017155,0.5638711135055611,0.5901643288439604,0.5241392601070626,0.49789351524912556,0.57970254650216,0.534242959766073,0.4469328072177162,0.5755846569333865,0.522150491239118,0.5656569557082523,0.5678401078434149,0.4844254104576894,0.5390955606541143,0.5403183779906029,0.5614814601183724,0.5466384695194894,0.5053632613741506,0.5372309012062587,0.5887858421334776,0.45862705034644424,0.5776438477760094,0.5417406413319936,0.5240510005815154,0.45285532387024113,0.5221232300232189,0.43706652017165,0.5445026289915343,0.49925617208317297,0.4192111859525621,0.5723976639384654
0.6058917225342002,0.4947342247532947,0.506092937272042,0.5483569434922507,0.5460494449626964,0.5078162925752813,0.5659747054583172,0.48508084852360256,0.46957037837530713,0.5480080141342929,0.41429982084935063,0.4726110268245636,0.5603597627529089,0.42048491585044995,0.49801767568717575,0.49914429765928,0.5371316561239913,0.5479804145016993,0.5420803189622395,0.5151397300960913,0.5630973442923183,0.4573097656186437,0.5108641735240957,0.5569327389489054,0.507537949571799,0.5281302620311228,0.5545578775120125,0.4723726988238952,0.5646169061993983,0.5295877491354579,0.5073384219206677,0.523876863856283
0.6075777648872168,0.5628726777732106,0.5734209442026752,0.5538795007825271,0.5201156706730833,0.559983382441982,0.5746748781048157,0.4469534350317793,0.5870612791604103,0.48259583490201974,0.49768267772080427,0.4918835532369159,0.5782302781819009,0.43299216426891624,0.5141445069580439,0.5045449357989561,0.5158191425812058,0.5598573630060504,0.5549092595325219,0.5701511681478417,0.5628084930419809,0.5370260567453883,0.5853274196818814,0.5624902985642164,0.5401072262894346,0.5279890940600783,0.5105375016002,0.4949739075370663,0.5278627099354002,0.5427226905119115,0.5309818858830326,0.5187164867783544
0.6348716124071316,0.5849705729261816,0.5697653307731771,0.572006630109057,0.4277966797710594,0.5473949875976519,0.5747644447356638,0.4875414014463161,0.5427291041178882,0.43961997550705967,0.5225837234468111,0.5244507897303082,0.580927465396954,0.526064721870361,0.5353957766983168,0.571150570981563,0.5263876380331609,0.5929722458236479,0.6058153894940023,0.5645477790540557,0.5223898938623687,0.5988069691211673,0.5358394341799201,0.5207656944731569,0.43287044606859587,0.5047993555924443,0.4298904992276094,0.48641079905700335,0.5090494243647349,0.5575624964206722,0.5795353211624554,0.5791568671147009
0.647511885853326,0.5817923965408497,0.5817182925902697,0.5813613836787745,0.5253415718148489,0.5168104076793832,0.5624791209001223,0.5054239986550608,0.4873564892251436,0.46052151903021565,0.5514144431608811,0.5389965007326869,0.5895122908695888,0.5212495637761687,0.5387934261833224,0.5924630752420164,0.5882269026376026,0.5874850967454306,0.6055719053022318,0.5935148273922998,0.584913548407107,0.6015064984672975,0.5872818918165907,0.6083772827910527,0.5679223888540867,0.5709705739925237,0.5350707822680839,0.5691777386796885,0.6103961521984552,0.6374312480375531,0.6096241479990566,0.5930707320448477
0.6118535487453489,0.5887702335997871,0.5825349324404543,0.6091299271055437,0.5580085928282349,0.5490215004179525,0.5321287243188635,0.5287786113494947,0.5202960940951973,0.47430776474807224,0.5579997192470979,0.5305096482037025,0.535970464093759,0.5051441152798205,0.49316610194287647,0.4879010498515688,0.4822671793687493,0.4838698137774624,0.48176048028061613,0.5697945600182728,0.5507622904235646,0.5584378906920107,0.5611208533425417,0.5103605074785359,0.5316076685355099,0.5614965976752081,0.5874138530491626,0.603012538015617,0.5974291384191901,0.5666659933924556,0.5937402065893312,0.5937095638802695
0.5940674226467643,0.574763167868552,0.5833795940529783,0.5541472185030918,0.5198515518554782,0.5708244223497805,0.5143230256078436,0.5630113769365609,0.5225068129630038,0.4307325200636507,0.44999129149900124,0.409394586767982,0.4731429575966236,0.39173086675596896,0.45209598234302667,0.42255954146746455,0.440324778866712,0.4194441354244498,0.44066603253482733,0.505782470569134,0.48540829844072203,0.5447803773072967,0.5374507664708957,0.45913652490068235,0.5291755294374021,0.5330522674092394,0.5475153214073769,0.5487191967112094,0.5966922780138666,0.519065477176942,0.5228018148127064,0.5498777095897075
0.6250293489876354,0.5423491165796004,0.5895657082462741,0.6088385079182007,0.5336208820510675,0.5421388517001029,0.5326264577172873,0.5940075247772215,0.570544858467613,0.48342396486636857,0.54902635444872,0.464690492506258,0.533529370215414,0.46898425097815255,0.5378374468122976,0.5401185712512836,0.545783690195759,0.45064713974214926,0.49390160791016946,0.5717121553616981,0.5005640747776722,0.572733475335222,0.5991097894573751,0.5894280888325449,0.5995178576573721,0.5779390630854034,0.6063905611698387,0.5977823693808082,0.6282395475664361,0.6037062280621948,0.5855136137742578,0.5753798720068658
0.6084674576372968,0.5670981121056152,0.6546732701920961,0.6184335301542692,0.5169130485253277,0.5894980817591249,0.5467516180185977,0.5476688822954979,0.6559018579827647,0.566614625985246,0.5804674493145019,0.5415752756326422,0.5845640348897335,0.5694278686986447,0.5605791043039464,0.5567866424608106,0.5721964049356528,0.5578946171146497,0.6056742295948924,0.584559211786319,0.5949992064781402,0.6126339115743983,0.636520449318018,0.5462526963373628,0.5665799427316918,0.5622653892466867,0.6164840989653646,0.596260451277273,0.6059575345619105,0.6132270865187461,0.5929288329490049,0.5780434104138064
0.6269633365557172,0.6158905911954267,0.6353179151926093,0.5990057413570091,0.5495007591653109,0.5886646280840637,0.5745484660281688,0.48311535434775776,0.6190847779111186,0.511064116493093,0.5437346581614293,0.5122791123939737,0.6076936454689987,0.5581265843839549,0.5046889431272983,0.3903031249187164,0.49869499413962814,0.5018184693020926,0.5845339911990594,0.5687226809978877,0.5815411485643882,0.6084404830877825,0.6209392235073431,0.5166766403378752,0.6187252859424933,0.5589048031916437,0.5976536098574079,0.6120738637052145,0.6123002472509684,0.555065499483611,0.4984094110869918,0.5866087551025363
0.6541760462436743,0.5417304894344732,0.5910760449422625,0.5670530388635762,0.5482997819309235,0.5761856067193569,0.5461134730977834,0.45519086575027956,0.516361391302893,0.5623572745656059,0.5432495167260575,0.5008626127171556,0.5182465151671406,0.5016037648675011,0.46488200633648774,0.36975408638142193,0.41764552666503546,0.4165087914141244,0.5398746291212981,0.536940932284677,0.5731522573836813,0.5480781630846864,0.5915493044612834,0.5711581603221992,0.6460772715715419,0.6109905306553637,0.6089539736261683,0.6254903853090242,0.5901843368848162,0.5734864544681644,0.5535009127281618,0.558617219134276
0.6309240112323713,0.46896594225105975,0.5628737093691015,0.5017551048404975,0.5382285291503093,0.5251542728661441,0.5484757234712342,0.5537862272966222,0.5141791674738305,0.5281236342887969,0.5105994817478402,0.5476238062099443,0.4929188092021909,0.4796355704978073,0.4475202570170493,0.43614598065786875,0.47110227174814356,0.4746636119833295,0.49649493304152303,0.452854815057477,0.5323302286399991,0.5263588766292406,0.592491172255792,0.5448999881611182,0.5642875181412695,0.5689344981370517,0.5387946158614372,0.5058249667099022,0.536561632230012,0.5117958218890426,0.49834951021081475,0.5526082690315803
0.6451671619494223,0.515675946099672,0.5027900005258005,0.5001383094170774,0.553028377226729,0.4862786408207767,0.5393959270166155,0.4201083287760066,0.5705100102027626,0.4992847930813912,0.4914313923275417,0.5467277963886097,0.5806202303327359,0.5324129218334066,0.4706224684998923,0.48618432950690493,0.5969388614055575,0.542143194675747,0.5925955870864446,0.5067738806509309,0.5910319841688015,0.5707320099672978,0.5847134720264517,0.490340076084908,0.5151041967964297,0.5217626912357747,0.4834182221026213,0.4486544518657332,0.5119533374462593,0.4951236328579039,0.4332808747533052,0.5222367354715883
0.6280185148198231,0.5742494138543458,0.6130775299649863,0.5654323880611988,0.5035242285358574,0.5518396689018836,0.5469916977741276,0.4295964417590825,0.5875823956745678,0.5159416206278306,0.5722764231521171,0.6174878619088172,0.5597675905922607,0.5618045614818756,0.506138911162813,0.5590454042530628,0.5564796677437764,0.5107411429008564,0.5896478348215558,0.5511609369340781,0.5898825079713225,0.566049669282195,0.5590661863827039,0.4664789061827895,0.48867614499076906,0.5436757402189778,0.48129180433188723,0.4368505849234895,0.48139454502931905,0.544029891897553,0.47500842822463607,0.5365801152928971
0.6388629218498593,0.6288947415298897,0.6488730168529455,0.6275412416768381,0.5482828576777679,0.5985791581841421,0.5579277813572261,0.5119919453605293,0.514614532222949,0.5350148721953287,0.5797861409953887,0.5897169012659381,0.549058505129546,0.5225677664381623,0.494541640321203,0.5051431081747398,0.5521538192588368,0.45933602825188263,0.5252014328862974,0.49214298859910593,0.5677649212699398,0.5554726620738308,0.5619885725802745,0.4881887673713586,0.517022306094036,0.5431122310310151,0.550771604077066,0.42592259610336314,0.5696152383828476,0.5005013049268675,0.43223651710303906,0.5265188321546513
0.6504963360862569,0.6048996645290704,0.5964143808632156,0.5731826864281633,0.5832929064622527,0.58551651636758,0.4789991921543134,0.5364845041827535,0.571871482404752,0.48053366798937314,0.5332954067086647,0.5312485599958998,0.44684259914341895,0.47206761346658704,0.5661823358661382,0.48504490801131317,0.5645575558462017,0.456941688480682,0.4647256879524403,0.46851996587581957,0.5268528506410908,0.5048645331208328,0.6455936483295441,0.5628748161362462,0.5297566768605126,0.5991857376223947,0.6044626171171555,0.5282094620893434,0.5959783108476969,0.5432888946479939,0.4520908264015775,0.5127610715153814
0.5940697840373642,0.5882020581965233,0.5828730437788561,0.5607969115717223,0.6117370180923486,0.5358014377931424,0.5055515918208291,0.44894321653564173,0.5810849553420081,0.525456274885638,0.50972071910506,0.4991384030837631,0.5610197294744309,0.5719962840006937,0.48638280216586355,0.5323481459201956,0.5177580605416354,0.5688065598043289,0.5057289628484529,0.5531492526996766,0.5526007398312239,0.5437034592628635,0.5727577964636618,0.5677517504980308,0.5364451363837351,0.6020293209866372,0.5710075150932001,0.582650862171245,0.5877325684481285,0.526025596415053,0.5925066908287799,0.5909980415376401
0.6258148932871913,0.5685203115206868,0.6115314205699528,0.6097855951819517,0.6263144287194754,0.6104003099637757,0.5486781050185888,0.4632537680514223,0.5920849610361124,0.48651733312798673,0.4885490035409005,0.5165865026021964,0.5729951727891566,0.5199869967179863,0.5061863772570294,0.592265955706165,0.5329272472651702,0.5633298126317942,0.5732579079991778,0.5474651332934702,0.587595295654573,0.5689382173401132,0.6383342192946333,0.6038604897331801,0.6566224058775731,0.6271177907153683,0.6815321747905588,0.5774304821666322,0.6119117375864288,0.607690495721333,0.6526443087450775,0.6430771279151389
0.5997379063240954,0.5564242958647792,0.5851185736715271,0.5483604697034601,0.5748331159017277,0.5788166760765904,0.4930056394807529,0.46527824393197414,0.5288721620670448,0.5297628247857414,0.46987314056544344,0.5327089361267727,0.5652260551120462,0.4426864659852867,0.451155631329173,0.48967757849421273,0.4872177389544268,0.484047574776342,0.5559460590464603,0.584778258722229,0.6088539351704421,0.5965090311818755,0.6200883856304042,0.5711107925791373,0.5884999316941274,0.5573534831225726,0.58383694636246,0.576863395559203,0.6018557603505381,0.5866023568436354,0.6274016586723388,0.6106396736733262
0.5901414838716984,0.5967503621231817,0.6057769819366977,0.5729736494953503,0.5340602578628764,0.6171693632478797,0.504065814664148,0.43204224194722085,0.566920133904505,0.5923466925228184,0.5601416885523293,0.5872358524398316,0.5813647525622849,0.5418508727112027,0.5565595291152158,0.5184370327977553,0.5283814019456191,0.4996767923805921,0.5565557415128182,0.5688751133482195,0.5307222783167111,0.5869390532996376,0.5992930368205538,0.5814239711142903,0.5392620697157907,0.4965805582823006,0.5237921873014486,0.5204200069458805,0.5896583452811724,0.4458702090176639,0.560957960164079,0.5450149038280623
0.6743190676726049,0.5178763915181549,0.60326862551154,0.5520533621790394,0.4638181505947669,0.5861177286809294,0.5057629179504445,0.5349780444097249,0.5734138029756016,0.4952817790832455,0.529624214199819,0.5401592571874104,0.5534576643403172,0.5722707023493576,0.5526102061013973,0.5134344626824623,0.5105325712028234,0.5174286637291668,0.5135547112160961,0.5238120005598648,0.5490949123536072,0.5486975653315495,0.5361117856799287,0.5664544841557638,0.4927826231684539,0.5500553569392064,0.5890349628399757,0.4634251972158283,0.5704430836273964,0.4246140286452931,0.5503349053671636,0.5268029149227382
0.6296337748376194,0.5164596801408676,0.6118671485765205,0.5052999791288011,0.5091364341751459,0.5380595337850347,0.5308319377926842,0.5783263662236341,0.5603182818174913,0.4798454114182535,0.5092405233746634,0.5254480080286226,0.512051865489235,0.5116359070411443,0.5383322695558242,0.5015224752769142,0.48208161100547586,0.5116867913162897,0.4978270216336141,0.5150169514008275,0.5322459381229565,0.5215240054064081,0.5356625469129298,0.5383256943801975,0.5465437063680699,0.5314792987277456,0.5442131427597852,0.5124362030748923,0.5668714181627382,0.4865524971783275,0.4926651109589588,0.5092637804737897
0.5996276913192183,0.5637906188344335,0.6336732122772222,0.5139219048263337,0.5845133395571499,0.5211377193773508,0.5152276851666283,0.5310993396036964,0.5852879710574775,0.5371481645487186,0.5553294547547375,0.5156126123232153,0.5223501096179447,0.5204407184722896,0.5593068970229398,0.526842724865561,0.496428622021831,0.5387955452801807,0.5264236585494088,0.5373648577566951,0.5628432585481755,0.5288824979843576,0.524822291040849,0.5540112349560078,0.5757876117482019,0.5551447641110396,0.47841929965678137,0.5387289422026628,0.5651006480397676,0.5567708358031913,0.5070731304669982,0.5437476749085911
0.584879635203101,0.5767427527282234,0.593033516910382,0.5369180471987942,0.6257132082901734,0.550236857176234,0.5324276217680834,0.4976306312330175,0.5673857214207328,0.5214027025864841,0.5683084153504355,0.49452194510006015,0.5485203822439426,0.46632296607726004,0.5817152928212519,0.5416012341350389,0.5147125323020248,0.5319784096512381,0.5532413241143213,0.5841903275318339,0.580797736471956,0.5191279418713212,0.4991111397249385,0.5530854330558733,0.5721312251149393,0.5713573130978087,0.5536245042687016,0.5587640716757756,0.5807306266630959,0.500399115728673,0.5389965007326869,0.5151183616083073
0.6151943941627037,0.5536112823305166,0.5784614588118208,0.5083779274568084,0.5950349259322981,0.5555595180624215,0.5073937965089745,0.48279677006294375,0.5409019968394386,0.4714011032705331,0.5002689038455321,0.49340181686538526,0.5578353624290932,0.5048792011161467,0.5420455466731636,0.5527754243693774,0.5337978258234495,0.5355677752320049,0.5585214448732476,0.5419298708252306,0.5610402153654571,0.5471544568954723,0.5339189767250687,0.5683737786716843,0.5806968893983457,0.5491469241484253,0.524105004104703,0.5365383153447969,0.5698255795137225,0.5240912140635164,0.5444235148836398,0.470368992786519
0.6167634184184042,0.5271466388757133,0.6110177448132065,0.4441135800675257,0.5636146054980091,0.5749115670268946,0.5313380075651456,0.5353209912128843,0.5086383594969907,0.49260673583063874,0.5127419450167551,0.504615907131677,0.526497096447205,0.5106023845642599,0.5555332238617127,0.54640908968886,0.46570209609573776,0.531092365109951,0.49370620776070584,0.5462593482499171,0.5355237507530735,0.5707081656721564,0.582720547554958,0.5831951409041678,0.5836351442608952,0.5661579508703747,0.5216522626050191,0.513627306607228,0.6042026707117812,0.5168936035497469,0.5091720308585947,0.5905627352567042
0.5998364175214268,0.53923964363645,0.5679683179193894,0.5258538328258925,0.5327995717292152,0.5546367420097834,0.5439285826491572,0.5190495613598115,0.5448788706357535,0.49747114407188475,0.5029570159189395,0.5325846415278027,0.5803989548877199,0.533827025461376,0.5604333380559016,0.5729432989738789,0.477317184761462,0.4820865247686591,0.50910935036697,0.583799541080032,0.5403912010982367,0.5808813249323552,0.6177264415619661,0.5552676049029641,0.5712445856025914,0.5322667171841683,0.4163432886355794,0.49943548321415315,0.5552791541035429,0.48473203025999106,0.44549332209039394,0.5896190062301805
0.6363790667424123,0.6118349896776225,0.5594522101620057,0.5550300543458447,0.4721326485723843,0.5658298094209704,0.5768298439571395,0.5011533291234831,0.5456245283111004,0.5087536209526963,0.5362482166793098,0.5176019173580192,0.5297618130992451,0.545942619166196,0.5510808854855852,0.5129687878953577,0.5228597472874777,0.4434599751129072,0.5432932342482631,0.5153984014972179,0.5245456338027356,0.50626980723013,0.5438668607952084,0.5162581569036973,0.5030559832458114,0.5475233522395471,0.3447569824713812,0.44634923179497665,0.5491198149587873,0.40379871878737705,0.44454099167733624,0.5568107370078141
0.6165648299705463,0.5960112130480176,0.588105898743617,0.47686485068259915,0.49827372679461635,0.5523672783790023,0.5543000653400026,0.5450870755513323,0.5309117598721727,0.4936786491375855,0.5305237633132639,0.48572632337570915,0.49817948073046325,0.46019323944689333,0.47904151531348427,0.5226799050890204,0.533317992982614,0.4700694858758756,0.5480726604996873,0.48636916700782884,0.457256110640306,0.4700526380428245,0.48656393563466266,0.48249264081651044,0.5378777759621146,0.5238510702953464,0.4589385972228094,0.4345326257860663,0.5601893468843268,0.40224355018941665,0.5544970459329375,0.5562234900372813
0.6026585198635231,0.5886367985457419,0.566813762457749,0.45147566901118164,0.5884317370343344,0.5271532041270902,0.489270312871689,0.431041949897814,0.5363649640964058,0.5011711753459052,0.4768472701241412,0.5233108102223467,0.550651286851427,0.49119487398869166,0.44096261952890276,0.5504526004485776,0.5070571132495404,0.49836991323907226,0.552363315421334,0.5336217593208175,0.47870690437403723,0.5397238709387506,0.5438508791974851,0.4825811538053142,0.5274863801290006,0.5648319974290799,0.5191123313288496,0.38471376570616356,0.5306524879045958,0.4413010494883658,0.5360613650769244,0.5507117045594269
0.6231574911397463,0.5618180620193661,0.5475727133281834,0.5753473887310064,0.5848567445603158,0.5533740122573847,0.5500928994411066,0.4598591801739632,0.5149412306168829,0.5463796923129594,0.5393089059799606,0.5157644726036921,0.5566805509228954,0.5520190778746876,0.415780733563412,0.528656262760689,0.4966082298815276,0.560709999665125,0.540972785960899,0.5769242792079894,0.4990236981874773,0.5320501730423948,0.5919968005666851,0.4951150090559752,0.5061590013605486,0.5999006250365172,0.5233964995532333,0.47372262305548785,0.5675671777456336,0.5099663589982136,0.5682910189447145,0.5509540964534219
0.6375544059808325,0.551782940207637,0.5613431171742808,0.43665336153542,0.5693218304475992,0.501053037179145,0.5795813981821357,0.5062652242051959,0.5145557432857275,0.5516793712259636,0.5032624690401043,0.5406068634122201,0.5908287815176331,0.5662026282861551,0.39566248095050466,0.4772219349266765,0.5286233594783751,0.5602334319862144,0.5345256855480782,0.5769520054727445,0.5436851160076184,0.6008012205843375,0.5562557210368579,0.4638175519407207,0.5167891151627896,0.5619691987502614,0.5002126604273615,0.5140195698182651,0.5767902928253329,0.5374524278012532,0.5157022549070883,0.5385114358700054
0.6366307388804537,0.614832696313073,0.6232619006974265,0.4962178573031995,0.5159460049412952,0.5231597459744349,0.5222112708799919,0.483873477109886,0.5497332288720737,0.5084594014396608,0.38305643758385555,0.5357350374321413,0.5619035324327818,0.5154306896624864,0.4384726219558884,0.49339576123262646,0.5542438409598092,0.5612886285692851,0.5440784502134707,0.534112027373212,0.5815095556647464,0.6008458624450178,0.46282792022816266,0.49989939644088116,0.5355389585239017,0.5334368220320196,0.5237420580451833,0.4759962326243108,0.5803421065400014,0.5504214179070634,0.5469960927137177,0.5648150180656671
0.6026826530662946,0.569489058207797,0.6236735665013771,0.5539711014461045,0.5771132687444398,0.5729886983905472,0.503254455593269,0.4512404222594518,0.5391291883199579,0.49976665511761353,0.4920000109970584,0.46115587824740306,0.5128167409807137,0.5191036090773281,0.4446095922039811,0.4766000995956854,0.4731818978070311,0.5163172540889198,0.5170310673804346,0.4042722547136037,0.5486846214614997,0.5327811044232715,0.4455107002897886,0.48485420156906156,0.548370368833926,0.5010110813585239,0.5286502496453587,0.5003062290370014,0.5447358635012374,0.5070449009260846,0.5294380261227513,0.5903769928209566
0.6279368421314024,0.5375398362362229,0.5670988407620832,0.506407058633741,0.6194475236312457,0.535886197022174,0.5210011782741752,0.47906780007327743,0.559823508206206,0.5352729174138432,0.5223152864775775,0.49800992233202723,0.4763155448580132,0.5448212082078862,0.5244006745950949,0.508087720620141,0.49100961845390434,0.49467006702325544,0.4900224961362275,0.46104623455486443,0.5145299282111908,0.561010369701947,0.4924671101710356,0.4888755596335584,0.5262821655695166,0.48507637836938555,0.5934210236948243,0.520185934372777,0.5405886042372767,0.4985569380881738,0.5473025277020657,0.5497091256532204
0.6561275627283882,0.5700774923010892,0.5817416647179816,0.5396832820755173,0.5737796388839813,0.5361543856835145,0.5092600657162879,0.5446106135007405,0.574314323961352,0.48804403064689195,0.5370467496251669,0.523223739532853,0.47501889176904377,0.4999782987182105,0.5052244502617139,0.5272992115309623,0.5144216348330901,0.5479274863833892,0.5543529922026722,0.5649839546170378,0.5086922020985125,0.5334789812742948,0.566870107173285,0.47112834277866766,0.5760704729902042,0.5294117628196995,0.5767880012052148,0.5186182418903442,0.5622086311754464,0.5010225809383199,0.5424160160071263,0.5610724524318869
0.6091850844519486,0.5899338289940351,0.605993525701398,0.5363607072750476,0.461525613176745,0.574177764410868,0.5084258901255375,0.5356124027484465,0.5677129981680421,0.48802758658281986,0.4669412988408251,0.5034885957773827,0.5748145433508431,0.5195434557486278,0.4629213300221284,0.5579386386953348,0.5225971665682152,0.5859934415672715,0.584413119909004,0.5435728326499557,0.5533406852574928,0.5436754597919041,0.5481538118262945,0.5643552914837293,0.4967217622523474,0.5324710984458254,0.5241226519094803,0.5193582680537011,0.5543792255056682,0.5067633297571118,0.4026757060205858,0.5536692887476963
0.6262271288490495,0.5969565111976165,0.5994729414715742,0.5308340864974672,0.4515329359444225,0.601628967825831,0.4846273015045071,0.5049598297316058,0.5992361369813254,0.4744657360125818,0.5212177448994344,0.5230737993387692,0.5611117923087581,0.5417829261312137,0.5097451668884665,0.5738987147558969,0.5817297111939291,0.5745971934976565,0.5929586795616798,0.49749929653003827,0.6069139800827161,0.5980392834385786,0.5276848363920276,0.5565083072209505,0.5341462965403888,0.5815218918108838,0.5413081232526746,0.5616248806037997,0.56331143238384,0.49394481076664737,0.4810299145278805,0.5773776943783
0.652858461301221,0.554893123777941,0.5916978628019025,0.559716315706304,0.579476212221805,0.5511398307406432,0.5454902430101747,0.5099668860575729,0.5514292321588528,0.4985584729519809,0.55181439086347,0.5486091193903804,0.5702635579195662,0.5597295514212585,0.49867789774378224,0.5744094908931112,0.5723481112505688,0.5653823828297597,0.5788183115915644,0.5078077296884674,0.6015338626369465,0.5941157999537665,0.5912333234919667,0.5298541193105288,0.548942174477128,0.554687989024543,0.5281145537033524,0.509188962189523,0.5619977125463758,0.48244989480414396,0.5394815844191333,0.5911097156695313
0.6334915823666092,0.5393384395289748,0.5908314371968694,0.506659998465594,0.6201390456980572,0.5773198692248463,0.545376514717923,0.4790236049149932,0.4762980899393993,0.5024758502339616,0.5223713352910133,0.5349231753450512,0.5424805326880825,0.5561070721693777,0.4712466374853325,0.4997125553397399,0.49890479168576646,0.5525711731984555,0.5556142381401414,0.5172179747379566,0.5549838191261733,0.5321568338934646,0.536064437826287,0.5041569115709527,0.5324571853036203,0.529479485858297,0.5330000316845385,0.41444495096319106,0.5335170349680614,0.43599573002056535,0.4386600129658053,0.5503724530988466
0.6517823469781379,0.5115894861690226,0.6039892805531484,0.5496460689083937,0.607108989807392,0.6045910726588374,0.5437088664914924,0.5129353291898404,0.5005338003479252,0.511070691773589,0.5295482233978623,0.486584101246662,0.5238551240563246,0.5215603796508281,0.47414765487526167,0.46383892456168163,0.49319461798323483,0.5576648174286943,0.5578962065799369,0.4863236428716167,0.5602947514106401,0.5172009430013866,0.5767162695050071,0.4742156396848464,0.5495303523173977,0.5566344279817126,0.5471813857369949,0.41895620891144814,0.5202902870807099,0.47728724623630214,0.46956261490562184,0.5130170779750285
0.6106669930075298,0.5345883206033637,0.5687853373393013,0.5874221005524741,0.611374582426595,0.6191072595353313,0.5292621639568377,0.572839121110112,0.5782533468444966,0.5119828696502439,0.5212903224285662,0.4869576314213136,0.5661413695292234,0.5544580696974211,0.5304104098675392,0.5381371987362725,0.5161925519398162,0.5870315489559462,0.5602932488379674,0.5252331072517884,0.5862877887783831,0.5140442450145212,0.5230145713540254,0.44339403284599177,0.5232190946861277,0.5597124171851717,0.5151265404990988,0.5003154579306747,0.5548864044486675,0.512440015260529,0.5335253187025346,0.5219042642847492
0.6536087164753257,0.6233288491668969,0.6091358486781702,0.5589743619221748,0.5984787774542897,0.6050818405722443,0.5557837216641222,0.5589473289989572,0.5024268159509623,0.5259305192370102,0.5305920809904895,0.503884111389855,0.564291525954414,0.5217675070631118,0.45741383024377114,0.5322553008204673,0.5209165267479535,0.573369171573035,0.5621812513822068,0.5273433565305727,0.562808158319292,0.5389035112125389,0.5291085885831449,0.5619317951466724,0.5540112349560078,0.547231235891916,0.5565798173693318,0.5314677131258113,0.6072674826176154,0.5413232668518543,0.5777447835097197,0.5415203465331333
0.6656185604817187,0.5913695022887869,0.6230376143729188,0.5408407905454001,0.6091674599270693,0.5925430367694473,0.5955772471774486,0.5094024558541602,0.4126798918068072,0.49625814804311424,0.5465876566163959,0.4839646161364255,0.51678008295717,0.5217542331370556,0.47578919683128573,0.46527581799518863,0.45720311871850927,0.4865271353722583,0.543025545675226,0.5148060885837054,0.5072166347203062,0.5269550056958743,0.5880606375065724,0.5699439035990422,0.5796883240776631,0.5271594557334381,0.5548070354995391,0.5580446957033816,0.5757451698653063,0.5404965825401529,0.5372845379777378,0.45527839199203185
0.6207773535632636,0.5012300861789444,0.5259061691937554,0.5192147355276545,0.5110724633391536,0.5239045865474438,0.5514410074512661,0.510748071321111,0.491805040444855,0.4924127360141656,0.5218820998163256,0.44849742402477194,0.480407676121023,0.5694694421673564,0.5732759584568671,0.5369700861750606,0.48006058584003175,0.5119485885106144,0.5005271081367126,0.5774078591383905,0.491163923698565,0.472876951597797,0.5272821926257947,0.4664606671693914,0.548641517547793,0.5493823921143932,0.5122350031904822,0.490508257272745,0.5735835124546825,0.4774688827820745,0.5110841553082787,0.4816513629635245
0.6140136367857049,0.47590470078313046,0.5065867173590513,0.44052095696314314,0.5194446781027887,0.4913029572771268,0.4750498973133598,0.5235657351541388,0.4932317553649427,0.5100574270698685,0.5480323955844284,0.5115513132027725,0.4721177473891591,0.5831005051363933,0.5774949788655714,0.5439306723816745,0.5351041953935157,0.5123263207996963,0.45925573454518503,0.5471640498556836,0.513011087539502,0.49233631959445134,0.5391987902832825,0.49309070594565624,0.5497170191825357,0.554781077622623,0.5401219932544216,0.5021073781587555,0.5628443540292066,0.48775216475497707,0.4799115470107598,0.5444095185498746
0.6106401167721287,0.5139600630892392,0.5174650367142934,0.5097736687861583,0.5534814962924832,0.488465692085471,0.47696846678451654,0.5094905911021413,0.423177154113232,0.5019787396064039,0.4457241369375005,0.4942343225738321,0.3410423996864554,0.507029679712932,0.5297044394280069,0.46278213981579663,0.49855553117417634,0.4936834858478295,0.43951434074281565,0.5092272955226095,0.48490392982757136,0.41341032817401374,0.5145624753954049,0.5127106384617619,0.5136934203973492,0.4904736052894818,0.5222474036972385,0.4804787778647846,0.569615133842826,0.49374847175443853,0.44739011150304075,0.5328189176284146
0.6051185630104574,0.5647844800318644,0.5558484414213523,0.560575818730141,0.5572174968708653,0.489832795780919,0.49714204938095385,0.5214705553993322,0.500796809719461,0.45779552140569213,0.4202430852503268,0.4734390873874998,0.5282656382928571,0.4334297442260674,0.48915973247180017,0.4680430190463489,0.48663369940643963,0.5143856987274822,0.5510561700403208,0.478744943647309,0.5444726554377528,0.5029357188968688,0.5348852350368254,0.5290043928831127,0.5239132585213584,0.5147380069788557,0.454771637609549,0.4644902538170682,0.529387929402004,0.4726277434313804,0.42679438996243985,0.5225216635291818
0.6333699765240846,0.5809463169795805,0.6105995327151772,0.5887219634361097,0.5530994830749696,0.5403287869934441,0.5325138581576315,0.5260833895619396,0.5254532163228618,0.44846767887694694,0.4052629449618173,0.4007000774924588,0.47996632199630285,0.48192776896983536,0.4270769512236517,0.4654101826220809,0.5138857535214736,0.5207679763519587,0.524893597361378,0.43184319623045325,0.4678657109375844,0.5323822791678463,0.513705211678625,0.4990098384537459,0.5363847192778451,0.49524069951797306,0.5048358464143701,0.42761959820315676,0.5039908104514244,0.47389187499316465,0.44201597964639133,0.5137234765545802
0.6079021778500648,0.5887689548721842,0.6134811561943754,0.5786982751653288,0.5319367801414459,0.6145816992527032,0.5908683314395271,0.5577515971100548,0.5197296849200727,0.5263027175304992,0.47959080871516774,0.5157982844353691,0.47572917718245955,0.4586576083090725,0.44052846097635934,0.5128998667263897,0.4942489370909881,0.5497123169863107,0.5246527533546599,0.4700036292457356,0.44853070096316683,0.5439566713160711,0.5031272514474568,0.48428451418320595,0.40735083372824743,0.43831830429535146,0.5026793958388815,0.37466013776066676,0.5288892395720435,0.4723134172001051,0.5116308962246879,0.4066447012853432
0.640766321343275,0.5484053736674006,0.6017281115060578,0.4154856562839749,0.5478424078493065,0.6082703337710722,0.526652257169461,0.48617346952164053,0.5012395693145889,0.5348349685883566,0.4522300079599627,0.4802983486429672,0.46487925007540204,0.40893131608465066,0.4361830197369202,0.43638555441543797,0.427995529783527,0.5306793118500495,0.5661842507396171,0.5186133300036343,0.5234055242902752,0.5530182595821928,0.5524954915883011,0.5024085063526401,0.45584613240051675,0.4795392833475413,0.5078318518075072,0.4405209390304104,0.5651345475017095,0.5000514906239112,0.4994323211378332,0.47608267532211773
0.6402229299094022,0.5456464539894605,0.6044793905082014,0.3778276618151499,0.5486439898704998,0.5986242093991262,0.49082950193542785,0.39296139305963645,0.5413430774574315,0.5204096960157617,0.5413298670012804,0.5199148975720383,0.5213037244806716,0.5235186762127001,0.5009796111525648,0.5255052821858572,0.5197040725734878,0.5523677915350141,0.5759406619774232,0.5317588334324564,0.5638614676840505,0.5847750679865655,0.5725493404951796,0.5072117189208903,0.5160523046350138,0.5463397336997002,0.47478336508940927,0.49893332754642766,0.5582984288714268,0.4831914442982902,0.4499220448011438,0.5349540495481133
0.6233657372569333,0.5304649038439604,0.5768543571958699,0.5058706314539729,0.5225713735166065,0.5163454169895885,0.5206690024463797,0.40319374631930716,0.5658317068374307,0.570347807660709,0.5358640997012222,0.5259601512680211,0.5313687582062481,0.5087318357731717,0.537265940878648,0.5600966727727735,0.5893727080577538,0.5341806526665382,0.5637369873881632,0.5525064569540941,0.5369294328783953,0.5956700860694412,0.5833507111653096,0.5425447007887843,0.47114956659924173,0.5063463329619445,0.47761546428536567,0.4003502273001106,0.57886656752756,0.5048708132661249,0.5015156173929067,0.5617105081041804
0.6209002511269864,0.5038926281212007,0.5131489475434462,0.563632309248542,0.5638705809891789,0.546804817178453,0.5851206196493344,0.5147865852326989,0.5486172009480802,0.5370243638403609,0.5363319183119013,0.43813355345497174,0.5342216968973763,0.4549731385130166,0.4615514437368822,0.5382267679258197,0.5308092301595786,0.48575552447754267,0.562719627899024,0.5155228651199095,0.5066920924843838,0.5536439459757813,0.5310112637921203,0.5719763782648554,0.47076221073479585,0.5380839269531998,0.5500949289647636,0.4980355079409601,0.5789948772515124,0.5420627921458927,0.5403582766987158,0.5826708453345478
0.6179764433873218,0.5747528322972677,0.5165759301841129,0.5381675587703643,0.5608073072633546,0.5812083223355535,0.5971178056802815,0.5442596707769617,0.5500463369192721,0.5257233925530908,0.5654957471461253,0.4762489484760375,0.5232026240431207,0.4976272502542553,0.48142718114416855,0.5561929975712472,0.48995382755139133,0.5314945900808924,0.5759746553413668,0.5589954709008889,0.5394341375011598,0.5704144151776481,0.5531142841413452,0.5347073557693781,0.5230479235216124,0.5655301786101116,0.5844148262865118,0.5545330964015487,0.5872368884158109,0.5556212707359843,0.5690426048050233,0.5683429347106542
0.6174248085760542,0.5537814045188776,0.5427280729231119,0.5024002067380197,0.5925170426916435,0.5716473999878222,0.5586795338516317,0.5792645809108621,0.5259358013624399,0.5597589211210962,0.5791137459970395,0.529026715062968,0.5679362923744853,0.5185989828678081,0.5289629717431091,0.5557560941893875,0.5059643941834042,0.549851329118342,0.5525830297091393,0.5426681159603133,0.5646790898919694,0.5531352069295773,0.5789834757741638,0.45234405633660946,0.4845023430530297,0.5493419026620536,0.5546618365065275,0.46855014061775246,0.6169065037227502,0.4882792767550788,0.5186888370912142,0.35743371894602893
0.623131841608698,0.5408169000057703,0.5715787665208053,0.510191131140509,0.6293766103112611,0.5580834204543109,0.5357665786726856,0.5718539305226016,0.5773604007665902,0.546923902886723,0.5686682661649636,0.5580770687825204,0.5313631292279524,0.5188028740466347,0.5452378578474611,0.4709357405451633,0.5069641084797092,0.5154608820376649,0.4993175091867676,0.5515793660147561,0.5633907518540399,0.5840882493222522,0.5213460673048197,0.49341663407449843,0.44854451808574874,0.5029934797067999,0.5419417047812113,0.45416949842445775,0.5531192453650244,0.4491904708573675,0.4614573208598873,0.31514488024045134
0.6481467072345424,0.5804033896038375,0.6040799834460876,0.5241246587971189,0.5535641770776324,0.5690227881585442,0.5419446950902566,0.5133159849502429,0.5246808087660436,0.5339194886426376,0.5445406444159996,0.599748736399992,0.5237003671399392,0.5313520842195675,0.5649817417203584,0.5098287346646809,0.5120979146765693,0.507638174702246,0.5466772801343808,0.5507208732011718,0.549270925444438,0.558338863134073,0.5676599465505743,0.5333843391641504,0.52142554559209,0.517658857968747,0.5276349902812836,0.5200934456532816,0.5442020548591583,0.5140409085824033,0.4943720066006053,0.5027091781402473
0.6290097589122209,0.5662978996658086,0.6457999861481981,0.47305917788557794,0.4345784089408137,0.5688114241460551,0.553165198891168,0.42528126729562915,0.48313345772123856,0.5744997160930708,0.5886333281923922,0.5623805118419053,0.5240178155925018,0.4575907986935027,0.528947666663681,0.5478154674484287,0.5097274600292483,0.5439773121252384,0.5511601294977511,0.5887924928720167,0.5212530527598831,0.526596119076633,0.5873185959704244,0.5460157431623828,0.5608372367253678,0.5282725373697112,0.5236260870019731,0.538237221427454,0.6239052740822908,0.49798242773543017,0.5167208581066898,0.5233257865302221
0.5937139946876734,0.5457462805509911,0.5755919242189309,0.4895721110493715,0.4932847034458069,0.5878179105082082,0.5506873076055242,0.48549424661627216,0.500618390143133,0.500004174717358,0.49758193577223947,0.46202547452424175,0.5338588473293034,0.4120663543704713,0.5173676454933965,0.46454945168037315,0.5073827469197901,0.5068471922526588,0.5897362207773097,0.5587925806017601,0.5649061391077754,0.5286478345275599,0.5722510410219958,0.5948738667851738,0.5493592877682337,0.5145438151129079,0.5615556527532493,0.5410477041145721,0.580611831272338,0.5675935635072724,0.5387596785213004,0.5056113038903001
0.6216451063603642,0.5577040202647099,0.5552035307034525,0.5481338929821252,0.566152687722587,0.5731983972104343,0.5649004015876077,0.5238014612199128,0.5457585960072794,0.44824557102779466,0.5244806257812108,0.5062076474651694,0.5769864223007871,0.4931310406613112,0.5581095463636121,0.507491100903316,0.5076198506338249,0.5307899892084648,0.5837509852977835,0.5048217208642283,0.5601281486485654,0.5642532981790823,0.543174083225629,0.5887911556507256,0.5687426099124634,0.5124554116275288,0.5652669717394503,0.5703026104044129,0.5859938913546908,0.5631186714622827,0.5800718950346848,0.5529776518986276
0.6102069501528589,0.5594318189888619,0.6042257292607461,0.536673216576546,0.5633709029833405,0.5283542895148452,0.48067070292164304,0.5447188281614247,0.5192974607535451,0.49057327757129243,0.5217993930584174,0.47846224172298235,0.5733414238902801,0.4933744085749937,0.4502587968355218,0.4875357326849037,0.4390897426252601,0.4794484152988126,0.5515927859185086,0.5366080296902945,0.5248084546283498,0.5595088798940544,0.5621837108708625,0.5168836580144074,0.5298979887242086,0.5257456122539707,0.5732770556344325,0.5345653621257968,0.5678041653147808,0.4988788507372783,0.5648852117106935,0.5592999153347442
0.6418925566803366,0.49515950702159134,0.5799925613404727,0.5583680850640198,0.5252687752624341,0.5306658693245874,0.4845783287511734,0.5437502303853358,0.44748645169705464,0.4747006787456048,0.4747540462645257,0.44185700205169876,0.5163425482890205,0.5071532820835952,0.4360386881370514,0.4772511078910656,0.4282068435893224,0.46645062660777026,0.5066721189234513,0.5389624309236449,0.5034446697458828,0.5119093736462828,0.5426189639412511,0.4949181113822526,0.4738263373423634,0.5072744429906756,0.5166143519422353,0.5452847888707059,0.5574290387587569,0.5290929535751109,0.5441650644698544,0.5619955383698477
0.6272522254022018,0.5142448480032865,0.5435515671932588,0.5540504844852898,0.5566539074733547,0.5389190323978302,0.5516156245098746,0.5429201456969671,0.5158338168945683,0.5536578663216989,0.4677729792019035,0.501748405614874,0.5178781821807449,0.4722299443668879,0.49389683102214804,0.5544203046473317,0.49451021262898504,0.5503230003599633,0.5860910307527372,0.5558559138482407,0.5343055988342806,0.5517355265101168,0.5360407871863199,0.5304430601606874,0.4980458971195917,0.5177046431649501,0.5207560329114693,0.5501626904012811,0.5905363633592465,0.5840480177616619,0.5160023042001322,0.5588645671664022
0.6125072713826,0.5643019477011484,0.5674003516124236,0.5192320406470613,0.5608757832559836,0.5408772027692943,0.5396476296983734,0.5167056297088988,0.5883481223421426,0.5252800405061503,0.4504996808080032,0.4480519819962201,0.5000221720899329,0.4399013345452044,0.48203295535714197,0.49281406388947785,0.4197198949376119,0.4614868844192504,0.5460014980176877,0.5393580467071954,0.573331333632928,0.5610546915878292,0.5756456368125283,0.5417984078613605,0.4875958600712119,0.5232239098588893,0.5151371872920976,0.5362412187670816,0.6089031409799006,0.48279295424889596,0.5188522319378583,0.5913492583260509
0.6250798499653729,0.49191236044097864,0.49709623449255064,0.32671933337045517,0.5310942171531755,0.5157462331127532,0.5123348681727091,0.49255677897342187,0.5163903276412508,0.502885189376825,0.4648486081257157,0.40204435220691903,0.525443252919291,0.5083422722244815,0.5191998234386394,0.4611612595317513,0.4056999877334368,0.3918978370680435,0.5277715670175085,0.4702222758242908,0.5369864498046628,0.5723391909708265,0.621984567756113,0.535714768458727,0.5207380190716494,0.5652307510933571,0.5543805252901609,0.4719998592532104,0.5329212317879133,0.4908640149822257,0.5012441082045225,0.5122502703893638
0.5961142892552448,0.477411468156805,0.4499699562795415,0.35132413454231504,0.5503532804221533,0.5160318830226521,0.5127201617497725,0.5570431083584827,0.5594127491204719,0.5249125805684324,0.4870328472548905,0.465826698929264,0.5195161781660201,0.5166022167415372,0.5183908755346868,0.507944630396517,0.48527986957601815,0.4568940145040712,0.47570951435643477,0.44344603759593154,0.4970036280365275,0.5544288749612301,0.5606644890722902,0.5512871929804878,0.5354213167833785,0.5323596866620938,0.5504680331987802,0.5151852370840646,0.4841483324621072,0.49296388166811833,0.4351290061840694,0.512718610214426
0.6105704006381814,0.567958317110561,0.534919806067138,0.6041996945434492,0.5540829937660672,0.48746119279119626,0.5687634608722097,0.5798984520763002,0.5757135120761296,0.5249815729961229,0.469494542028102,0.5344248956610833,0.4865722722643348,0.5048136578631632,0.5204170570124015,0.5263965860356791,0.5073954766005787,0.5473265339064166,0.4810593365782802,0.4916448609066014,0.48740313132413,0.5618506993927133,0.49379638406253173,0.5545950986943156,0.5270904803897312,0.5686596925562459,0.513785081386191,0.5266563809902511,0.5288668624830328,0.5208086306202726,0.5139774945553831,0.4934391964662475
0.6396669421612877,0.5679926463843107,0.5681178974548775,0.5686547166052933,0.4782626572992161,0.5265719646030652,0.5575765977139349,0.5078538533768332,0.5648445580182219,0.4961203507501888,0.429631453832633,0.552835181538743,0.43635731847457604,0.513897233015311,0.5678574072398083,0.5523528104803348,0.4982235981236568,0.5480031485237528,0.5023045740340568,0.577836334048951,0.5169737264365069,0.5284027943532124,0.5422372824545897,0.5408006812222709,0.5473507682025448,0.5713293175035156,0.5226286034436348,0.5385044026816852,0.5588223512021113,0.5243440880628754,0.5379134209457587,0.4996484566927182
0.6133769648268752,0.5505560319339996,0.5813474926210979,0.5669978068238807,0.531083359663993,0.576361078149366,0.5730891289874293,0.46458539722983133,0.5023326357195511,0.5122381958906924,0.4461440029592559,0.43970832862382037,0.3954779044136834,0.4996425612131316,0.5031035776720805,0.5145486362569371,0.5054987883980352,0.4821347567755047,0.47709808673283766,0.5411407475247069,0.4865329311969461,0.48544039626372476,0.5450688351519275,0.5299830481234707,0.5202027855785876,0.5491737696193251,0.518625198652115,0.5334446740483019,0.58508338375101,0.5036717864093719,0.5307760998624002,0.49247648509779407
0.6044985677935294,0.5435422631840179,0.5731450306733952,0.5635327533821567,0.5333682534447017,0.5537073512492564,0.5882261149688307,0.5528108006390721,0.49873989769534155,0.4684472401577715,0.5062751687148324,0.48741485155140274,0.49810773047870865,0.5336634984771254,0.5323383455340966,0.5347427996032333,0.518962940912188,0.5197397994770895,0.5238611518141493,0.49508466677787155,0.513809629455235,0.5223186270834426,0.5307242512816731,0.5502328966255818,0.5603137707933821,0.5614788362012004,0.5759000218790349,0.528484741677402,0.5928158542278843,0.5359446838613225,0.5647908900493048,0.517339504107888
0.6265879658161769,0.4981160361610412,0.5563934067575651,0.4498849366982988,0.5258364129721179,0.5545654295997784,0.5461304075885032,0.5862961295240577,0.5434761090288501,0.5130086198529007,0.5405589111091551,0.489542992004474,0.5013289466882822,0.5320956383457665,0.5511439223417728,0.5382988325261072,0.5170191178571053,0.5251075003385235,0.5188224676613953,0.5701978972659596,0.570088610928721,0.5260184704233392,0.5537389774826155,0.556553187901981,0.5204387123380442,0.5383673720551257,0.5525333413623451,0.577017661410113,0.5543300034356543,0.559030559765803,0.48646332115745256,0.550802671255087
0.5972663785305955,0.5521656804524769,0.544344936792691,0.4299119033916729,0.5146483497209081,0.5185802526587399,0.44477030212658003,0.5382672682619778,0.5579393416081704,0.4782713886928436,0.46698679139542476,0.42969968029780986,0.46776518030168146,0.4757041489580353,0.49760123788551147,0.4797631746897992,0.5238938848137146,0.5106449716112224,0.5108256237659907,0.5744867290676412,0.548298178283588,0.535678949924951,0.5263808671107285,0.4566238039357164,0.45151128788010264,0.5822197652253568,0.5277456591699838,0.4255987619545326,0.5170247912357842,0.4125990342086477,0.5040419946899242,0.5436011540346875
0.618402225137345,0.5312035047125909,0.5449876672143961,0.4858350944624162,0.538247115285044,0.4703229990254235,0.5131141923296199,0.5629750825894015,0.5593098371911056,0.5180198994000178,0.506307395865479,0.48789837638351635,0.4895354522953309,0.48900898059990805,0.41919530092006635,0.47389580490812555,0.5392315204844671,0.5401603372921366,0.5339746010895147,0.4934397084863703,0.5201875009772101,0.5837186279594953,0.4923979344690682,0.398784006423797,0.364424306546056,0.47696196451372386,0.47760327498469973,0.31488354364143994,0.41397828189324887,0.3628381635619596,0.44689714283624976,0.5336776402332207
0.5987829254674897,0.5393531722776459,0.5617779509399179,0.45320791675430927,0.5546514694053002,0.43926248769145504,0.5102870172050533,0.5116394590092819,0.47708804361210294,0.499240673720813,0.4638833278588335,0.4285711520834722,0.4764037227011293,0.4385218176986155,0.4084508647353151,0.4755254791189237,0.5457295445607858,0.5136717326194955,0.4917774287952961,0.44275087844815464,0.46732883428974487,0.5672731250690161,0.5173058647242779,0.45345058219994083,0.4102143007686264,0.4755601637714334,0.4307609152637555,0.31886537233786566,0.4091009397555297,0.3133195116378948,0.36625438242061364,0.5601931649616683
0.5673277604716219,0.5948170361101532,0.5338564634509957,0.49826203739547176,0.5117777485248562,0.5379738251384929,0.5244469236976192,0.47971855464501323,0.41798012293839276,0.4938454399863497,0.4782944547479074,0.44178507647450105,0.5080287592930741,0.4755942142361631,0.5101407336237945,0.5228727725290331,0.5617182175684566,0.5247802156639765,0.49942202521079576,0.5214419247210484,0.47990413685816335,0.5261407510261479,0.5317599101838331,0.4934432310866129,0.5240004849669551,0.5217366944421792,0.5181639603001168,0.42121825140272634,0.568579780354352,0.4283076771541289,0.5045672572167881,0.5169386687504577
0.6050186492574505,0.5543823370702775,0.6001611232437981,0.5034408449791674,0.513043182984644,0.5274256455746595,0.5492011968228837,0.5567866424608106,0.5114999326249866,0.5572230578329117,0.5695365042221706,0.5009332682916547,0.4750012325499051,0.5184645063187495,0.550474734068601,0.5126564075910721,0.5495618173109754,0.49642853310688606,0.5419347410789228,0.5377643857645373,0.5534188472995817,0.5350941119328313,0.4882075351782182,0.5023090305444379,0.5277302208949758,0.527386270240532,0.506052345013333,0.5006383762232912,0.6035177374288476,0.5120339418175488,0.5688234936563652,0.5476239375605232
0.6093836141549945,0.5493635922593244,0.5659763149237984,0.4709959332029139,0.5703214862914116,0.4873715815124952,0.397108513517223,0.48706766871880053,0.5135515851342188,0.543693267600694,0.5398639915699992,0.575031731244948,0.48951747945479074,0.50953848870901,0.534082485930258,0.49522988556385583,0.5196941210089312,0.49750735386604134,0.47993585388786925,0.5153074239850483,0.4969852964222526,0.519295400849475,0.5205037973524501,0.4869360862532288,0.5350764643526134,0.5525565470089617,0.52089683376161,0.5180336261417701,0.524754535605129,0.541436232694869,0.5135708636300854,0.5707686597330243
0.6300693860614968,0.5147151970078031,0.5189434365648075,0.48936357016168586,0.5823720203977286,0.4587249287350405,0.3452147267357315,0.5000810844830134,0.45465976583879375,0.5248257058368733,0.5006853638982206,0.5862919620256934,0.4879557061656144,0.5277230700339297,0.55011092954743,0.5093463039831896,0.5704045961768999,0.4997697793902438,0.4671860933366145,0.511218551079494,0.4722176368756935,0.4591088367681067,0.5298221244566457,0.47846707331280114,0.5273388693271591,0.5240570291024952,0.5418249358151934,0.4876794338950277,0.510704770542084,0.5091278656406407,0.5225805193947156,0.48802551741798295
0.6222499827854844,0.41513285712345177,0.5267303267178308,0.49396034340094197,0.5505381658621411,0.4822773445543649,0.37687714798486194,0.53811793852725,0.4605500454209033,0.5331007312762195,0.4828337558155372,0.5135187138033492,0.40355269597434024,0.462099724883686,0.5218441791605435,0.4614629415276979,0.5206383697657027,0.47341694447617116,0.37970066513959816,0.48910348166344136,0.3992195296903453,0.3592352423725794,0.3941743516048084,0.43898396108783805,0.4047651343285999,0.4912391893146698,0.49975819727518095,0.45705214864240895,0.5103835815236665,0.49768514040648426,0.5311710901237227,0.4253873169819559
0.629972324172218,0.44147044984312106,0.5647489968351017,0.48200129091444777,0.5316454416696601,0.5132588104772154,0.4563391387992853,0.4951799836589146,0.5376094225287696,0.4658178784282426,0.5495976363721223,0.6065399868729433,0.5041572858924248,0.5067026077027998,0.5395750370519766,0.5179974595519757,0.5336331780610369,0.5796426985516074,0.5062358279862172,0.5274810488892581,0.5223186270834426,0.5037482588756874,0.4836223142093233,0.4702163725717161,0.4550307478421832,0.47383621084070754,0.49313072130039065,0.4658614364175653,0.5331623308767286,0.5015413574088383,0.49194724454561567,0.4514965641697859
0.6098368189639922,0.5315453933995345,0.5423194529076981,0.5293518037470166,0.587503418901075,0.54300248685,0.5047666682982541,0.46338517443960686,0.5811121564941624,0.4877186906556592,0.543948088618314,0.5173717128676216,0.5856897755464182,0.5720059555161484,0.4637657739700038,0.5446809529729216,0.5268774968946699,0.559581570070272,0.5499034608232204,0.5649847851701698,0.561088976180645,0.5357308187637438,0.5540379876126321,0.5105051237832784,0.4863392783722145,0.40681410238181553,0.5490220223825371,0.4230373725282592,0.5756383716262546,0.47057010521397963,0.534459910159567,0.5086784395999446
0.6106876555958627,0.5149888796374232,0.5702986876533661,0.5628064494793565,0.6084859809152691,0.5608144296185227,0.49641998828504574,0.5283561508492366,0.5483343846314631,0.507291223595536,0.5467149706659991,0.47896975005877795,0.5270537620324637,0.5417299876283476,0.5108256237659907,0.49559001652805923,0.5242320326644812,0.5725607046333511,0.5218286971103216,0.4750847423859249,0.49029401044490634,0.5262623372259155,0.5405745348300769,0.4883698752367221,0.4640042427637938,0.3829689180282927,0.5285838541410811,0.3653039048710682,0.5642476356930902,0.4665393972298645,0.523965126366484,0.5003617107596857
0.6283004455194874,0.4987496202240937,0.6259336689730711,0.5265195221467301,0.5749407679777933,0.5134174901055452,0.532370130796813,0.511598869503339,0.5559720080862546,0.520971557344339,0.5507857084871506,0.4681782971933665,0.5840665289763236,0.5322168137473082,0.585525516039092,0.5587134174164119,0.551996288788351,0.5851092871314025,0.5637178411128879,0.46172656381303456,0.5165076845898315,0.5307969467636418,0.5272816913200183,0.4998961523943624,0.5085329211950154,0.4679633707688426,0.514552336153687,0.46771696366147136,0.5626042372603735,0.4717607426261146,0.526984493965015,0.5308663746494368
0.6136375693006333,0.5409321413080083,0.6197901727479544,0.48999928531733206,0.5601802813176153,0.5444376779934311,0.5717490733647664,0.5830036014615194,0.5977309987717698,0.5435478173325395,0.5486705885877591,0.5165681552753167,0.6337030968686431,0.49835047080339606,0.5851092092122218,0.5695228038193041,0.5946251976020754,0.5922262886869856,0.5562773933326498,0.534472469360905,0.5685803697360954,0.5720401901824008,0.5203043677205345,0.49760014240675104,0.49423685523002764,0.5785806159943961,0.5445898033691983,0.48212381914070934,0.5701268225336595,0.5263691168190137,0.5516763741632302,0.5918434655977334
0.6101062968009417,0.5103267462300765,0.6194393305541105,0.391567422999104,0.5120311694213393,0.5322709125425413,0.5739571323033492,0.553315452079172,0.5699478765251693,0.5732060737129084,0.5885424349514643,0.5847997375236067,0.5945955068314493,0.5036027089563446,0.5604492370738196,0.581571839781758,0.5883434577895548,0.5552649992911965,0.5487044782884354,0.530909297066141,0.5601345946915472,0.5516732472484389,0.5285506387143684,0.4933347653345678,0.49452020496721294,0.5391936732790205,0.49697878049357885,0.4744470344249457,0.5348880315189393,0.5092456315299445,0.5236134024500249,0.5541843705978837
0.6290813609201859,0.4492071172175455,0.5661566917586554,0.4281180463605754,0.48436622885206265,0.47232535873659715,0.5178031338379687,0.4273702860616284,0.5432138132747935,0.5835480329530894,0.5844531188249865,0.5470642889116798,0.4953214372300254,0.519846846737015,0.53012171270772,0.5023613878115094,0.4899979815255182,0.5341034521222741,0.5429224434907628,0.47192585529954134,0.5347102860821451,0.5514373830004539,0.5712055097547029,0.478216135891927,0.5195784148755854,0.5393316709332795,0.544649811812096,0.4882431719435819,0.5637100220148024,0.497452329938087,0.5633778253455152,0.5362285917278319
0.6248940260676551,0.4353469011948541,0.5490003405124159,0.5207842817418465,0.5296123997376494,0.4742536440754827,0.5717941836769596,0.46641281291450565,0.5286933387388436,0.579229190107917,0.5697113815427894,0.5262367342566759,0.5160642376943695,0.5336386616623349,0.5641697465277853,0.46769099336098674,0.5228558440425328,0.508616565733402,0.48159986465097626,0.4266154541032809,0.4970126437860524,0.550722240966633,0.5452100600064849,0.400426495254096,0.4839842843629989,0.596100430422271,0.5933069816838705,0.4559858828446212,0.5610707273722385,0.463441912825458,0.6005587211722017,0.604056041150109
0.6355378349500949,0.4997333598656168,0.5315372761624778,0.4129450048925165,0.5961946119689707,0.4747275825242421,0.4739296528584965,0.47544739603703834,0.5299955398737108,0.5091465636449645,0.5388875385969214,0.5317789389866164,0.5126728544286232,0.5129310291621666,0.5539660553933037,0.48705873268428035,0.5198527663105181,0.4543052735276381,0.4363850794683402,0.49555697723639164,0.5233853384561356,0.5277435015915289,0.5554416713778242,0.4690282837335736,0.4775029433076317,0.5679408811421732,0.47817153833659776,0.4278484809903444,0.5305395238539138,0.4677114656749257,0.5416890634433178,0.5890350445716175
0.5868438523046592,0.5395454988249827,0.5236352155711999,0.4932272320233693,0.6343936156400123,0.47638862746354355,0.4110885303606255,0.4744049418587539,0.5547996741272437,0.43780512538218647,0.486424359458063,0.5227116753994825,0.5200651786072824,0.4926031956909693,0.5307739634746972,0.48181272285539095,0.5029496047864013,0.539970263319775,0.4421313996148017,0.36849554505128085,0.484121903934401,0.5082207222648647,0.5517264045171437,0.35861235767704225,0.4319585942808831,0.5087840532199921,0.4094192830037365,0.3726049390859177,0.495462590452082,0.4015611406278604,0.5346218665936403,0.570415674800555
0.5744364149919526,0.5948544220767441,0.5841197525086195,0.5364872212283468,0.6421765188578842,0.548386241082526,0.5054796795366796,0.5545006872686523,0.5190865312853821,0.5321299138993282,0.4525326189661501,0.5133140313389252,0.5197828173700075,0.5398622728223292,0.5006540684444942,0.4945537288872284,0.4437114968450815,0.511404494983313,0.5024990482982318,0.3759554514166369,0.5190460655251684,0.5332984796180493,0.5341793010841394,0.46610200777229266,0.5131325156954336,0.5171339916030401,0.5378125329097352,0.4628394580318716,0.5898740641262754,0.42340160824185696,0.5218655821411035,0.5469369891040943
0.6273877258115793,0.5921482616863744,0.6015284039875802,0.5204209735579548,0.5812343302676932,0.5965165199087885,0.5047616239946124,0.5599814587626224,0.511012382567542,0.583667762424295,0.5375293085118763,0.51452469128559,0.5759878585145007,0.5049860884045809,0.4909472657937785,0.47806722503026355,0.3741970027027065,0.45651410999115516,0.4700517420220926,0.439958729964709,0.5326440463888674,0.5571608477529403,0.5399519595660875,0.46728299122943767,0.5341273162475146,0.5477181821129118,0.5455138275330031,0.5048615958050884,0.5874539415585073,0.5217198350266412,0.5492792021299482,0.5293345898209502
0.6553403079089652,0.5828266106438682,0.5644165652787793,0.4815163883215226,0.5850240764619338,0.49565117464617847,0.5310220810639787,0.5195180601268142,0.5455609291549165,0.5645633608305088,0.5071157688813966,0.5132733448837896,0.5243218358910281,0.44873616033780567,0.4400416828787498,0.4583898393402112,0.39387295722270566,0.4079871775408743,0.5110317880796783,0.48146303287241027,0.5528973723501112,0.5565176302678553,0.5904385935730081,0.5084304130400358,0.522410433885356,0.5099502407300368,0.54468245172244,0.49158499242540377,0.5634982481305641,0.5212969236332861,0.49961450686998193,0.49626872909534614
0.6295321327194296,0.5529550741851142,0.5386315771801207,0.4536535972144919,0.5903601648818549,0.5054044839238175,0.5678284535718228,0.47326185147850064,0.5455503929808442,0.5248999589629929,0.5173908517638055,0.4910785400576558,0.5322531055798353,0.48044731734706875,0.44369914135900057,0.4656128197670765,0.47867999879257433,0.42192938327192825,0.5014198254791146,0.5058786605507279,0.4966203220660334,0.5255700713348178,0.5647074121160939,0.5436897711644366,0.5684914808102264,0.5502746734883655,0.5540116523938442,0.5299434731749881,0.5742246475264515,0.5422757895158168,0.5032299345461794,0.4604546042628876
0.5872938953377251,0.5415302926874391,0.5469274184564007,0.5267951653978401,0.5473139170291276,0.5222097374764046,0.541783076316707,0.5543404927395505,0.5415138413212603,0.4912689161554485,0.5161194861644757,0.4809381200916355,0.4985352737017005,0.5260466177763459,0.5266559897584489,0.514545655551854,0.5052307854514558,0.5013137593689548,0.537880149928655,0.4908225849993413,0.5420881088138181,0.565957694460707,0.5720276582648025,0.5556063568969264,0.5680697898677077,0.5381282692655331,0.5557735411473005,0.5204844108930751,0.5467664869177741,0.5384089399458895,0.5153476086957381,0.4249330456564949
0.5847064121144165,0.5378561197218847,0.5682533089679512,0.5313754848948986,0.5393342815161724,0.4895794272157836,0.4708216956408451,0.4863730423808282,0.5304127570412955,0.523019232237853,0.5461167078560768,0.5778520477622374,0.48381786909040647,0.5641091843212332,0.545157096176176,0.5235433467187212,0.5561471991941823,0.5310411695166437,0.5462312669006745,0.49606200346039103,0.5338447366225736,0.5515663069823389,0.5009142829783881,0.4766811318788127,0.5353492365531264,0.559253056896508,0.52830652944956,0.5199219585380539,0.592581484411235,0.5050068666117801,0.48567726944808237,0.5504668376792381
0.6427866350507658,0.5306859478080899,0.5844852842133064,0.5308720893344367,0.5305523141909861,0.5560205902694064,0.511803140950378,0.5350639884628081,0.539857456446652,0.5262350678879719,0.5151992639774381,0.5777120851896215,0.5071901574798706,0.5634930377540719,0.5174457288555968,0.5339392998898986,0.5528330352756339,0.5139457511022344,0.5350543142869479,0.5270833322480694,0.5224493958133974,0.521849391223555,0.47424631698452563,0.5063261786047609,0.516213508590474,0.548132408157699,0.48623120737748554,0.4741080723169735,0.5781485761729499,0.4529346542096928,0.5195717387065049,0.5014889789145919
0.6458010599627468,0.5684019716248858,0.5678981675273154,0.5438226820684371,0.5282158311802156,0.6012718966910213,0.5295221994356522,0.5337568087903318,0.5753815251752159,0.478713032950606,0.5162036816511371,0.5201947743307958,0.46563607652773237,0.5226090875795938,0.5386440032846436,0.5198388578830251,0.5286560228600815,0.49559459506849,0.49515729560826605,0.4972404493898114,0.49987860694703623,0.49393037772310094,0.5073671222949511,0.5038244283070071,0.5320182911159786,0.5031630790505465,0.5014977097665619,0.4882518088022866,0.594523866949449,0.48206557418286716,0.5433677964498198,0.4911295186295244
0.6521808534291843,0.5570194032990061,0.5840476609565166,0.4735417445519862,0.5730845970345483,0.5782480690364667,0.5426047384609843,0.5594084266075672,0.6098751313520024,0.5643127363886968,0.5547589088611009,0.5311484356025171,0.4781826060961244,0.5370392567942763,0.509491400752854,0.4908191295365137,0.514443381175141,0.5023568883260254,0.4263360741243045,0.5040498742923013,0.5602440428953285,0.4944551514174224,0.5303095462757138,0.5036459456639703,0.5284660880576751,0.476387599855659,0.5659548984818835,0.4798883884782776,0.5439603931256892,0.5226697483390561,0.5226870767023171,0.5206157315883576
0.6723198039931457,0.531561522245169,0.5958933655470493,0.5336214572518717,0.555091495454237,0.5324451763881729,0.552849750604803,0.5457049337621145,0.5636965009207595,0.5654656125603864,0.5243658663569963,0.44335056839643666,0.48326804932946904,0.5135167855142118,0.4677167753888418,0.4979637101235829,0.496249427319997,0.5182028350605319,0.4629541551136313,0.4631263047660783,0.5719674889119608,0.5281508212126618,0.5370161371423124,0.5463317920748352,0.530939301117816,0.49506467622441364,0.5520541864575589,0.4922140495898136,0.550722240966633,0.4668132171036654,0.5434821399167852,0.5141951368078581
0.6478526552745036,0.4710374934556447,0.5356021923634637,0.5066187027004007,0.5303621605011134,0.544712893025944,0.546069333773392,0.503746607616707,0.5239929901196626,0.5217249142240263,0.5105362061136284,0.48377419591960485,0.4827228875781697,0.48174841285779507,0.43635177501166406,0.5140989491109599,0.5117966154674776,0.5273860323351368,0.4983122093247399,0.48581423527237777,0.5316641958788527,0.5794750019224278,0.4528955578593728,0.5360416341371254,0.5021476724211437,0.5325231261270656,0.5593259748628248,0.5250822596470327,0.5879738607094797,0.4695029198970453,0.5311124995449055,0.5400641053180286
0.619709337431134,0.48943218238268926,0.5300348198713591,0.5445075103455724,0.5125088794327491,0.5459539605559875,0.5030460595778307,0.49491914591321773,0.5066283458306506,0.5147316427857527,0.48342373938215105,0.5350005094826981,0.5043132021441808,0.4966484765782732,0.458584012569581,0.5111585317200169,0.4407364783340369,0.5442937622216755,0.5198807123385888,0.5158422591484078,0.5150522843972255,0.5911618576031453,0.5484336678674356,0.5413971102840286,0.4536313219682425,0.5366725396588635,0.5928401134065165,0.4774981848409428,0.6269317966253238,0.4921731637264782,0.5438160541439617,0.5426417608987932
0.6028482131632237,0.508535889764814,0.5615075383682213,0.4274440148269396,0.547049961865561,0.496369423587022,0.46898316314436767,0.4931761842557149,0.5080841983864628,0.49632870488520814,0.45023309386079235,0.4596873038307561,0.5482152239851402,0.4596832265511797,0.4311585397546286,0.4956906980574347,0.42418262104878324,0.5883034537509817,0.600481006073069,0.561988268289053,0.5691978755053327,0.5793084212811588,0.606907952979644,0.5683038242096059,0.5238839390598873,0.6172624830350726,0.5979636819204119,0.4892904712146926,0.6336710924744486,0.4941605840599138,0.5552405916450678,0.5215204219597813
0.6230230278639807,0.5709738282318232,0.5706594191276075,0.5126893743667866,0.5690734029718719,0.5232135872456299,0.508679743638134,0.5102775283836756,0.5164601028115768,0.4894149436822947,0.4912346866800903,0.39095163073513395,0.49251672007003744,0.4762220885001061,0.5086304150645324,0.5275041853458219,0.46569735343789803,0.5566159999563111,0.5640965704852663,0.5842507689898018,0.5491636180881313,0.5547333602101535,0.5770171005060648,0.5167637062013815,0.556838961205447,0.5726883227857339,0.5661162042700068,0.5031520597781526,0.586361147910898,0.5476685142363573,0.5668581594244982,0.539813160639243
0.5977933443894239,0.5848915163472348,0.5668293320530323,0.5028557829226035,0.5491607933590782,0.4950121504709376,0.509670889226594,0.5221112100189395,0.5731684989598708,0.4845635286482668,0.5544238479903583,0.4559887015091715,0.5164114447154162,0.497864651606074,0.5252252662840389,0.542354086427533,0.5410333758881857,0.5445215340110541,0.5408274652640317,0.5147781980818139,0.5321203794069649,0.5101780339914667,0.5410885707341225,0.48774033908963876,0.5226521120631131,0.5556349045032787,0.5739895742403952,0.4871542904402386,0.5496255613431141,0.5492517069031798,0.5568260239046506,0.5231797653584218
0.5911702650409102,0.566421313044955,0.6014122637703098,0.4543142780306744,0.47317357613264655,0.5575611334217585,0.47407187498511116,0.5411118502429417,0.4900467876145351,0.4343646846586753,0.47601953105322853,0.49350639676356606,0.49032592279503606,0.496077109371712,0.5082957781602526,0.5571221007836568,0.5281284541829407,0.477230920331715,0.47235107391375347,0.5028574541168138,0.5256141523003363,0.49871064809386545,0.5268930319445551,0.3811553898793219,0.462738755873108,0.5488251601279038,0.539416918414701,0.4876356410601542,0.5293685887141006,0.49053517329018764,0.49247648509779407,0.5028546520113117
0.6075812922302987,0.5818676762978777,0.5997508242354257,0.5658697948470318,0.47494261784766045,0.5880629461581932,0.515834318649558,0.5093173585961412,0.5511496757341167,0.4734102700588737,0.4910257432471545,0.5395029580744822,0.5243496308833749,0.5628625983724929,0.5101115080489019,0.5921980313059962,0.5333879610730775,0.4754487075322545,0.5279222712511926,0.5326191961339393,0.5417729771594264,0.519257477058755,0.5119839530057626,0.4488470376065152,0.49196174217813116,0.5473061921084045,0.5654598461100322,0.49037223009217834,0.5788692308615082,0.5380381872908754,0.4868147725411366,0.4797350366959597
0.6138075704506258,0.5293550075680565,0.5990601637497216,0.5798593942120693,0.5535394283015056,0.6043280296522611,0.5149388784552801,0.43758617288177265,0.5572270824263187,0.5244938444735048,0.5459808440105766,0.5200730567340573,0.5159896013300654,0.5979913098370161,0.576799363557757,0.6018369493519556,0.5787486264954476,0.5350630909295435,0.529221667272353,0.5194307135739906,0.44299825357647443,0.5424146098178434,0.5246598364955394,0.4296770670002652,0.47654876715064415,0.5204059315041714,0.49247648509779407,0.4837943001978322,0.5914318331200827,0.5240882434840348,0.5356082332065332,0.5528134002637295
0.6049987937832404,0.543885382644958,0.5466211352855971,0.578756728731294,0.5489674775522648,0.5894735695146331,0.5486242505887073,0.48274670620346216,0.5392121130234228,0.5782204736093155,0.5222632322058676,0.502448989145788,0.5411466444668902,0.5625813199889681,0.5625050894582777,0.5741862254013004,0.5424823019918128,0.5400354252751971,0.5183898346134714,0.5055972557125553,0.4859230953981099,0.576548053359986,0.5675157005284999,0.5061365032918267,0.4460317926709264,0.4986050291338514,0.4898193683113206,0.44812053641813165,0.5950924182475011,0.5134328684905815,0.5222089164005556,0.5005414978671888
0.6127351047426203,0.5450725315776276,0.46868650306887144,0.6042839746776989,0.533678309434355,0.5136427046964265,0.5339292515349657,0.47872177004412625,0.5599994575657025,0.543754638179104,0.527221522639605,0.575652471473335,0.47442904399130004,0.49223828752731874,0.4838160633407272,0.49272990875527406,0.49373543331050973,0.5411024166549848,0.5307187645972383,0.4857689313268125,0.5444710905131985,0.5795440512641818,0.5288665485313004,0.551649462027344,0.499744119461281,0.5265050128386578,0.5857015017234335,0.4950118923657686,0.5818465317596874,0.5438186594551575,0.542334009045567,0.5279104812870458
0.6356091880477605,0.5193053838451057,0.5305237633132639,0.5397083495730041,0.5644645916168244,0.5796810287601832,0.5698533244920241,0.39351417500823155,0.5397837051244321,0.5752511186248318,0.5485047316318881,0.5761594222219585,0.4941364444497827,0.4505001954892073,0.45079951941028157,0.4914389099658006,0.4385604668626478,0.5548871841695198,0.573556957367858,0.530461934847144,0.5369053365490425,0.5460846749163558,0.5041418041882029,0.5501172530373534,0.5560046465029026,0.5063649151472043,0.551484927348996,0.48886800927236024,0.5487222258370112,0.5229445154033265,0.5456034148084281,0.4896650743673954
0.6144557988436408,0.5560931070579009,0.5673926195440566,0.5318544360458156,0.6122514173976024,0.5896117458563438,0.5669620101374012,0.2951993962777938,0.5197294110242529,0.5422859773830857,0.5497437846726748,0.5196696485624435,0.4935920207432836,0.5662259057955413,0.5199495611972426,0.49380329514400306,0.5201834121715512,0.5329130168291537,0.5266471588190799,0.5051321198630588,0.5438854898963478,0.4546965460951563,0.44186923664549227,0.536467017244186,0.5378177578613403,0.5274317070440203,0.5300622708128331,0.4920935276340833,0.5759612362336227,0.49603494462094294,0.489828398579682,0.41370053684991703
0.6272891078783653,0.6029202406255058,0.5959781312706208,0.5331608461842421,0.6203340043435281,0.6413511390077136,0.509569905599372,0.32679649431599544,0.5571581804069894,0.45215029014858593,0.555890888915555,0.5069759583896615,0.48607999637750254,0.47430841419736697,0.40975410381262933,0.5039211084194462,0.5623933351071945,0.5050916410355499,0.48904489891275543,0.41915562508134047,0.5551376115251513,0.4158695285170291,0.4462256190291502,0.4758898054173458,0.4987766233705224,0.4035973267836494,0.49187712544830015,0.5800614790957123,0.620425029943677,0.4551497082577732,0.486482546700245,0.4186861805605305
0.6269975500938669,0.5838767926509469,0.5778031355101942,0.5290471500789994,0.6261894153464879,0.5112646053358146,0.44527509647001196,0.5459596138851336,0.47867755277017354,0.48190160920497194,0.4451929049844115,0.4857554801702037,0.47859771264833895,0.40666199634201045,0.3109359336752533,0.4249852839747129,0.4870262014281634,0.43096495603251966,0.47720078146422135,0.42208714050748397,0.528672411229267,0.4559586389049177,0.5323491083982178,0.46639228375627595,0.5310759582920844,0.3784796254238265,0.4207654188045672,0.502701544527648,0.6229861021375807,0.4403423627385141,0.45251743838488534,0.47840317850654307
0.611676179453958,0.5705648620682616,0.6010965588700399,0.5422880308595327,0.5352930364905304,0.48093294708325607,0.4396136141482553,0.45955136412637315,0.47518758370084513,0.37709844135996085,0.411484451484715,0.48478110090454907,0.4637730794950995,0.4737500149637757,0.33179212991079854,0.30855738915051295,0.41244585032326275,0.4361267783814772,0.5251898694155254,0.4286680051878283,0.5217847591169626,0.47994970343030025,0.5356338232489374,0.5047290337530118,0.5389631000412896,0.5200859191414682,0.5086493443433951,0.44700614530547655,0.6123397592458009,0.48515091874270716,0.4673526838658599,0.5646476490957991
0.6201942194508888,0.5225346817012486,0.5769057518310767,0.4707563579226017,0.4745703437169824,0.4555629450909413,0.49385903750936283,0.466836842644257,0.5359205656918585,0.4368555497509754,0.5399068330668324,0.44100577783052614,0.44007130638358544,0.5201707332640273,0.44983230128004204,0.36159341719244337,0.46939058898482316,0.43896321592741716,0.5274623474874005,0.5126350094620086,0.5295227855553206,0.5258958766869889,0.578924421394594,0.5040667654708839,0.5385379388452534,0.5375183038633761,0.5380334408797555,0.4417533336235554,0.5771841281724632,0.4797218787146568,0.47659947580408674,0.5637996809716591
0.6362598061578939,0.5206719808204624,0.5525581931445317,0.4258956777604657,0.5791700486412402,0.4906605691773573,0.5530399070292656,0.48572915265732775,0.5701737401966942,0.5264293126925342,0.5573375943162291,0.4465801249513211,0.4749123185397783,0.5073801796935344,0.51156663899071,0.5197683451199577,0.5344033399881682,0.5324727973657545,0.516774643377249,0.5225924060361329,0.5552641709726418,0.5799422569331086,0.5437242630545747,0.5383654102245025,0.5195784148755854,0.5160897455441896,0.5197505576457876,0.46657002740018366,0.5513339554142292,0.45233066624822305,0.4273567322360683,0.5118051183399689
0.6369432384923723,0.5279961318576437,0.5796855280905212,0.5353577613499999,0.5749668875629808,0.5184478914968349,0.484193667832163,0.48691980664067563,0.5681754853617992,0.5261529289625435,0.5286450054129732,0.534725058751164,0.5088534434486017,0.48991334429069233,0.4826402688706179,0.533421586844599,0.568698502509742,0.5732460178387416,0.5388285134993217,0.543788718699936,0.553671135863395,0.5621189181535413,0.516861818641683,0.5792343830868019,0.528760836887375,0.5831462853456169,0.5513874734285087,0.4930349771837182,0.5799412898345064,0.5275893948056579,0.5471494121347359,0.5762549847004068
0.6464501998751879,0.5465554807012013,0.5793660822117961,0.5584047119483615,0.5113827933589455,0.5098445582502373,0.48039738553701145,0.39047576141373985,0.583566564498501,0.5598449617647745,0.5477813302884199,0.5435264548651532,0.5752495195237398,0.5095285572430155,0.53861275614837,0.5305038806870334,0.5676905809157237,0.5796010803156796,0.5420518269644351,0.5353895979932564,0.546274365023131,0.571042669928771,0.5649519798933252,0.5527999474480167,0.5233956216756603,0.5822330234151734,0.545806297588987,0.5076765368841616,0.6042287911660607,0.5422977730120191,0.5859593950864443,0.5329192028087263
0.6334147105544734,0.5991558223057503,0.5592196175769891,0.5818663031530479,0.570523930084539,0.5121664254201151,0.5215193979940337,0.45086030640726055,0.5694811309651865,0.48475584181469583,0.5340495505659076,0.5314466324487516,0.5838314850591911,0.5212845252227623,0.5861877111491429,0.5560338515051444,0.5325175346349779,0.5016682290377107,0.557230314665522,0.4963509726414583,0.5859610140070938,0.5862109126179669,0.578652561579073,0.5428902833954922,0.5483620573654215,0.5687174301582077,0.5293463365612298,0.5339606313026777,0.6054876313930985,0.5686368095785757,0.581594694654198,0.551384438399354
0.5829813368916346,0.606194490738383,0.5627762165364885,0.5724854983460701,0.5846665375658754,0.5306678976786673,0.5274494468663788,0.574918840290726,0.5190438246703768,0.5260463693266411,0.5503339533424605,0.5710368280984117,0.5442543036374113,0.512233984539077,0.5580145065684489,0.5704925240928137,0.5178417482962345,0.5196734594872215,0.5516613000885695,0.5225581354207551,0.5755996487988755,0.5593285966640633,0.534546041062989,0.5501223950784476,0.5405478594169564,0.5677779497705748,0.5142833975895732,0.5550830512052796,0.6137686410402416,0.5450132319755447,0.5316058365041754,0.5593130073985337
0.5887529819292723,0.5994838353440737,0.5375938865403526,0.580626040669489,0.5807810383188882,0.5024422545832897,0.5003077921150516,0.5549777997193984,0.5356292325472887,0.47515897915246014,0.5353996731269921,0.5316055922577361,0.5243583799974109,0.5125665638885137,0.5420728450106097,0.5512488795826568,0.4866413885461998,0.551141017874839,0.5399068330668324,0.5226089811210183,0.5367899104350583,0.5453847584610451,0.5773875593820375,0.5411073194583783,0.5140234244630576,0.5318435641548365,0.49916311919685585,0.5417137535095384,0.6136876879732176,0.5597177507190951,0.5634433128233375,0.493767640861414
0.6207728118453134,0.5190283424956377,0.5750634020664931,0.5191916741818348,0.5944070443439486,0.4684930241041289,0.47809679426745993,0.5938464823403791,0.5950308371117732,0.5333960655852646,0.5675407214264212,0.5388976425446772,0.5601657925326591,0.5743532415031541,0.5454922736943197,0.5481114398894799,0.5531360578954813,0.5626288344919564,0.5881922210265056,0.5459515990155689,0.5188992563977585,0.568499569222849,0.5961813239764976,0.5353633110214566,0.5501093423692641,0.5307953493999308,0.5432263786846512,0.49820831912558655,0.6005231686146334,0.5617058676738613,0.564558538782912,0.5613697389104267
