Fp1,AF3,F7,F3,FC1,FC5,T7,C3,CP1,CP5,P7,P3,Pz,PO3,O1,Oz,O2,PO4,P4,P8,CP6,CP2,C4,T8,FC6,FC2,F4,F8,AF4,Fp2,Fz,Cz
2.318617280618928,2.093429233515199,1.9933275393181449,2.003026328528433,1.5649410632555698,2.152896386171623,2.2841735757411685,1.8524760504928477,1.9720406555669299,2.0200016890108046,2.0565586222188776,2.0087192731924275,2.10154511495734,2.1102816366339874,2.0869915536974633,2.1164760666639544,1.963627926889919,2.120123942309511,2.2616968169712,2.1739699287669336,2.006746104756268,2.231754227669016,2.185940588979495,2.029602680634561,2.175474963183921,2.001302418220919,1.944699187925479,1.7884133023291267,1.9328149117180558,1.8766310507209596,1.9068294049290777,2.2275876208592007
2.272241813069915,2.092257310355513,2.0600686980742515,1.901061380073667,1.599198766662661,2.0966905847262627,2.298637444483281,1.8637111599272835,1.9135551772791033,2.1542713323317946,2.112552315650394,1.9418737046684456,2.0800122845703064,2.1985913103534136,1.864026176377292,2.0355018560492737,2.038357447764735,2.0361339881833618,2.206890300169865,2.154741245519092,2.1185670509803614,2.200794207543198,2.082392536810663,1.903371334854005,2.1463190422782255,2.0252619295160286,2.0280439957030936,1.6857226778696648,1.9700097056830552,1.9067832226576549,1.8706787928250264,1.957257301994336
2.2564254494315477,1.990137000637418,1.9546527498128043,1.8803598375624477,1.7082808716628641,2.017107603017691,1.9822917749579234,2.0623320212291727,2.0195034612055696,1.9915119858996495,1.8860297684361043,1.9705555064060152,2.0777154678454357,2.1587376090588744,1.9813445809455303,2.0541804492513087,1.9564241298479852,2.2109494029241783,2.2352054369365106,2.1880908897107183,1.9912603783439136,2.1865819049433766,1.9743578172059402,2.0349437534315173,2.098140379270383,2.0096987597952776,1.9125733761492116,1.6260049198315298,1.8313908198150768,1.8881721936227112,1.8249697704441865,1.9726447934227793
2.2923043271137216,2.0858815919702463,2.2041681982146706,2.137982879814616,1.7231672057900131,2.310277940767212,1.8457360288904987,1.9097273063644973,2.0109973351744594,2.0183162329889806,1.9095069387630095,1.8863852189435446,1.9960963039846538,2.0210838000817435,1.788198362079494,1.906258881204686,2.019970890867497,2.0295133488721095,2.1435764757167517,2.160639231296531,2.185175960267292,2.107954855383851,2.027521609147271,2.0109125188368577,1.9255891354368728,1.8377392879164711,1.8365347434229404,1.6108276386637863,1.8308337436870683,1.8607561163255637,1.8721069833242532,2.103390167296946
2.1673579404613506,2.0182442519309443,2.0555064492460917,2.0705942015383965,1.8136988639763831,2.140084662233104,2.217465901489805,2.224375649893098,1.8932635076780833,2.055466082325069,1.9607370984681545,1.8389126610444535,2.0682841265916307,1.9997872806445347,1.9134856797731752,2.049949492464172,2.104635258754827,2.136250000674608,2.13701258365759,2.0060862866994555,1.9739843609802457,2.1577540902798877,1.8257768484119912,1.7406520050065393,1.950173294557342,1.8122725245237057,1.8246819222008477,1.5581376682014378,1.7517024411443272,1.7181200196948703,1.8326261454501573,2.148591396160035
2.373105107051777,2.077882698095627,1.8936368474538345,1.8777906086691614,1.7646767194947064,2.0766267159578615,2.063229860622481,2.2509780628557006,1.7452318641155677,1.9744011674489854,1.8909039340285743,1.794356919141109,1.809578687029387,1.8491174799887868,1.8306770024983474,1.8537627956278446,1.782572324094693,1.8276240952460774,1.8775219656946962,1.9812158861710798,2.117152870613263,1.8205182303663952,2.208932460109891,1.9629867522565887,1.8985500300538176,1.8939815086262979,1.7779834447362424,1.5644241886049481,1.7383918195166006,1.6510745930134239,1.7750171324137765,2.048154215754482
2.053347986173939,2.135246176715817,1.8425620165493162,2.066419380525514,1.8492327286875991,1.9670319181091198,1.9922214616661655,2.049093375829736,2.1246214077263,2.1170859559749573,2.0307803911188262,2.1305244262257963,2.0266554110573525,2.1890730179345943,2.121715345232289,1.9511360980039714,2.201702164296347,2.096826488825049,2.2498169499855334,1.9615508745080759,2.1100869784627387,2.1948355714019545,2.0157230836728104,1.7987055625411847,1.9519690112983974,2.0610024313155684,1.8186468848463844,1.6697504926319304,1.8434257369589289,1.7175219115853806,2.013119734862973,2.246211160081752
2.1716327126528827,1.8531154752589165,2.225480305373094,2.0803886358023895,2.1366308673270016,2.217447101578899,2.035650309166024,2.0718117431201524,2.160459193202246,2.1931403109344676,2.0069037900856537,2.1260649282849773,2.159445399027218,2.1032344588177105,2.1197720278515813,1.9722280283809126,2.1904319466555373,2.0785268785810778,2.3154659045659374,2.296483610588345,2.297164053140476,1.9761631034186709,2.112257406340432,1.906611195886877,1.964553360978916,1.9884853323301195,1.97133242092928,1.6966980525990119,1.9071620433768275,1.911338360384712,1.9524584431352463,2.026329043471704
2.2843640785493413,2.131932408866838,2.0368088480342736,2.093837385378981,1.843381005672427,1.8527145186008769,1.7412982811958544,1.9615353090922178,2.1728119350855306,2.032428348043584,1.9478303219243496,2.0634434879791406,1.9898302226282445,1.9001150428397537,1.876452187993231,1.805304353601114,1.8937434772002435,1.869916485660572,2.0041309877190736,2.004694125804834,2.0034216770322852,1.8276702269890053,2.1709414764102424,2.005729649628163,2.0683012849305746,2.0344248774393594,2.0600453935577066,1.9901128565982158,2.075923391006076,1.9206360310198993,1.936451573593314,1.8965812444452794
2.049677761778594,2.045438495469887,2.203398247830082,2.1618477093509063,2.0342937630052176,2.2100150728307604,1.9325452181163307,2.1411054110298227,2.124905810106281,2.0025465687751796,1.7985979904449696,1.8053390110775596,2.0906206998496613,1.7535264856263801,1.7606883261351296,1.8328110792502996,1.8307641942525528,1.9143060155198015,2.1446298264213577,1.8632843154789467,1.9882505802379677,1.8068405395112392,1.9292378945631703,1.9842560206425985,1.9403168735514453,2.0124879423945816,1.9172761989258416,1.7314029506512307,1.8757625572481624,1.880094118567422,2.054972789851028,1.9475231483724436
2.0787978912154945,2.011161548394434,2.2304751286737856,2.0172399009953694,1.7556521694506644,2.0095679545684075,2.038652966888271,1.8844574470509041,1.837576016674601,2.114286686615092,1.9462696016342205,1.908629663226773,1.99196460172068,2.017152790976948,1.9249170773869895,1.8669231130576696,2.028666864489225,2.0493586527775403,2.0592393083311626,2.056111272695704,2.2280770769878715,1.8480601357226132,2.076206511001489,2.151670440873168,1.932648455506077,1.9215174946531681,1.9105591943025295,1.7904670252691808,1.838201408550323,1.8386474715851553,1.821282966247954,1.990735677251967
2.004627608785918,2.0340229970095183,2.146813310037096,2.0772539029131054,2.0632853355544722,2.0372654538948036,1.8385470325165518,1.9764063476587084,1.8365462126968157,1.957772081959571,1.8381930853661321,1.9239182184573485,1.990126127159991,1.9039506126164285,1.9161404686375956,1.916658551127181,1.9749422767928797,2.0480781084224478,2.078742074564183,2.1241606973896694,2.049852370205848,1.9941234447480543,1.9525099258934224,2.074244973938587,2.0159415715109246,1.8416353554254847,1.8273816605010063,1.9231336206163814,1.8250469002324445,1.941887207149159,1.9049729847652925,1.9254196744211771
2.2162532309688587,1.9451425699922844,2.2134847486735643,2.0582764267033795,2.0340467125804027,2.0000256020359113,1.8860345897373798,1.9321565027129621,1.9333816140382023,2.1473001441226693,1.9780081316062716,1.9943891912620813,2.047100581812656,2.0617673284821216,1.9276342808946445,1.9884786344317777,1.9415627099311898,2.051091148572247,1.9313618258302907,2.158401535547404,2.099672990032237,1.9447295031592995,2.121917374078697,2.390381218249946,2.027050254847736,2.0459244964341767,1.9873421338131554,1.9782637694592338,1.8560304244542298,1.972496643159575,2.0760084633091314,2.0931203115958614
2.26790968181475,2.0564102066302596,1.8462286746119114,2.1487180769046965,1.9967289433995308,1.87649383727327,1.9928328312709722,2.0811786755456128,2.1388767265065027,2.0568045016588137,1.9279240203279981,1.967789637257477,1.9146213106846464,1.772808232706619,1.7002733161958081,1.7527679166880337,1.90871564954854,1.9311123355900608,2.1231560005267833,2.112812160663999,2.2745716975062655,2.113717119231302,2.1487146758681686,2.3028646299625923,2.3330887195356347,2.2833529527987815,2.181909540000688,2.086797286782714,2.070636368586009,2.2029933268856916,2.2406355581419266,2.152888548600998
2.0271934592074534,1.9602978690669952,2.1421647253726412,2.0494266545470228,1.8630231894149134,2.04177024569116,2.0306061459271643,2.1521115332944176,2.1579050787357357,2.1289091124804087,2.0410879302674023,2.105319758562623,1.948887380596784,1.9291347160169492,1.8662438221566893,1.8752030329387799,1.8377227882874945,1.7964655724998688,1.8488655559380165,1.8786090096826027,1.8686829777795788,2.0128711117572333,1.891698695301339,1.9778057894414127,1.9386764322854055,1.8989246434781206,1.9424305442887042,1.792279010496445,1.8252080429105761,1.8186656832302743,1.9995361692750995,2.155694396243113
2.2170941750378677,1.9657172862292709,2.0646808381462725,2.13764652203712,2.2115818093536346,2.1448371643878126,1.996710130962196,1.963588121201643,2.002860712890102,2.0538079647708845,2.00533849944665,2.069647980547857,1.9901666258306563,2.0138173176407186,1.8673902054402105,2.0103837017389226,2.0341297888826784,2.0600738075637275,1.963022202142038,2.0448521765861862,2.1591694548974516,2.1025781681575673,2.1485172385684,2.3861838701513323,2.2194706030102616,2.2120866846304246,2.3189339572246848,1.8459875605551015,1.9624314279606994,2.084550320937016,2.1579252175334513,2.1820495839331113
2.375549917397801,1.9341364997592565,1.9698566880872692,1.9927490784285662,2.207167323566554,2.0047717103841403,1.9890360529945745,2.031116998438601,2.040747377183892,2.1482289499483196,2.012470244067097,1.9628614264652438,1.9965260538102454,1.8313674158954059,1.6916631079718287,1.763459141900122,1.8915235871518588,2.0842753138068484,1.9845496008714267,2.1799110064349256,1.955653434069039,2.1192903582906366,1.9130389386598359,2.0051714991997125,2.007069014514162,2.237673678815893,2.0799527272348897,1.7890823261296738,1.931118804104642,1.9241323484679858,2.1530934914840314,2.057375322504111
2.1638687519792077,1.7413938930859876,1.8633896019731162,1.7505547624140732,1.9700024420553441,1.7107030148055813,1.7171999823645765,1.6893758053547905,2.2241614613091887,1.7512330117515593,1.7249031729804578,1.9570736952851235,1.922461742931739,1.8232971525363326,1.7345033583259724,1.8669629735135802,1.9214833884025226,1.9539933967435519,1.8278927564913277,2.0123909511485736,1.8609214651104187,1.836175331506177,1.8056223676579033,2.2056474527162924,2.0097266881737017,2.141708072121475,1.8347243012815708,1.854792510782298,2.0783920264919384,2.0876599500228594,1.9437026047170811,1.8180052043860406
2.1221645762942205,1.838750872616725,1.8337050632439003,1.9590311759708883,2.0461246316298105,1.922130462667835,1.7970276949604418,1.7721063463009645,1.827242697766018,1.7581056839987836,1.6758876601027994,1.920355450507324,2.012961159465528,1.7573127597275064,1.6552594200185713,1.7499307922474285,1.8690164578798416,1.9249016666296979,1.9744602640485078,1.8678660688954112,2.03635265048335,1.9004708500197844,1.977442173399708,1.995060945387269,2.156232790739507,1.864785933123429,2.0211236934615404,1.8631167758850167,1.9981714530742412,2.0489172475267994,2.1593398718882852,1.7616990073748116
2.2793848388621196,2.208456934027285,1.897125635704759,2.0423861101548795,1.7825390019179836,2.126252431413067,1.9823628652749026,1.7793154211408024,1.8727371143415168,1.7315453337844924,1.6899196071976528,1.7734369947853024,2.011672648307564,1.6601866038555129,1.6934662907464146,1.7086063227871542,1.918269365118332,1.9846917573043046,2.0497744738430472,2.047128383055142,2.140692567407448,1.9020919621976429,1.9877505447287405,2.0801339413970976,2.140998878145338,2.1904400777209547,1.88157590721661,1.7530057210081815,2.0614936195839233,1.973653878608753,2.1665933264642754,1.8162776411476134
2.158651568301776,2.2275518501870835,1.895783588968103,2.060167881493124,1.9234115912312575,2.1282152851964358,1.9409189898259376,2.034145013555735,1.8635112823476434,1.9793246261210968,2.12416133209277,2.0768824076961474,1.8032774545981851,1.9500040023898069,2.1712740706323834,1.9848715668181114,1.8241586968689305,2.0338586889186945,1.9108033083815807,2.059372865180172,2.285269183229724,1.8148728903123121,2.064104263745812,2.079129857283055,2.188233924400252,2.0623984702194385,1.8165881775362702,1.7507373698324575,1.9139269766049551,1.8041396814707948,1.9722873613308627,1.7615953433702107
2.238620215142384,2.031860542856344,2.1011154893181168,2.0868442524621242,1.9672602803221766,2.1340992017802005,2.048525028217105,1.851963850979163,2.113625526744122,2.1008264507189747,1.9522708380438045,1.9080438664561588,1.9675254629459065,1.7936186373919936,1.892785098412664,1.8368903802242,2.08520771654762,1.7883765297931116,1.8703054747353203,1.8703128058159302,2.2157057434971508,2.033001260398431,2.189879048093292,2.2596373788046935,2.1855685115952976,2.2709782487376327,1.8760837159870838,1.9169789931137817,2.0424709031252752,1.8635954559352461,2.1917062489052563,1.868488610045453
2.2869865853008555,2.089945554170355,2.180446794954891,1.8401946152574098,2.00139728593826,2.0713470106182617,2.061386224637831,1.9723859739977132,1.8874564697745866,1.96854162614125,2.1403114909832817,2.0019902758906007,1.8900313792999213,1.8631671481170313,1.9630522551435279,2.0809030061335947,2.0328363828694496,1.8818124119861397,1.8698261585773732,1.7843247613534243,2.007882520513948,2.034979218166628,2.067367045844413,2.102001041835648,1.99269044800336,2.1547306602483003,1.8146972926578084,1.787170427170128,1.891992461747506,1.8017518294708783,2.0100143294239174,1.9352349031894835
2.209900336463886,1.9857101609872496,1.9605981603537617,1.9539519938754808,2.0030283796681987,2.1037779535779815,2.1677501420747567,2.04252093490977,2.113432215862563,2.090515249468888,2.227552185577575,2.1771402812429272,1.9631243401505376,1.9256315296683795,1.9425834854715245,2.1207111248421833,2.02900147727207,2.0531106214892136,2.0062827016685536,2.02518207018351,2.1342881524127786,2.0546577302037687,2.2145665747366645,2.1151543778278246,2.284831660188715,2.351545050932828,2.105989213703444,1.9068782802181827,2.086234099873795,2.090264050989533,2.0365799975765784,1.9921180389873305
2.2559995709361265,2.126769524150006,1.9677138701737602,1.904740832321379,1.8574444789874505,2.045113627578255,1.8939808669006464,1.7062074799322384,2.136025220439081,1.9336685858042357,1.966313670306332,1.8523017369496375,1.7548032107857008,1.9357889729573348,1.9064420356714622,2.1213453514626406,2.0208629826006863,1.849748831377192,1.7269603658281574,1.9782791203463566,2.0167996166745676,1.6944321942051765,1.9214454053454144,2.0440677920927515,2.147347916356815,1.9358189592394972,1.8835577386342288,1.8664227642028113,2.0212482196930326,1.9340277524912268,1.9169860493139523,1.7030042762960083
2.5571643014419183,1.939766279731688,1.9503367894999317,1.9684685919559155,1.78511304388827,1.810240415436511,2.248343952346686,1.8611340461877104,2.0439212079844586,2.0770592145585853,2.025060523976665,1.9197027653625214,1.736885180587788,1.9096781010005628,1.9514982820597444,2.106005505616623,1.9792128867540075,1.8473561440920865,1.857737816435227,1.9760558165219293,2.1450473155571492,1.834212458156168,1.9619448138915887,2.1231732114036315,2.0592343604521566,2.0795006008937693,1.9362535777171164,1.7919634637001416,1.9573219434258067,1.8762736160341578,2.071666773850263,1.8323853993129622
2.448993517699714,2.014078145627388,2.1258042988346886,1.7937233384099927,1.8612340870508626,2.101653081645265,1.8785279477093397,1.9573582107530008,2.054381988967268,1.9267263195350193,1.8590454285026963,1.8585707697886682,1.7469355909197781,2.0178429500107002,1.8530869250758402,1.9227436977177175,1.9977930491078095,1.887841736096277,1.7756183762885391,2.0404331492904664,2.1713393068539797,1.7342134134068554,2.0349744196423205,2.0502067417743297,1.9530593913867789,2.1644532806217107,1.8192718625555977,1.7174036755561712,1.9556567687725335,1.7872142182076232,1.976492203202495,1.7777096173111
2.3782339629540523,1.8086560101163964,2.062491407930367,2.1122817893833594,1.937378619106013,1.8799015195681,2.200478309460276,1.830518972924473,1.9158981524579566,2.041253998936268,2.147378654883984,1.8126556295863732,2.003827228798856,2.0574472001631454,2.0141443877931744,1.9619097014535543,1.98448627122926,1.847869124556535,2.0835552041232788,1.9703295410708894,2.3414686808695837,2.036234558578191,2.064821412239765,1.8872038958061588,1.9762902248170469,1.9689747191370954,2.222313091142799,2.086755645842594,2.0609458844495614,1.9792727546382427,2.090917913579239,1.9677882643447353
2.5591491922809992,2.164844011341264,1.9244240356475262,1.9659006099959295,1.831233481931016,1.8047710310625666,2.2863756718703407,1.7732959063990779,1.8405676278096041,2.0061235583672175,2.182142871171162,2.046278320445448,2.00182697893451,1.9182988093967241,1.9532337319882271,2.0024557390626643,1.9467189460431968,1.8535331919049827,2.0021057368224673,1.9120980031776613,1.9923942351242612,1.85249471810433,2.14397352514899,2.067646752472798,2.0707473720155574,1.9053832074392685,1.8914805140579845,2.0178565065341627,2.0261038447577615,2.074730612854899,1.8534286520277263,1.9031788855187306
2.5519983672028173,2.150674408311374,2.0577212558797653,2.0917103304264226,2.0674060060951214,1.9216001925295965,2.030865789072931,1.8830494346141615,1.8326634216024462,1.906780736032426,1.8757478280454047,1.87617881842432,1.970756127352673,1.8526074074180687,1.736034610626385,1.676128454395169,1.6975366013351527,1.7967097004220374,2.0121536543221947,1.791366687727701,2.1524454476297716,1.9561636883185005,2.1797567843380126,1.9332334619170912,2.2038663369510716,1.9458477340254081,2.044861775744489,1.781322886628097,2.056465828159332,1.9283143801146112,1.919297279032175,1.916854234824056
2.6007093114457516,1.9632437357132466,1.9003674699530364,1.602181108091631,1.6747208061956016,1.7994594876917511,2.1450888767650187,1.918087803318527,1.8134583905026367,2.0661715303721735,1.9430556000150003,1.993488312432566,1.996173315353658,2.023919738273243,1.8834340869641917,1.7682677659516932,1.8689475400092062,1.8808105117760812,2.1545670880805297,2.093657208048398,2.1928139908969206,2.0348115295754132,2.0569355949102457,1.9524839722775886,2.038265296693453,2.053787529629068,1.8641915887314853,1.8484835333280636,1.8308006116910864,1.8567084915079877,1.9257095877089367,1.95396555832475
2.636089534821112,2.260082760924709,2.242370357314136,1.6218419299262081,1.8178214773958765,1.9017330577101137,2.247378025776416,1.85996221897295,1.7297632535573608,2.2151199870194924,1.9429137279371615,1.8443867318959204,1.8089450404673897,1.9318713883803205,1.7098907620178085,1.824817748194455,1.9837987263649444,2.0277500863263134,1.941261804812034,2.025838502600382,2.0155164013141977,1.9362008129814576,2.052285298542782,1.988888061786728,1.981544582996202,1.9027275876752698,1.9354317652761865,1.8731530428877832,1.8393746383762337,1.9684992766789782,1.851475589645391,2.118858670733729
2.5805272254539307,1.853272064111138,2.053106197721174,1.8622366765477407,1.7256622954422212,1.8458575029819135,2.1850672158721594,2.0691919819945066,1.8436835128522802,1.828709522379482,1.8978113128346485,1.6735155599188796,2.0073360800647806,1.98094572350269,1.8629380473462913,1.786848733944526,1.8788966735362362,2.0198215404627997,1.805597121569655,2.0285993947128005,1.8488270833384886,1.8890155182323443,1.7267138396402453,2.0224902688455666,1.8948901278464854,1.777748812927212,1.8042609995825902,1.8415958950456184,1.9309170472754396,1.9045482714511437,1.673197371530505,1.7517463404681501
2.321189673563389,1.940856079667931,1.8836122863765226,1.6856100614580034,2.1279503555955444,1.9186381115000541,2.251229322801829,1.8141710441726702,1.9181372320230372,1.9951557628628527,1.9682616474441046,1.985766859835987,1.9836469894446112,1.9632935614321443,1.9327407054600867,1.9177674702788117,1.922194978132717,2.136579200697067,1.8300152103769274,1.973698120189907,2.024200179257544,1.9103913862737336,2.0760396877052565,1.8837890230673582,1.9223617860127897,1.9031868968106602,2.020837072406301,1.8336480065212057,1.9811105850397734,1.8605222971879258,1.9187843963352085,1.8398388731724744
2.213412481101448,2.003578866786806,2.1395365097398633,1.7813601968026245,2.099434910629864,1.9109633416360103,2.0278775240391766,1.8022497496737362,1.7054742765157715,1.9235469433015318,1.924778357119343,1.7213472559340603,1.7957935314362845,1.8300079920551395,1.7179907646779153,1.7345174581278862,1.9204760323077517,2.0206245870656843,1.8306306356566522,2.124904625699196,2.003523660726262,1.85085105911039,2.054588080466693,1.8853349018440204,1.8797629459866425,1.8467037239367974,1.7208500220459508,1.6858424323721815,1.821631153182993,1.741735696792436,1.9498347412408281,1.7241575046528732
2.660618873729697,2.030546972992757,2.0757546906888393,1.6782065352377231,2.05636404131885,1.9951102705458519,2.2371049942376597,2.007369639554182,1.9676807080229939,2.0450558407535673,1.8800040312059207,1.9894266206184563,1.983315106818503,1.7260839567247543,1.7718659197872109,1.830348559462885,1.7995197845381858,2.003415613605901,1.8771664330910656,2.038137728163911,2.0634752297590593,1.9166216749500493,1.9825930163019465,1.9287428570778726,1.9059267002761007,1.8886932782803676,1.7250682354663909,1.6862882352869284,1.7362889516272821,1.7414484088840254,1.9765359392091981,1.8258074389444872
2.3980499171513365,2.0132692008914663,1.9350707241233023,1.7603798214876971,2.0796367425086077,1.9192044170946603,1.9921670729887553,2.1692564924051023,1.9682548874507124,2.2428437821366143,2.049718710525211,1.8756838994939131,1.8214630274196562,1.9224046796626642,1.8495245348927762,1.8375762487453469,1.8858326515540873,1.79305971301887,1.7141329435974515,1.913407435252795,1.8727658476096072,1.8504904585017095,1.8286866154467967,1.9551878588299796,2.1924100900999557,1.9587656350649996,1.8402651337969447,1.8803268415736434,1.9272438452911287,1.9910842561875888,2.1396912013202765,1.8458113345214018
2.1825684549414133,2.106898629816668,2.0961891307347083,1.8013243121932756,1.8447089078505279,1.898167899345918,2.038209011960616,2.2830778101620535,1.9624503118861478,2.2535868551466622,1.9038990377442062,1.9701485965039705,1.9234197240214406,1.9674801121553775,1.9750477215539866,2.0307743143686086,1.888953599547162,1.986932074328643,1.8265585364890202,2.041108251925365,1.9161576365304436,1.9461249447321514,1.9967926532674245,1.9589741269307444,1.9075400970769936,2.076344751420208,1.9711305641455237,1.7048449845485054,1.9336960180590061,1.9342171313108767,2.010251060734673,1.919788095767215
2.309611833109658,2.0765791373817306,2.041721869157191,1.7271506656828426,2.1830081038314826,1.8539484454319548,1.9473982061192332,2.1160730982302236,1.9747852321241905,2.116887913596933,2.033074825260179,1.9599998791970041,2.018461981907717,1.9039776478060988,1.8746432098654602,1.9400542958000018,1.9408387132833143,2.029953261660818,1.9214441242974174,2.101044408160917,2.0627973097614114,1.8564324755117403,2.104968042192098,2.1076985325447475,2.1684940223818567,2.086589805548015,2.0997242374791876,1.8077867556007838,2.072765760919074,2.1014203598026557,2.121851844552291,1.7602087398011352
2.359824012392432,2.0295439324276026,1.9262376216599257,1.803962628362153,2.1431982691153393,1.9869506038320708,2.0521263068672146,2.2813237589536017,2.1605560631151333,1.9242019586992096,1.8543901280680668,1.9230783902574273,1.8011941341807751,1.9686704163925173,1.9147149219806268,1.7852076558397871,1.7531771934975062,1.7877547270372267,1.7019698581739062,1.8300727405266812,1.8262920892628118,1.7603812588047834,2.0314561359434067,1.899737428566773,1.8874014326846016,1.9395424003611352,1.9015342133816713,1.678699741872848,1.853145881091166,1.844664951933211,2.188094222897395,1.8113038309999898
2.2862348212985637,2.0854262263646164,2.1505582084166064,2.0382982901142155,2.2498490383818317,1.9003293004890447,1.9309317641128982,2.046632856085933,2.0788505144505356,2.094894624678124,2.0752210290005015,1.7900201353364193,1.8239651963665995,2.0122068317688475,1.937276867469063,2.0715869324512854,2.0056095727894756,1.9179151824094114,1.7573649290312456,2.0109180137049227,1.804529691757041,1.859378886799041,1.9681051696361098,2.0440222111069453,2.0218639626101242,2.045180826002282,2.0527053734258525,1.755610967451544,2.021037418035998,2.0644743445660536,2.192433482829356,1.836687522888855
2.6419076548135343,2.0012877300417613,2.1841735909257585,2.0162712792660376,2.0549253351181105,1.9956004593354013,1.8816965994613042,2.061748963168391,1.9861725366429455,1.9062071896423576,1.791895431128745,1.7744173779603818,1.5767513812876914,1.7132747203640148,1.7001501564085393,1.7207416825390118,1.8842769616101147,1.7497654009031147,1.609966881276139,1.8051551173228455,1.6572590529120625,1.6802354710107275,1.7779789275679327,1.7694072452464584,1.9765615175601425,1.8845625346890151,1.9317849692892888,1.932513835614507,2.0828132582708863,2.0041771543931977,2.0626440447964245,1.7350771313779199
2.4477729396681114,2.0412651746726436,2.3116226214283055,1.928960348545,1.9407410360454813,2.085367775646016,1.9771371000828732,2.1644327414279276,1.9418862789371867,2.0059033940079387,2.047883892875967,1.7599278611955826,1.6309710368141694,1.9269388209644673,2.009790080471661,2.0733266115861877,2.0038723977014534,1.922455751671077,1.7767103128956063,2.1628106611171667,1.7701642778991067,1.86640551144007,2.296478246528833,1.8607270067148494,2.223882728476693,2.2729096665975654,1.9585601505576062,1.9333451865288473,2.1640472148458807,1.9071901713028652,2.0047445638429915,1.7676939476715703
2.233382919241341,1.8939122306220195,1.8639350675555433,1.8277390301423442,1.8623821449023494,1.8598878157645515,1.7526803094967693,2.0502657951346968,1.855189675391635,1.7667223072010028,1.7967707927528933,1.8242349106106475,1.6978935882451311,1.9547396133895518,1.9658185149832956,1.9052804358344437,1.9111036519106965,1.9768747533584923,1.9100687679507677,1.9579499578397512,1.8085582101002309,1.7929584989866476,2.3412677883208755,1.9247427106723636,2.1064333142113334,2.0659121005343537,1.8168057353950737,1.8879434643431667,2.0765075226331846,1.8764851283761834,2.0751369518728136,1.7419365395671484
2.2445551633133016,1.8265270400781901,1.8541978714928278,2.071193861603928,2.0945065398379743,1.8815418457448798,1.7661843886144024,2.1020833133765433,1.9573928320043275,1.9594764642584512,1.710442771302605,1.7181043297998404,1.8966160033721196,1.6950620708755906,1.7456939916522396,1.8198137290996645,1.9861756471641812,1.8532938460965744,1.9510209406307113,2.0865777538508263,1.893008737217859,1.7972480653162408,2.2018207818195106,2.248667103328415,2.0560933119937324,2.2018977669168485,1.9971218124695012,1.9101715343376808,2.1244133411991943,2.1087004668509195,2.072798109309683,2.0768514959943456
2.447956988855204,2.0944355085492234,2.277372680100475,1.7877983169817555,1.8848854176245295,2.2128586170575666,1.7854094725427847,1.9044946042514428,1.8931574089760328,1.866007120631479,1.9911684938502918,1.7146743907676743,1.8168184506241578,1.8263193379615832,1.6445646886221992,1.8520483515466986,2.0994980208872405,2.020041668667179,2.0374271798014876,2.1292317911722667,1.9295057105186564,2.029546486566239,2.0637957864507146,1.8924944484747699,2.1283119090136995,2.1489348657357477,1.9844598022094697,1.7927099548110954,2.164504038721635,1.9694290173999673,2.120413807714219,1.9848708371484982
2.2779236243868564,2.012308286594516,2.2683719155855955,1.7253867360113024,2.059240615218314,2.2307669219343333,1.7880484674272228,2.098247761611398,1.9835767957670019,2.0204089109614367,2.0359385542870205,1.8095303606856508,1.777337364845109,2.049665379156096,1.8563691696124847,2.0541039056687413,2.1493379179004464,2.0163734920972383,2.0922450092127276,2.156369265546598,2.037063799631848,1.9537272527153855,2.081289806590949,2.1338779376279735,2.315911063519466,2.1722757337892618,1.9157426331761498,1.9625106882158834,2.3036816552370962,2.1413301330890597,2.094127556468394,1.9863677043832664
2.24254844670804,2.020938531483007,2.3982418865666375,1.7370597941654453,1.7904101672772867,2.295904083797395,1.936865005226405,1.9760407977765855,1.9289515844791545,1.9465383531761173,1.910874490574557,1.9204420238734536,1.864389285222784,1.7350951089595157,1.7652378973922496,1.760826364999252,1.7605153761544983,1.7510006177467476,2.0128771754394545,2.0495223740641206,1.894498805331604,2.0826337284021688,2.0515004807144135,1.9599884391151994,2.1858789246538732,1.9953983326892064,1.72074857322513,1.934507041283365,2.2090016783224224,2.0286082975479216,1.8620809440610793,2.0316728866490332
2.3376962136625927,2.4382149663837236,2.1677595435021675,1.7490266156504148,1.8944618312998418,2.263664487536204,1.9941085694706142,2.001629744089596,1.9181290953528183,1.9990410699412162,1.959791154199066,1.7981482344143354,1.981216798005145,1.937477582691456,1.9481395357170708,2.0828941440609006,1.9104304137130554,1.9699764707964278,2.0795130790200655,1.9793686188059254,1.9649058694355765,2.0863751208598242,2.065446452423546,1.9292336808531663,2.0394419293469555,2.1115021574037507,1.8232485358587098,1.9601173324409094,1.9699979507912881,2.038081116471364,2.014564828306268,2.0153141815430318
2.22995453892293,2.5283263352157093,2.0428681532608057,1.9415937706244157,1.8819172136203577,2.2933753497912086,1.9148158067179992,1.9640341329308992,1.831145025414845,1.7955624806277464,1.875639436413688,1.8209776487397362,1.8373106117626752,1.9642553882266922,1.837487619388116,1.9072823057684667,1.8753754276795511,1.8564226753593165,1.8969797693959667,1.8367124983136072,1.8859384923885758,2.0523169193210253,2.110848372551765,1.9438861072091278,1.9800869817223128,2.043667525748918,1.8215246084700567,1.9511517905741855,2.10774119212787,2.041997657469526,1.9442452780658717,1.7301343138482155
2.412711871735467,2.383861697549899,2.0590930267412073,1.8382710302649234,1.8787857496202647,2.39742142667975,2.0860528532845435,1.8505085733687217,1.8953188465638582,2.087967507939376,1.8970996697325992,1.9178675193521895,2.203582578014035,2.006683501406934,1.8061657291659168,1.8956495386653556,1.886134745864588,1.7641957649404931,1.9981460570384302,1.9027618423921933,2.108216557697702,2.256041873772558,2.082813640450692,1.8753467652082012,2.027312469169856,2.094863769174648,1.8376403421436478,1.8725492876111058,2.0754559607249936,2.0495959926671334,1.9934559229561755,2.189901748718173
2.181572629941909,2.570015530005626,2.262761433960846,1.9215853004504548,2.0444674973968655,2.4255958066780696,2.013796417340906,2.0562179495535164,2.033919764366025,2.118730044134914,2.152940521270949,2.0250555723482666,1.8549614753354884,2.1078098520323767,2.145049221091868,2.0899727271282478,1.9769327386672608,2.0186445731598983,1.8933126604878474,2.024077964516807,2.1381199253680734,2.0298088692787783,2.018834932466965,2.047578743392652,2.1263071799576605,2.2604850211546204,1.8486595878100234,1.9583239827322825,2.221656890792504,2.110564668651076,2.050741768329332,2.044732371132348
2.199305158825373,2.003557520765399,1.939364876749212,1.778723869244709,1.9062930974034207,2.2297176308699256,1.9031246102259216,2.1876963977208552,1.9742771900659188,2.285321605336557,2.0449114680559033,1.845953471599742,2.194305602127294,1.964494822898424,1.978407818752422,1.9877191296587835,1.757254129755598,1.9353084979381574,1.9608957333954382,1.914347743051586,2.009296902139658,2.2195672448716466,2.052324916093381,1.99949699063892,1.9263021015877628,2.1662743004869145,1.7939243218546628,1.786108682106893,2.0102827003425743,1.892174424690743,1.8564464350380248,2.0268656025231895
2.293117929850306,2.3565533306640103,2.0810074894581234,1.92360821949468,1.7276594550587054,2.284085703547573,1.8451776771792803,1.8294023719869208,2.0581717725863338,1.963792119429995,1.947608583365894,2.0867135090961164,2.06843764672571,1.950950899347454,1.9685202461055544,2.1508599532804005,1.9808104596291691,1.8394328127286148,1.8974092111794545,1.8165150556563,1.9212322435893208,1.834603783600713,1.8383328646341002,1.8925457499356513,1.9666378417068537,1.9634835991746293,2.05101887634918,1.943496284154921,2.0370234190173555,2.0470704200973158,2.170917863919155,1.843735745435298
2.5134860431208708,2.2934578656808315,2.1317700045700367,1.9306026035013037,1.918944737546638,2.383363410958677,2.147954299959314,2.0526044374581995,1.9955613515601545,2.2155202782630052,1.9844241213065406,1.8375483640104189,1.7840206721970082,1.8497760492169864,1.7590620314593965,1.988156104917393,2.039925035069273,2.0006476951733383,1.745357842822707,2.05597199802667,2.0032443527671533,1.882954920547506,1.9113592996956643,1.9261982126595671,2.1318544240977086,2.0387126083673817,1.8611968388017677,1.8242366151294203,2.0602519533526573,2.0925493999119458,1.9387410821777127,1.999029681432232
2.34763151652362,1.875678877838742,2.032136430455987,1.6742110676543243,1.836404957439151,2.0661764099858178,1.8454540245755178,2.1920886667423667,1.7007533947780331,2.146204832227305,1.904193818244138,2.078956443157291,1.7890616169527003,1.936836719390202,1.8046649438087319,1.9698207372203733,1.7433009206116987,1.8108181687487952,1.6746803817654385,2.009575443372426,1.835326296874206,1.719971549363247,2.0269160988857995,1.9297656838870099,1.9957976748531137,1.9132508576471687,1.7073640795942338,1.7903738896803982,1.7815170945940686,1.7756342701062955,1.75662785291262,1.9342660085016394
2.59890272674021,2.056670557785937,2.0998542713814436,1.9031254289322004,2.0177138294117833,2.2098227605032106,2.198099866608828,2.0359555213130243,1.796786261551041,2.2233929996302644,2.172090723215147,2.082383248005014,1.8574966942146982,2.0196150149208547,1.7839840095878639,1.8862089397919393,1.8081187203258127,1.9316228348325128,1.9044351770879677,1.9007330306457932,1.8338328782785638,2.045583923155835,1.7779138300681132,1.8451527859830554,1.9773846013642444,1.8754527428508108,1.8071135878655922,1.8152567913953246,1.8336662027083128,1.9234440444070533,1.9100497309965867,2.117520469930737
2.4423610882236195,2.2483068157910147,2.0758679482108047,2.0006377565203044,2.405650663725456,2.100027116378085,1.974024056719112,2.0433210451526653,1.8763219821806487,2.054474276522435,1.8302397078982087,1.8830621874034423,1.971490270899401,1.7799048588105633,1.851789455812537,1.7945132581215557,1.8590822697719573,1.8328042392371426,1.6629470888887499,2.0629036623172214,1.9680447216307564,1.7423540619778475,1.960169462046162,2.0687610077579572,2.0258771382453205,1.8632050066148695,2.1412311438205034,2.076335144354654,1.8451252857976006,2.1128823081339227,2.1215225917820524,1.7926034291450414
2.155018812151845,2.1018682553470063,2.122778607506218,2.013509285622047,1.9476071512229431,2.318377990474165,2.1462705131790436,1.9030329018329812,1.9417790280632259,2.0605076330577416,2.12260832788677,2.0145165198857162,1.8555388206453096,1.989350569273439,1.7314733802427094,1.7799533659129048,1.9420045748803285,1.6743478780143177,1.6141705318992463,1.6974548112432284,1.701002351584353,1.7415233092095206,1.7040225235469728,1.702662724838776,1.7893491003144226,1.7767160644552922,1.7409307156627476,1.7357973511259437,1.6760867747404775,1.746260446865851,1.7799196415368048,1.8552581751775954
2.45594279054745,2.1550162071911982,2.2213459379941156,2.143609765204833,1.8935411058873235,1.9838319891304599,1.9414268319298733,1.9314401331605495,1.9556216316410198,2.0982739736801257,2.05264143364051,1.894373001077889,1.8781019267240535,1.8645340009508267,1.8801818488164677,1.9494136848189627,1.8794769077632598,1.9311585369874333,1.7575599583523625,2.0115659269245407,1.7713360233419528,1.936628607671953,1.7395470512727504,1.8657310817073263,1.9532764380805197,2.0783482404544764,1.9354208590424162,1.8384768972746588,1.875657499632097,1.9150430699641339,2.0510471302887914,1.9481307934200034
2.4278454141035355,1.9471313502601142,1.9940924464121055,1.990919730461617,1.9218003638937686,2.1602423620097455,2.2945560673064076,2.0623920385477725,1.9359690039726145,2.2232459519804064,2.198601323887486,2.0296136185239075,1.94637064498119,1.7633067940277167,1.8702134994110629,1.970356165002054,1.9413414351653089,2.001222145629564,1.7906971523240984,2.0177811791160165,1.9662694071025992,1.696728644130826,2.0791382788307122,2.079303528575531,2.2710418406991932,1.8275907442002919,1.9958872280846105,2.1589483864268644,2.0848804958429223,2.1426178892078385,1.7473787424781384,1.9388545045073984
2.4269313474523417,2.1006183423394007,2.039163122720868,1.9024175877937732,1.9525403744798757,1.934993021287048,2.343479675601269,2.1571385042107925,1.9949404095172407,2.2066328515547706,2.1959818211747417,1.992038743928585,1.8914937453365994,1.9668672362201984,1.9872126024912482,1.8727437587783198,2.0055807166062416,1.892038212965042,1.8090870557343472,1.9453513908365851,1.7991017181650673,1.8758204884698997,2.0489770904139784,1.8772397450060245,1.9809009908415698,2.0367201008615727,1.9583267168334333,1.945402841152873,1.879685751586466,1.9334169044941358,1.973956258372654,1.986911302152903
2.4247265542720693,1.9290695489468126,1.852437146252624,1.6765933414449585,1.9949302127710857,1.7480464812452223,2.094659647444524,2.064534817841872,1.6830098513689207,2.0446223972345625,2.1392088950855332,1.7487414968865411,1.7107961052834066,1.8446281489325316,1.9295573739272471,1.8665896273942046,2.0668892793381324,1.9573720524439653,1.8613713325853767,1.9930079671479464,1.9151274995878347,1.7853153446102434,1.9647042245545896,2.0099488058070323,2.257516019966167,1.8742849803335888,2.17045365386032,1.9928442209991537,2.027046770581435,2.094810899638595,1.9463848615879464,1.7524531833879615
2.213586596066668,1.8956370764805375,2.0410373998334586,2.1162482329433985,2.0501054405496353,2.1392787462494534,2.270849585791191,1.954014872198275,2.0208676098596525,1.9788585790759905,2.1278965943924115,2.0596207983273436,1.8869445622131216,1.9036023134683362,2.006376612752204,2.011447008521811,2.0777173955006347,1.864248339627165,1.8610638685203171,1.8199450156451251,2.0114441911909173,1.8930920066206864,2.0274971152799224,1.7550442573670515,1.8951107363826143,1.816706412932018,1.938854588968212,1.7405133002777557,1.8132943795956724,1.8447007224590228,1.7917048130072344,2.103924627815084
2.494923971122268,1.7378189624537395,1.8165659126891336,1.9170811060456328,2.1485599372074025,1.9576482223991984,2.016293620427532,1.956578798559992,1.8830977277747503,2.0197873426279953,2.115788431567151,2.0675883812094904,1.896232400498824,1.8114972476629254,1.8905329783592046,1.9935112168289728,2.08222648924786,1.9748824436299637,1.9004647047039946,1.8491560754904912,1.8811339622887104,1.8421907425351458,1.8366666009454045,1.7904718491339555,1.8480841707230262,1.982451293071861,1.9385358408877127,1.6958078463291917,1.8530597860200413,1.6727209928812348,1.9150182313095085,1.9795866360784677
2.258492006180847,1.9826326547616437,2.0725322819463736,1.9842469544501478,2.106445836471103,2.051092274256742,2.2573824500526696,2.0781236958856804,2.1156121340281224,2.202639788742047,2.1169341261170467,1.807853673553309,1.903425690665117,2.0023692722361166,2.041926606443579,1.9119115153965751,1.7784034738993237,1.7968472000127953,1.8852399594481468,1.7759882585552809,1.8947759916958145,1.743487479617543,1.933764136428615,1.8272288757725639,1.737306966973629,1.9683761561580078,1.7926675616335932,1.7730569293536549,1.7597122670740546,1.7165939503932677,1.8594552097395798,2.1458338862044735
2.2960641453880672,1.847473156533471,2.247576435226088,1.9666741780035888,1.9458341051511991,2.2392348374618,2.4143842029605893,1.9318950074546417,2.1127719662422617,2.070344886059198,2.173625889492228,2.001719952782574,1.745141165902073,1.7813466346555134,1.8272228423457662,1.7581060400032142,1.7068598504990846,1.764379808038237,1.8653069578626185,1.7046841765944662,1.858014667916314,1.8914707274538503,1.9799086732114848,1.7589678032134461,1.8755114369211354,1.841876085394678,1.7824420641389875,1.69665628421861,1.8028534454241316,1.7352542032073728,1.7457059938437458,1.9842018727388762
2.1425414561352514,1.9429281785939438,2.249909784823214,1.9623088047639856,2.0728660812722066,2.1304275258846435,2.4653494358415133,1.8947888589230248,1.9987058809559939,2.159355604719309,2.252767877392648,1.8737595870937278,1.8410422589105382,1.9724304977734968,1.9581092642048277,2.045832062260831,1.9161563743962107,1.846105870712745,1.7828861641495963,1.867113439851028,1.8090797334686437,1.6976490324520535,1.8916642314457381,1.816744285742008,1.7336112257953447,1.8532779587209287,1.6501902819343488,1.721901096426241,1.7184234715811226,1.698049601773402,1.8607489794389862,1.8731134777693343
2.2726004459402693,1.734172762909417,1.9565654157230108,1.7670963997127658,2.0737348614625626,1.9282901959660415,2.210037772599085,1.8590244439360735,1.8302798992897409,2.2068633564854325,2.210956791987202,1.965543560260756,1.8837063801328557,2.2553575405751194,2.2570529692442216,2.0208371778306047,2.09162232349305,2.0147177929235216,1.9466416027811138,1.8326966157655922,1.8681223147792898,1.832338654194021,1.8999401084099532,1.687419120671928,1.7059800347688037,1.942266377857251,1.6272108776689984,1.6850943734756165,1.7304565257776081,1.6493870945523235,1.6885688927743698,1.8638883419857555
2.044182744196869,1.8672909755614149,2.146050228025552,1.840022808985601,1.8123050232024838,2.3027026088253164,2.1185758393524656,1.8129353035967453,2.098401256274035,2.4393866895969363,2.06557742174143,2.1033365715049475,1.8506196086719706,2.1796464770100514,2.0274139442062213,1.9271034019436806,1.9764492646418061,2.034366927436916,2.000945178616158,1.7594133421357823,1.8224308719184068,1.993623604581872,1.93677092201958,1.73103407104813,1.6149817386490968,1.7478128795025014,1.626564990262438,1.6248083957461235,1.6463034048646163,1.6625162475652173,1.6457295335167754,1.9537627613011972
2.235869785432794,1.7475361522967463,2.171628886815963,1.8533242565462011,1.7824392549221661,2.322809928612784,2.0712196707516193,1.792196271481007,2.0097594874332834,2.1648980604098735,2.1335958025730455,2.0246758213248084,1.8792113677987858,2.051152338721379,1.882584650189032,1.8692411984432584,1.8745718653586712,1.8661275490557871,1.8830805191701683,1.936468924697922,1.9029402908706479,1.8979276672972762,1.8455124938600225,1.8058923244928826,1.7214835691189285,1.8672968110110932,1.7595589487941175,1.677310072994306,1.6686408943109174,1.809800435996446,1.6513589765531789,1.9830544768749576
2.2643346928910177,2.0867953117870988,2.0117134435596995,1.897618737292512,1.994013927467871,2.0516257281697645,1.98053980688265,1.5899600955986506,1.9672182722886533,2.0159138006323505,1.8444160200233046,1.9447165913503328,2.0387206375888733,1.8378055906316162,1.8110699965713377,1.9898107072215068,1.950224117216359,1.9991179565601218,2.038149404582936,1.8158734895804434,1.7900417382516416,2.0249128616690237,1.7935938294092153,1.7608391691195593,1.7232241235645978,1.7496525873696054,1.7614016333390112,1.611422869208658,1.7025982686915098,1.7142057121346364,1.6878071897130509,1.9777591923672908
2.250259524210974,1.99915496823225,1.8428097264282928,2.161373352533729,1.9565514653492693,1.9413339788543493,1.9952101571702046,1.6917972002570922,2.0975264827925306,2.0002270809271954,2.0069539676814845,2.13900975223369,2.155042064777218,1.9021358665024406,1.895550358525793,2.0700750180131657,1.9946929491634444,2.0968918260871767,2.1035660839425003,1.8956524830045713,1.8759217229631509,2.0939588819029726,1.8530806922709346,1.7429932824456593,1.7670489242665461,1.9481051418734396,1.8162226940763453,1.547836529867158,1.706353915521681,1.7375912606624768,1.9136332878783817,2.2089386848046564
2.148286083559391,1.6504795542778417,1.8669911019520165,1.8100022390909973,2.2543569308531506,1.9563749811734195,2.1652204704134412,1.8721431277859477,2.1699639336243166,2.304986315073027,2.1149116001451596,2.080533967494652,2.0666954647562403,2.064998294156749,1.9882500747988763,2.045754983870781,2.0675219445672717,1.9968542205581217,1.9526184671355584,1.9141159752732373,1.7946602449113394,2.012916716859971,1.813715665737533,1.7051699391640762,1.614338075949411,1.9208312649778325,1.7318214798568587,1.5230265668097853,1.5970444501594914,1.6769984958126076,1.834874321915837,2.060303336913066
2.009495497442316,1.7072066575082272,1.7458522258857583,1.6890366573900724,1.934908943358169,1.9009773127189709,1.9950577708719959,1.8294781822978872,1.9970436712268587,2.0077850809350326,2.07150713537565,2.0093986049173567,2.085332124662386,1.9996717346242654,1.980742697761357,2.1732465508224244,2.195465568462701,2.1245739589580763,1.9732733553440456,1.823456438565784,1.8549919163246413,1.8678612448589726,1.7153170360530652,1.7427221478065738,1.5859205314168396,1.8279561728075924,1.7005506408644453,1.5481464406224341,1.6624846635095802,1.6797280419117553,1.936405242538379,2.0253489523134514
2.03176437036501,1.5454682023893687,1.7236067224716227,1.656876445131385,2.2798763939578257,1.847036020425158,1.9581020087621235,1.882864082394831,2.0752617372781916,2.201438248693769,2.2216765366432325,1.8861305906858394,2.1001831502866715,2.205699308035548,2.101337350121616,2.2064573098524227,2.217287110048632,2.1812666797626425,1.9808631131670782,2.045141392293543,1.822923376249072,1.9008311779402216,1.7670042058494195,1.7104464766923355,1.574118226058829,1.676421968253113,1.561734028438498,1.4735893667627789,1.5889399617472286,1.5961756199630626,1.6161219244107576,1.8739039304141327
1.8689046826153493,1.523555814795043,1.7061612102738866,1.5997918329129064,2.1279639123321465,1.7342777104866363,1.9119835846878899,2.1405868309347422,2.158238330361405,2.1047843455000255,2.1501807132660122,2.190660110420751,2.1086833833117065,2.2126867132345964,2.107416257432674,2.2312275691803913,2.0555668828088653,1.9287593381768642,2.042675646850509,1.8300463042249968,1.863668787430063,1.9602435994739325,1.7245293844642888,1.6462161634179557,1.5287257071104654,1.8206425091085867,1.664058644812826,1.4784086832336707,1.6106991872495193,1.6198243034971516,1.7221538016890656,2.1281768830901253
2.0515289982815097,1.6344123581900818,1.880627229029192,1.7745629646362189,2.0855807202058876,1.9212106069664643,2.2083482423471374,2.0318552858169103,2.0337288670584086,2.2105323714918343,2.136045066435861,2.1849892981088517,1.9266252499558372,1.957812836673303,1.93924037928159,2.0686866974764526,2.026601529013708,2.0098705135193056,1.9551682762345424,1.992320886991091,1.9438866408222635,1.862070523002946,1.6999256316874145,1.8520445360249427,1.654816264389762,1.9591753683797706,1.8084549455320191,1.573694391361923,1.7205546062346961,1.715968891453301,1.9291728778054618,2.121778381823154
2.139178386344398,1.5351934971166614,1.8858369654622937,1.7257809669274506,2.3670065944668743,1.7645333338602662,1.8109238289720235,2.1865429190846783,1.826353157579092,2.05804975076651,2.082348299396738,1.9273511252590159,1.8105197808157742,1.978205096099583,1.9169661026026747,1.9996294897712656,1.9566800078239786,2.0357278911977383,1.8570320484491543,1.9190017023960317,1.8765796532034797,1.8241507711054998,1.7515458362237668,1.7177277825378925,1.6407305548827864,1.8508857555180278,1.6974565438741032,1.5243568305696913,1.646575540454861,1.6454705793505366,1.8457501874420994,2.0093443441517342
2.141504553452295,1.6064827147281036,1.6399725301608592,1.7614319042161055,2.2057941343772782,1.6783500359482595,1.95115195818637,2.0425766460289694,2.2419453644475826,1.9593699733162149,2.00578221874448,2.1715553859997203,1.872602417227667,2.090269660670009,1.7867270242057316,2.0560627715386475,2.0494615315100817,2.0665676152980845,1.8797727100708965,1.8771180119828337,2.0187513273678594,1.9352016896118214,1.9502043398365452,1.9035207697901024,1.75257532840277,1.8761353725215717,1.6160834781941418,1.4869358789665459,1.659639008299086,1.5672453804934163,2.1038401439413246,1.826003582379171
2.2065735095165855,1.604695954578444,1.6726485094228372,1.7177074926606302,2.28020200780493,1.7643816664767178,1.9654473265907133,2.065920615803024,2.08151907013547,2.0003340266452296,2.0501935585155633,2.2067439412603544,1.8916307845024587,2.0370798417176106,2.000756747483164,2.100052229797655,2.1578154856413394,2.0140337555646033,1.893554986431276,1.778665719676553,1.7656593935894154,1.8671507731995702,1.8827298919512763,1.7009127977630278,1.6412215237819312,1.791346399912275,1.6475247695781017,1.463019854660414,1.6650467308116157,1.5444610512576438,2.0523074000491186,1.8925808684585617
2.166800661167922,1.7358370923330952,1.7323581336448681,1.8592956058105448,1.954464820752032,1.823988392055638,1.901088795611221,2.0552951717353993,1.9428841538743555,2.093280427331916,1.9610466954752437,2.003522407086295,2.001546152969575,1.8802062686924994,1.931875372647816,1.9568760041367301,1.859104401411933,1.8531031092261063,1.7915321528457895,1.836886640308349,1.9152588494975373,1.9312212943823446,1.8668411605278932,1.6964676822715754,1.6020478115745376,1.7184934201068,1.5916301145778298,1.4457360153432655,1.5913053415491514,1.523804287416965,1.790193201257514,1.8433909768106242
2.1976832697530395,1.6022349923913457,1.7618428800766597,1.7204093201146151,2.043485067422126,1.756072650880501,1.9360966381015896,1.9861495105273856,1.997357802733981,2.0346812027627545,1.9236942514987954,1.8015196285773638,1.8622146286217187,1.8840437759238085,1.8734308336749783,2.0444631373105846,1.8800519476674908,2.1134644141292194,1.8439297037914046,1.8333163877939,1.7283349488951147,1.8287575833608323,1.6634697714274302,1.7267350292998445,1.6746225904740417,1.691330829753471,1.6813532991992888,1.5223724203336468,1.6570034481985234,1.5802363166392235,1.95751445864812,1.8771954294088562
1.8683367734758003,1.5283090367552974,1.5506912762241563,1.6250911952615665,2.1089191784404964,1.5634181075230154,1.650117564648663,1.7289859070115,2.0510420867434163,1.9105440819381097,1.7367171814130642,1.8877434622039742,1.8275051272771239,1.905927365996416,1.8182205584384499,1.9395702931432222,1.930827757929848,1.8427721187098747,1.7598202567761547,1.9392963610372012,1.8735501212107626,1.7274537380908412,1.7466919175876474,1.7343534069314852,1.5280138487398405,1.6281033015904554,1.5679960700582063,1.4087957736146657,1.5828853342123024,1.5002994030772763,1.9337126358327907,1.6589799100024083
2.1799788489439473,1.9530917872026565,1.8136109879730404,1.9622093273911392,2.014076078580677,1.8963607313347288,1.948586834012538,2.0715438511132565,1.8415118888826192,1.889562660609381,1.8964410545587085,2.0309113599651916,2.049755061425757,1.8297695466889556,1.875815499490373,1.800149545356615,1.785721173349205,1.8011087032697564,1.793418201335279,1.9128473022522285,1.8405294782568136,1.9052223644199198,1.7747752960300547,1.8172958293066586,1.643613484674611,1.719150126988774,1.7474530101650978,1.5520143616659636,1.8405641401326787,1.672941817641809,1.8468025821515892,1.7488264730625596
2.2042626680468587,1.8335935527449407,1.8415710212998433,1.954511326020257,2.366858168585785,1.9759992767860384,2.076589322689151,1.9776104574820126,1.84773179289318,2.061645267533842,1.7885076135411047,1.9227593739323057,2.0178693139259467,1.8166717539671404,1.6652089230915779,1.7854133811223103,1.8172561334886168,1.7956699283498236,1.8039288304299517,1.759419837615689,1.8632281252286842,1.8396397636703443,1.8338778783207395,1.722058547021591,1.5943917939889287,1.8544584105410205,1.8025543173266996,1.5367470498214455,1.7791413913646534,1.6600788513346225,1.9590453547544833,1.8111266130865187
2.2651121823472535,2.090742923460246,1.8763634610751532,1.7998162172097847,2.152933527367686,2.0534960262583284,2.1265224138685346,1.958694189946784,2.0888342018990014,1.9701381790721866,1.9961972125623768,1.8397564745285202,1.840976482807463,1.8047351337208477,1.9616326080201123,1.9678230722803305,1.91231812066634,1.8943213630828328,1.8851084806842784,1.7475955888632784,1.7666880563920548,1.997350753640809,1.7467549636826991,1.8191673240034714,1.6755170840498623,1.9205180102949715,2.117406798473736,1.6095555188587685,1.8880566562419836,1.9137839037198296,1.9640020399198703,1.8525469724169106
2.3320323778865992,2.060437142515965,1.8048448982513527,1.9127950328298549,2.1355856048908755,1.9428121695940743,1.8998428123027518,1.9976882700187604,2.132346396013135,2.097350854693444,1.840671809854947,1.923250120629365,2.084022818903118,1.8976434184800923,1.7532988066737034,1.8204262082507778,1.929196202077033,1.955007896985085,1.7707590952097272,1.893103434239269,1.818787304985757,1.9112710598152305,1.6864526033643772,1.8549178732521758,1.6078048086421788,1.6835872172089927,1.8700371512556015,1.545182514839744,1.904132571611964,1.8133942526439895,1.928778805570719,1.8240660557799275
2.1453416652114177,2.018661864132686,1.8296415840344977,1.8085309045826097,2.050167423853478,1.9967244256843795,2.0294245455367363,1.9122646954610056,2.0999080171992235,1.9699494229497951,2.0369912044148837,2.073994024191261,1.8728954744797985,1.9199268840467292,1.9648064685192121,1.8961337181241282,1.8688589725245812,1.905663048926555,1.8015593528936922,1.7934708665347654,1.7757384052574605,1.8015009223419012,1.9088574124738522,1.6633422511858167,1.6540090506412832,1.7460682991255356,1.75008198182442,1.6856814822103128,1.7424259148412693,1.675785337777914,1.7787297778631315,1.6887972081824918
2.4392316908560328,1.829707365862297,1.7697097732560454,1.8651885496715654,2.0991471570903113,1.7566043533316054,1.8486493741092025,1.9829679126491369,2.205556119461197,1.8178286665050198,1.6789273395624287,1.7664447385487918,2.1132803302014436,1.6726918404089683,1.6114511985956772,1.6662142967977316,1.641181647781512,1.6957180015594928,1.72804951694595,1.7665301109974614,1.8723171652034087,1.7326596881884377,1.8242144232559678,1.8784615737991943,1.840692053142697,1.8676276526256694,1.9924715012465233,1.7301232279573602,1.9812451441404968,1.8681709728357299,2.1488002488394855,1.792033133607468
2.2947270066618337,2.0704930354287563,1.8614900378761086,1.9158701326707386,2.0309344710059443,1.9871440749339402,2.005878914190087,1.8545210028340176,1.9145230544111598,2.1405991025293454,1.9456842806526014,2.0814410196893234,1.8565385263642247,1.7772232499360154,1.7300349192311502,1.6627302142811669,1.6756011894328047,1.7204978962857946,1.7977468072965934,1.7703453889150746,1.7646489697068048,1.6981790478216439,1.812664004358525,1.7483687872561493,1.8175850342945312,1.9850004305939275,2.026166699495153,1.8245760358911145,2.0741703107883827,1.8055007973921073,2.233431115952039,1.8884249902737624
2.2126068261754996,2.216241657307125,1.7897361831230554,1.9493997184443905,2.0488054869657972,1.8242651042883682,1.8680439321270559,1.7764922634472298,2.1179362957215866,1.8565178597953924,2.05414483440619,2.0041657763699425,1.8655167215784334,1.9983136907472785,1.7299767167353257,1.7202168972569225,1.5688753767966221,1.612689306636,1.5605884494493432,1.6244863026334484,1.6096417495118398,1.6310739048958969,1.6488389660658427,1.6456731008013035,1.610184361602829,1.672001006913067,1.6899545092990973,1.5328211746440434,1.7495931366162931,1.6021425630322148,1.8246480775761216,1.9164293161457062
2.180522328963223,2.0023402756906017,2.133065234822305,1.6471812382310569,2.0200727203937974,2.009058248584669,2.167529280272413,2.0037102578590473,2.043938129026272,1.9565816142732038,1.7950861748563556,1.78461290229473,2.092311542018605,2.0344773829015295,1.9703949318045253,1.965974364041063,1.9201302003175587,1.7842123830687748,1.9109828580927615,1.8099901700918672,1.9428072082897667,2.0259740713724623,2.0157596719625577,1.9769090278530892,1.9179855778046633,1.8055743300990499,1.923181015400043,1.9390351075160341,1.9529734379244748,1.8214937103047595,1.8522737135861012,1.714769541286542
2.46812312119997,2.1491336410909168,1.8011648388518682,1.7714771556250077,2.281794666307666,1.8792804172773692,2.172484375109706,2.2925365030304006,2.0594747685322194,2.1624215807129032,1.8202799928940137,1.8900397031670366,1.9154835006325521,1.8891640241673116,1.826011532170306,1.7416720237356116,1.7210446098107233,1.6955067006190707,1.72484042567735,1.7384481359321204,1.9169601620660588,1.9334003525940158,2.144268346458514,1.8716187699998823,2.262222317381065,2.158660153169263,2.1537848232774923,2.0412181885384575,2.089535967709627,2.0389741828267502,1.995521120229048,1.8949359822829555
2.3968494645335072,2.102970189624186,1.9574185438482676,1.7130624454794445,1.7996494825909357,2.1670717622426565,2.216280592676042,2.065981833684659,2.024045034372506,2.081967225689177,1.7073661510002942,1.9920365336988373,2.1084917042095817,1.9577899681103943,1.7236318988912496,1.802319793860702,1.842888685988864,1.7510437232414884,1.8044090944584126,1.8564776952684268,1.8683422671868493,2.169931323920155,2.1799283324404355,2.002778639487565,2.0643334318249007,2.0183717375188737,2.009211093016375,2.0610333970941856,2.10122708568968,1.9131957757764981,2.1359928692478283,2.089159672104523
2.190987062876811,2.0116768239560625,2.166643082947931,1.7325478380984074,1.9413984277339134,2.1147165421245666,2.101542493668698,2.272677017276062,2.1575162862554644,2.1647929158261006,1.7091027763158724,1.8079185125527735,2.217661963200177,2.149046791456649,2.131929935966729,2.2175836203529014,1.8334573604189754,1.989244673623118,1.8289743966994398,1.974479343526093,2.0200359291821095,2.097880826327232,1.9992754702679512,1.9189068385462782,2.213083390968872,2.0321349346608324,2.0930600163362665,1.8832681398685234,2.136658447547298,1.955713751845044,2.0071107347642267,1.9241061877167984
2.010412793005164,1.8870868621959396,2.0729528920411986,1.6021896769515689,2.216580412027263,1.8521519678196146,2.0532035982968413,2.0812390704971473,2.1919488419875672,1.8721017088862655,2.146044148002231,1.9464105988615314,2.056316065088282,2.168537836727278,2.2510891362853003,2.057495618351022,2.0986790959557315,1.9618149751334952,1.8884881997974066,1.8559302878050337,2.1218510438234626,2.007045590134904,2.1175813446831975,2.1610712169680766,2.41006594419518,2.1408861023789907,2.071589103970522,2.170307281127793,2.1618450021164106,2.11278487446595,1.939959736048757,2.038253677836286
2.4082910694890063,2.1610861693759413,2.1409095929618887,1.63371979743408,2.1464724704287854,2.264223202499433,2.1238158290694176,1.9971656933734896,2.1294308890741926,1.9497940454804723,1.9835878860039844,2.050657432362824,2.0981771230845863,2.030561218443134,2.2380624363041246,1.9399678604826092,1.9556024736693736,2.0607080689447455,2.0443031331922215,1.859266223269654,1.9817317097252136,1.9239787647445152,2.114494168901268,2.165179790078555,2.091132765445756,1.9468330136197691,2.0118347932572664,2.108107864193786,2.1167649665110653,2.1788949046888626,2.042356095662746,1.9983088749391342
2.411126868513835,2.294090926802172,2.125920170850017,1.640433116571098,2.127817981900277,2.2474650447828224,2.2491337845065438,1.937312331659471,2.151187193637762,1.9647504849349933,1.7817495802588028,1.933676644380618,2.1772907384915654,1.873431462541428,1.8888232636336126,1.9065966218222943,1.8859082728933318,2.0046788440819543,1.8818380601603497,2.0061208121098217,2.041681988254705,2.013642988309487,2.1574369251707806,1.9324443636311905,2.13222971810432,2.0917444312881472,2.00393334329374,1.9767891633824746,2.0709607271187203,1.9516878743629913,2.1098750671469855,2.0505856388804657
2.371746783864179,1.984627728806405,1.9176452957449899,1.57605673638288,1.9774242679822351,1.9768175126613838,1.9812205768913662,2.0481142502680045,2.213345518780981,1.8402363495461513,1.973460046723893,1.9981905979071108,2.087060107320558,2.01325655047073,1.859421321364515,2.024891407852739,1.8978191300775844,1.9895934315724308,1.9621406991367272,1.9604954974467919,2.0504673011639745,2.2081884234832354,2.0445649809254625,1.8800208061750168,2.1071536143613376,2.070885269183816,2.1047021745595544,1.894516185625844,1.9613475596731238,1.9768703358737423,1.8542486842068406,2.08955907941725
2.4377785089029667,2.216915603606321,2.1678306549656314,1.7267375855207874,2.098126555593116,2.2009157004976223,2.0455358553387093,1.9365597090734534,1.9608674290642751,1.9567432926135917,2.027118854711258,1.8561570774245986,1.9999746301189887,2.030812991385496,1.9806451710977775,2.0895166689071245,1.9865807059412786,2.0356307768165864,1.8973352102533791,2.001342953408646,2.0932310078871317,2.0472578763936706,2.2514013072045787,2.16457315650688,2.229346530346411,2.040629845616349,2.157673625948173,2.1761025549969437,2.249313095258575,2.2908648540920784,2.0971692998147344,2.1673172551683018
2.3312548830982385,2.178761789896033,2.2070708779601156,1.6501597269571042,2.2366246437043418,2.223327546315994,1.9043720683852083,1.9386108814130496,2.181259695020523,1.8358162680012209,2.06880279375358,1.8670004692521827,2.1999671670367427,1.976829640397208,2.07371182923544,2.2353772458689654,1.8336669022950376,2.002168680081581,1.9107785625352065,1.8451959516561012,1.955888662009195,2.0611301808895717,2.0033193671176512,1.9330533884339385,1.9870955607114793,1.8172492546774786,1.9935791979049873,1.910339595692094,1.9487082216975316,2.0238612389018056,2.0006036610336135,1.9768512969698002
2.1344703148705,2.0113634150611692,1.9686211289703734,1.6060141673537685,2.3879192521087442,1.9246017243435443,1.7768766434305403,1.9539542901073537,2.050002369484706,1.7873414529810907,2.128534998516859,1.8964011510061518,2.0611020145445185,2.018530196246489,1.9649376840773123,2.1058806466202022,1.9256241051155947,1.9381782046802345,2.0969040968301838,2.0870209525350925,2.041183559582038,2.081511653804238,2.1299273964351606,2.1205200320048934,2.067891526624735,1.840839753611623,2.057549980098177,2.1366252913174293,2.0419953219057216,2.282152903077649,2.008530043628864,1.8738982252655605
2.084716762655932,2.166638911383881,2.157623412425908,1.8027247982842423,2.2187837985907817,1.9484863289391214,1.8405297700005911,1.9618040837954906,2.1537052537993726,1.881723729492781,2.2842588023137624,1.8728220556948414,2.109748333290106,2.069124165144442,2.047984341519434,2.060551290684274,1.8252642792476752,2.1138765329927276,2.0494763642827354,2.0899358187661776,1.9657769745555285,2.1923713317599174,2.2692421496551445,2.1659070027535003,2.0483718795989145,1.9620683989724557,2.015923367963645,2.084035363654067,2.2520530294793404,2.3096289846905167,2.088168899118887,2.086499225607355
2.3959662237787627,2.107128201459824,2.2978042046686573,1.9030015800743294,2.0980022445686366,2.223234931611562,1.9118342524206955,2.084633981902857,2.0862134268222454,1.944977026561509,2.1093330803875783,1.8748826745673122,2.157049123168792,1.972729943285763,1.9267836785688004,1.8409500899631352,1.8443130947788438,1.9671998886723117,2.209478255739345,1.8985674196731224,2.054365798896868,2.151744055453881,2.2654264235519577,2.1342366099869414,2.1299192364323156,2.0872711769531196,2.2090138022853663,1.9671778754051146,2.123722302704264,2.1438023024693695,2.1261376378896166,1.8978035618433566
2.4780851077419146,2.1009658896273837,1.9753693133180756,1.9266603101604203,2.0598245172587655,2.173968682520434,2.046890784480408,2.0316792297348787,2.2739031207888467,1.8575021279838364,2.100315710085468,1.7327373792009202,1.8113030582723422,1.6981568003608647,1.740788128918159,1.799458176996127,1.667589742067719,1.7174869970208557,1.8038588250389307,1.9969777367755155,1.8336462120734587,2.0613529776426915,1.8708573649188172,1.8578846138563518,1.8284662896353967,1.9973330345442106,2.1471668893597533,1.7600468219885008,1.964596030142774,1.9743038926525704,2.0275866735936665,2.138829254955683
2.2714420662596253,1.8088290420209356,2.120524983175539,1.881922456046473,2.291160629050767,2.264474585127478,2.0970316933129705,1.8336298291490083,1.9341604025150034,1.5909554991743073,1.8595411438195641,1.5442722583246766,1.995744387231552,1.740317539813358,1.8492113010577955,1.958251942031111,1.987467384651879,1.9055482286357968,2.003195614133253,1.8525267081912118,2.0939095636945706,1.8379450577658072,2.0604662362050514,1.929903423394398,2.0071717921178864,1.8703908560016245,2.0263638657030665,2.041219592000179,2.0015000919279813,2.0670561677686563,1.7861112435360524,1.7866938586961905
2.3281930740040555,1.9901534605120008,2.1949891137305264,1.8425681750475802,1.9516107950093486,2.1436622737206354,2.081448594477581,2.137863823414982,2.1233443988459686,1.8134747845818697,1.999218394243703,1.7365191374210773,1.9659256862699237,1.859550509265164,2.0365808159316363,1.9484911064729389,1.9166715330487423,2.0891675967937378,2.080670433294379,2.014942543577897,1.9732654047849105,1.9167965817915902,2.239009661464181,2.141327034824872,2.137642226899163,2.053987370038609,1.9860138809443337,1.9762978257346127,2.079732801409497,1.9226130671379194,2.022943508659233,2.001516224006403
2.219268585556335,1.839440636477887,2.168611889319498,1.913271714480392,2.3037194003552393,1.93770960657245,1.7818988929244686,1.9988549618221636,1.9173037862602176,1.8219562437287027,1.888027103942121,1.7638668858164992,1.8325827607894667,1.75867785646016,1.9383938943920713,1.6848282603608111,1.7431658906358252,1.7519886403698026,1.7551025183473192,1.6891836789604926,1.7491551261770517,1.820240599288191,1.8903228958886518,1.8780922155170747,1.8964615427300129,1.7426638919494628,1.8119573177329638,1.8706630467328274,2.003628725057471,1.8691888342039367,1.669742830808081,1.8229156336127366
2.118407104814261,1.9578858894742597,1.9765618488805339,1.9530665704294912,2.2004573536333774,2.0342807034213575,1.8269295101444563,2.083159013919153,1.76445163775706,1.6618066804562035,1.7599962525578878,1.7826280213139207,1.8033972703085324,1.7259266080811113,1.9977454039438558,1.7904958091575451,1.8959486085103565,2.018644769180673,2.0117134372309393,1.9740224830407498,2.119068007900287,1.7572595801412807,2.105187194328874,1.910070141235246,2.04359804260439,2.1886824565952807,2.1565451241147677,1.9656409237453074,1.957934283764035,1.9291394498130674,1.8630243017035961,2.0846926303724977
2.151088126671552,2.014699657361741,2.131757632337782,2.0416675526214583,2.2176172864922523,1.993937253778124,1.7552084126747949,1.8269674498633204,1.8974184870609998,1.6472882707170429,1.7423917608160187,1.691845338959486,1.9848451701572192,1.8841208877188869,1.9213972807752586,1.7922833126324043,1.960047332635301,1.9794038164496903,1.993916475004033,1.8531318264203307,2.1375775599533537,1.8739325474982278,2.0457228608451574,2.128374537712116,2.245271002288369,1.9492297913955678,1.9591485104927133,2.0198892979892826,2.0032162759766985,2.0261679700115107,1.898574597419203,1.8877671645747411
2.100035279346362,1.7633407832995482,1.9682447518963233,1.736960624961498,2.036320662969617,1.8755267515890057,1.7926760968680826,2.0755332746255153,1.7226733915832397,1.7599451997403752,1.905916098717019,1.6765838063361984,1.6918424325851509,1.7258256392121871,1.783402199945281,1.7783394803737802,1.9874223524108825,1.7963591759751383,1.9257154295859757,1.867675294692229,1.8478719471428842,1.8964567084993298,2.216825129877045,1.8875971257709623,1.8672633119725626,1.9955222728818378,1.890953967600577,1.7202848277651401,1.7914592647052408,1.732094357831629,1.8067860918765508,2.0028197590452903
2.398082411662254,1.901004940978379,2.11474794197627,2.1305772910278367,2.1321165532931614,2.0305346320577047,1.8878252374438216,2.1132525156844837,1.8966759189310471,1.7246624771427943,1.8605882785745347,1.7284405574306902,1.8418580309050143,1.8728065434971999,1.8669145141720995,1.768405906695639,1.8146305474726163,1.8037114734966375,1.622508824908154,1.791667069366286,1.6875888988686778,1.7324525346688693,1.9540627914516777,1.833448954626953,1.923958440498295,1.998328334313967,1.7690395363527365,1.6980691585554744,1.8038485922979255,1.688374886023381,2.0997727036200273,1.739321156181367
2.296851691991317,2.0587861226697526,2.19730292867837,2.0459689572361865,1.9205964362905938,2.185207035495749,1.8025525145419474,2.1851756574999626,1.8004518068130433,1.9188254103544473,1.6866367019852764,1.865690693675289,1.9037258405656072,1.7496999515147953,1.8012966374605288,1.766139626110411,1.9440500020889828,1.8784253113458762,1.7280852209640292,1.8719079007327855,1.9220063226990265,1.8691015343904425,2.036628107202042,2.1500347387399796,2.193977845914801,2.2445833196192826,2.1075005572352064,1.8700324834662276,2.039540514090095,1.7848477745391658,2.09580745413171,1.893055724624125
1.9138967940648275,1.901726496150325,2.0930263200150523,1.8916915307173772,1.932301016702524,1.9412074131460635,2.064951931179444,2.2833536114985575,2.0051632184119663,1.972579687683997,1.8261603860246989,1.9014676474728476,1.7879321949219762,1.862280845200271,1.915593260979719,1.8211898886845306,1.857485016373869,1.8189384304876206,1.8788413823071601,1.806969744122947,1.817702460912568,1.818999913722597,1.9750254191855305,1.8088110525923797,1.842487670883759,1.9652394142536733,1.7532743485659281,1.7385425734030564,1.849555924722245,1.782283741750003,1.9269969395370738,1.9160923658915412
2.283020817635526,2.0370686913153953,2.2940786242012474,1.9841555376627886,2.1275225741282506,2.2141213468566714,1.9048508402375255,1.8742189578162047,1.869545667501012,1.9776305827251055,1.7032211837592373,1.6344135235660433,1.6580230522811172,1.6076137705426299,1.6439732877369897,1.5400730566645398,1.6820537027729956,1.6088708227926352,1.5918984845769708,1.7090766753002797,1.718222505149299,1.7311354965763674,2.074110027153233,1.9107854959627064,2.1552213147911408,1.8263986687680562,1.9990354543264026,2.0470412162897373,2.017845510839314,1.9683226726526235,1.9825386142190515,1.8354500481584732
2.2916439116123373,2.2060641858648187,2.489715568903846,2.2263700669277227,2.2060073901422665,2.0001750422279754,1.8587026452416897,1.9816799115991892,2.289538747651585,1.9637019669300477,1.8195660048538442,1.7520643746963933,1.9385964296084859,1.9220578603901943,1.8753473262729494,1.795898582577613,1.9362656861554874,1.9486897820355298,1.8028020906173128,2.07465645961943,2.06082591021019,1.9532784521387896,2.0968109302418765,1.9048356938363808,1.90679061846432,1.8989537366235865,1.7773716328882996,1.7766336895795793,2.0414767330511414,1.7110652598035132,2.0525289126185204,1.6845701016488637
2.534165807029241,2.059261697717374,2.321740765980999,2.1227980638034234,1.9927516454941743,2.2342320200604227,1.9394519520702227,2.2412031721788845,2.2954560046614456,2.095539100110177,1.6520537308515462,1.6946562888552503,1.8187822954672543,1.6775940538598337,1.725273080316492,1.6215304171782665,1.7355112222556428,1.7181401359018689,1.670583914604768,2.06715126377767,2.0474151069371445,1.846714635828216,1.9942050001369696,1.8248598372273355,2.128120920147058,2.0024135505517124,2.1279736083694605,1.9665089419151944,2.0443815094401474,2.057698134547888,2.019581384280238,1.7540172070977038
2.314099199838896,2.21154983287399,2.0819888440093655,2.023703879968374,2.216881805734617,2.207411216042994,1.9888748806060712,1.9900409183063545,1.9702092660440034,2.0398713735067875,2.087671045696557,1.9011380324620586,1.7177579548952768,1.6892249014898062,1.7497296894417855,1.891071539135542,1.9064860395529395,1.8037185892982823,1.6374543329618378,1.8027128736081017,1.7658289918515575,1.6785931924730553,1.792540179606529,1.976957860593918,1.9643111886790472,1.7861672300373417,2.0527994684472346,1.866963470897138,1.9851161822039638,2.0145550398251144,2.0144834245111833,1.6976561656912497
2.8108484217827323,2.117034353646638,2.2599683410570157,1.9798584346745236,2.0690789750520593,2.4109555500641173,2.111244971687638,1.8566723920148107,2.111225647949389,2.0666691105847845,2.12869427573362,2.070861729435646,2.1853460046374433,2.0533200413680217,1.7750369024735513,2.0706978045507323,2.1664052092550166,1.9278006555369767,1.944306103924329,1.9678809898980978,1.8631172882937914,2.0686067863173188,1.864835826195683,1.6746971869709817,1.9048153739843927,1.942375852978527,2.0487626561302736,1.6575113504363044,1.9719365159352804,1.7118444169365958,1.9423440749875254,2.0501114798555613
2.6696400977555124,2.2579034166854988,2.1626054757632804,2.151636491955981,2.3800177468575816,2.3962096432831235,1.8926378314900656,2.130400676567382,2.066102471695539,1.9922394198628786,1.9402575878630473,2.0556680404427676,1.9001656228441628,2.25228843036024,1.916487362362466,1.8880706048474998,1.828871490225042,1.9038685888457574,1.89170502192418,2.090733418782257,1.976664512171546,1.9766691981126336,1.835726776623366,1.8995757666523951,2.030295461669814,1.9866868353419165,2.1202541403928183,1.8636170233066733,2.1321657760160284,1.8913144076481923,2.0557351393089167,1.959471879736216
2.6096063320282896,2.369231878364168,2.349526164768561,1.9476272241086146,2.3103377995229066,2.434390826311794,2.110505078566928,2.1242981882962257,2.027622474874105,2.0403157481705683,2.034882593726503,1.9319136877749261,1.8016095791220201,1.9511070966421855,1.8942218875399308,2.0067142732100387,2.142042591312476,1.8724099130923815,2.0603950759058467,2.0635672129548497,2.1052268773100464,1.8091478849657308,1.8469081521091044,1.8133966448046728,2.1289576439399585,1.8449476846931316,2.2255568266638273,2.014598096854227,2.3354694871422486,1.9026214112859092,2.077461314403743,1.787330490980101
2.8378207809706577,1.8822271590639366,2.0008315105319023,2.1131326415999165,2.1854621733101496,2.1643964557218536,1.9536711217806544,1.8922191148865637,2.4721196743194396,1.9166085185521682,1.8790543397420416,2.0487404190976193,2.2654710043687336,2.317072148260219,1.8142348092312184,2.056973736583178,2.118088269092805,2.0768452606502685,2.103257434351279,2.0613435589112745,2.072348289519214,1.8731412793596531,1.972144694485481,2.0269221274992293,2.0260262634221218,1.7667649551243485,2.2013198578000974,2.055851610114009,2.152109282560116,2.105150390706148,1.853746950479968,2.1091896220308013
2.41061790363627,1.9519103043227601,2.151554758113237,2.0042825326264673,2.2072785622765894,2.405332851023711,1.986085245801225,1.8519693429533433,2.1210774517946867,1.7752630671825935,1.9133504018308143,1.9414634290624853,2.306389079716823,2.3174613976081155,1.7087482700698802,2.149312126076044,1.9987223304734394,1.974789808452724,2.1278231231499056,2.1194971977501273,2.1490978322413556,1.9589668822701158,1.955841916877338,2.00444026341363,2.0359298952804377,2.008612965811533,1.9975271111901511,2.0838477623875407,2.3209529509363147,2.0305491900723855,1.9083744412871924,2.0532296376981183
2.4532001636105574,2.2398332613133674,2.2531411339948884,2.2620425750304274,1.9413858733660636,2.4948108596382035,2.398546532606173,1.9422441132675294,2.2157341320873725,2.10861572405597,2.161299812063923,1.9714832144079542,1.9855886533943041,2.0131612011637796,2.022150984647316,2.1245846923055574,1.8850739644166912,2.018683671073784,2.074897135884895,1.9293977990009314,2.094972986818868,2.0308185801423924,1.889159852367925,2.075725256151133,2.1212204703006345,1.8958758111625411,1.9315960585168428,1.9038223194870514,2.1953441238914535,2.0341683033093525,2.0605520897293137,2.1161973454551317
2.6482840921042476,1.9545900431997705,2.1672097446238334,1.8658235512541597,1.9900017845938405,2.306873581627798,2.0512649838544377,1.923614081699549,2.3576760135061634,1.7796678552809935,2.1804939223164483,1.8058202923269666,2.241133691441037,1.7826891479689115,1.8183262403407807,1.9786649754709225,2.0037160970140975,2.0177269238183317,2.1721356630723183,1.9104401609124584,2.0679122385093653,2.203186788158657,2.1141490246686367,2.0107193456477197,1.9869391496584976,2.2226954176043257,2.0724894797442874,2.0872373044475605,2.191927975964327,2.0082231054896007,1.742084438730727,2.1354594417618724
2.2424001017308326,2.025738885435351,2.203222723717412,2.0492609215921225,2.050323819023758,2.390968075653883,2.110201468215343,1.8931761143400025,2.2875794630558284,1.7972140717976444,1.9309482182584747,1.8186617733091923,2.191172774484475,1.8716474679648418,1.6697040840197865,1.9964813861855508,2.0101280448970282,1.9835396621281334,2.018574068037243,2.0779298855587416,2.1201671303506733,2.1193040934570706,2.152907538760608,2.0904879272378474,2.0354044325540466,2.0005042009858056,2.1099705418845005,1.9970937832724196,2.163821467084974,2.0118534275930777,1.8657574730854316,1.9288494572868242
2.2357814984982056,2.0625299574867446,1.8986571487236397,2.018287155862699,1.9358115742652828,2.138992842137313,2.240902451663732,1.765526374936567,2.331213151142306,1.9660435242024714,2.298823426762028,2.1223770183308353,2.1322900686781203,2.0424106215995352,1.8393358900313292,2.120346479883509,1.9661136863595545,1.7982153940448262,2.2267900096422957,1.7565097353925427,1.9155802896446363,2.081523069937291,2.071175354825513,2.121494944775578,1.9789503675065026,1.9337934504849374,1.9850120236563205,1.8406025611719457,2.167750344855203,1.990118373930726,1.8663347965728248,2.192726634828151
2.171153525759753,1.8784785278547376,1.9964157430257556,1.8917700904922485,2.0644764673030953,2.3962109351530607,2.088620936457205,1.7073790369624204,1.8918919260253044,2.090468103439962,2.2701844656935597,2.0182674423175597,2.1345384448789164,2.1799320788671337,1.9334304946315604,2.2293115416816294,2.1411762622836004,1.8102054476193201,2.0202415256321515,1.836653843673078,1.8513758932137512,2.3390931348730812,2.01043604847465,1.9772362660226666,2.0009551589387518,2.004300770779725,2.1267860399025005,1.7860720147923026,2.2606429674685793,2.062755914293513,1.7888786842447324,1.874034229488284
2.1117459173510182,1.995124893407266,2.0937144772215417,1.8945094939364095,2.136778102847457,2.309964434353599,2.1770145465014803,1.7574202847362914,2.01953542205527,2.1330267308244,2.2671527866917516,1.9740191024618805,2.217344513833089,2.1385755976090204,2.0996021862175263,1.9614611322962805,1.93596637478163,1.712904567383083,1.9686305853148565,1.7529674479073456,1.7759000874640063,2.346931278162603,2.1108441262048445,1.900091695416424,1.9301252024243611,2.097828676594972,2.1304102417187014,1.6834508047879082,2.130320116971049,1.8786704240592942,1.7704731161579188,2.1743181959531306
2.3845525570915616,1.8702618326523053,1.9239735528837054,2.0476025753897757,2.0179590265439113,2.1937664151712197,1.9708151441327204,1.8610134466059844,1.9696175784050947,1.8485710362373045,1.979816614792547,2.197478179034536,2.2719404878149567,2.071287131842162,2.095868718947963,2.022321250256107,2.01864211575946,1.917821791107329,1.9794385128546197,1.9234178800234474,1.9138559728074296,1.7268260492347747,2.0418373809719474,2.0483505002584543,2.0346490285495964,2.0456631167641426,1.9523832267322567,1.8537800937092137,1.9365740424999907,2.005387954215017,1.8178534302460314,1.8034703398011176
2.331889697027422,1.7995424527977055,1.9935951050126828,1.8640983988113533,2.074998813382376,2.323736500722036,2.1984483772881136,1.9239165060273848,1.9511093792669434,2.0235161897774288,2.4103827554131385,2.0396128278804575,1.9916941332594138,1.918119631783819,2.0192566057452783,1.9968300431876351,2.1676988324538313,1.8850018210287482,1.8990650869755237,1.9276784043162587,1.794479805934433,1.7711154660192159,1.8435634673018442,2.024989399524218,2.1731980912679107,2.223509545414257,2.1250215195815483,1.9478909074500372,2.0032754025736392,2.08613777720932,1.9501341764765519,1.9150279631117746
2.1442876484793,1.873150415351944,2.005411591533776,1.7928824413235325,2.189837215680195,2.1414162238936267,1.9323175295358792,1.7623223504089696,2.1800520343246683,1.7791261809395273,1.9626347955480112,2.2318070446131992,2.2164194060443125,2.048721794628963,1.86167743336202,2.0178538118581875,2.070705924335167,1.8285684672402354,2.0656807308393033,1.9170115360224906,1.9685103681208271,1.9326542704656753,2.07736424794851,2.035826288502371,1.9923880014280093,2.1659266414905187,1.9808086024649152,1.7013944454574106,1.9844591335228217,1.8396348129765387,2.0625963796723847,1.8103425142876712
2.381899276042603,2.0333930392958766,2.168284254291812,2.110290784176166,1.9611071553000259,2.522333449864237,1.904345968642981,1.9171265957584238,2.0994725041391584,2.1522262895798927,1.8489743334314168,2.1264929024773678,2.0057918217973665,1.8900336964480051,2.033244264792961,2.1241691391921513,1.8287653828900872,1.924775115896065,1.9877346936200695,1.8963115810873203,1.9108162957559953,1.9787163065045612,1.9664989173349803,1.9012524189400777,2.117340523932765,2.058402577832264,2.0920876317570762,1.953387190321032,2.1156133377922792,2.059478907761942,2.0117672267660027,2.099845937497961
2.3386892355470272,1.8335829211473893,2.2960686819266116,2.2742649451074968,2.009628822684304,2.4600744918888604,1.8973441333634506,1.8500871628819058,2.1570638265988715,1.8736033088332462,2.090122837687521,2.1988323122258078,2.080353527729043,1.916076396925762,1.9671027685471052,1.9888522405721585,1.9434110183093645,1.7640231365781036,2.066208335949073,1.701542788825002,1.8131351631313684,2.0787364493260467,1.8157277999212502,1.8569234550707532,1.8476412713733168,1.9273162625982225,1.9097140908202077,1.7361645124902658,2.2204751469201556,1.926026438874003,1.9675171635338613,2.011992922616949
2.504499339293992,1.97138825146765,2.174872950476853,2.1231189760266407,2.1638719314925647,2.3286216286215424,2.053113262108799,1.9108523712356325,2.2189755980119985,1.9651825967054533,2.1404270632899904,1.9185439304533578,2.2152162752405884,1.907625133787411,1.8885415789264826,1.9685263852204289,2.012701966044249,1.9068568289467822,2.0391039630815277,1.8817413207302884,1.9303251268244672,2.0762584857776827,1.8753857393533375,1.895921198672256,1.9184921470428795,2.0451144988028913,1.9738767944413405,1.982680707613807,2.013325813091227,1.861239046678823,1.9831488020863068,1.9343968653026793
2.4150916083469935,2.091635257674581,2.04037808509722,2.108836502040177,2.229785502815906,2.1382032389173675,1.828185881554233,1.788885566622812,1.9914193809067853,1.8619820875788347,1.9424225013157026,1.9732422984453022,1.9055146035468267,2.1309015540000193,2.212463547443674,2.1824242235929807,2.1000845901716927,1.837556116473929,1.8780960367470299,1.940669294710445,1.7785712918640932,1.8588653215640758,1.8402092152352365,1.915210596215287,1.9634588352865312,2.0157112477603665,1.9831918321228739,1.7989329667355798,2.104384816315297,1.939832476239292,2.075861666431713,1.8869224524269488
2.1012208380128405,2.05135818109352,2.2672059797584954,2.0365107010304335,1.9743568086648042,2.099392270364301,1.981096721048373,1.903346900263907,1.935668657645433,1.93723622483242,1.9701249783161836,1.864447551465879,1.8759142504222879,2.1595993306085846,2.124607439248328,2.226219821813084,2.0496297859396946,1.808996209336761,1.7901055778662975,1.8655089577379322,1.7723845965871432,1.8012260867748147,1.8062501493972027,1.8826926607035444,1.9037522312637074,2.057438363564177,1.9257122105762925,2.0877111274493028,2.149549489526219,2.0947188143371624,1.9034783092163794,1.9583788870662124
2.572846296653416,1.9815100618693011,2.2149455522949935,1.8299719084306831,1.783841076537928,2.2978906724412433,1.8883452310811992,1.6235710786486506,2.0737507637993,1.9277534284295286,1.9980238887426163,2.080979132555867,2.09359633992998,2.080646505640883,1.9628000648553836,2.122306483322526,1.9742685641138957,2.0489442753082945,1.8688155663549395,1.848860578066051,1.7528012920166405,1.9637275965492709,1.9292496579608638,2.0026342108650206,2.079203087585559,2.0608203991910408,1.9408133718278557,2.2006343298280555,2.133119423247567,2.0537485623599974,1.9672223745570303,1.8906788065487308
2.412031594210927,1.8661236908248204,2.0274310575365204,2.092124781454778,2.087213965981,2.1834772823481257,1.9828906525726253,1.8537456143131354,2.159538630533025,2.1400231729189465,2.18745129764178,2.1214067949380913,2.038192881537196,2.1106812417464913,1.8855666180058175,2.0678808463501435,2.1120828453739726,1.9161247528617122,2.124309857827572,2.0532163669786123,2.039955437882262,1.9155710415937652,2.0835756454703813,2.0097110331713597,1.9615960639107926,2.1346758313601577,1.7907018661872178,2.1187584549442637,2.3420604515717804,1.9563450641989395,1.9905994011619514,2.0261512509957234
2.0983194168932497,1.7659994901899088,2.1941563122958434,1.7869079453007923,1.9855261656899592,2.041296682840393,1.9023560572591889,1.6806912276905799,1.9303662338091083,2.2007489225815777,2.1979334832163877,2.0097803693759912,1.8774697505499134,2.044680907762181,2.0992806020950723,2.226826736419728,2.247022043014926,2.065345144793189,1.9741158234145222,1.9879875105441815,2.007990414199727,1.7742893805929865,1.9261854078728502,1.8528409219158701,1.928564863379571,2.0025634934430503,1.8506737782962654,1.9513895726911135,2.052103077137042,1.8433757193743239,1.784754893577099,2.095130112608692
2.210318102765995,1.8872619176660927,2.230926803900453,1.810882422861044,2.1170756030978084,1.9998089156613286,1.8125652932830412,1.6958284215012323,2.0234865993279683,1.934223579643222,2.248945477102259,2.0582773583222504,1.7755118895077073,1.7861322528774723,1.774699632926622,1.9445638783108823,2.0499974863807187,1.797581257713827,1.9907258551331208,1.9239587282116704,2.0095796291461183,1.8449140413423806,1.9456158793231624,1.8838053103887813,1.8115815746383233,1.7551033119873838,1.6867542863505092,1.8254739220415936,1.9237496135555063,1.7216484813812303,1.839627473598818,2.0311600111222616
2.4967262112084554,2.1929558341529467,2.134486675230062,1.9260160424629267,1.9766682315933597,2.208162577585489,1.8012365448488277,1.8267421050404886,1.9660631440410399,1.7316182722901723,1.873801775107937,2.1892461463042445,1.9425348365340438,1.901242743221905,1.854576054332087,2.0425589256009844,1.8723967097303236,2.137880992956385,1.9628421872581454,1.9641851996410118,1.8984719051922394,2.1550040785823548,1.990370115177704,1.8985732058679847,1.9931970856471477,1.9770590774105787,1.7857004223145414,2.0720370092693616,2.183382595754024,1.903551496604211,1.963973911075713,2.1358463550503934
2.2943668859926816,2.2974420954336146,1.9736884993322887,2.125903713221428,2.0082975350458874,2.048246032584579,1.75704204591458,1.9143238760699028,2.1283999896898624,1.9392864893979325,1.8540894675198678,1.8427964058852848,1.9590210569953002,1.9671542931129744,1.9493088277193218,2.0795560043890617,1.8548561976178894,2.0203488966816985,2.032066491133365,1.935182679036699,2.2323307005156985,1.8902365671825079,1.9756845827567795,1.910353380272812,2.1023112725716415,2.0463057797486512,1.7811127692274278,2.1059327219659885,2.0109710841214445,1.8634620724924686,2.1800494329286697,1.9548662311519036
2.5004444346748844,2.176158464937827,2.2743929112149353,2.1681225665282895,1.819551785532023,2.133952045437555,1.8192024006466054,1.9017379103448337,2.0167554233010923,2.0395466499442216,2.0906211606263163,2.0254849519046214,1.9260743692157098,2.0501511317885357,1.8942423035577938,2.03107532944409,1.8579384434405224,1.7419859869050485,2.2533031825782808,1.9376234052215748,1.9741606800169127,1.910518721147797,1.9307096332097042,2.060563429643522,1.9830074527175576,1.749069858181706,1.7746451281987219,1.9428280771075517,2.012945623792189,2.049868630882639,1.9478735621878962,1.8889470475479253
2.4353685689990345,1.9450115093146112,2.2149788918622906,1.747818713374469,1.9901780804941014,1.9695208464284009,2.1921560796042683,1.870279704863386,1.872723248884015,2.070465013727452,2.156341643779339,2.0522899516944175,1.700868013501956,1.7060292655049614,1.7900910771383798,1.7553305915895854,1.8783100906087933,1.7735053776910035,1.9945491318187658,1.6722169300073062,1.9155854048738201,1.8536235014743239,2.151718240242463,1.8892289963726616,2.198324008961798,2.075648266472238,1.7893932112566833,2.087905340357225,2.196722277405237,1.9388075404876688,1.7947840413026392,2.0431520051422734
2.0285230060639403,1.9098933360938257,2.3380745462447,1.8397043448801111,2.151294500140833,2.071347756788963,1.9547655492854494,1.8813688252536351,1.9365382234633044,2.165733511276563,2.1240509228508344,1.940638615224635,1.9673096731385973,2.064878627487783,1.7919341292323359,1.989447079276368,1.9825690904202893,1.8490565794245384,2.3333720999701395,1.6677828799970096,1.9849600748353986,1.8576613901137522,2.165267421848474,1.7507710013029743,2.1249975668775383,2.2469352598841836,1.6224435694378216,2.00629744708774,2.2579025863231497,1.7699262477062654,2.01529216050949,2.087228178290184
2.5027465261389508,1.9252507331697322,2.233258991073498,1.96916810155292,2.0660735870566174,2.300281849162815,2.1274495085303515,1.8487941185782923,1.8640689840965146,2.1281595923532803,2.1250727472373496,2.0593795654622715,1.9382934745100464,2.0123026172600498,1.7605577305938038,1.824521016989525,1.8874090113686806,1.8831051585261722,2.3735616403738806,1.8708962669948277,1.9840806998237401,1.851697314223652,1.8959777225150365,2.094744059405313,2.2040857109834255,2.2805970174331764,1.6090686214093568,2.1822659644474136,1.9643766700023053,1.9251689056069907,2.0098034999635104,2.165526000004404
2.5093622327738285,2.1438969507109746,2.137592922540443,2.02869288032848,2.0942700968245402,2.1083546606493635,2.1820880901180004,1.9634806936807983,1.758570629293336,1.8701882707150046,1.9073252430830627,1.856490100773813,1.9839631186829427,1.8132689061916027,1.7817934703479217,1.7535123330604736,1.9391440656520442,1.850108203798367,2.1171056292050348,1.9561291783608032,1.927568163510203,1.842543018886638,1.874094825955691,1.9614189029164983,2.0362537899053144,1.944110125200657,1.7929706111617443,1.8435241393366606,2.233515898430393,2.1276089712509587,2.032116097488795,1.9437986039250275
2.1435935500712353,1.8893293425476974,1.9285116525758068,1.8268706481817587,1.9679107035333756,1.8213935462717803,2.1184395218827103,1.8596578029233766,1.7937497864422238,1.762505778336357,1.891053445952091,1.774542214296583,1.770134570314051,1.7995114168842798,1.7465358891455491,1.7951996084099446,1.8297906595362115,1.9300926661688889,2.2174602097540315,1.851743884749644,2.069729071337329,1.777112423244823,1.9760216563855328,1.8318232188523491,2.1201778735932177,2.0005341868886455,1.6089411637830902,2.0060139137934914,1.926440657710155,1.778198632246303,1.700964521137136,2.259316529354856
1.9468689913295278,2.100668738017602,1.9859971727486228,2.088637183041405,2.0548752041378866,2.1947620640795553,1.9729072242861074,2.020586410064097,1.892369393874706,1.8159068660037445,1.797100702510825,2.0341941356130544,1.7920448677918388,1.943238894262005,1.6840926470398334,1.7788063982971054,1.9534874672428215,1.874603651385065,2.3296323997344692,1.7950560312325254,1.856692614131406,1.7754604261177043,2.044233685744814,1.8955090448871819,2.1450263234938993,2.325971247745168,1.6041272331947234,2.036902911283507,2.10020283153995,1.9408229643224204,1.8919276334353445,1.941507607284794
2.11070444492357,2.147098097043333,2.218038417798157,2.0295130960856618,2.008197942691502,2.126088968175312,2.190287869997891,1.9373138741387887,1.96908761340375,1.9956231751631799,2.104407359409307,1.9571827740787828,1.917937723515013,2.1381284843931185,1.816067870731569,1.8444069023940186,1.901405377190943,1.8034161507427942,2.1723930009729915,1.8392271228699446,1.766201090220211,1.8472193304644493,2.284930704598706,1.8374578794987022,2.1197698373975267,2.0250157134497004,1.7944229449479314,2.0337760074349447,1.956181291792105,1.8665635220596573,1.982556382998508,2.04904134330527
2.202520177313501,2.1011595998506856,2.089791080999848,1.9081763532577798,1.9365253021035294,1.9422915680463295,1.9592389015313387,1.9462738829394148,1.9619999407801392,1.7758457299835186,1.8073010540891303,1.8415849737900465,2.0424354383492984,1.846523006622773,1.8590256809681829,1.71511975874063,1.698091369849011,1.9988680696647703,2.09223347078702,1.8620869821407833,2.0299450961006364,2.029739763999004,2.1374221234364725,1.8132201545362827,2.1271767546288376,1.9991858222797396,1.6599316111555436,1.9729018178573174,2.1000311621044645,2.0801003777718923,1.9679212084186315,2.0995364300513075
1.9652385895972169,1.8469988796383612,2.2368622083308427,1.879927285843546,2.231748248743929,2.0465022564603736,2.0732488248858107,1.7747320783450578,1.856078826134913,1.8838095492272755,1.8323490641547286,1.7445093395980755,2.0802249609284957,1.873324348104991,1.7013828127281614,1.9944591963307718,1.9347820673827074,2.027308963491441,2.2467030544017956,2.050881308398871,1.997607286635685,1.9014452814944431,2.0449665442251344,2.0220773074849556,2.265180806674738,1.9663131442486457,1.5301035965808407,1.8883684175173343,1.8632825664372779,1.7023737288320357,1.7651287551829775,1.9757049367435515
2.0428775693356505,2.132545789073237,2.226862047907472,2.025280311459441,2.2730604084581105,1.9408344402561135,2.0693282099456054,1.8594579229495052,1.7840510468134794,1.7438069635157516,1.6181300767519051,1.6271969339281278,2.016385005844159,1.6780378382554741,1.7705365424376878,1.7384993410976377,2.0114046590812245,2.081938861720478,2.3331573166891015,1.911321971792874,2.063663164886756,2.0146683844339166,1.8614209145985479,1.9593006103607828,2.480219923778745,2.02675416157001,1.6714307413549934,2.0651006608020843,2.1195454985635402,1.9829312137348203,1.9148385608835368,2.027419001763337
1.931558311179206,1.7799527435398899,1.8713236896376215,1.7734489071308641,1.897237449851619,1.7728025605457447,1.8719408571252967,1.9722249127058307,1.8687537449586709,2.1431595086600357,1.9862189004863724,1.8055606530102162,1.930514503367266,1.8679232792299443,1.8748759253387584,1.9641694423526619,2.1277676909802827,1.9981213837511271,1.9516771577274803,2.1743627383184245,2.1949986580275223,1.7746667064618067,1.8958188776883693,1.8152684029069153,2.1079806232357052,1.9587598731046854,1.702059557014341,1.8718032413377508,2.0794165939723426,1.820191387369754,1.69360763464384,2.0312769857484807
2.0994720925486896,1.7750461398758508,1.889756915852627,1.6565110827443599,2.104240789472442,1.7930211505066935,2.0737963783066427,2.188079774739367,1.8344540393234683,1.9238764149985186,1.937483741900555,2.0387561651563377,1.740241422471234,1.7351726338928404,1.720152674710186,2.01892093616623,1.9709541190005495,1.7801982089339083,1.997636738507221,2.138934339563683,2.0551912480963943,1.9266022026083278,1.8736763352359147,1.922630759472491,2.1444045457311476,1.9304746498044654,1.6763078596027563,1.9629183337082208,1.998005538774472,1.8866046532174916,1.6801470366377693,2.1483778204640602
2.0003064835832385,2.1162648964044726,2.105814158058818,1.9734067427306397,2.0457273089374,2.063468386181287,1.739075879148016,2.059440842263945,2.030496844833001,2.082916814776841,1.837930260409455,1.9083902357173412,2.087725116066155,1.8346362515547407,1.6918856535230764,2.1178630522885173,2.0139838098084217,2.0182467848523276,2.096327690950025,2.0247895085939818,2.036145867831921,2.1531185034661147,1.9216854625806072,1.9477225539601941,2.1141616619769237,1.9808044633620543,1.8709726442425456,1.878955971937511,1.9853789496033907,2.0627846134800327,1.881376043005266,1.9013580984988405
2.0335235786861423,1.8298464193448696,1.930366476135787,1.8854225271838165,2.1352406773907755,1.8064081866079094,1.73771097023521,1.8996883231300077,1.9746512986871037,2.067063288362541,1.8231419729478362,1.835065059392796,2.079652135978086,1.9716182059714182,1.8857501538677042,2.0729640696928753,2.0320477131231702,2.0268164804198543,2.1995294069237703,2.055433169511913,2.1486194664263443,2.021631146934333,1.9944520694057692,1.873504908797781,2.0547577747408092,1.973140198388567,1.9240310930732496,1.9137073822714759,1.945758307208375,2.1226385390175775,1.982353727469599,1.953787463031358
1.972068449824879,2.173134923618572,2.0868596253864613,2.063086737333142,1.9336979827417637,2.1392124105526604,2.0623552235522062,1.8576108599772592,1.8356699491681518,2.0448931064789524,2.04612136832517,1.8565808740235912,1.9877114989493996,2.0377221343187677,2.1891555582307642,1.9495639935745057,1.9006793610370738,2.034197913094841,2.046463800091797,2.206228291631118,2.212024211054491,1.9753775619854994,1.9898863982307522,1.9551094444939965,2.240199307280273,2.0314225064503915,1.8709278201693686,2.169974193590801,1.976837457075344,2.1536724073541365,2.0602667168282225,1.9935346486267351
1.724598338969358,1.8631487567707214,1.8082142395056227,1.7954192630656016,1.8231064842920166,1.771930657461799,1.900479474941495,1.9422139491211972,1.8939041181897571,2.0515052846311455,1.8722949267920657,1.8817664617049104,1.911707917268387,1.862221160741351,1.9720675532699787,2.192924178810733,1.967225809175827,2.139272651904143,2.151965611905065,2.0667566253203438,2.1087946361402223,2.0191356514216645,1.9996296235814357,1.9853506793612314,1.9955753331475787,1.9949956675542135,1.7921954442342272,1.8741254157492084,1.923275014004434,1.8849189646130893,1.7587628555340573,1.9374359495300584
1.7784950456190913,1.94593866633845,1.957405782870516,1.8937657628093947,1.9762910459103242,1.961954428376979,1.8898261032541648,1.938527907075259,2.0556659888134234,2.17137031223983,2.0605484011758883,1.8309207968219674,2.091026293714308,2.069911558391566,2.2480188511038355,2.1710778144572824,1.9605477401372722,2.2005345574752764,2.1582767462307344,2.271005704490563,2.156803068533873,2.1997356649358646,1.9194798618961384,2.0554038111975848,2.096938532203708,2.087547731299923,1.8902654696911696,1.975766371338043,1.9698276626847357,2.139361818298172,1.9097584419565965,2.116392802907802
1.8166729476037975,2.0455464445114986,1.9879536335705292,2.1382107941096544,2.0354034903189313,1.8638229752415967,2.139814258793908,1.9414980280107055,2.230198163152679,2.3331920041134615,2.1449857268712655,2.055139232814456,2.088554572125902,1.9753189563040285,2.0944544212962697,2.100790718284839,2.1695951709108154,2.0058561458021282,2.038798774282488,2.17527929609163,2.2223579493062204,2.223591143281362,1.9715364034418024,1.9122078426274405,2.1911459562603923,2.1329956909214713,1.7886205671651445,1.9102089157162636,2.0057175211195526,1.921909169635324,1.88527867327656,2.188569361226391
2.098065860556703,2.366765840479895,1.796142922750662,2.159054112581259,2.0265547419271557,2.18576621357459,1.9111691129859414,1.892676380545213,1.851619105767618,1.9054266196755443,1.76523294570266,1.7626588785338613,1.902341776964476,1.7501519267691323,1.842081434109715,1.9141176084965708,1.8910537584759564,2.114302553137132,1.961457082808586,2.0530177731095196,2.0152553303654317,2.029849292949605,1.913452766099642,2.1365225334171867,2.292362035831724,2.083032762116714,2.0001696621072265,2.207767733582532,2.0061053646751597,2.1040080527007854,2.0166101710661546,2.0743450272831936
2.249530504626256,2.1475628934111217,1.8813245918673762,2.0527097875662963,1.9202913072888887,2.0967025619194506,2.108061077219295,2.111172822888855,1.968913880802042,2.1527978664691814,2.055851503556911,2.2174927115049448,1.9666145251053682,2.258120387185822,1.9704612698627246,1.9585532410971815,2.045438232461366,2.0854737603529485,1.979684191143876,1.9199916859381958,2.0855943381783386,1.9962607397673828,2.056331666864719,2.081873708988222,2.282363835800775,2.0939129902972278,1.9461487391724515,2.23347146629061,1.9793310421868637,2.2690668853342704,2.093060269893395,2.1778365351968256
1.9891110582140852,1.999904563412536,1.7124798097775296,1.8654752949292843,2.0491454747345657,1.7752534950369978,1.746339577759986,1.740316068187787,1.9623994006169025,1.9833585547384573,1.8790142105523915,2.0296996008210857,2.0104281420667816,2.0503425543964333,1.8261165949669351,1.7359922940240087,1.7546741576060592,1.9093199756270252,2.2164510588104607,1.8712683563516506,2.069821672366882,1.9108951332414221,1.6745070355910177,1.7860689780771406,1.8729383692606718,1.7515564304945677,1.8461552856946621,1.9826228210005483,2.029579554836388,2.189578328314344,2.076446272609987,1.8187866766296379
2.235261709667422,2.0898770326280425,1.901102226405663,2.0084850973687467,2.100982058185873,2.118521148204043,2.14598583428081,2.0033995162691527,1.8001787635194446,2.2150729705704704,2.273358994249122,2.0083859370000376,1.9466701123280967,2.0038955926554896,1.997183284047123,1.9062788838166074,1.906283286994099,1.936532260353461,2.0824823052851325,1.9761131855768368,1.962602847903769,1.786414964421411,2.1028450080761982,1.7477637416697092,2.013476377272737,2.0240329635942356,2.2394417612354447,1.7331571268678896,1.9611673807796401,1.8186580190829151,1.9844627786004962,1.8598172935855342
2.065729728325089,1.93155403135302,1.8875217330158582,2.2629712362052765,2.050559732528097,1.977734362872186,1.8242535619490057,1.9818227965565454,1.793718454659366,2.2635013027118047,2.1427538419315146,2.0255606061863265,1.8151977418900025,1.9212419364210531,1.9042686312560968,1.9352086934592434,1.784252789955048,1.8248787125046773,2.243131913528642,1.7925151192642061,2.1458679282504853,2.03748161769857,1.8546166850995642,2.092620914969761,2.136049169056712,1.9819452904710262,1.8841701304904723,2.322344424038841,2.3290514177602164,2.125095711289769,2.00537994927188,1.9286816015037054
2.481241672582559,2.042042562566508,1.9990365738081481,2.0564022689994306,2.094614624906702,1.9789720752749587,2.1267455469428085,2.0565608027961377,1.8826102099196682,1.9283935137474626,2.226181081908421,2.1527070034749314,1.831448297431338,2.2767585606815524,2.027266854513249,1.9724794223071367,1.8956051741952806,1.9943865093401056,2.111614923328104,1.9323903953966544,2.1601498521364455,1.9003544313056828,1.9603107080013678,1.956367842982006,2.156692090244822,2.301929168219724,2.379971357493102,2.2026326277515773,2.3670393437690747,2.2122343258630766,2.102529453881299,2.1635458468306985
2.3936107528242156,1.8679898937605823,1.921165714274669,1.9490778925113936,1.8994460050360176,1.9266515952695566,2.348389763840175,1.9923883824062192,1.9519762391101352,1.8624065245638772,2.232239677791772,2.0506083924574594,1.9986156911193589,2.194290898171756,2.1385210015273435,2.03021131862437,1.9601389043911857,2.0765134511220666,2.0944902821960163,2.0857856868879794,2.210224138354666,2.055900416690538,1.9634526898414593,2.1053834785127292,2.2491611094183948,2.241913866101713,2.148796230787171,1.9841913832971574,2.268314460715148,2.22588237676618,1.9835274361047814,1.9566307418491369
2.239823183824467,2.094827466327983,1.888818158934161,2.078391673861464,2.0017611418226706,2.03704847163932,1.9265736685567596,2.0967109190603996,2.1048380055539284,2.0559391178233084,2.2103492150884962,2.1031724821223965,2.0243762227780033,2.272477202625381,1.9273230635335448,1.8655400536570284,1.7910058013780705,1.9149328706301765,2.0212661763562334,1.7652152848654348,2.0104911964967305,1.9734116861089246,1.9482916149503615,2.1884463787970048,2.2344602139776932,2.3125784615856015,2.1175039264740483,2.084392917887413,2.2387690107688107,2.2196239625968737,2.0486767687490923,2.1036055076412126
2.1183293832299053,1.91078902281622,2.013779030046866,2.2536993007532757,2.0446497671764456,1.8855996283227001,2.0662050458837817,1.8312802472008813,1.8637464290199428,2.0790828035430935,2.1061057367321223,2.002737303245516,2.086577426700212,1.9445536504929082,1.9788738311594511,2.014319978437705,2.102818442024187,1.8950141736635215,1.9813942392203152,2.0572216826519565,2.085265990853386,1.981098295288537,2.2261999620725894,1.9883361525520686,2.046659584130061,2.3860574008782303,2.1229701317521883,1.9358466134406507,2.0583122148156794,2.2230772920070945,2.1891425784175262,2.1785341423440596
2.3760915938907257,1.9836214605955111,1.9691194574936735,2.219414302074813,2.1737678205078983,1.8499396826613808,2.051950524163242,2.0615423822954377,1.9694821434746022,2.14505405926593,2.214946161534745,2.1107235827150936,2.0321686114588977,2.1959525647126483,2.1156989686759156,1.9016118643744784,1.8606695909119313,1.8163608804185476,2.1122069336257527,1.7803099664429778,1.9945411621974458,1.8913912375442299,2.230555112584991,1.8739521571398445,2.103227868059728,2.1851795708037622,2.0876863255669273,1.9442648316301467,2.1170056821742533,1.9244368204211821,1.966656039892136,2.222540481236406
2.242214832454955,2.2286500796760853,2.190057461198031,2.0281351138265333,1.830638241563515,2.0689171933358237,1.8894123300745351,1.863195478707987,2.0427288410886373,2.121858626704477,2.256876740659087,2.2022124992731182,2.2163896899929427,2.3584846277756153,2.21555174824359,2.2293827788247293,2.102463516012936,2.1502412646307305,2.160582066349161,2.0376549102898496,2.314404746805006,2.2479193287701817,1.9158268248128718,2.222530414607225,2.1937539486255324,2.4252427523218305,1.996563664126942,2.0978222587093778,2.058681270383008,2.0966974940960705,2.1572991560182353,2.1119500569866148
2.222794707770987,2.2381859386716765,2.256009994847182,2.1223003749963545,2.063094957768997,2.0687269989686796,2.0714141431997457,1.9078434668403577,2.2503176048082922,2.0597954416138644,2.049847802138347,2.1823897483745154,2.1123240265640555,2.0859303282962527,2.042482051710763,2.1190843661902266,1.9349993257654479,2.28792964378942,2.244304440211933,2.0721442857115817,2.4286425941147116,1.9970256729400293,2.060391117104366,2.2410655336407097,2.2799226334463603,2.3289126381152014,2.165223608155762,1.934924812768207,2.165084845226964,2.0568526850607065,1.9791591035582354,1.8645299291333415
2.3406900126602728,2.230260282683522,1.9830293673913273,2.0837798940556347,2.0125775558195547,1.9386009850684809,2.0059965213853563,2.065197110451466,2.02962780823087,2.1692682834077397,2.1881150072090922,2.1526348021531923,2.3406015406220617,2.051420750746936,2.125548859539344,2.1145674953952542,1.8772332304306267,2.2470615513166585,2.1438778546773527,1.9787755922850343,2.139681357539655,2.2661848150963237,2.1581269361491957,2.087937332715297,2.1793296548868497,2.491015208922554,1.999156216616918,2.025428804739157,2.109579297076283,2.0463812165206683,2.103752127688008,2.3320473780697384
2.1508064634637605,2.1325501730378806,2.0569933631735724,2.000443511938113,2.2629696506808363,1.9011717185384616,1.8586872682233468,2.1159539904612923,2.292520517706661,1.8329128687688576,1.9412213372860787,2.198807710253184,2.3036427839386886,1.975904997559104,2.1000651470361515,2.186968934230643,2.005690394064215,2.084595318109871,2.1396844367699694,1.9411790436190297,2.3617600405353065,2.2732165794020256,2.3545532320644513,2.066306262492231,2.1574897915498346,2.275425950692127,1.9949680753486674,2.124698444490357,2.0533375389564785,2.0689250095640435,2.1322795464460134,2.350970237826357
2.3612050549413612,2.2104149173967693,1.9578470156290415,1.914758991665931,2.02432004064707,1.9139320226256937,2.008798959297788,2.0589086574940367,2.031140066515917,2.150044574234556,2.0590074263418487,2.0661209743332796,2.2765940585576376,2.1878157971540815,2.161640005865816,2.3888852293495906,1.9457388381567728,2.2392627976936432,2.110673899299428,2.07393719149702,2.1048869927058,2.052172641963974,2.0711545428788396,1.81370087807099,1.8705932195440322,1.9595512335184782,1.8103444036442284,1.8636085083393517,1.9218179730383578,1.7984292832990147,1.822506009811401,2.3358640961897974
2.0214407931097313,2.0556045486378225,2.2960075532229736,1.89352312721959,2.0783882645875096,1.9635958972496728,2.0875931283127316,1.9746149169485767,1.9618260182586058,2.087474469328339,1.9377874982633914,1.8119195877810044,2.096155723050993,2.3329318844426634,1.9790596118239674,2.0075143963303685,1.9856473579070952,2.046267822183205,1.9891471132359415,1.9537560425415994,2.075455629818831,2.0999692746522323,1.9576442045185551,1.7949773965979632,1.9859890587820175,2.088609611152484,1.7823074697593106,1.7921126480518779,1.87144897178409,1.8622974121609512,1.967278325886297,2.065488651323435
2.0226251106746145,1.8319655161430333,1.906374430655742,1.7033711830868028,2.3010394074578597,1.841766635989182,1.9321085446649766,1.7267658711274072,2.0267459212540824,2.061771084836051,1.8969336841406865,2.2256816869947995,2.021693722837899,2.0110101077255575,2.257218753252589,2.344174253379191,1.7509005957190142,2.221152571237696,2.2590110604694402,1.8829507789611195,2.0918948923372547,1.9073399858696467,2.0730810708962712,1.905683617332798,1.9890150952604881,2.126350315537316,1.919305812774064,1.8114104094236376,1.97672512875399,1.8424994999203175,2.0339562649782192,1.8073229251011185
2.216717473283394,2.250746859277714,2.4530209683634507,2.143984058634178,2.334885930608281,2.045234070363757,2.0026070498009876,2.1092280612450724,2.2805002559883922,2.063761027930209,2.222772498674717,2.104453613692789,2.102884085448535,2.099862807147972,2.1190354781873153,2.003153654167421,1.6565665089078712,1.8404068998667045,1.8383047566689787,2.3521489639282405,1.99778710302001,1.8752949916631265,2.1330821847567556,1.930364200821896,1.9734660262612231,1.9804607211587764,1.8095637366101252,1.88505881827165,2.076792691198016,1.880658714127772,1.8003401146550617,1.8512667090763262
2.491873810932551,2.2613985022364176,2.387142186303767,2.1835099600008037,2.3276337192572636,2.090203930282985,2.0276410025828984,2.0062702036796627,2.239086989486489,1.9046059443961492,2.1073863655664136,1.8661320250424922,2.2398091213239124,2.1257981201447467,2.138734272659375,2.0626623898432266,1.797542996581851,2.120561344976941,2.1333990886305694,2.2529673414006135,2.2830458952367616,2.193174283332743,2.2570836975369253,2.07006050373689,2.1773616627048034,2.4112390715079717,1.9185660376204274,1.923989524015984,2.0882381548160396,2.011646493223938,2.1558157221543315,2.1796919474027625
2.0430681945401794,1.9121075964945886,2.376278272878327,2.1247003407853837,2.0629816862004713,2.080568026523081,2.2586159855812635,1.9138247726488875,2.1006227000068445,1.9455211041284926,1.8395957809672243,1.904825566807159,1.9915411269245966,1.9127514570773136,2.1238853588748716,2.0192172088297355,1.7969573210294425,1.9358345165640378,2.214850651479143,2.320237218867441,2.300429399639438,2.2937774677107856,2.2331840522650976,1.904081325512327,2.002587616347874,2.313390855464453,1.6301381568876416,1.6558328440765002,1.8450066353219776,1.6937845232476292,1.8313687868496453,2.1306071846986656
2.2676411805330683,1.9806530085959484,2.3911248660454123,2.1178800132633997,2.2538898949496766,2.155422703456997,2.179481024585398,1.8854828826592713,2.025025824290519,2.0246424297809473,2.0219701519352555,2.0231472556916374,2.1572314041877454,2.040303253145,2.001645006079273,1.948844661988719,1.9495236300791288,1.9809845758735813,1.81790476508248,1.8804467610110296,2.0703741782936365,2.0075239287527356,1.9357019435645477,1.9124182910495435,2.025612948376816,2.2235277229570762,1.6769047484447763,1.7654997406652935,2.036939004049579,1.8122510136464038,2.0362162283432346,2.062077480561417
2.23408424442238,2.009394173775156,2.431871059705002,1.9307669200140374,2.1729416735342553,2.2060213890170677,2.261497477011544,1.9345284464138568,2.003984867604388,2.0724501553733665,2.0508159416912117,1.9541398504318603,1.9770873965959677,2.0440758987754073,2.1004456165079226,1.868701611644518,1.8055929249364628,2.0279251291794975,2.1052590043074133,2.0067679392112256,2.1183556644991297,2.082378398868674,2.1447289442858706,1.8000436890454259,1.8842615864261296,2.3280019304021464,1.8744929478038557,1.9494463400817414,2.176423645800909,1.9585567049212431,2.151843704350605,1.8777151210093834
2.2498786119898053,2.227691865895229,2.083290873692835,1.9499211269293744,2.084348078497136,2.141404619018031,1.9842177727344361,1.8623877917543405,2.1076071209985523,1.8938751810788637,1.8310045994875441,2.00170087257171,2.1546967219354864,1.986885696542751,2.091910249767479,1.9085045365975908,2.0480108790081317,2.094010863349988,2.1050755618340857,2.224082508373022,2.042009268852158,2.1091378996497805,1.911932290869514,2.1322534832770623,1.889450803988139,2.018113403061299,1.830616498486821,1.9797779800914708,2.0808073345703995,2.0019999328102562,1.8656301955576131,1.9095531207619336
2.3841597984697804,1.9106279005426652,2.350170349160217,1.8719828203536346,1.8029765255919394,2.1032952019526405,2.0642282420988742,1.7480020530027223,1.9912016426326704,2.04812471081289,1.9634969915094125,2.082491459592372,2.064204301030512,1.8999292029903978,2.2413032473559222,2.0265626291134846,2.108251087399021,2.1321273408788577,2.1124861945171225,2.032325106508231,1.7530900916303283,2.193114359973918,1.6886793338050203,1.9516633685050595,1.6465999829313094,1.687382954705296,1.7858458180515437,1.6896015243785496,1.7400998318509937,1.8553406290436276,1.8668521424724696,2.104013198426675
2.3923665985073597,2.012394860367825,2.1046511002417523,2.1351230179178646,2.0608133211753206,2.1396017006974244,2.336869944085508,2.0242564896779736,1.8674325921993544,1.8746957288104118,1.9101433606728198,2.080536190059392,1.9480880012906099,2.017556260830084,2.095751474146228,1.94498189011409,1.9600150797511766,2.134432857381676,2.216457189178879,2.21998063818849,1.8039626620116889,2.2304113065042515,1.777062945256997,2.0269215014288293,1.786164188535871,1.870913783439483,1.9807843815246857,1.8835691971619581,1.8878402851818905,2.0724884871576115,2.0963987661135044,2.069823512085274
2.354626962229192,2.087520020146333,2.0918612505478387,2.15027830497768,1.986939119622524,2.191587173794723,2.1586587436878006,1.9813959232768565,2.040169811820488,2.197503556141052,2.089525602527183,2.0312191440094964,2.0217328346716688,1.9701272938234604,1.9086648327975146,1.9311778766525036,2.1321275048035835,2.138964398872104,2.2272443606717998,2.1695550595609054,1.8564272646056912,2.2144733965192667,1.851258354704043,1.9147661506346036,1.8452936474282324,1.951860238525786,2.011600868881867,2.028804042348132,1.9315620844283745,2.1799938189604315,2.169855764562441,2.0349501004728636
2.323048709440352,2.0834100977695105,2.1760957961453364,2.081108471664903,2.279354764827341,1.9915002926168686,2.2174430793959004,2.0548156430324993,2.020042213603349,2.1680989133994557,2.010101105606239,2.1829021742013044,2.075393608407046,1.910570904059115,1.9982239695250188,2.038995951659005,2.156220759012178,2.1605159748928924,2.16437562654945,2.2473609023023693,1.9264935167836228,2.292404835619612,1.8475327609772607,1.8738878719198986,1.9941945486065813,1.871511022236804,1.98045487101507,2.231201781981103,2.053231700097327,1.9995401819054417,2.284544712664489,2.250051626221345
2.5260493884082216,1.9889812470685562,1.9699979190779338,2.0740860823111875,2.328329510707899,2.2801098946158938,2.281822349930621,2.072005385605817,2.0118244809314003,2.1544096909225012,2.0295876812508995,2.1222608302369244,2.126614391111394,2.0013591868673015,2.1719826548705474,2.035199407229281,2.108155135535387,2.0341261907712047,2.042857100078914,2.0178514397221643,2.04067227109948,2.2885332642249745,1.9676996956981068,1.9169098128122977,2.0046285736627327,1.9168860988487288,1.8917998479459226,2.1756194622900398,2.1741501609811253,2.0147581574278552,2.2326799765620198,2.1271768284608825
1.9969571359453047,2.0872656457681673,2.011650238342915,2.1533053961243644,2.155688055722854,2.2330146470200183,2.099425489456023,1.9073796970058043,2.0330622222687387,1.8079956766481187,1.8935015892117075,1.8061310249329807,2.109697941144914,2.0199195113807686,2.002474354813284,2.0924606066705675,2.1285127691167878,2.1979739036756536,2.1618866620023067,2.104990667810442,2.0362796880570535,1.973528393986984,1.943415005361013,1.8752617696089513,2.018487935043955,1.8956691889478334,1.798170993688386,2.102657027804268,2.2103123473994053,1.9239673845520078,2.0838367638120667,2.0562964917766644
2.169524221434561,1.9490713452560138,2.0750707320567376,1.913011161996598,2.2249905575269096,2.0361761371035447,2.0264817918823272,1.9374088349858,2.129315782845878,2.2940683228302494,2.1107430690411864,2.10050225784561,1.9744522910615,1.8657431398207205,1.8937831962848464,2.100791943128175,2.09193565952729,2.019502092643456,1.984880300627719,2.11261909475892,1.8789379218224744,1.952419276518853,1.8710867499761241,2.0437529723741217,2.012026352868677,1.9376392491709746,1.7732574641413912,2.208850321104772,2.1648034991653153,2.015413246485066,1.9735035785946458,2.100217843823641
2.3399465667350348,1.9184750974193254,2.0514658898836062,1.8648688868736534,1.9279722673245978,2.0188752212550862,2.3586115007131534,2.246357581797696,2.2682052774414094,2.4722568788755646,2.2219284826528956,1.9870354137300492,1.9629305295134358,1.9474294678637076,2.097435364357369,2.1599579811691716,1.8618739926732835,2.015099502425882,2.1940338098884995,2.1825443271551275,2.000478747863054,2.1539246070531304,1.8774483071992134,2.0982340650492914,1.9333308883025253,1.8403741678905194,1.8636133495077651,2.0420978939130325,1.9349707556753144,1.9697241003227801,2.0770650228626777,2.080254460964393
2.1748393950798666,1.8267229635039788,1.9453951200136455,1.7982286327192414,2.0767118422426036,2.210441639335701,2.5285585366382306,2.1079603578069244,2.0496162945514085,2.3341678551735345,1.985160523010008,1.8911856014778183,2.1659814030179714,1.945443056294461,1.841899122013257,1.9303512576769435,2.051173177328889,2.006070043207641,1.928012348911881,1.975029599851382,1.8896020594391632,2.0224858894454534,1.8603379590974476,2.1258572400609923,1.9238340202991548,1.815986007270962,1.814858037912512,1.9797435870648596,1.9111311087816316,2.015252953015497,1.8780077550715664,1.9384841149046013
2.63123220350907,2.1991361324951186,2.1736126179220694,1.876181227239189,2.0658839729895906,2.0678553082459934,2.0976853927305297,2.1955100249782973,2.261314336169646,2.2739409640102153,2.158478781652023,1.8964905043502036,2.198649323905326,1.896636907976827,1.8097879500923315,2.322822443647002,2.198231832796569,2.2927985084708897,2.1059972800963975,2.0884655754003,1.9747182254707742,2.233181224031532,1.979623467324861,2.022218643861419,1.9546432389985642,2.004445014588725,1.978199223415895,2.1596607216461874,2.1880143057675974,2.3011382721361775,2.0862327463425596,1.9153055304416606
2.1977300854686033,1.9408914538266016,1.9634089405088992,1.9109651256512936,1.8239590508949675,1.871807463026731,2.21808626843975,1.9325384279651703,2.061862164109714,2.3393331494757446,2.135180030693796,2.101705725819569,1.9534931474118704,2.0398765252810183,1.7553338468897233,2.269429707151174,1.9459318461945625,2.1589541065472764,2.0502551473830617,2.0180806326278065,1.821747213136253,2.094716269865029,1.8595746737175134,2.0121141264922016,2.0642197912576252,1.9996799915193513,2.2015476470175304,2.341838279537888,2.4153725521491776,2.0506331857929863,2.249754076862252,2.1186904556940043
2.558530057451896,2.1414990070446436,2.132963631900189,2.0567696027766305,2.0585342073265824,2.07122875233859,2.396544295293452,2.0871177851179157,2.148216408823584,2.181380669568349,2.236238937569195,2.107534288634903,2.1945891056664237,1.9950176596194682,1.808940943769173,2.23519929072333,2.217337367871315,2.1556006509177674,2.16428890420514,2.0290757973137876,2.164436649597521,2.104350224942507,2.3420114654578876,2.307161270839697,2.161765043673993,2.329735051543823,2.2484799277752985,2.127527227356606,2.407152884765443,2.2725615496075173,2.4943184725551126,1.8386032646893868
2.3346504856057444,1.8396197662183127,2.074409109346813,1.77489887802112,1.8628310819955507,1.9587189513354544,2.1602436597157064,1.9553296863480083,1.8853855255298453,2.1765893012238196,2.211632633823841,2.048704300640792,1.9958788198666673,2.0486990276476615,1.8887081624623014,2.0778498402742556,2.1198276221316235,1.948482300866847,1.958087671342018,2.131521658837534,2.216058434078432,2.0219951958252587,2.188416382148429,2.2277030337271846,2.164701247457154,2.0691729530972975,1.98429093823562,2.0082937612612946,2.035568059781625,1.957987989956254,2.0607288908689574,2.169614711665152
2.3611904583286876,2.1206120902011802,2.29409283261918,2.1687118180067024,2.2272134692305237,2.325124211072144,2.398051816726628,2.186925565675755,2.069037090433303,2.273249206401652,2.1129102851177404,1.8083509726944618,2.0982796431107325,1.8832767037213505,2.027627666135953,2.1723708092517584,2.1206034954759523,2.0542399427829308,2.054617266500038,1.8399097986656812,1.9201804497787478,2.247041720084007,2.0650267993578555,1.813106217243334,1.8282750852274579,2.1397997902327384,1.8738772840487457,1.9992849634963787,2.1855852139141385,1.8286158299469089,2.151751123762362,2.279444598904773
