Fp1,AF3,F7,F3,FC1,FC5,T7,C3,CP1,CP5,P7,P3,Pz,PO3,O1,Oz,O2,PO4,P4,P8,CP6,CP2,C4,T8,FC6,FC2,F4,F8,AF4,Fp2,Fz,Cz
0.44175737062743947,0.3542674235570364,0.46347104453537785,0.397662467479919,0.2980677082239775,0.4096902450372908,0.39719867420001037,0.36211119133859493,0.3487654202094884,0.37999311332569463,0.3627247674004785,0.35097566250318807,0.38927281383775036,0.3707703167439503,0.392021881286859,0.376550348468509,0.3579933228089597,0.3914004900708982,0.41884861640275445,0.40171288919281073,0.36667631426117236,0.3958916831827757,0.35669979912541067,0.3573260841246263,0.3696505264522558,0.35390858222347005,0.31447632671483816,0.20365052045544538,0.2785918212879057,0.2888422207669813,0.32629478680937435,0.4190962827838267
0.4443169000660959,0.3623801365295066,0.4548190970387174,0.4089080758989267,0.27198789131608786,0.42030261266473057,0.3987080994911372,0.363595344484099,0.3304626735509302,0.3889325526331101,0.35187196409670146,0.3505400343146344,0.3822488516530158,0.3600380028361501,0.36398103221503436,0.3749796541834399,0.3598574720022838,0.39513459074196533,0.4169372440932884,0.40356947730686576,0.3647925208853201,0.40282213747139983,0.34995495142187855,0.35193257295905517,0.34535758826466945,0.34225982501215046,0.31302096556664805,0.20096256427519255,0.28103076170025115,0.2837379276625828,0.3298458201568067,0.42331431314483575
0.4493329351661299,0.3694182338475286,0.4510366517430701,0.4129654895094305,0.29810171146058473,0.42282818024585667,0.39637555709409805,0.38889769466396973,0.3317203082797881,0.3854548978721769,0.34566072624026006,0.3465290709375219,0.37845277328905014,0.3619053389556909,0.3602858159503965,0.37432833309599706,0.35968475763925034,0.3955065800728912,0.41220483342446074,0.40733335609446714,0.3878011153422198,0.396123521340756,0.3558472804499913,0.35210628571579305,0.34033422708219785,0.34069873917818705,0.30810246481811593,0.18982594416493087,0.27870227625452093,0.27472066212215823,0.33281940277621525,0.44432070040755883
0.4532585964525472,0.3790462490667455,0.455600243133468,0.41519034235057806,0.3350284377184753,0.42886316100639543,0.395971250039187,0.3948113057521383,0.33334743123556027,0.3836446027340712,0.3502501782633911,0.34825521009552574,0.36451806248366814,0.36846073701517607,0.36267495221665424,0.37570079704196,0.36851767460069146,0.39763624792790453,0.4138720300722958,0.4207844518073241,0.4004749389259466,0.39398273863415095,0.3614283107480172,0.35280841824872655,0.343932840762958,0.33841979863433,0.30778982348515577,0.2065692233917052,0.28243610513913,0.2826631624296023,0.3356293925401576,0.43764335187400233
0.4458988359989901,0.39187901448494716,0.45679192599381185,0.425083346789737,0.3417763253151937,0.42674606753334565,0.4051703769667936,0.40649731563798336,0.33756513982777764,0.3837489579763167,0.3627955971070245,0.3545584143868347,0.3775074314438966,0.3727469022938818,0.3737715049491636,0.38873885425577764,0.38257585269434635,0.413174009614074,0.42476267767811304,0.4298804446883171,0.4262137415267148,0.39586856570577267,0.3936285643598572,0.36250261109723214,0.34755501340553513,0.34918878704801437,0.31329452141036307,0.2259558025787431,0.29305455354395016,0.29023819948853996,0.3481447021182282,0.4359368208503636
0.43693961139831317,0.4038285543079378,0.4582744629081107,0.4306724474267845,0.3828677781416802,0.427471741959656,0.4149934742511954,0.4195083077769731,0.364244616722837,0.3924167384163909,0.37444965070922576,0.378731111903065,0.4027329826979703,0.38345636127747257,0.3846996999026214,0.40849014206757334,0.4130945030198325,0.43059045781107425,0.4485956865863247,0.420681526258897,0.42719000133770535,0.4185841720968578,0.40013815039400774,0.3575699024200513,0.3501792394731924,0.35929480349613335,0.3264723225526946,0.24187661147335912,0.31234295196142675,0.2994119172853841,0.3599103048547418,0.4312626206225658
0.4480865776270561,0.3971714705322322,0.45932182765919866,0.4392730798750459,0.4009273779646814,0.42600900070209663,0.4199072288350516,0.422000983171908,0.3704001419504414,0.3918073015238256,0.37821363845592254,0.3870527611334131,0.3996987720216972,0.3879447719274482,0.38230919127655333,0.4054079814213149,0.4245619668594182,0.4274300496477473,0.44793110321971885,0.4146812520170824,0.42888766783948623,0.4374558027511737,0.40698678829153895,0.36934783244479324,0.36453645396385337,0.36519292629301475,0.3470694119962466,0.26400799884259984,0.3382469302525183,0.3271540114418017,0.38085753293807567,0.4237935287499154
0.463668836588526,0.4045651796747372,0.46567783661443385,0.4447802369263112,0.4069159979870388,0.44667515836953803,0.42353338850984984,0.4146852424409998,0.36776529832729626,0.38702237680265955,0.38185101247699044,0.3835716526142914,0.3988093493871549,0.38549345629961046,0.38451658837633945,0.40794466182083905,0.4259423999804107,0.4277218441934376,0.44576434165285733,0.4238858108623123,0.44178113904848343,0.4213178042690495,0.40813964208853193,0.4013650255191933,0.3736505076022041,0.37326957076138906,0.3438747930086142,0.2726758418189701,0.338412898874388,0.3299586056157158,0.3925981957486344,0.40625930537670885
0.46997866912104047,0.3982401630251531,0.4587674457507644,0.43623882592055935,0.4043510270998021,0.4434062937625607,0.4032657172129271,0.39820573457151515,0.36994143728998624,0.3743938178955532,0.3731062194023489,0.37558098452336636,0.3980659935726671,0.3731388500931077,0.3782794831296459,0.40439417652150794,0.41241495714178683,0.42891376112373364,0.44703737120988696,0.4200051428742957,0.4439506348329627,0.417543438683113,0.40879502747669605,0.4138401297286581,0.3848834780203081,0.3625221236994468,0.33910562023935953,0.2970990745405095,0.33712518858889023,0.3313064788038299,0.38321247597899133,0.3983620512032191
0.4686335066960725,0.3980491266819142,0.45371143252897056,0.4321621419873321,0.3970793328291699,0.4379130312206237,0.4161473228359986,0.4124932908421046,0.3717989981284395,0.3803812440187852,0.3710721140985841,0.3805153605658616,0.39260666703913216,0.37452726086793026,0.3795984578543891,0.39683771017987624,0.4056750620358551,0.4277148524288879,0.436981058596304,0.4174564496636754,0.4453760134467809,0.4043354195286377,0.4107051578858064,0.419032928290787,0.4021519986663595,0.3811801421195366,0.3871439766345015,0.32381820554908264,0.35815456875992163,0.3536315509544188,0.3991859860303186,0.38831451408382095
0.47160036754369455,0.39392911550536097,0.4332852589850717,0.43022996770171057,0.4155399673777517,0.41859791786925343,0.4059157420241781,0.4063715796178919,0.3725742576573547,0.3810792279828819,0.37024369073906893,0.3800833204785259,0.3931802845788629,0.37311590522742694,0.3662652040519857,0.3837217284615751,0.39504934674635844,0.4240693148300656,0.420504505100422,0.4149215317219083,0.43965148915687186,0.39398760332800303,0.41322000143272886,0.41478702520654953,0.4178130867080075,0.3895044035128694,0.4027170470636914,0.3582743338369228,0.3795216538618954,0.38476685750155604,0.4084601427649061,0.37724772432969894
0.46616328025715387,0.39403656137863763,0.43731474824748373,0.43552380954242825,0.4437926211097841,0.42377884291688817,0.399349318587006,0.40899501035499597,0.393673449834674,0.37639614036931945,0.37969263574344164,0.38366373583998403,0.39671569254836353,0.3876982472421443,0.38735622154474114,0.3876185844006878,0.3885063643807451,0.42142907007531893,0.41268319132577186,0.4103050917423804,0.43773180880506535,0.38290597228702045,0.4246142563338279,0.42609456128386825,0.4442058709598759,0.41232967282370553,0.42642039992597724,0.39254677247455766,0.3964664474953376,0.4130867990759787,0.423156944322929,0.3787783256561381
0.46598623775616244,0.39584234713848415,0.4385077378587445,0.44370775910856464,0.44065696721507,0.432392271525032,0.40700727258915287,0.3977124458899327,0.4033901410637506,0.37674232776542677,0.3836310354558648,0.3863520425752375,0.39543247362619693,0.38982341724682423,0.38729635815857893,0.38854950479069034,0.3906594458468244,0.42182415126321177,0.4085857102155268,0.40863985585218954,0.43394147533346283,0.37377752032051015,0.42251320657464975,0.42671012464982433,0.44673764451287395,0.41604766953285655,0.44054860087262,0.3973739350788713,0.4180095718725889,0.4244703577180671,0.4267289346821541,0.37264472954051087
0.45645544432070906,0.3829448341584063,0.4315730731911102,0.443188483873836,0.44295161978826386,0.42864953012128404,0.40326832550256864,0.3915712071053957,0.40627499575995624,0.3745597902911777,0.37903103202003824,0.3807132257887361,0.39925292900157444,0.39054863363288683,0.38360055624244227,0.3840395747477952,0.3823293788180689,0.4203802542418194,0.4015999982384045,0.39925651801649803,0.43197070985077124,0.3619239058819578,0.4233872522573989,0.42104065245822625,0.4528107389125547,0.4181360985745363,0.44921722292521254,0.39927425296106955,0.43614942226479403,0.42240433056248483,0.43624937023295657,0.3732576697057291
0.4536218101269111,0.3691453286206256,0.4349681397802082,0.42606995084185584,0.44415243983707453,0.43113167058464236,0.4000205319164175,0.3981598657056568,0.414375062832515,0.36960505477510797,0.3671876004242875,0.37814589868860693,0.3886367964675513,0.3832081364397667,0.3738299845956113,0.37193488373706063,0.37519242447141754,0.41275292808921904,0.3952402014895903,0.3938334700549323,0.42632196186154075,0.3579684881564663,0.4142534551804721,0.4267864289033165,0.45843451705061217,0.42215437696486435,0.45144828687266764,0.39121928125938465,0.4369516289868579,0.42693205373195653,0.4243058276638947,0.3697413324404528
0.4692533769349519,0.3698760437826815,0.4345361385813635,0.42599551079035036,0.45061838106928215,0.4331074160840425,0.39653327010877365,0.3838449252258269,0.40778126928518654,0.36143161466137713,0.3647400940462276,0.3655861674753813,0.3814950426876707,0.3730159901133538,0.37574661566605294,0.3746970539092071,0.37781775043637816,0.4179056353066307,0.39130897188027375,0.40159919229572605,0.42023122269042695,0.35029915155401203,0.4025749081709667,0.43373425411535593,0.46818569249240466,0.41577753987639077,0.44695598054948504,0.40499817802193794,0.4420933543479601,0.43448002846694755,0.4159986458353549,0.35996158924477745
0.4627967939086403,0.3738472639355202,0.4346484390549032,0.39214543494291976,0.4450084535889631,0.4339249053751492,0.3942367527486349,0.37799411045085857,0.40142580955534,0.3596652885745881,0.3600151046331595,0.36611475527815557,0.37630440054715464,0.36290490315901086,0.3768173656325647,0.3752602822479351,0.381446012544949,0.41951220308881665,0.3877763750926706,0.4044974837821549,0.4161359759410998,0.34355840377004637,0.3921214340094633,0.407625110123475,0.4521823768857271,0.40864111854712315,0.39204928397151156,0.37349448064682783,0.4221758782482394,0.38667473930514046,0.3913384331946424,0.35164598789847235
0.46489260559429707,0.363023969409213,0.41683720966208393,0.383491830372219,0.44240211500077475,0.4102533992042273,0.39273505666344555,0.36615523611439255,0.40322920313424165,0.3620994729607446,0.3594705020616149,0.3618880503679119,0.36014127252566164,0.3609511109123484,0.3680530228950938,0.36912376427297167,0.3767979138003599,0.3821118510606769,0.36336588913972295,0.3724111570358046,0.3977015108321189,0.33928313631636814,0.37772190744598105,0.3999755920008311,0.446959065465841,0.4001059037357209,0.3814725769227365,0.36919554868144694,0.4253110213126358,0.379694326757824,0.381507121586885,0.3507832868944251
0.4636290308104407,0.3759283662814212,0.4099212680729801,0.3934465263434313,0.44004512014219554,0.4017782914344405,0.4061834450633448,0.3748003040728096,0.3917371171430756,0.3709287629539045,0.3637709788546069,0.35628320294106275,0.35371648302588565,0.3581258222879115,0.3659240757376151,0.37372796951969955,0.38065484027965313,0.3719017496341697,0.35042796810501803,0.3746841114977063,0.39715935117289536,0.3351192287545255,0.3740585052805048,0.40139279377046994,0.45533731322657667,0.4101220098929381,0.38487489537973263,0.37293690234940774,0.42958935988970004,0.3858210484306585,0.39694057080705913,0.35056843097670837
0.4631484009108608,0.3845986645243198,0.4061872651151251,0.390194919606588,0.4298853463849767,0.39835076401759656,0.3872642374026595,0.3604529581637676,0.3905267259303017,0.37216193957147564,0.3679477128442186,0.3531070858762259,0.3568167632881762,0.35720485492292176,0.36090617077837145,0.376943497244196,0.3819717839129201,0.37351659118668534,0.3555437007919505,0.37669960119876555,0.40364152068449216,0.34133264300920885,0.3838454234004729,0.3991031270069477,0.4593883566031674,0.4142785744806827,0.37037072001923427,0.3671999426187041,0.42131306958108355,0.3793488520033334,0.39346363835758846,0.35558627394453596
0.4663394350726444,0.39509716783793986,0.42580881696552036,0.3970453696155052,0.42889793977115076,0.42777896911856444,0.39772881662919396,0.3640137852274183,0.4033278469964689,0.37360780586804443,0.3744024841279776,0.3628774368896496,0.36737549881720694,0.36626779237437246,0.37779132621965983,0.3935033655039875,0.38989052271195984,0.37501004474910354,0.36142306673597596,0.3707308736424121,0.4140596299449298,0.343122042953298,0.38584098258105487,0.4122421099480616,0.4703884468479824,0.417023247298575,0.379804995737381,0.3931862961665485,0.43488868830315364,0.3942171540391241,0.4013487659749871,0.35813171122874365
0.4653578461027452,0.3891158952652045,0.4227884388624106,0.3731981242631218,0.41555295891181687,0.41555980136521264,0.4109803022874578,0.35073793944314036,0.4090803099484095,0.3791381392167319,0.38280335268963783,0.36623631066434204,0.36597421170740574,0.3670443293531366,0.3807859196521257,0.39857676822246224,0.3996772298024163,0.37790324471528214,0.36435803146381834,0.3813324009037809,0.42702656632802527,0.3413552730748198,0.3907825595295248,0.41094285676643155,0.4612928852267693,0.4169083860580698,0.37983829656597046,0.3815503530124336,0.446129938372967,0.38517616950715544,0.4017949313551885,0.3588707028890528
0.4666525764500496,0.3823981358670151,0.4191956664012617,0.35507141594953007,0.4138117030567921,0.40494307165329785,0.40473516100136,0.35794999031875435,0.4081987705903975,0.3836223592213714,0.3795356806735701,0.3654075652736789,0.363512312842612,0.3618744799241657,0.3790839554476306,0.39502968308210323,0.393575823698516,0.3772755638217661,0.3671300958829379,0.3818065579044867,0.4307934907505271,0.34413908439893365,0.3879287560740168,0.40671316953558584,0.4675658209287691,0.4175617454637088,0.3804839916095415,0.38000923440923295,0.4482668689006481,0.38737816552280097,0.40054293724278717,0.3607587339537893
0.4786520871834554,0.39256664986180906,0.4269658360835189,0.3568904670534575,0.41332023811755236,0.40673906751975797,0.41401825473315945,0.358663245257391,0.3970853622013307,0.3946266183872094,0.3879323017317314,0.37595740849190346,0.36828855223344464,0.3634667234703614,0.3810155729180683,0.39823658673059986,0.39022483294175236,0.37565921741197383,0.3741611459336128,0.3902847365541425,0.4351428676667877,0.353630990674149,0.39421574217635574,0.4107000409089575,0.46424600974788677,0.426302182977586,0.383573171904595,0.38436433716789054,0.4480097103703943,0.3899901622901779,0.40624338464890086,0.36190616677691934
0.49621597374750204,0.39743172720087594,0.4236041931871283,0.36386522392581383,0.4155699094109311,0.4095401610753316,0.41556912713542266,0.3383052926138128,0.38118575127309495,0.4106761478119242,0.404073493855605,0.377583330700393,0.37202797722380904,0.37785076181410665,0.39000664924149286,0.4042736882684581,0.39986468644396106,0.3754269193979686,0.3749758075507005,0.39261162417022794,0.439627772327745,0.3584929223426222,0.39833439456891934,0.41168472327254524,0.45652568396105553,0.4270427881556143,0.3663665859234945,0.37299787548871005,0.44242782671171277,0.3805637469991278,0.4067968597490311,0.35277002302453386
0.49183195065177626,0.3983941805609984,0.4179365288183493,0.3623089300931907,0.41158274993379956,0.39206018683016886,0.4174765206712117,0.33589022508107613,0.3723182676508462,0.4263082061701482,0.40676167776461775,0.3812508105786666,0.3712495983273387,0.38367326661472395,0.36599931105887984,0.38182378528903405,0.38194301317563706,0.3703050036744237,0.37321521392121454,0.38224042706171585,0.44725445741159353,0.37422585744833187,0.41992072418158316,0.4134818706286389,0.45224655102091876,0.43547006785920217,0.36488799985454334,0.36997733803420885,0.4326030894249568,0.3840656190834303,0.4086358859664016,0.3716233369146326
0.5049060126427622,0.4014117573568453,0.40431491028375083,0.3916948927422809,0.41784555417229235,0.3840554490209378,0.4158619109356178,0.3274335268570076,0.37462294735532625,0.4306937920604251,0.4157637082878175,0.3821493706582968,0.3772931475525221,0.3973791110399987,0.36570574554844676,0.38581623554911065,0.38056861276013937,0.3667073239982704,0.3711247661049804,0.38053510907756893,0.4499468384660482,0.3858813831960065,0.42932269499173825,0.4483557494792438,0.4700967750348242,0.44438248888013304,0.39021689886119115,0.39133225700733476,0.44474586452863685,0.4270661931996093,0.42583396771331955,0.39354939477254863
0.5136079968245826,0.41904043707938055,0.4165778275752311,0.3895749133917286,0.40636888747467587,0.4068803228494269,0.4193021178792807,0.33541667994058477,0.37426005522000577,0.4340870463982391,0.41936151634747,0.39332919181093856,0.4046194930024117,0.40114979628893555,0.37076332195882294,0.39202188789447545,0.3813411505697779,0.3955151389935018,0.4018836248061134,0.4120641156941928,0.4645498135114317,0.4018433310919685,0.4399565542793828,0.4431989577392119,0.47450743257583283,0.4490950358370991,0.3977336443573038,0.40947955864157576,0.4425601333146652,0.4327446382689854,0.4276813714327683,0.39298667100614754
0.5221378614800454,0.43274497677003493,0.43398962435352534,0.38862550679505553,0.40070721329048387,0.42413540269255223,0.42582514787685904,0.33103205593783575,0.3690891334271339,0.43357669781290176,0.41806602911042334,0.40851911404070346,0.4153353387074859,0.3941702432748835,0.3622521145230162,0.3757433907461578,0.36803158160836336,0.40311764445766896,0.42382605643987975,0.3993121144421917,0.45414687688951794,0.41358246211476285,0.4422510098960626,0.4412368787638244,0.46028918790538714,0.44474984272136303,0.3915536169815359,0.3903603180974111,0.4309787827010997,0.4185050786974762,0.42608387338030534,0.3926844865366373
0.5209091402888216,0.4302844752650884,0.4439094361505197,0.4054169293095014,0.41359581903022813,0.4267875690206217,0.42532261443031716,0.3479536026480516,0.3570106703174107,0.43343352409764074,0.420409946551986,0.40130318187498243,0.4008991242649302,0.3798950634709276,0.3610592584361607,0.3650914579014887,0.36632384775859383,0.38851707485412185,0.4140881627530731,0.3858658697791475,0.4300929853144869,0.4024692306947115,0.4420757736236669,0.4170425247614576,0.4342307523182148,0.4119838746196699,0.37468834315013255,0.35582357559819333,0.39781785922738067,0.3886820722306868,0.42329121221469357,0.3856042508361358
0.521558998275889,0.42746358192169376,0.4516235276753509,0.32114600273630034,0.4186029538021222,0.40758006063770463,0.42383205905575283,0.35102114715938887,0.3495128693496778,0.43183975261565216,0.412296697882734,0.3770430622334947,0.37854390571335605,0.35953162105103875,0.3452307338250235,0.3516799483335421,0.3623311167180201,0.3813760791101995,0.4016893649702422,0.38888872428719606,0.422786764349777,0.40911541960242326,0.45334261199334386,0.38997281912084386,0.4067967056723251,0.3885184825509683,0.3402530925100674,0.31663822729373114,0.3596719707299891,0.3384777035805355,0.4103318742984275,0.3862134041543883
0.520580757026157,0.4299664291557437,0.46673447293232023,0.33174725817891965,0.42042139978162896,0.40694231144396875,0.41598584987145365,0.375527341508635,0.35303815387039655,0.422735570897966,0.4115527137886215,0.35540345809499496,0.3954870158353242,0.3642328208009074,0.345080266927482,0.3537151285525537,0.362402146895973,0.38080613012956804,0.4045849049746235,0.38814423339611903,0.4310141294558593,0.4279771720639829,0.45030538155121486,0.3949481120404458,0.4009866742870484,0.3749567715261474,0.3326548004949846,0.32844154589143637,0.3544511213651421,0.3542841986244834,0.40503315846680343,0.38643275824677603
0.5172623727251981,0.4328351445951395,0.47042768890537295,0.33269767704171704,0.4323326024833768,0.4048402684795602,0.41715444624806924,0.37208743210122497,0.3559151975005093,0.42485330647810404,0.40153708793999293,0.3423622392090615,0.38862899456178845,0.3540571961115573,0.33747871833161663,0.34567282159030827,0.3671197225864584,0.3753414069488809,0.3944439297388621,0.38368353578484093,0.42205530336282554,0.4181757193616435,0.4406847499425103,0.3853163469766241,0.3896852877411849,0.3738580085811578,0.3356718305504182,0.330460364059024,0.3531335681622679,0.34908373724503416,0.40500986954968404,0.36893571024114696
0.5179105371611489,0.4331736411253557,0.46385997649549426,0.32662533514848485,0.4253117510312279,0.39737106376392284,0.41170410370101923,0.3751333240618599,0.3724721902644086,0.4241410819117268,0.40351157231109097,0.33714890091658256,0.38681945215092406,0.35629370153357454,0.34062333411764023,0.3450314601456345,0.3711316719144446,0.38229258364161306,0.3939663378224178,0.3816643294155761,0.41773016018622877,0.4189815427842137,0.43519306670328367,0.3795691934627011,0.38241613282397574,0.361966737033078,0.32167041494193355,0.3179710399145769,0.34777073793891533,0.3405490765361924,0.3903984761741663,0.3526441613444363
0.5100867327829861,0.45268943004018025,0.4576937629705575,0.3241934800321239,0.4082782832289015,0.39991297833273015,0.4036488692408003,0.3968464331190654,0.3759004413216104,0.40726068719255526,0.3840077488263164,0.3400886388056102,0.37605799750774127,0.33420965543073544,0.33516902427707196,0.3384828290421397,0.3585728418828877,0.3779531407603539,0.3905221738466555,0.3739863638056278,0.40690547186688775,0.4150204888267187,0.43681836905758853,0.3753368954065457,0.3893523708074067,0.3708007045465643,0.3393304504730721,0.3294863438689985,0.3639263522430794,0.34469575315261247,0.3968455065036991,0.3603972251922319
0.51672142645985,0.4428984145267338,0.45808036348750175,0.3201921394480662,0.39423419927264164,0.4080312270887945,0.40611463134550935,0.40556537043228486,0.4028618335952736,0.41762527932509763,0.39162982773290345,0.34779181902203116,0.38172246327563486,0.35659474061120944,0.3567100177082419,0.3602057291673617,0.3547053055596057,0.3713005614262778,0.3918774591315907,0.3753271750890581,0.39399917951170177,0.40670817155018707,0.42409934259705134,0.3573469627186941,0.37607221762432325,0.3633609773367878,0.32827555130786723,0.30713217486106453,0.355845991747546,0.32372053090163194,0.39271484312458177,0.35319312038117484
0.516272174630857,0.41502521555840965,0.4491462100041933,0.32109400142104344,0.3932507367364475,0.39519703600305567,0.38560650306826005,0.4350152538777828,0.40802535906952686,0.42205681046361015,0.38762070071499616,0.3330976017688666,0.3796515121545419,0.3520227043852927,0.3399976037997813,0.35518266233907514,0.3493728489124384,0.3718226862415573,0.39527138329726047,0.3747865210381099,0.3909701692902632,0.409525788093131,0.4275512870918891,0.36728166698786024,0.37500049110357636,0.3654963103693272,0.33905526879883446,0.30271100757895425,0.36362146091579295,0.32816154814310566,0.40439178593061786,0.36065973562833353
0.5153427086283932,0.40965449387565667,0.4481444429008733,0.3202564783229837,0.4008783658144572,0.3808664003110403,0.38317884664246243,0.4394916787874153,0.40981564865725223,0.4183558596141404,0.3905825669764539,0.3337060081010265,0.37799536842988213,0.3568428625212554,0.3436990863502331,0.3589712791347521,0.3574670139968867,0.38134177453554097,0.3993303833443456,0.38172434459748716,0.40184283990742375,0.40944304593754033,0.44459150779736184,0.39046702464319166,0.39379901163783554,0.38101350740630796,0.3477441953971482,0.32660594881917737,0.39562868218297287,0.34727759019796217,0.40887215188948856,0.3672012870570336
0.5127002166207579,0.40846383681960885,0.4462707228111053,0.3179272038923015,0.40939113347984885,0.37009772798874746,0.37389874007076207,0.45789211311528155,0.41524238259435775,0.4144218324984217,0.38112468704100316,0.3258132343724224,0.3787619819347611,0.365644016348074,0.35121325155550626,0.3673180915103622,0.36965791762854017,0.39075194685844794,0.4038460420681895,0.39232062536732,0.4057271933766153,0.4097215735092212,0.45189405588562187,0.3986142961303209,0.4065657078159815,0.3849745120394048,0.35744457031471233,0.337613614425749,0.4006620190237162,0.3582532119029193,0.4102590327962074,0.3637083376296592
0.5129191796392846,0.41105469349987106,0.4436671129248601,0.31072532357547367,0.41766152194468004,0.38232948236527275,0.3816198571478999,0.4461563579504669,0.4330799052429589,0.3847143645494933,0.36734628615051446,0.3193901510599672,0.3525872437138601,0.3663874048660539,0.3505133279665235,0.3704792488923656,0.3626021951229902,0.3779225944938978,0.3776255532895216,0.39266362286122297,0.3876377290963052,0.3897176011429036,0.45092693950357454,0.3920552565153762,0.414826473032933,0.4082396842908861,0.37531096178510537,0.3669583061943669,0.4198485461895942,0.38161424275580297,0.41369871386417495,0.3576356390182088
0.5077225928209379,0.41525169661625483,0.44934826471984,0.3825693633143325,0.41373127708534113,0.3863709010126857,0.38387867771603673,0.42838252430454454,0.42287577925842684,0.3740411487762028,0.3545893005473847,0.3195311128538926,0.3475046844460823,0.3616825616580427,0.34306443015810056,0.3571954173272894,0.35153577378608547,0.37297793768264254,0.3783048533156902,0.38577522714717566,0.38739209075473274,0.38926501668992675,0.45044754253419417,0.40753457404368276,0.43623735524993507,0.4242153897037737,0.4151190378343311,0.3899299848346302,0.4518078729766866,0.42155368610144006,0.42215513649068487,0.3507679352149052
0.5101481049034442,0.409050610036601,0.43606455065330296,0.3857862306490396,0.4092562869385175,0.4033659419583779,0.37165321133064794,0.40748189858736017,0.3805265154633792,0.35108585236991663,0.33046263012406724,0.3145252265862982,0.31930722608430995,0.33693909638740505,0.3098288642094858,0.3264931832968151,0.33693049833887273,0.35022518940518244,0.35852051809484237,0.3744428174326295,0.36843847806879465,0.3678222840932614,0.448306370865185,0.39696946977014563,0.4397517515686737,0.43005079302714827,0.4132807413090171,0.3831541281640251,0.45199006494914434,0.41784173979710354,0.4217956869019763,0.3474380034794456
0.4808122164859961,0.4232270593910667,0.4376063020383247,0.40095551133781904,0.39130620813673156,0.45567466122637906,0.36666201723045216,0.4355342506883672,0.3895643200275328,0.34024065020201033,0.33734899532500334,0.3215276471773577,0.32000931708005526,0.34573476962890126,0.31985273633520944,0.3367532874534936,0.33483329609067,0.35502668887205346,0.3576325379764622,0.3685473357505963,0.3551699856017904,0.363159937863965,0.4688417784736462,0.38419292021296597,0.42219147979231025,0.4378341464452363,0.3932809111278681,0.3604644713345912,0.4428706524616156,0.39693140201359745,0.4261675365283843,0.3770868797580581
0.48036463765261433,0.42707492929710966,0.43312172192396686,0.3916667808464624,0.3869415365868329,0.47719550431222674,0.3726026898989216,0.4369568190701957,0.37746918302160465,0.339872890562727,0.33520526971615217,0.3207826972339283,0.32825601463656395,0.35201548440696107,0.3217899274450659,0.3451119542735968,0.3414132975348003,0.3534484270384194,0.3556182139106061,0.3739675922944556,0.3594681624022657,0.3548738766121193,0.46546937304544644,0.38743062095389047,0.4178432236990455,0.43136828683629025,0.38862540362608705,0.35509874919172496,0.43936354649152,0.39020332496401333,0.39511753003056266,0.3904058199528604
0.47994792566463146,0.4167903813955523,0.4358523501244192,0.3976265815054377,0.3978734768986931,0.484243368079641,0.38401673630176364,0.4255937434349063,0.3783540142834237,0.3426717739267767,0.33385543151813424,0.3168139685075467,0.3442351385848134,0.36002460411576515,0.3181239924617701,0.3456770721631123,0.33917710004558443,0.34891119340235044,0.3752574390848012,0.37606583228985774,0.3807277857987727,0.3678140640512625,0.45937831903958015,0.39849010577674837,0.4272746602874363,0.44011425901191925,0.3958759250952788,0.35542901513059516,0.44489952048095704,0.39869777881113644,0.4011476969934416,0.4050105513876732
0.4660449678637782,0.4275781443292548,0.44157958591026425,0.3874097714699619,0.38617851758862426,0.487014411153551,0.3893122486025128,0.4054091110296438,0.3685760825477894,0.34066165479522675,0.33042333387554096,0.31622052218708235,0.35107275438994084,0.3546935611658644,0.3147195670214967,0.34469150600515225,0.35596223278709643,0.3664552333607429,0.3830285341023741,0.38432083563104563,0.3913209420779205,0.3824382823086809,0.4612991301984327,0.4022187963893055,0.45486750179489766,0.458221960847845,0.40432189775540084,0.3739649242943161,0.4559562622892803,0.4063535505194279,0.4095285218583935,0.3920988682718271
0.46108249209258373,0.46684650330660094,0.4589307404286741,0.37380255081479274,0.36921284670291815,0.5017012605240797,0.3983579520144949,0.4107476584534138,0.34834870215960906,0.33907930659939717,0.33204507437779723,0.3273990804780715,0.35495885879354544,0.35746756085699377,0.32971820279822756,0.3508109843522189,0.35624603009148215,0.3657380892959427,0.381508711245711,0.3878326844748987,0.38974970629697453,0.37658206140396655,0.4390182559813482,0.3947201796805787,0.45802633121551456,0.45127139778429165,0.3888873223098295,0.37502273328788416,0.4507893032320171,0.40209779092845443,0.38999046308275787,0.3885351757566426
0.45420804956205774,0.4723473233796183,0.4565426077409688,0.375732761942341,0.3644673772185118,0.5138715794021395,0.3901067574819291,0.4205631486995675,0.34458331006422077,0.3408659363914016,0.32982461677557445,0.32672506656705863,0.35541537441709914,0.3568357971293022,0.3270823836400857,0.34305178953294735,0.3370272040582776,0.35795854302340774,0.37732796040105215,0.3795910352021755,0.372262622622436,0.3769530369960146,0.4257299658251459,0.3778378752846712,0.435583440131265,0.4385267608503327,0.3686282697413949,0.34863042166375274,0.4273575550585361,0.3837057628414999,0.3746352947799536,0.38367857290012036
0.4587241603217516,0.4763620622242705,0.45130397562266233,0.38181296732369135,0.364104104045704,0.5237136980902901,0.3990443534561997,0.43026057957521935,0.3364141287130501,0.33692449073218994,0.3286547798202248,0.3335740584237572,0.3670452070479864,0.35109005180047703,0.3230248252659848,0.3454074501703356,0.34181029679938485,0.35647768681345565,0.3811942418080896,0.37501955424275596,0.3754570490264836,0.3863833656461656,0.424700465071234,0.3686882115650428,0.4198536060003429,0.4381110113286456,0.3685440640237935,0.33760439232816347,0.42473316520547216,0.3732317901338737,0.3763275277205275,0.39388539207133316
0.4606337342808401,0.4885925664688644,0.4576894809053551,0.3840179842359247,0.3515691868557344,0.5246151818750096,0.4058303648594942,0.44058624663289503,0.3444078356495439,0.36488310012298264,0.33689527538854525,0.3475597672378362,0.4020102325449984,0.3638968959821885,0.3252941419606021,0.35521569853258916,0.3553421349757084,0.38082048252875766,0.4047297147107208,0.3822507653105254,0.3892532695459919,0.40618260344160084,0.39340905358856215,0.3756812687103903,0.4060742482818933,0.4238309717432402,0.3493845950862934,0.30366937488421336,0.41984431454465704,0.35397947268114754,0.3740024178786118,0.40024517791748376
0.4595827353570069,0.4800176268198711,0.4566166870246211,0.38344424252689485,0.34938736838127255,0.5264434124868697,0.41148279232515605,0.4478983313842721,0.3479934030191164,0.38770544057446593,0.3527066861003459,0.3678772673291843,0.4133314267998542,0.37321967032007913,0.34217679378280835,0.3678359004154318,0.36370151702968684,0.3813606075836193,0.40797434373783603,0.38959737843803177,0.39332628239349077,0.40692010491411845,0.3843115219222335,0.3763036178840313,0.3990991774187118,0.43299123772257586,0.34737881179987107,0.30222921547450154,0.4185157855907018,0.35125927310488897,0.378503217562889,0.4093866071054088
0.4658893833672828,0.47555831086125816,0.4598318793804948,0.3851846160469673,0.36367419873507045,0.5289992483448203,0.4165880994429616,0.4494559617030109,0.37499723942384333,0.44076936758111723,0.38621071523352013,0.3932743475416505,0.4434781675644211,0.40037515829875714,0.39560699384245657,0.38813963162246584,0.37084062402870194,0.39899122563847467,0.41929087548885924,0.39309306170813013,0.3976917457745237,0.40917382517938966,0.39080453465521564,0.38187256975602796,0.400546705518437,0.4397124691088129,0.35525825326678134,0.3099267279717912,0.4165985891742807,0.3614576085301953,0.3879510119326296,0.4026467131968048
0.48653977851346625,0.4735549498284129,0.46677482190107517,0.3911534998559638,0.3702624508732895,0.5267299834881296,0.41680739124961264,0.43217560715129855,0.36131344669648835,0.43894258320041313,0.37706454608467344,0.38320613678067916,0.4274925413919955,0.39790704214891015,0.38175807656338534,0.37807080876677535,0.3759732338634451,0.39132462609706287,0.4182893065385544,0.4004593874479007,0.4033161255485362,0.402824928813609,0.39134068115408943,0.39577649148004196,0.4134167308855538,0.4352460621388128,0.36744765201264895,0.3344515533200628,0.42097735365452166,0.3791963430366366,0.3868208512259249,0.40035113885745843
0.4924896199776356,0.47433004847226884,0.46189536482367893,0.385455754822657,0.37340067005261607,0.514129283846113,0.4170538000974692,0.4310310876762384,0.3630465102479101,0.43731061944027083,0.3809666631028392,0.39629804390523565,0.4176613808053084,0.3841536187251902,0.37381830393406895,0.37379444035405796,0.37518530792257954,0.3854612813025463,0.413367950274441,0.4015006122736952,0.40570083662016265,0.40299395600987037,0.3855515425515868,0.38780082700314594,0.41435359338209177,0.43615830009153933,0.3755351067273434,0.321341354634918,0.4253367128663857,0.38411533926160457,0.4084122235039969,0.3918957832216054
0.49189834972227053,0.48269666213285145,0.44671854432150676,0.38671422966120944,0.3673948760866156,0.5123587028522003,0.4178172654269783,0.42226176000416255,0.3584435011399791,0.4313495456070527,0.37694662375890514,0.38995306434264043,0.37993752573240247,0.3759534626893184,0.3538402169180719,0.3637071808697354,0.3733671517792375,0.3842747809484549,0.3805751674365076,0.39892253082051476,0.39418628550616347,0.3772401947658224,0.3690218071593744,0.3707599107019346,0.3956091006105565,0.41396849527698243,0.3708163207713651,0.3056766835263167,0.4114475584289265,0.37051161814301403,0.4079520899624498,0.37945668629014534
0.5091678681123418,0.4522404156115083,0.42368775594293556,0.3898203054093033,0.3990615103705265,0.5092707780112867,0.4174149065694436,0.4541452162289707,0.35419220335290297,0.43105533953903213,0.38263099200923,0.382069895510359,0.3754073872048645,0.3754986167163595,0.3585797763168227,0.3705292345155129,0.3702734876951858,0.3785932715414425,0.36850215818495197,0.4006228986213366,0.38320403632610117,0.3647275358054381,0.367509838444693,0.37593500837683924,0.3940297911308197,0.41105682052148845,0.3729545267619788,0.3231308517814511,0.4145024403110564,0.3739085740423097,0.4104568354683374,0.3941693471948934
0.5132079948629243,0.4418782299495808,0.4087256386740194,0.41974735208424857,0.42453036750635637,0.49526222554808486,0.41799732577464943,0.4500415150037692,0.3759238778692432,0.43881821275130556,0.39050716084308057,0.3751754862483123,0.3739005700505904,0.37068106235863085,0.36694451125657207,0.35544600069523236,0.3496160116286361,0.3704974616219125,0.36442430284919475,0.37496917019534415,0.38178708586830123,0.36881170904072935,0.37559056172895966,0.3685892702334482,0.40342750080049666,0.4079193864383921,0.4004646525027849,0.3365761928961221,0.41391932520171587,0.38501258698185586,0.4194049310817998,0.3888219642072784
0.5056749212891983,0.4481519456592887,0.41399826594006,0.425226058726224,0.4517902308239168,0.49393612834923556,0.43662484145001357,0.43584051885529035,0.3703160263814791,0.4186672204620532,0.3876518912478454,0.37301746076508047,0.36230083231916604,0.33958679470870134,0.34484255975464856,0.3459930703859067,0.36292166252683505,0.364468636114749,0.35728018134070016,0.37914757510918734,0.3900552294655605,0.36308033911715465,0.3806904440713639,0.3717193759146114,0.41893219141479093,0.4199546885493477,0.43067870102743255,0.3457629852730918,0.41944595169527793,0.3955339333166307,0.42780238778183055,0.3819548224866074
0.5063250433829769,0.43471465085223826,0.4119172231307818,0.4172140921605548,0.4401472335569852,0.476781254724253,0.4341907863529495,0.4246256012674437,0.38292481496469055,0.4258554636839488,0.4047685936532456,0.37435231711337713,0.34474360651388564,0.3494368534883815,0.3571354577356119,0.3544776800898234,0.3579145007076182,0.3418244225973806,0.32880240914874276,0.37765035310610034,0.37629447978631947,0.3246123213091885,0.3787214044167373,0.3665345648905679,0.4204980122865849,0.4069275457731086,0.3981165055352906,0.3518520060787988,0.4102463468247753,0.39319424542865633,0.39919989365915615,0.36385886150004265
0.51150763063774,0.4273943177583832,0.41118015869101404,0.40486992529599836,0.442330069026552,0.470396640033175,0.42338355457755056,0.4235329301423181,0.3769863013997766,0.4243635335963684,0.41773985658493085,0.3723851353181698,0.3441810187316553,0.34611215126328804,0.36761122802252194,0.35925795064436095,0.3597160469299846,0.34065473620743664,0.34069127762321477,0.38577182200632015,0.38872601342631813,0.3248018720256111,0.40972669596455485,0.3714182834421683,0.43852893858640124,0.413326715626571,0.40412650170277076,0.3683845149524173,0.40844305001558734,0.40874645137436993,0.3918559443567362,0.3670083610839451
0.5200760677367078,0.4242766844901889,0.39995247776719933,0.40382206768175744,0.39868291708799575,0.45328915504237033,0.4107561223626768,0.4237830332588364,0.3800478265099869,0.4128478079028939,0.41750478584586936,0.3651550735507729,0.34573126717139085,0.3522798741956076,0.3674818176774676,0.3597221251074362,0.3643284447191537,0.3547433181707122,0.33725518699172574,0.38874482257993875,0.38351727581572376,0.3264722799756578,0.40943402648669397,0.36454303913027364,0.43594054821989836,0.390804844541939,0.3930968299769777,0.3654754500185959,0.39458843463960597,0.40469798202963275,0.3702324429484639,0.36280579454894263
0.5202091933903881,0.41745233158765394,0.39009796153914916,0.3936465508941653,0.38007753994368965,0.4394085381262058,0.40153302676341973,0.4166164994345483,0.378975480786469,0.4037664653812314,0.4063219263786817,0.36361649074188923,0.346405173785064,0.3527058759124479,0.3658039554792542,0.36503011353867926,0.3635066535581351,0.34932950907819593,0.32719362364916493,0.36244711216739794,0.3493800255323938,0.3179754004520391,0.3796563017685294,0.33550700959416796,0.4081915329382955,0.3704407253436616,0.3804892585465405,0.33631947184210753,0.36609809098488166,0.37872120732317127,0.3369509460430364,0.36437608025405294
0.5197231934422424,0.40056954892496754,0.37179717922935995,0.36812731819638495,0.3700030392849258,0.40568130719231554,0.4021085088714715,0.3835127652501017,0.38239371567032854,0.40888727703840405,0.41233560229596267,0.3712189797457472,0.3485240012849096,0.347051117451703,0.3688201404129477,0.3711260946397473,0.3663402640986661,0.33923058252059385,0.32608407423595387,0.345116958142927,0.3369683056827436,0.3262046492962479,0.3644003845980803,0.307177150885459,0.38749590705659553,0.3588531006278056,0.3760438885725259,0.29322081137264777,0.3451588130079501,0.34634124620621815,0.32372741223934737,0.3539054672818999
0.5133207959565411,0.3964839830930195,0.37438966258293993,0.3852562910270463,0.36760092070322725,0.39785544916922944,0.39467567646748253,0.3714165264698489,0.3828692401322308,0.40684258883319274,0.41091508584788605,0.36685958534741825,0.3628462518118294,0.35174528735701843,0.371725675606024,0.37163598863555014,0.36521529093953065,0.3454696538292997,0.33411677310900945,0.3376898210302892,0.32883305036617333,0.33355752019859736,0.3689941057575698,0.30669970175416006,0.37481169021806643,0.35588708861785906,0.3659151891643664,0.2948349107391316,0.3308566480762364,0.3334544412470069,0.3179011042687161,0.36696222243350585
0.5098960257753846,0.3671904054756825,0.395987781364011,0.383580465198978,0.3640238795512164,0.405572237391396,0.3936199208629316,0.3804805207025218,0.39201168081417775,0.4134113276191297,0.4141933185288121,0.3654721886617864,0.3824450037074917,0.3525150214391234,0.3767529482159265,0.36733149897720524,0.3625015616625498,0.3408856976537445,0.3325832410799607,0.31404294375857694,0.3000221517471795,0.34926174005054395,0.3405778628516124,0.28773375049454036,0.33937716880797053,0.34256397724480275,0.32881211072513433,0.2786750859030756,0.3008281771501923,0.3033983150933466,0.30137249355065343,0.37379966054578667
0.501448047086518,0.3857057802576164,0.4327865391711073,0.39253207048309874,0.35169665908264924,0.4042475494627962,0.40566695788100415,0.37069742177693005,0.39591621941443783,0.4127107483306327,0.41076181543244655,0.37166236409076625,0.37865843623925727,0.3513906030568868,0.36047043465709283,0.3617068936864803,0.35918925428691306,0.33985305529576676,0.33785132852541333,0.3145647249091079,0.30306792907765784,0.3608404434696611,0.3424894309636911,0.2812445298149433,0.3129196286623774,0.3318137990619642,0.3122134643505253,0.2625995702813002,0.2909139996836002,0.29275477225511176,0.29445469102065436,0.38579740347411373
0.4767779210765517,0.36350703839104037,0.44842659741581165,0.3582994879036757,0.3481999293933241,0.40708565444901984,0.4153173476131275,0.36406348047247056,0.3878655520936825,0.40072481371345314,0.40892914531591606,0.3707863905206578,0.3770893029591044,0.35130254742052874,0.35314280801825276,0.3718128869583432,0.38382706351912615,0.34938693387283926,0.3483428891262325,0.3265897161680182,0.3007317117332124,0.36690495771224185,0.3158396311868983,0.2620893500350865,0.27168991007461635,0.2960037359499189,0.26517961064108253,0.22896464205250233,0.25558760108263706,0.2500524716860727,0.25562437233774277,0.37254115697597284
0.4620410589237287,0.36109016263032057,0.447480407192581,0.34074268391367074,0.3523425674024278,0.41546799435103593,0.4329098358237681,0.35654273640270484,0.4138186854707938,0.4116039138057151,0.44296787110245933,0.3894382150715675,0.4110725097489928,0.40807403014339716,0.3903893878245629,0.40005280925233605,0.4080898440560373,0.36339940594413356,0.3698236552286245,0.33399219973827354,0.3019334096351339,0.3679077184849979,0.2960929989130904,0.2581005327597889,0.2544566071418103,0.27247005086024995,0.24483074444083536,0.21144593641385112,0.24331431712734775,0.245581321479568,0.24537789455293849,0.37892346368083873
0.461647077589549,0.3644961717338026,0.4577784743143051,0.3545815394109029,0.35327116419228694,0.4368363459540183,0.43785737310690676,0.3474998469301614,0.4141766310317194,0.41598435331322076,0.44592186430905606,0.3966089120298448,0.4179193981752207,0.4047053186359033,0.3909070601915517,0.3940612653128292,0.4057168339400216,0.381644528952858,0.3819510484574631,0.33531875778989617,0.307042544461308,0.3741212209826065,0.2843630748648788,0.2698751742117757,0.2594586271993204,0.28542625162415636,0.26562885114283996,0.21412918783070506,0.2443287586104674,0.263317045229861,0.26728010863185364,0.3889435040110968
0.45962336975466067,0.34648159530379824,0.44688979932240885,0.3704965539535118,0.3559334113550988,0.43140003185827736,0.44346766697187445,0.33077351911918,0.41645587445394394,0.4045345241710548,0.43752377323754504,0.39259281303297533,0.40397250245019894,0.4010603332065392,0.3735328688011396,0.3901795320884364,0.39878792602264096,0.3667933544165833,0.36417175845602595,0.31467526828842346,0.29889328363970796,0.3754852601443371,0.2847918695717846,0.26685324364739815,0.25119308303917354,0.2886089209205847,0.26476355542146984,0.21003564114048345,0.2382300575078615,0.25971047403308395,0.2661427099545622,0.392361308958414
0.4570745837459466,0.35438769305733614,0.42887736984646824,0.3777190228189893,0.3883652015211905,0.43380244370321547,0.44850965350117444,0.3339746205542811,0.40530733504826927,0.4055302735587127,0.43412835557536095,0.39836400406550326,0.3954589660356171,0.3980757096464088,0.3682750012654001,0.39020281769617854,0.399903550378552,0.3621711460672809,0.35829411419062573,0.3186900905724198,0.297924085399252,0.37288022500744783,0.27794810894136446,0.264889518429783,0.2501512941451459,0.29688117555917476,0.2581545213613246,0.19890384756956347,0.2340971703165524,0.24609313516529974,0.2777668170397282,0.4092926724117026
0.4460283253546724,0.36662932304560275,0.4158878908260365,0.39001381892261183,0.40047311944638003,0.43573618676334414,0.45690605315319605,0.34706402916355333,0.4000705696288911,0.40699666724547723,0.43762734070170056,0.40450067598124345,0.39820955488243875,0.39758233372951896,0.37891806341401457,0.3961385734675938,0.41562547730213384,0.37839183757065464,0.3702896370481166,0.32646170837666794,0.30190137102212716,0.39812231246344965,0.2812523408848128,0.2648742009873597,0.2492286474062966,0.30350626234969563,0.25694394787213,0.19860043279390657,0.24082584448641156,0.23901456311848504,0.29011648984389155,0.42028660729001555
0.43631275911398537,0.3684935868413482,0.41295282435057207,0.3952318051386076,0.40552243686502515,0.4406362072406574,0.46300025184740556,0.37114485327337016,0.39932099984175634,0.40543636692854,0.43562662961291904,0.3901490659612088,0.4039539198104511,0.40153448652061335,0.37729990440987143,0.39846575161881054,0.4118811897831639,0.39321424426919765,0.38006201492508657,0.3365487171158608,0.3179762605259721,0.40125736316420196,0.28673242785440384,0.27381931126206943,0.25119869762487534,0.3100613626039101,0.2564025349492846,0.20484706611077239,0.24901627747823254,0.24346312913477766,0.29303931003176165,0.4260057025332935
0.4221621719039311,0.33613605230071136,0.36064795395030286,0.3571020595105068,0.4049440652835092,0.3978952517020729,0.44760565947183567,0.3740803305126194,0.3863279642790993,0.40320460446305767,0.4226162887922414,0.3761377767457122,0.38146382772429893,0.39447073789884746,0.372311846901099,0.39488570303533305,0.4127892726669933,0.37713881188563336,0.3729775223218597,0.33823193018040315,0.31737150877695314,0.38992310612340864,0.2893901437544364,0.26845334769880896,0.24467180001905564,0.3034760795674085,0.2518888137140755,0.20522544859379285,0.24475908810353544,0.2401541892258189,0.2920398502169054,0.4124139229023194
0.42075623699340386,0.29518102440275507,0.298274942551761,0.32365759684597323,0.41437958952744175,0.3356443947396437,0.4081793690807427,0.36181721508602854,0.3833389608287699,0.4005551381598479,0.4210168846967793,0.385761345373853,0.3701137566165262,0.406882944723748,0.39075036836655225,0.4160520268887064,0.42801997647101064,0.39042695080789197,0.3773902984123823,0.3600532101050812,0.3461698614448657,0.3690339271702408,0.3008965310883558,0.2780687987433896,0.24340757017719267,0.28666067818843527,0.2417773299109509,0.19816196479251322,0.2429087925793381,0.2320536836900346,0.29260369726567664,0.38931967695794073
0.4232919457322233,0.29207166828890263,0.29460189896921585,0.3277892863960413,0.4362397851900354,0.3430333422687525,0.4010477451410446,0.37057516359763154,0.3760351060878894,0.40332643182832384,0.41541389844230864,0.3955007585644644,0.37396706107691674,0.4080218068528929,0.4029255304750541,0.42170240477726645,0.4342388009720003,0.39002013217618897,0.3740066193801053,0.36191032134034234,0.3470076027365352,0.3615288408715251,0.29727477527652996,0.2775654698851299,0.24265658622255804,0.27808241340386974,0.23869349126240816,0.19594248855663485,0.24351548095931777,0.22742096041228216,0.2852146249491112,0.37533529761475826
0.4432235975266057,0.3024510562159789,0.31304463601534344,0.3459191768128379,0.45236974427681803,0.3485837784068311,0.40664201818518825,0.3763873165082272,0.38737937452970406,0.4001790049687903,0.41508914623614984,0.40148772477133554,0.37778287699195706,0.4121826136085266,0.4116439913260174,0.4230781346485667,0.43291450685269595,0.3877085465922527,0.3703825038567856,0.35101376218529884,0.35163066967374873,0.3658592923506422,0.3184632479903285,0.29503006097337775,0.2539176090363676,0.30208588245419715,0.25458103000278426,0.20593991239910805,0.2588217819333058,0.23831667992371997,0.3228184436850178,0.3944583743369401
0.4554510771727254,0.30253388399677844,0.3161820619617279,0.356714566889995,0.4492432780011803,0.3425801160378947,0.3938619413161159,0.377719632322277,0.3735984656797637,0.39031425373016937,0.40388982237478505,0.39167231174931644,0.3609000896756382,0.3888156620694792,0.3966552163210195,0.41408403120663934,0.4135724041637094,0.37394722145577414,0.3619540013856336,0.34027623177376376,0.3417849116815258,0.3712201632772763,0.3198641148188047,0.2962552525148025,0.2645210705712441,0.3169836762127635,0.2620550920443205,0.21268486030684444,0.2674865888089197,0.2379278230288743,0.33668468544403574,0.4005939816526328
0.46045261672263993,0.3125318610173011,0.3191205806894748,0.36612080224899424,0.4580241422661626,0.3547465094895948,0.38393519487602246,0.39788941845901776,0.3798767335475933,0.38886931335729497,0.3968783908929553,0.39014457032454,0.3702346620406019,0.39061634082080704,0.3959513410790291,0.41693022656831424,0.4222394736943398,0.3780721654261984,0.37148850805162187,0.34245439133310696,0.34033313403212057,0.38718928136258746,0.3198165636537588,0.29107056003920767,0.26782678629080087,0.3043160054231066,0.2573849300949132,0.21802011199312282,0.2729094623014578,0.23768332851338375,0.3342967632447756,0.3967095844520851
0.4656855714726926,0.30513446767863317,0.2969394491846577,0.3543619561614148,0.4540399648388253,0.31801628185127007,0.3367324893988619,0.40315806182976066,0.38727187627441595,0.3573172416864165,0.37537903101024644,0.40483811796574165,0.37587672213249135,0.3940764787123103,0.3870403184246587,0.4126564820850324,0.41992424898201763,0.3945620137379932,0.3802069837979947,0.3625292163880984,0.34119572702209083,0.3584904973763579,0.31860697621146455,0.2901230964243825,0.2611438228806452,0.29762006067773655,0.26227021201213324,0.2115433093954172,0.2779613389921122,0.23397798340341805,0.3388962806079997,0.35078410750792427
0.462738437403853,0.29492889773450914,0.28717325192424337,0.3485024085823682,0.4427828555954691,0.3088401467325159,0.33014337940708227,0.3973416787596251,0.3901155696981173,0.338329727185645,0.3521701292039056,0.3995937747262129,0.3776373435044036,0.3764116746516126,0.36249755995345817,0.3975418440859088,0.3989023679680577,0.39146150727335227,0.38770308446294366,0.3621962384469071,0.33785450880132767,0.34413192817540345,0.32702095912707196,0.28887497097581377,0.25391938925879093,0.2877831477697787,0.27264755252380524,0.21462509591316503,0.2835102681621515,0.237314878213111,0.341222340301797,0.335589408301879
0.4669457541339113,0.2925190432970323,0.2818709235083987,0.3415736778781802,0.4495389959347029,0.2999859650708203,0.32782721468885145,0.3695886875175705,0.39793001556150526,0.34734842718121267,0.3537931867606843,0.3881127271717816,0.37225648660179766,0.36900390091946556,0.3416637062427065,0.380311630338594,0.3628254967077657,0.37445089154861133,0.3613316651627114,0.35988749630350214,0.33194329266885303,0.3198509887966607,0.34276758400307294,0.2997742986993175,0.2699711019380544,0.2962852549814837,0.2824183787546227,0.22492129090529364,0.29086151329787013,0.2521420824376818,0.3596976777761355,0.3339672990209511
0.46705955682190814,0.2961234951113873,0.2858337531332147,0.3393775979396302,0.4493480275677868,0.30459831123405046,0.3283733630871564,0.3730876261690655,0.3923274345795249,0.34834856118959107,0.3538466937129159,0.3822783997753494,0.35745493100769243,0.355155656728714,0.3360419633713471,0.37579247932460125,0.3499889628007544,0.3647767682031683,0.33635025895654486,0.34163806265756036,0.31717949595787137,0.2999528641335391,0.3375216821080928,0.30510288350071035,0.2794292816589916,0.29598054434828486,0.28425353195109176,0.23660023140323558,0.2919633281697239,0.2582618167293795,0.36097004017496626,0.3140481075592412
0.4895404244582914,0.30975383082927155,0.3013356602215087,0.3589563968318296,0.4590108239178279,0.31843075178047026,0.3404656989793105,0.3634250828924517,0.3999730398302977,0.3391309348360094,0.3525260678704041,0.3751288133613407,0.365745268209511,0.35555668252262107,0.3297799789526368,0.3463523844925474,0.33638900957431905,0.3592164066791486,0.33844841976738704,0.3385987763528586,0.3232411972773701,0.30492402500379623,0.3419248378512727,0.31912525580403633,0.28832557894661137,0.306146980050411,0.2953197720099688,0.23608006428827202,0.3053686818041331,0.26644173703264895,0.36980723943273486,0.31133068500612887
0.48982296491012767,0.38557416736934463,0.3542953418664873,0.4148326543754875,0.4716108465114958,0.36481147774794176,0.36975759804948305,0.3745305546583575,0.39804914048208123,0.3434134626823425,0.3489684843482871,0.368538295118106,0.3757953567251906,0.3359960637803667,0.313906899888973,0.32806003021550156,0.3217014169765089,0.3419179759626849,0.3402300222518134,0.3370497507672396,0.32380770898695205,0.31020124037865165,0.342415196184193,0.3319196668011713,0.3137829875704065,0.33513302497276126,0.3348183226611609,0.2645672974970523,0.3417840753638735,0.30510596417948904,0.38951742543650253,0.3138652623676134
0.4868021442077791,0.38961982848010185,0.35878581694243467,0.41223942344339587,0.4709116971814121,0.3640301105444248,0.3742828027983895,0.37937183373908817,0.40497912315906026,0.35473241899173297,0.33843437180660696,0.35854926753404404,0.38097537082543265,0.3389765677834399,0.3127832361380136,0.32037050427897773,0.32209361016377847,0.33785683513786985,0.33429479669931295,0.3277193087929903,0.326103915426823,0.32688622906915216,0.34585807294470555,0.3381580099054994,0.3227007790903544,0.3492529794329644,0.35300984199472385,0.27043871948548603,0.351774886678498,0.31879496237389343,0.4074784287485806,0.324648560523309
0.47940395025948285,0.38330820012964517,0.3334292782139795,0.41088305574509437,0.4548834286297637,0.3572076219907936,0.3670186820550791,0.3862580324846618,0.39167021039342376,0.361417662690793,0.3280255128296661,0.3533007402293594,0.36529439142050546,0.33981345446981753,0.3056919248803183,0.3174568779036827,0.3215250267886538,0.33431337071939154,0.32427834318390053,0.35189846105659656,0.3306404873434705,0.31008564101771646,0.3297565082224581,0.3382632447771177,0.3268551886030612,0.345130877899631,0.35682461107238084,0.28011342265445455,0.3623287809150689,0.3240106768581451,0.4110735226714738,0.3168825379348087
0.48149916391231246,0.37983004377880214,0.3242375728251021,0.4111651283094354,0.44902731064958507,0.35384485742098126,0.3605804617833257,0.3917582030750675,0.40015193338035265,0.37267642222847364,0.3187995671800307,0.3633236966415191,0.37096679822392437,0.35779418753374814,0.30846309558203855,0.3219010103387907,0.3243592349686811,0.3455339341847262,0.32084757223658167,0.3544664597446247,0.33382960914781573,0.3004801489822872,0.34200568786986224,0.3407003474269089,0.3237800628538823,0.34159046411705796,0.36268173082627536,0.2823581260991606,0.36339812864491533,0.3264472846722221,0.3999976267035795,0.30410108740702524
0.47552956276247565,0.3738189436397109,0.30753300703224745,0.4003878468311542,0.4363857428511344,0.3359236413530856,0.36731867040562916,0.3739046830866482,0.40551964957786213,0.3666084289145495,0.3165938487374754,0.356704670629724,0.3651877218403742,0.3457993749509052,0.31197603490827575,0.31462184188693876,0.3158454279871313,0.341161649933034,0.3137480158328541,0.34991641669939155,0.3329445373561006,0.29675963935457567,0.3614308576764131,0.3422704035277987,0.32026748824831053,0.3571146980907104,0.36077513421235463,0.27273266639605076,0.3714011639519654,0.31911516640223553,0.3925252833013036,0.3101521920558796
0.47627834872061287,0.41587155397140424,0.34167276571490035,0.419039784281668,0.4501446718415509,0.385653222888188,0.4185278471282045,0.3786830653461476,0.4129726065820556,0.4108999634432595,0.32449854855416604,0.3569150444995103,0.37779933443973956,0.35539663417044337,0.3233752836902487,0.3190638487781809,0.31610831129878775,0.34328809962079476,0.31722857044584646,0.35185809910808985,0.3390602852918118,0.3135332312734958,0.36970248290306035,0.3608281297535767,0.35417315999411636,0.38506105526609846,0.37024033960962466,0.2984223036036036,0.39326414737046494,0.33571772133215655,0.40113677475350157,0.3665159419499645
0.4808825122677078,0.4335839704487956,0.38938287145138256,0.42874275838874404,0.44666183198202025,0.4126346882426077,0.43478933277639986,0.3916115497470435,0.41445473697688495,0.4489010461268856,0.33879921337205554,0.3703231212937907,0.3884531370152201,0.3803836031293092,0.35720422692436854,0.3383318275069514,0.3293801139185606,0.352852125445768,0.32179242621257953,0.3613539663673457,0.35484155029515074,0.3351896299548615,0.38495127281671127,0.3742254101832023,0.3904772070482111,0.41038788943953053,0.383090584700287,0.3309742212276553,0.4127973055962657,0.3605427222437854,0.39690175692137447,0.38687418064805906
0.47702292766896826,0.4417600249775096,0.45111431369017435,0.4457835885806815,0.4414813665142774,0.44603602372422024,0.44578711161705903,0.4020628655171644,0.40157653667668,0.4502516873639482,0.32664336219057155,0.3779485876529357,0.39745755578290876,0.399112770154572,0.3584184594208785,0.33782705179898054,0.33984902991454585,0.3459218525983067,0.3164123861038462,0.3489097565872128,0.373813202442071,0.34360939649280536,0.3904247915119441,0.3916258350576533,0.41973694655515303,0.4117664926227662,0.4024475456461966,0.3730726438022955,0.43687951134360214,0.37784269043256846,0.3841822861237252,0.38081893343195633
0.49611399436212433,0.43775652210201577,0.45317509512650345,0.413571033659791,0.4315482472785618,0.4542913289863536,0.4416296264464424,0.40389308088538894,0.40364451332638873,0.44562676359918835,0.32235125050181235,0.3876085429988898,0.4043056323829455,0.41778025352102827,0.3718048452486851,0.3414029188821359,0.35103766559165844,0.3456621089394869,0.3156870723367142,0.35309512947889443,0.3795499065033431,0.33830588651066407,0.4014252158344521,0.3945328393716953,0.4483081286481117,0.4019441995470576,0.4235365038932184,0.39495091055959136,0.44915745792659356,0.3978405875303153,0.3937473369326158,0.3841103379844579
0.49897288677110907,0.43750353468101005,0.45188084903202,0.43682204175742195,0.44385050174537055,0.44892263717343994,0.45395490094030777,0.43375402729547724,0.41613102055152634,0.4648098838488252,0.3327204151108814,0.4127934947758362,0.40832716705520417,0.4131336830751901,0.38885974907095605,0.37612943829193635,0.35129250386090605,0.36594392467333725,0.30908806158035007,0.3605790996925032,0.37683059161052807,0.33642560305280717,0.41061889777734767,0.39751039463418314,0.448663078346428,0.405050089942652,0.4195804523493002,0.39106827780837916,0.44939185850307983,0.39890314640625335,0.4174683772383373,0.40142180687443496
0.5016467908145154,0.4418613153901591,0.42908020722223106,0.4338803679644653,0.4329824542601146,0.4396714687851383,0.4462435920242195,0.43756982483125384,0.41481347299024024,0.4661425358567827,0.3350495328115521,0.4177956423199398,0.4154331306380868,0.4277032773012879,0.41940026850953915,0.4013337001656623,0.3730619777414061,0.3827753931747443,0.3252735487457512,0.3575952872506558,0.3775166321924754,0.35719476055769883,0.4131641544915156,0.3857261959154904,0.44916057037008017,0.40521095831970894,0.42681141812758255,0.39739384929923793,0.4512199444258073,0.4025110887607812,0.421576243339291,0.39825730480634003
0.5043448744236362,0.4384898543272318,0.43650849244658346,0.4303759391983968,0.4248882754314606,0.4284766997150889,0.4519701616655168,0.4405962495635088,0.4098395681271308,0.447048280016754,0.35114738684285335,0.42513191693650015,0.4209900383502652,0.42488835550027026,0.42242281052937924,0.4154757847707199,0.3653756702730904,0.3965861996962769,0.3517671718804294,0.36607274185963257,0.39810375379416163,0.34948762055192417,0.4256983962957975,0.3960997489377075,0.46972591615924303,0.40842204156564343,0.43594726529749595,0.4251603014319779,0.46670313848680595,0.43431452885675936,0.4196033706057927,0.38669528175561424
0.5072909072600946,0.44488459786164725,0.4438567132901608,0.42822285634306567,0.45285446691858977,0.4349203022349325,0.4439279278655953,0.41824555203108754,0.40725628368007843,0.43042165955410694,0.3769959145302962,0.4171569860809874,0.43222223424409284,0.4079881646048972,0.397535496284494,0.40884347815803634,0.3588405440766079,0.38710257099966167,0.36299400537898396,0.3466377958363708,0.3910190682886969,0.37315083175635244,0.4400276718122936,0.4132594932792069,0.46189066264521955,0.41917806168558824,0.4300398297336611,0.418687411418531,0.4635814886358888,0.42485570652973614,0.41885826730396764,0.3973779781589933
0.5083927866436514,0.4421140859251347,0.4633452201142226,0.42807369225038366,0.4587144199479952,0.4395133700445637,0.4435864282149258,0.4179224954302315,0.420655261083057,0.4303057391563186,0.37655408749055597,0.41228855671152387,0.4227542981847837,0.3955427509907815,0.3890717014502934,0.405166538832446,0.34383270046174036,0.37769820441735924,0.35328921991480716,0.31367652044630057,0.37679206295480244,0.3666257475890261,0.4147727361828242,0.3974568693508044,0.4401650648336548,0.3975136135791838,0.4201092777546482,0.4123303766720317,0.4534793792604694,0.42343445785497585,0.4099407843132771,0.3929285883385806
0.5121259383691668,0.4334658514212973,0.4686999113737244,0.4283359122143209,0.43882683495318153,0.42985269927868663,0.4333071512568955,0.42815098431212784,0.423816154619565,0.4297331446792375,0.366687595540804,0.41058958480751095,0.4224146246593781,0.38853799375327314,0.3882374600739164,0.4047746272876359,0.34176920279732226,0.37461372244942376,0.34403536419522773,0.3098165631318291,0.3668891305580673,0.36227371788827417,0.4064058507943334,0.39461778298517597,0.43491843675226477,0.39853425706679696,0.4252423705135532,0.4073013501669528,0.44743219728965167,0.42255709515993245,0.40164029802013096,0.39077102274053843
0.5022165141449499,0.4204800223019724,0.4421317653748525,0.42359333990870685,0.4354873633807437,0.42148793501115045,0.4203444880082092,0.42185740702621755,0.4188595976813489,0.4214823717865636,0.37701378895158155,0.4018859761888568,0.4109031339785043,0.3674052603706256,0.38303062623047224,0.399469041410983,0.34120573445200264,0.37422296953158857,0.35063432531503114,0.3172114314390003,0.3662844124642681,0.3646642957724281,0.3973844265207312,0.38282968454428157,0.4186343616797493,0.38799959961309427,0.41686719653029647,0.4032978147810635,0.42458436784238984,0.41437211254802087,0.3989866581507971,0.3779897069073003
0.5006743189019084,0.4225407546164822,0.4282044780870395,0.43798823619201815,0.437214507372484,0.42481468964779523,0.4145153034119921,0.40717172136329505,0.42051625143508237,0.4084936111499133,0.38468553033874614,0.39974012314250984,0.4184990354240364,0.3513586005638375,0.3736080594795385,0.39531597033871574,0.3371594378463366,0.3792060531117445,0.3549404909848483,0.32403975848315647,0.3741415640676905,0.37452006326354537,0.39441963391362883,0.3879493834839029,0.4069871155759564,0.38377235155953776,0.41589115393351533,0.40275162224510463,0.42171219199653864,0.41371501611635314,0.39983251241628104,0.3728424494878514
0.5013567760084818,0.39644812668028917,0.4339366884333849,0.42686786471412064,0.4439654684633821,0.409934821850428,0.40489923014653245,0.4150273339938826,0.4304717072682504,0.4018469782233729,0.398701027323107,0.4004097056340703,0.41124025214072885,0.33873263374587986,0.38805901903709566,0.40682150877328177,0.3466380879548887,0.391696042323114,0.375467378485089,0.3312024622062862,0.37925357888332745,0.38218546639102097,0.3896046746840697,0.39630076474308257,0.4059299739650026,0.37967800552100067,0.41746305150680985,0.4081402715987065,0.4324747350937632,0.41832893733093,0.39781465628336665,0.37611949500303005
0.49608288180418486,0.40876373316957454,0.44617162504806257,0.44990630693869954,0.4630956783686799,0.39506242415734266,0.3997616628359615,0.4121048058933689,0.4095572384789369,0.3880611590878678,0.3963015463820512,0.3678360595658671,0.40035864610799843,0.32471512526434265,0.37340050220710547,0.3988910232646632,0.3476316854935509,0.3961663713507495,0.3806536706034803,0.33398138349731077,0.3791614335225402,0.3882358470705235,0.39224132914681253,0.3989570805014463,0.4022056656316299,0.39086364293446274,0.42295678217895866,0.40318937475445715,0.43907532015939627,0.41144096671222713,0.4033953498514948,0.3942399534023865
0.48363641448674793,0.4061294836736523,0.44255121932257663,0.4265734803711769,0.45153712699746745,0.3923228679951549,0.39355458074629734,0.4082251628629987,0.4079097010483263,0.38693395620365834,0.389331229343137,0.36866645628472056,0.40736005094538835,0.33285522446656246,0.37103250838904245,0.4009977476425206,0.3659057637579174,0.39527963540792405,0.3805272552586777,0.330914534533992,0.3808740034881897,0.39022328786081345,0.39131195244132133,0.4038251397221152,0.3947254157230013,0.38538368766146003,0.41778865256713016,0.3956927525550828,0.43168303061937463,0.40476892809681025,0.39861039202793874,0.3752477580243815
0.4932548943223532,0.39425574577468053,0.4472629092792372,0.4247052028597652,0.45379045549542635,0.3990261283820551,0.3934813690881673,0.40439877078498726,0.4161697963465918,0.38601787125944015,0.380144529189343,0.36989982015498013,0.4096634620963636,0.325687696972074,0.3651815741420342,0.3985307025011057,0.3585430057511572,0.39392192582146773,0.37426810696195456,0.32707309993091377,0.3781859490250733,0.3835231062579058,0.392306713063028,0.40146384263189727,0.38915969719460447,0.3869102884493843,0.408724580232424,0.3897036130863167,0.43455563436419353,0.40440376804339556,0.3970508113989338,0.3741469613598422
0.49346376541965487,0.37523768107698396,0.45404088950458127,0.42473300387357904,0.4440101424883888,0.4143046940056261,0.3793673707795986,0.4007940297879146,0.4039344750599569,0.3696574141450126,0.3626571019479029,0.35057944477515307,0.3641585894756115,0.28544388246706925,0.3449170965414306,0.3378010895401983,0.3456886061430277,0.3696164981454718,0.35720106568723975,0.31919926602686616,0.36512197232389165,0.3742057349136459,0.38591413652454715,0.3918465645629749,0.37635706570317423,0.38040602020743675,0.3953631713601488,0.382198616098033,0.41860972149577197,0.3949425692229904,0.39649228680027543,0.3715336792639758
0.4882619688287125,0.3535797007066052,0.44465376717227467,0.41589349759515165,0.43625300191651845,0.3996367740403921,0.38586131759730014,0.4099143376199484,0.3992844108138584,0.3533612779452996,0.3606221740823417,0.33466996613097133,0.35195796475085916,0.28337082788940127,0.34622364755092055,0.3145938438583232,0.3346416327491104,0.3753912973051733,0.3546154652871671,0.3242208510759138,0.37030306894869774,0.3715579036085981,0.39092244672918164,0.3892644646785087,0.3630138255873871,0.36343156259163817,0.37224890443558456,0.3647176700720446,0.40495716247469044,0.3832842104017692,0.3859545572437716,0.3606012024662297
0.4874802608538061,0.36575918082921394,0.4501738663213252,0.4215070943173513,0.4161787428096406,0.3979004441645772,0.38193169393952037,0.4070395821466568,0.3798868870036851,0.34030033425544065,0.3600981721725554,0.32744364887216265,0.35035789505333825,0.28400615798082407,0.35131772454383486,0.313855445940629,0.3320528951759224,0.3775801225687728,0.36186722422840195,0.3560490564981644,0.3897370098805114,0.3930339438839789,0.40935611620769624,0.4062817067987027,0.3937048971526789,0.39264009881334433,0.3889779281896201,0.38004961168357526,0.4256048426107063,0.39083111854854813,0.41162718526575726,0.355183250654649
0.473277915107708,0.36577285942609467,0.4404924186029193,0.42356444681485544,0.4233675869474599,0.397321296905877,0.36679105751297086,0.4014087493321429,0.36248960986792494,0.3204034652700393,0.34634066580363904,0.30770646781752914,0.3392796015181633,0.2804998800055923,0.3227624049982336,0.29778249838049253,0.3286403284856302,0.3760543006571967,0.3697658441109716,0.35461630014475765,0.40725932220402783,0.39773203173842575,0.41360471240163904,0.41649305526195,0.396217310732468,0.39063904154744805,0.3747857727715069,0.3866682880778304,0.4291677899797748,0.3948695376211708,0.4141109627376666,0.34874795171088663
0.47884709086894367,0.38759069826618564,0.4469790729329863,0.43953625474279373,0.41899066933109946,0.4042544309128646,0.35588339494063886,0.3997459607010715,0.3554045451478837,0.3134785223628712,0.33573318649351547,0.3111216981373416,0.32643153455037627,0.28072466893958253,0.3089461955111306,0.2855666427220564,0.3158594470130206,0.34932564567928504,0.3452992988005782,0.33892643796701283,0.3970533387693811,0.368923305784066,0.4244409926086075,0.41330471550153147,0.40628827239627,0.40100023366079657,0.3830452179111558,0.37620734542375833,0.4390691603196567,0.39569635251210794,0.41977800191480524,0.3415978866066162
0.48007472608726587,0.39597905054830596,0.4671472211767383,0.3968360841547067,0.41900963439302424,0.41427146591773084,0.35862070219938164,0.38753216698748916,0.36281960175219213,0.3085623024682368,0.33653277325151537,0.30485090852619745,0.3043293718884049,0.29388833691576877,0.31199658966402727,0.28384722254337313,0.318578705479386,0.33331877439572655,0.33379746701215784,0.32695910733764294,0.3878237419301042,0.3596937273476129,0.4290940047023724,0.3952242284248848,0.40952802602974564,0.40427267937342654,0.3868279507901248,0.37057376540390624,0.4331017455667591,0.3905204690270503,0.4203028064410825,0.3392125794359016
0.4819283904753945,0.423401411900339,0.4651473881761565,0.41632295373329087,0.4206622310185552,0.42375538224810166,0.36134177430634595,0.38542101104040216,0.34467321840518633,0.30824134535746317,0.3320176714835388,0.29406709048744767,0.2822944176478502,0.3017699184505431,0.3058440526175933,0.27667090667650546,0.3152195526248111,0.3277986130302994,0.3238989988551954,0.3356347313967926,0.38419537889274985,0.35798133449677316,0.4365261243323017,0.3963756241304332,0.4127694200357979,0.42819184113502595,0.386605425015771,0.3639850764995785,0.4302246908654441,0.3869455123835147,0.4261268119899358,0.3361660179267119
0.4857570998183296,0.4146811380447371,0.45346745853320186,0.41870148830294623,0.41066257633487413,0.42769769350270853,0.3637192135284996,0.39955015566746993,0.36341793125680205,0.315293600840198,0.32488662767075965,0.31062276438929154,0.28286737010869356,0.3090731227367192,0.30800128885106837,0.2783876501905222,0.3136566152984683,0.32326465343873795,0.3232287372762241,0.3401989549454756,0.38834826872961814,0.3547350290953532,0.4424260105617427,0.3989346801984147,0.4201332287228672,0.43268403389915966,0.38145421656421075,0.3688479553139878,0.4270731504646344,0.3963824190950784,0.4187982835528657,0.3419374528217115
0.4941698140224976,0.40385764108083394,0.4593522058667531,0.40871529527945416,0.4174425920042665,0.4322252387727273,0.36548218486738804,0.38973335778952634,0.3626076396504948,0.3167049678934271,0.32842390454881387,0.31666402470489147,0.28558748804038425,0.3105823067277945,0.30217636239888207,0.2806548660033773,0.31598732512227484,0.32491942318849726,0.3272419462008445,0.34268665214408883,0.39392174258529233,0.3606172897678742,0.43740419864520813,0.3905633666368299,0.4240573287578643,0.4211062325949553,0.3855145894160946,0.36713673547030967,0.42650296852571734,0.4004324920832529,0.40018544761587704,0.3694130393059253
0.5010924418452954,0.4118238441700206,0.45386858342773007,0.4121859951895413,0.40344472450467417,0.43021288117820955,0.3625203830101635,0.37891195761549235,0.361637715636867,0.32199751973160373,0.33534858381194654,0.3205369817771554,0.2865143422684541,0.3147422822189393,0.3044945422440714,0.28520063190823924,0.317850081679544,0.33499863493108867,0.32547685962337,0.34115688684272744,0.3984489751962759,0.35847097091563324,0.4408989684835826,0.4131093340223754,0.4352470568606912,0.4243508118286642,0.39548319946760335,0.3705257155280519,0.4259666314319015,0.4043669844492942,0.39470048045813183,0.38945859396653426
0.5062094646322295,0.43875789583583397,0.4564069879036679,0.41232427938769667,0.4154481514240414,0.43730792305352645,0.3719014073828169,0.37971253869010907,0.40432131895994367,0.34597133572679223,0.3606583402252079,0.3444417995804657,0.3170975516241362,0.34774111292157567,0.32594047317236474,0.3134844999117948,0.3294784509294251,0.3574820625873744,0.341375058483645,0.34419406640654926,0.4149694552347007,0.3670278007941725,0.43661212259766974,0.42486093902008665,0.45105841601567226,0.4198264595017818,0.41401416006240555,0.3844932798412882,0.432045693533887,0.4135342439831619,0.39188074714714516,0.3814629362542252
0.5192723933482829,0.4631772300184689,0.4722775850737177,0.4237684240811564,0.43049736553702045,0.4551664921753439,0.36665184274731916,0.3810239126869087,0.43527294529856825,0.342109020534777,0.35708902342829485,0.36814188168909845,0.34053683222005127,0.3527663125591693,0.32598144765413856,0.33638565814019245,0.3463370663004119,0.36612564445889106,0.34395375707946424,0.35689721807477054,0.39978034208043634,0.37322525968550596,0.4279248753123594,0.41172497172743316,0.4736705621205861,0.42490530880974914,0.4436361960964302,0.41087530278553636,0.4557507864292355,0.43476195448490057,0.3984849337050115,0.3779195382473713
0.5280586207262072,0.45879342169863374,0.48313065432124275,0.40535845836778117,0.46509666937710586,0.47255245832320575,0.36413309604372346,0.3879005688172238,0.4389722341051712,0.3412509185608091,0.3438733322506643,0.3636745400301647,0.3446543625024433,0.3564556122177711,0.30463510820843853,0.33579471835743907,0.35607230730439454,0.3767827053167624,0.34829724699494147,0.3670133726220243,0.39157371920621953,0.37855234484240863,0.4213966926174592,0.3932969211026172,0.44394517232307956,0.4101622624728815,0.42756247497330346,0.37841019984992796,0.4163552067505973,0.3990593449143388,0.391983974634443,0.3987476583182773
0.5411508871718016,0.4690606716234106,0.5131041357374098,0.4071266388785637,0.47615692931205555,0.5214211840013123,0.42909780113876184,0.3841975984020146,0.45562078945874895,0.3566499656917702,0.3941340429391849,0.4110701878186272,0.37105371865371023,0.3954825454574073,0.3186535205369326,0.3821599266430414,0.38112467165033653,0.40246258512122185,0.3652390759887612,0.38876306250825216,0.3974143246196472,0.3771613756763992,0.4285036383557378,0.3850386609394301,0.44897588886237916,0.4153277138255034,0.44937655652512015,0.3775439127057443,0.4191237508602349,0.40690748099670315,0.39776945239464007,0.4182184531880466
0.5424215179577832,0.4631073347643743,0.525171653649882,0.40922699290942666,0.4820009671895382,0.5322754857019781,0.44774647223565434,0.3626695879850219,0.44136727689731126,0.36645252567313114,0.3881148684932066,0.40878303555301826,0.3898038171564956,0.403022211322798,0.33543623457465904,0.4026226961714168,0.39764761251313974,0.396773419422603,0.39165615557700234,0.40459280188930485,0.4123143302349592,0.41172552816390695,0.42557972717287207,0.403188415778322,0.4535686784014293,0.40655689090307723,0.44720538722972775,0.39130068233891624,0.4545779277584574,0.4161738131812203,0.39691800978740643,0.41320374219274125
0.5408767116538513,0.461438268421921,0.512457810248439,0.42815225834198384,0.4926122141178642,0.537031316875908,0.44404259290618164,0.3696880736538345,0.42065292806535,0.36499003447031436,0.380112424994075,0.4059489613058115,0.3963785630538596,0.4014353039203894,0.32534676722237477,0.3956463586101327,0.3959825902977131,0.38865713143320424,0.3931735981097731,0.407699085507128,0.4035750041700691,0.396948963381632,0.42611483529915156,0.4128585408653903,0.4408265564972433,0.40373007711465675,0.43089557228503433,0.39202514551233036,0.44474847966332137,0.4168787052728269,0.37012379353130087,0.41463483667092077
0.5419309345375107,0.45234832224937876,0.5111824616114303,0.42901363661949565,0.4673414429996246,0.518999497527516,0.43545712271184933,0.37009854748243326,0.43594613670302423,0.34641034693847556,0.3823225560073712,0.3829629477094854,0.4283798249883505,0.3978610000146084,0.32808767272091505,0.4200105300294614,0.40690083780499864,0.3992407751282499,0.4069267298831176,0.423179496254345,0.42187402383877365,0.3900251406093448,0.4286179909468189,0.42338744314581356,0.4484449747612009,0.40545637297064646,0.43203688278722574,0.41446094858547267,0.4616770931144194,0.42898905513886637,0.37205457807689135,0.41288752152132213
0.540727038660461,0.4310201540137063,0.5039564393352013,0.39909493301537685,0.4669518973786307,0.4991431857778184,0.4376667306422615,0.36012487195900716,0.4363823566987688,0.3566326019014289,0.3942362160975505,0.3923913004402164,0.42532039339621186,0.4081066751603987,0.3297482192962869,0.4153462565361599,0.4039263511065371,0.41355482767290364,0.40260405195967175,0.4188990242154329,0.42217415905340316,0.3947713817062446,0.42516455872922526,0.41913820160275855,0.4387185453948333,0.39770799117361216,0.4217013625535802,0.3986560561484544,0.4556180359695608,0.42053516927473245,0.35481032301933496,0.4084611833366473
0.5376566812040228,0.4493856660140567,0.49881713693392954,0.3970006370335488,0.4637197584243013,0.4889408790834081,0.43112986069721865,0.36234756826269815,0.43499520447739554,0.3524807047942743,0.394035893910839,0.39213824078386317,0.4189686097958564,0.4019927383547715,0.3392723004857039,0.41214925543581366,0.3973530019522546,0.40330498803705445,0.40896680424247744,0.4259840173715998,0.42290517470595695,0.39730962892377014,0.426239083584832,0.42509776939116295,0.4378349126635827,0.4061735392139555,0.4127910949474685,0.4004492448867624,0.4413956748715754,0.41111174038175885,0.35944773290410037,0.407101077273906
0.5343902354727857,0.42226883247975855,0.4949007488689551,0.3844033078054986,0.45409313855978994,0.48576181034665034,0.4308182967707081,0.3607997792203464,0.437519954732506,0.3479210120457528,0.40236957922925515,0.399523634383925,0.4398021323116454,0.40178230908042656,0.36115561319632805,0.4110905888087925,0.4014724393167599,0.40239828981850323,0.4264911819891169,0.4373695531256488,0.43204117959221155,0.4138034788643457,0.41383053935262804,0.4208598737876953,0.40841234361773043,0.4143100539083767,0.4192891295982828,0.3950916636960599,0.4341182654888263,0.4031625517220904,0.3539580773463725,0.41640500505769756
0.5260993269791764,0.3942235200335994,0.49728857224529976,0.39039893072027015,0.45861962380178717,0.498973416925821,0.43745642268512963,0.356936098032288,0.44202630954916106,0.3519732928246861,0.39664481305826127,0.4011264539182068,0.4472574560292461,0.4039993003197097,0.34813013525003395,0.40604753145563227,0.40276747403727886,0.40469550829782336,0.4288968405649499,0.42772112524948147,0.4308652768840446,0.4212778473650178,0.4118948701474275,0.4041089112310136,0.4086870549387583,0.4403796101695709,0.41877942342995433,0.37261422600110955,0.4388943627420576,0.3933078986294544,0.3732296357810605,0.4379587623779721
0.502277151538279,0.38082929069409144,0.4837784061250932,0.37817554125320924,0.44319953923207517,0.4924156038426632,0.43319699134891476,0.35300107716646467,0.43309724195036736,0.35569929828647767,0.3973186893812156,0.39596915938072236,0.44620490363359555,0.40721282428654326,0.35071878968884573,0.40129743026633563,0.3946647927479367,0.3942619108093447,0.4382890053328408,0.4264122612684178,0.42944592076751836,0.41749979580820173,0.41728507656985336,0.37795114378884365,0.3820383180585962,0.41533031954467503,0.39390261432732665,0.33215590945444223,0.42668157689597086,0.36121640692970935,0.3557432653503309,0.44774867228777293
0.48356748209623357,0.37074052570341115,0.4578824310162649,0.37707483427679617,0.429118616420342,0.4820416975923856,0.43122392856395303,0.3534834004077831,0.43921554194033297,0.3617752380520145,0.40620470870740705,0.40878679616121916,0.4501612627778882,0.4133510955761138,0.38165401677753175,0.4187523196100705,0.4079082358550989,0.38060716734177247,0.4412722866030607,0.39632587679854064,0.43134691054144175,0.4246792513107763,0.4313897357388377,0.3843948603725564,0.4068909790537729,0.4300769572386213,0.4079346727930536,0.33593670880557136,0.43197233764729115,0.3810531695993071,0.36093374283939916,0.4540483524143289
0.47907099840560535,0.3608982620334947,0.4360303572895094,0.3805971756864407,0.42078216365190674,0.4645316575333031,0.41449682518759656,0.33890551573196187,0.4266447777163415,0.3708882414494352,0.40254776215481425,0.40711064670352354,0.44138083167631037,0.4137656195448849,0.402210712102892,0.4192649370644164,0.40117296412933057,0.37781610084618983,0.4317354700436968,0.39504938014414404,0.4190854490385506,0.43173228594351576,0.419956054492229,0.3875412233458853,0.4083949758426596,0.42820663101749684,0.40801249689949864,0.3326150814422299,0.43038509954036974,0.37473313597426783,0.36459859715695647,0.44624004574270487
0.47899602961295107,0.35209113022594357,0.4388616782085738,0.371841046397242,0.4117171752051209,0.462301616572494,0.4039454207454195,0.32481739726459724,0.43881941928440343,0.3575240947426874,0.4121519723210401,0.4120544833900257,0.4385535479233876,0.40904301115651764,0.39259063704751296,0.41811686348275817,0.3966213849883207,0.39049026894261213,0.4303733541191551,0.39377514905501465,0.4215468012402214,0.43180335810068454,0.41796042395251926,0.3864605707739083,0.41076187978940415,0.4434537554346421,0.41738077110549765,0.33875794284137084,0.41762438316677003,0.3810721629388388,0.36631743547990325,0.44331218252895405
0.4759742452804477,0.3690193129234271,0.441672930371931,0.3793038662623417,0.4179308730313414,0.4539153937670574,0.4084206926387644,0.3132923379610094,0.44562990826031895,0.3635305530419749,0.41624710116667607,0.4027025804973101,0.4208919804054419,0.4113091870392575,0.39731266350107053,0.4198910308271609,0.3960518275182548,0.38615570480947925,0.4265262837236412,0.3833747811732687,0.4131231742835053,0.43371480397572143,0.40762112739806405,0.3804197626640599,0.4084584476684921,0.43878473418684855,0.4242250411730875,0.344532139589221,0.41990742722055496,0.38595923911446006,0.37673814579133447,0.4347862947500569
0.4722747623196926,0.3646880644359494,0.4449822485578915,0.3710129826895259,0.4201418661401115,0.4719998496161565,0.41467039143485007,0.322872031782017,0.4392139606256264,0.37745319910954844,0.4248734790402271,0.42512751827806666,0.3987672063909922,0.4066638040132442,0.3973407821987239,0.41839847935353197,0.39674734701353026,0.36678586862476864,0.4185271965426668,0.38037810806051253,0.4067509321098341,0.4255470402894238,0.402770532963136,0.364690668893709,0.40330487962359696,0.43850702610441517,0.4168193247763342,0.32889328168209325,0.4113902532505874,0.37724125360169924,0.3781312107301689,0.4354744406713977
0.46055391378634936,0.3759873069050621,0.4571668008991397,0.39331125965622643,0.4212034639058587,0.48023070046753014,0.39885166807260525,0.3250708344498096,0.44291450111730846,0.373582989396383,0.42529670503479944,0.42456183792502394,0.3982227041988941,0.39460118170227454,0.4009115313705614,0.41947043624763125,0.4020472803817819,0.3518698807166024,0.4142744983632781,0.3768537778834303,0.39964031593467153,0.4214290800221295,0.4016609128405176,0.3635064783720952,0.39908600736755306,0.4423632212902699,0.41172682659453647,0.32979819259921017,0.41673757455345956,0.36505428125966205,0.3859905883097122,0.4326177170525092
0.45853440662989753,0.3800939155730166,0.46028449636534896,0.4038078282828963,0.42071650602286614,0.48482919684383896,0.3950119623005685,0.32813238802636663,0.4436650583710776,0.37493424457933877,0.42018739698188085,0.4182859307675725,0.39931370759789847,0.39547479477445463,0.40240044418410026,0.4222932492097596,0.41126296008283475,0.3529478241820853,0.4088570554272089,0.36472927289610657,0.39480583315947776,0.421824985289897,0.402214519094135,0.35341908679301987,0.3907570995571038,0.4411949046345522,0.4024718994129083,0.3283261378201569,0.41861780769574125,0.36243027079737666,0.3908937518214661,0.4346453747422129
0.45922177061617453,0.39556325250826124,0.46534406400013717,0.4126391832222963,0.42392249268811705,0.48524097710836495,0.3873991653208514,0.3301070749735081,0.4369129914071869,0.3823701718748724,0.41506498604378217,0.4214797672454461,0.39275859484311965,0.4035347666157093,0.397789843822619,0.42946058950427796,0.4125318407721967,0.3550684074160324,0.4029911961653733,0.3715350800224887,0.3941150793808172,0.41557226352705495,0.411517870660642,0.3559951590227407,0.3995432779538526,0.43591245821585206,0.39005399571441574,0.3352090465663248,0.42894978239844384,0.3600781345291688,0.3974038662551364,0.42837862149601197
0.4656115707241945,0.3937104114326072,0.4544446442939015,0.3917392527075169,0.40311937318285074,0.46937008198534663,0.37974929413398156,0.3333981392957829,0.4250705760159783,0.3730429736362032,0.40628440889039796,0.4058952413830638,0.3913893583185238,0.41468087757132605,0.40037932978288904,0.4280796018714809,0.4043325163270558,0.3513549743389493,0.4046854007375729,0.37834201227800884,0.39579945584463033,0.41516528653990514,0.41075582969636887,0.3585514334740595,0.38850339532954875,0.4227257328778942,0.38614244848974805,0.3426420739685474,0.4236095897887699,0.3611627970641284,0.3825187008369831,0.42338860939186146
0.47930316722553423,0.39459545116494005,0.46192143776956024,0.39756560988662204,0.41178071151415246,0.4779349686937086,0.380117111224408,0.33272842587651263,0.42225376076976906,0.3719532618940129,0.40682486679375085,0.38397932070540597,0.3866279118069742,0.422671082976522,0.406777160602275,0.43184032129645494,0.409480713133394,0.3556626997136285,0.4049808915104087,0.3689789892678836,0.3967957746367581,0.4157101431374968,0.4131666078496963,0.37591999509305773,0.4102366375771429,0.44003648637233134,0.3895131121072785,0.3800126190274092,0.4418140240512666,0.3798109039910058,0.3977525571277761,0.42089127862288084
0.4795217834642187,0.4016188981333001,0.4777462363154512,0.4082805393115592,0.4063837195492037,0.48743794802024343,0.3805782551049304,0.30756391300623803,0.41830081142109193,0.3736862849226399,0.4121686239533943,0.38129681568745805,0.3792599839082705,0.4230839632442271,0.39293412100917663,0.4259344728938325,0.39769038451644356,0.3572303676495083,0.3998497670996702,0.3814328543344505,0.39102334434173397,0.39824655173979223,0.4040501956577779,0.37031558030944245,0.3958105303298378,0.4303695330396343,0.349761364969626,0.39670965183891166,0.4473284188098071,0.3687843818336937,0.3956471009271086,0.4037977357299727
0.48196052204907075,0.4004176825034021,0.4669343130144211,0.39913609300429953,0.40938647160237224,0.48482884896038425,0.3787333579533014,0.3155818260416089,0.41600124554015705,0.3714526620854742,0.41451631906042175,0.37627874713407405,0.3740075684522288,0.4205161217044428,0.37451091480825727,0.42181601763632987,0.3940514157790273,0.34993169498108084,0.40258326960867913,0.3799657939379407,0.3945440674107825,0.3975051695248518,0.3989159891527922,0.37225686322426194,0.39107769023040323,0.4222301693518342,0.32843785998998415,0.3959094600357482,0.4491824253001681,0.36658668885113627,0.39149380839278664,0.4023125142786265
0.4757057670678493,0.40010353638197727,0.47359124697057836,0.40348842569861526,0.41908177305213046,0.48507265678886735,0.38718271591018505,0.33994492404490195,0.4134810619199128,0.3871373580100719,0.4184119295932313,0.36985366393756686,0.3644966368548588,0.42151368135349826,0.3766438644603527,0.42395116279936235,0.4019440999061505,0.3510633165322366,0.4047944460015992,0.3794030480331163,0.395498767241714,0.3971022004046029,0.4033021444569791,0.3711772748536173,0.3947434542232759,0.4143749280604951,0.30618903899096267,0.38989170957100067,0.44073248326621556,0.36317526678125217,0.3868757103199437,0.4149637321113085
0.4765468950870408,0.3940148461192713,0.4845239678739779,0.403256946648337,0.4136110820008182,0.49560558891092127,0.38375389584541647,0.34890036358216237,0.41986509715791387,0.3683296556562603,0.41450306244237084,0.381282650993769,0.36892609674084254,0.4191593335790363,0.3660252757069432,0.41534020986226056,0.4006160056504842,0.3686844514448439,0.41436094459118766,0.3906956849425937,0.4082464801161938,0.39718740176995126,0.4103896222175545,0.37962479957982387,0.39089603909726817,0.38502056826127734,0.27880891378701583,0.3816794010584547,0.43217199489758557,0.35381900314755865,0.3779545321698638,0.40722654036457623
0.4780560272979171,0.40616253075041636,0.4700012822333472,0.4121459900146713,0.4026283957527152,0.47448580617604413,0.3810514387569489,0.34234121428584663,0.41529502901715953,0.3564884341717797,0.397271505994506,0.38426182621954047,0.3845369093761927,0.4153239334902051,0.33632637621387224,0.3942789835787025,0.3805703951761017,0.376699889384592,0.41981774074820294,0.35074488467435355,0.3913675688121648,0.40126656524387805,0.4240765312814517,0.38067771657143523,0.3774258223630688,0.36806950881766903,0.2654059404128457,0.37240900576101077,0.42690403240783603,0.34895463714684327,0.370346282649517,0.4050553048505902
0.4905769053261939,0.4155685886514749,0.4575190768141051,0.40507337265509963,0.4025847146435417,0.47404551967365993,0.38771663240650484,0.337584654841468,0.4178172029710479,0.355316798905853,0.3882187399853552,0.38045063149108127,0.3912436528399368,0.4150342305934438,0.33241179026321765,0.3783555415211803,0.363341412811816,0.3961084652586506,0.43700394665579667,0.35159055647144744,0.40610563706932096,0.4084295487566327,0.4263195050618945,0.3782875047438942,0.37902022670036917,0.3760059672780778,0.2644638147081443,0.3747210930549577,0.42304682633390106,0.3668972762700451,0.3844974028911751,0.4255955990222675
0.4911900747623199,0.4085015052775555,0.4587146853405587,0.39978779711818413,0.3987323461744936,0.4760467503610931,0.3920264158336398,0.3285099573822363,0.40856640350438944,0.3672153284361982,0.3919147651536461,0.383595709896472,0.38541233520049867,0.41311705100215607,0.33568930955435244,0.3759057478836518,0.3630057140176154,0.39817393208267676,0.4361946901134594,0.3584129163510707,0.4120522110096953,0.3720641008011686,0.4176401096811432,0.3927096652303947,0.3944638746787583,0.38517633938703116,0.25726729143680743,0.38063532463521454,0.43199437038811744,0.3763237431951437,0.37867549653728705,0.39517724485730465
0.48725114410217124,0.4118226049651327,0.4513622512931501,0.40627067703396463,0.4080862497439176,0.47626104048819945,0.4209456955828084,0.31902413340506797,0.4059998310056079,0.3681325431941936,0.37893901705370303,0.35668310912764994,0.38572493789207923,0.3889839413079247,0.3221837498724282,0.33702633764777373,0.3465989887669778,0.3816844293770025,0.4417687138957131,0.3326998959076767,0.3898105399852162,0.3506291989157478,0.3876431068114389,0.385722595258592,0.3940799997658297,0.3889844955907641,0.24067349695960974,0.37864561768343163,0.4247405239322935,0.37833451203621515,0.3871047485139378,0.38647475825515565
0.4883294326720374,0.426915429013638,0.4595696159274973,0.42653856337400137,0.4308397863427198,0.4743335895459835,0.4191817617269958,0.31315295809819665,0.4062151608686949,0.37488698471494747,0.3798023012544218,0.3625005847376153,0.37949067047953683,0.38214874957618633,0.3255894912186218,0.32192044101599937,0.353116025546608,0.3831043820441818,0.43421600556507534,0.32880519107787404,0.37981805821551945,0.342723778379776,0.38374122889123813,0.385822778853398,0.4043176019023211,0.3967713525233815,0.22829213825577677,0.37677665740904354,0.4248613756084584,0.3708201541068735,0.3878194768042222,0.383685285329878
0.4821056819636079,0.4213977594572193,0.4593594321388385,0.4198013726360559,0.42126670436301106,0.4498899966265476,0.4234694376213325,0.3109857937044825,0.41211966740522915,0.375242922472331,0.3795376022908184,0.38622734226465055,0.37942005340309215,0.3796021954954357,0.31928165853697604,0.321967570047648,0.3543205463659291,0.3760268968433345,0.434327279431794,0.33717496543198855,0.38310765561595783,0.3430702198059017,0.38581669356439513,0.3808988737305448,0.39877523396830206,0.404215462425649,0.2273773517086989,0.3618772206367689,0.40772719650170003,0.370633327764773,0.3629653533076385,0.39318785094948183
0.49278042963594454,0.4225224506252197,0.46477579838247884,0.41235031182885956,0.42726246318130917,0.44794899673414296,0.4121114184740659,0.3465030822446548,0.40943677424644154,0.3707535699505921,0.36926158319356234,0.37998642223465073,0.36863129772867853,0.37492915322096665,0.3131386543192055,0.32178026885798666,0.35990370825473195,0.3810933394071813,0.43789732143568166,0.33198873854124816,0.38878780597174867,0.35349023662981177,0.37771971473850846,0.3874547697480697,0.4186731223881539,0.4131685162156527,0.2373155582534885,0.37356313113173256,0.40864128271552236,0.38720658028861776,0.36023520915711615,0.41247773535978677
0.49356755023853194,0.4229262452733378,0.47221504301005934,0.4157640640195502,0.42430793700389374,0.44428778370384164,0.40181028852531375,0.352975666198478,0.4087137294809679,0.3716599121064864,0.34673582792745594,0.3709280467184626,0.3590028906649884,0.3580535411039434,0.2830802831989555,0.31246606989479103,0.34457344767185394,0.38110172161241496,0.43395823109837744,0.3217393438028148,0.38297229675080796,0.3506200795996662,0.3810694733422016,0.3815974821221526,0.4254885425960194,0.4146764488018413,0.23337744068042943,0.38172901327352315,0.40885927591516713,0.38491842873992166,0.35417656682875837,0.4075545802139487
0.49255567073661033,0.41560093504532064,0.45500465800701917,0.40889406566782116,0.4229494201311235,0.43225963051294897,0.39439830767888306,0.35407074936074295,0.4122863810675844,0.3740799544048307,0.34166870237316327,0.3672133718902762,0.3689229010003079,0.3632623943827306,0.2961100551963553,0.323039110567441,0.347228846641585,0.3885047592875444,0.43318027993063274,0.3204992188801583,0.3816795658971179,0.35272070515915055,0.38257490234245295,0.3759026984865515,0.4171389836117639,0.4156653493268322,0.2329786711913356,0.38041333365541363,0.42120016929537024,0.380205850325292,0.354779716213336,0.40565315309708344
0.47954999879463606,0.4001543737790481,0.441424676313413,0.3879912659848383,0.4242059215964935,0.4259587230258095,0.3926682374320154,0.3655460663710981,0.3854501316863499,0.38455297919337866,0.33571439941085135,0.34816987857831977,0.36433235133585923,0.35176103218535354,0.2925867845175811,0.3186793894361327,0.3379843305772097,0.37985376787034575,0.4211529953836574,0.31813952985416155,0.36591408841189194,0.34112685645816565,0.3797448009056746,0.3619532190266642,0.4317829992202701,0.44027878999472236,0.24128524105522534,0.37602419883730553,0.42533758697805407,0.37541798645509494,0.3561795859764479,0.4026856871355106
0.4465182736474029,0.38347154083063645,0.4314508829299528,0.3747281288731208,0.44637015746265496,0.42804329374661876,0.39807331102582466,0.35931006389452314,0.3863915818775372,0.39473684330265657,0.3425235907413308,0.33735401280067523,0.3499895973193916,0.35612829153784387,0.30327926737114924,0.32475744350034574,0.3486269106527818,0.4002994935844265,0.42356793555941813,0.35646585819737586,0.37747937673280246,0.34391400731743726,0.37386884439945933,0.39302107674881254,0.43135759198941576,0.4304281079849953,0.2344863707781782,0.3754468633930862,0.41019901849252227,0.364114612429271,0.3292506653189795,0.3966144657160314
0.42383568816294037,0.3790627048255066,0.4315159747733282,0.36501547786745764,0.45469499650059264,0.426654685936784,0.40729923079818936,0.3485835846970055,0.3812890639202181,0.40504432579638977,0.3510869263432257,0.333594961248726,0.3409357171692022,0.3499821974278077,0.3028731520220647,0.3305067786390444,0.35824232383494464,0.4028699842000526,0.42470058069448563,0.37125816947301227,0.3717013235046669,0.3392845633287499,0.37734094686791003,0.41308521646299623,0.43791664557418064,0.4257686524502897,0.23820429549450575,0.37553299186496214,0.40246332033599963,0.36437907744475817,0.32656237091942886,0.39094717471258844
0.42384185168953525,0.37344587417591874,0.4097600148054208,0.36801360998912586,0.4612893610302276,0.4222761560089067,0.41006154670632,0.35237495666230423,0.39260519721144493,0.40608293044293303,0.35064650265058933,0.33601988363593055,0.3528668794067992,0.34019822239854447,0.29548640496560213,0.3288946252852703,0.3581933201515356,0.41156978005668465,0.4432503699882614,0.39601821924658837,0.3940278061479733,0.3676358850166898,0.37798391874746773,0.4128337695956855,0.45218775783331616,0.42702509728633053,0.23850154708136592,0.377136370633296,0.4049818484382415,0.36886987830522366,0.3337991675279677,0.4121845940924463
0.41831414425722446,0.3535131960362488,0.4021167087396913,0.36948224006332825,0.4619365075883399,0.4182500301948303,0.3983071822980224,0.3651826319657786,0.4005339095037864,0.408942238958134,0.37295635584699444,0.36965538497725614,0.3545700294676154,0.36041827338618393,0.30791036886857664,0.36736889151127056,0.3850631931003669,0.4272380385181844,0.4501630403083128,0.431642225379801,0.4214192208635011,0.3952283756034272,0.39462521840024617,0.4168163773214387,0.4624175775105182,0.4300938588895794,0.2621534997451082,0.37197474052590257,0.41150295411883253,0.38688800210176494,0.33175578881089757,0.4165473764500047
0.39881751885101435,0.336531835157454,0.388251781387334,0.35606570409087596,0.4495243108209877,0.4014276494818791,0.3968079743342337,0.3772970507712348,0.4005300403527747,0.42054871903713636,0.39041900918404365,0.37824712870303623,0.3593827064065031,0.368708644126312,0.3213485164836987,0.3991355611872429,0.39356879561900665,0.42111821639739444,0.4276781280131852,0.3995545807174078,0.4477599094437519,0.41074565029062104,0.4621976810484046,0.4185287942528382,0.48686811700934807,0.4667280921191735,0.3074245122287864,0.3481293545946188,0.4285230947809484,0.37626495355227674,0.33479507007532244,0.4417435839169997
0.40116885354023346,0.35231634588077493,0.39448750497700036,0.3568509649542352,0.4546471270324006,0.4145348962907954,0.4027510757050461,0.3873433192783846,0.38865396390734075,0.43712691230000694,0.40544326676952436,0.38084317397695266,0.3622566723408792,0.3719855572136421,0.33862722027706776,0.41352357446539606,0.3962997355123496,0.43803841062821597,0.43688817580340417,0.4083741674865595,0.4993391650472073,0.43729265971699555,0.49069019856506285,0.5035379759358476,0.5236605391570872,0.48632677078863346,0.3419180449720595,0.4167687794359331,0.4292114647022367,0.4012025763368572,0.34960502106698266,0.45440536658836506
0.39732249473011944,0.3691604303167374,0.3808051730414714,0.3629881789127546,0.44912973819929924,0.40989863726345455,0.40898481932600933,0.37423064207421364,0.3860691613163443,0.4399731599385707,0.40973338668975745,0.386274329928003,0.37222595454921764,0.36539526556864144,0.344299272807255,0.40567191466090763,0.38876128195520526,0.4319644398909789,0.434711906786016,0.41670056074175654,0.504337473674401,0.4325266886509047,0.49590445746497414,0.5137225274081517,0.5215318323686164,0.4834501496990647,0.35724565945098685,0.43035573660234827,0.4315090442653071,0.4101776721086165,0.3491406909696967,0.44904257399114483
0.39213572841885824,0.3723082405173082,0.36890608568744154,0.37174458078594685,0.45690605484381275,0.40453177112066674,0.4123651106486628,0.373436501510455,0.3959100224310535,0.4367654577227332,0.4232085740901239,0.397516209842167,0.3819005075673776,0.3773428650635236,0.40367500723068256,0.4241060403467597,0.40573773921401224,0.42862419360743326,0.44028065535078253,0.41976808370203716,0.5034233395706201,0.43714263196580944,0.49756222915810583,0.5116782764535487,0.5243320223388384,0.4822286869126911,0.3736695612670011,0.437143680383023,0.43857377595250535,0.41726903424531614,0.36163461871036884,0.45673469528083116
0.3977063116165565,0.38266988266498564,0.36842561316542893,0.38311187563057414,0.4591994462580143,0.4107019968717838,0.42155095198918946,0.3757991025843777,0.3883657237741763,0.4312033596661003,0.41979008500040593,0.3985034706924055,0.36479574477378085,0.37218497629059255,0.39815656202901833,0.41404603461276995,0.40508166787515415,0.4207477875026777,0.438569990868911,0.4237135183593721,0.506159286112881,0.43552182741878614,0.4960140992943393,0.5142569869445373,0.5282569437548416,0.4815235879975956,0.38219139558987425,0.4439451792097556,0.43945719244990605,0.4228445027930291,0.36486953862289484,0.4574304643155317
0.3966489807040463,0.39050042448257977,0.3655723868766985,0.3907582856995432,0.44101400210898645,0.40728694090266576,0.41959056707981573,0.3887245948537676,0.4039562765759371,0.42585551715960224,0.43133283049344084,0.4229021544485313,0.38725628976360166,0.3873883281474316,0.39526156241520916,0.4280496842993306,0.41112426612114306,0.4361607863960215,0.43803116895577815,0.4167397621494647,0.511547054205115,0.4511364742798568,0.4986540437095278,0.5144971909263409,0.5298449567081269,0.4863726535122202,0.39774716143746497,0.44988257772975987,0.4486973022165478,0.4295886268538318,0.37362527969062215,0.46300904153856026
0.409175129332724,0.40076383971076796,0.3803031669963533,0.4095005059478334,0.43661206570598143,0.40772825730642576,0.4151394185853861,0.38023155579310164,0.40785323877111623,0.425853969495706,0.4364264524138267,0.43054583188855244,0.4051643710044751,0.3964026234595598,0.4029225012274234,0.42686099755317264,0.4100823052879285,0.4420184239357138,0.4356882020664711,0.41547914759571963,0.5191889945249052,0.45266774370772683,0.4956493814086652,0.5146621978860103,0.5322673750787152,0.49283529188670416,0.4304657651258367,0.444394601724516,0.4583112795107973,0.4473947438182596,0.4176410364417145,0.4684741925265947
0.42605794071938025,0.38794108677514116,0.3682496660175012,0.4193797034015643,0.4266217086443976,0.409831731595989,0.4154408117195805,0.39899453441806776,0.4082644048165911,0.42706639494395116,0.44255490908940004,0.42846005643379764,0.4226802197116981,0.41695355025634784,0.4121025212614874,0.44234687379329507,0.4138057301948266,0.4397971182425706,0.432525087649588,0.41709132678059707,0.5240238671172934,0.45631494805016787,0.493142226133965,0.5099674410594177,0.5323964980203132,0.4969447858635028,0.47430058019000254,0.4403509964140196,0.4624116928442908,0.45400366174092316,0.4018354637011919,0.4679397303045127
0.4257430998041147,0.3911166666794844,0.37484016686464217,0.417138946280042,0.4373151164870604,0.40640999554122587,0.42029990300207115,0.3956056596646674,0.3963128607809174,0.4340873253159149,0.4512357050895413,0.4339115493034956,0.4132696146207132,0.43290310768824036,0.4258974812465834,0.4343805024381805,0.40106641333695053,0.42260908127069835,0.42817128817952577,0.40115428001565595,0.5158547674696528,0.4377120644711527,0.4890291369455569,0.5051076856218735,0.5308365080911547,0.4923218518906161,0.500068970992651,0.4378678060460208,0.4607912505282209,0.45257241836274065,0.39210169051340943,0.4620065853812605
0.4348581579635184,0.40912458663721046,0.37981382242001954,0.41127576856168246,0.432261039390449,0.40837634748124846,0.4233722602895952,0.3897404934123548,0.4014443579367937,0.43278366120950773,0.44457210191963165,0.43342850616978235,0.4103731448288396,0.4326754858158743,0.4056347375159341,0.39406231620564797,0.3753228351894414,0.4034798655516436,0.4206170846358428,0.3767522340053441,0.516131145591563,0.42614908148805614,0.4893763428759634,0.5055104683381237,0.5303438194146571,0.49219301566457796,0.5022770898129767,0.4414016285261097,0.46150914870556614,0.44382453798449223,0.39350220820239107,0.455952148187288
0.45100035275157835,0.4447398314202474,0.3932691409324648,0.4459500507197961,0.42645793381979846,0.43343886173778323,0.4387814660870295,0.38250595102371227,0.405089761864351,0.43613822635823674,0.4564783839858087,0.4344455925472822,0.4015845329998026,0.4274563822565364,0.3968551544719843,0.3801549001938624,0.3648123380165555,0.3837133205113254,0.4248809842408761,0.3921038276889621,0.5131952346271329,0.41576701901613766,0.46719507936595805,0.526226935081493,0.5314086606688517,0.4830110991840824,0.4912140559624729,0.47125878823772066,0.45106617444525865,0.4690957209362273,0.4061231006334967,0.43820465451560897
0.465203041372821,0.4415675997554858,0.3745481331493412,0.4560596191281788,0.42042534547319826,0.41705551523595513,0.43391661367039636,0.3875049058553705,0.4110331451958519,0.43262490327973085,0.452435685063196,0.42929695414171887,0.4090424923928907,0.43380113960281996,0.40190449439760784,0.3814496414497625,0.3682343469764741,0.39200192798296446,0.4190493850501367,0.38774446381849587,0.47703680914080127,0.39385165445657594,0.4205540715043798,0.46988676698994297,0.5111676265627338,0.45386541758372206,0.4781525357378512,0.44469287205867936,0.46758884563550324,0.4625301615293442,0.4118091884071223,0.41380014258454745
0.4680537571863884,0.4236028732783475,0.37937475951816696,0.46052328245753266,0.43257940368739745,0.4139887995077186,0.4295845039428753,0.39685891056542727,0.4067111144715605,0.4298241049133715,0.44958221633635626,0.4330960775199355,0.4057047044563107,0.4376329829333998,0.4067242940755514,0.38988017921784907,0.3716939949763788,0.3949644170653954,0.41685890729247504,0.38341837908176896,0.45709214407502363,0.395395550133938,0.4071119859032162,0.40717286070219916,0.507124076103706,0.4359806420530404,0.48075507077968765,0.41748803257882944,0.48070438348728156,0.43692005586446964,0.4112176685606855,0.3946811656920846
0.46735247867229457,0.419668740414499,0.3841335799332622,0.45836884572904874,0.42531367564964706,0.41983845367130407,0.42737615092711656,0.40578562021610687,0.3932975000150261,0.4313627512471589,0.445666180757909,0.42498305207765025,0.4136634984456608,0.4203022945248588,0.40366306387764467,0.3894130816680675,0.37263611376236794,0.3940787431500438,0.4233583501779684,0.40078891712762216,0.4612805312106709,0.3949922678864241,0.40173450623184986,0.39594343658903497,0.492913013248463,0.4288335554299031,0.45969743689702697,0.3919404096428837,0.4648221563461573,0.4129878465953952,0.39939618471238414,0.40260995680445605
0.4596414651638226,0.4120657985358256,0.3926951556953048,0.43709778859619464,0.41765488343786755,0.42016655441269146,0.43629933196939763,0.40165175107864476,0.39692810936708794,0.4364454955312389,0.451279521264299,0.4305522022966753,0.42922822533236815,0.42430740636425235,0.41249192988531325,0.4005802952866581,0.3788236745159041,0.40566164186087433,0.4301350002335028,0.40875702832815436,0.453019317845911,0.40559759570685094,0.41703429222083793,0.38196044299955484,0.48092137365317844,0.44183282003721464,0.4347390909547292,0.37025419631191847,0.45774464837479273,0.3992055341314346,0.4034063673983982,0.43045769210706025
0.46007490986167304,0.3928905687144731,0.40213130458403595,0.4349280427830953,0.4378969518905728,0.4236762740749127,0.43426910294869286,0.3933440377620789,0.41147885407628,0.4449816547969997,0.4376369782353398,0.4363040841221395,0.4309776817311021,0.4223624629707316,0.4151595107446267,0.3931117287243787,0.3767120103418388,0.398876218214864,0.42922908535815707,0.4023473173261922,0.4440113048117846,0.40689388452074365,0.4222021761886983,0.37977433221231366,0.4783170191582824,0.4437427525178118,0.4338070336854723,0.3729398861898549,0.46103198102961285,0.40145936151183337,0.4094479983467876,0.43996309471136724
0.4790154527771504,0.3928247169968812,0.39091867561927796,0.4230101785151351,0.446569288637673,0.4210702245731003,0.4370003520980277,0.4100003828164702,0.4047167365856943,0.44543005404636726,0.42729518740529343,0.4364555079619102,0.42560480542360274,0.41762977768417603,0.40984720958069837,0.3915926566489558,0.37621978181913107,0.3927655520647973,0.42913221811633284,0.4051274562863789,0.441706355871003,0.40543574261656873,0.4245629453621084,0.38155041148501434,0.4762000767055966,0.44242919176293594,0.4254180721580002,0.3955867137114779,0.47283821095157486,0.3947984880140887,0.40506774643781107,0.4444682273685539
0.47468210772263747,0.4090225171582659,0.41401946901173825,0.4223404677131467,0.45514071026294634,0.42679252817101343,0.4279955270953403,0.40785574736295976,0.40056378331391584,0.43072439011538943,0.42412018903881565,0.4390599838436001,0.4209127012309433,0.4086603741625236,0.4073177561565683,0.3842652515136567,0.3715579366204352,0.39166949272860296,0.4343668320996456,0.3994241215807384,0.4347163844014508,0.4083720966706229,0.4255451731866986,0.3782117539783502,0.475421381572472,0.43918880227909707,0.4179824649142229,0.39942062039476567,0.4763813061840276,0.37914265255690527,0.4246445831407462,0.44762459255892156
0.47606652813761763,0.41539472978985165,0.4276556568669193,0.42497118793182254,0.44298103588803955,0.4384638887567561,0.42639275215354466,0.4147999804957495,0.420262206086348,0.419110682605638,0.42340988157527665,0.4335787828880505,0.4261658202025792,0.40146674532936377,0.4117554531684201,0.3923443244803958,0.3728979053046018,0.40614384919991875,0.4408959135989032,0.40554828781870467,0.44422825774509406,0.42840081081658576,0.44192373065944757,0.3905983085502498,0.46954489367086966,0.44806227179288244,0.42672670716138217,0.4025661382285529,0.4803889573914869,0.3763564610697776,0.43754164641459437,0.4520531485016235
0.4775013084841722,0.4156969067917235,0.4338557712564578,0.4247668760347349,0.45008031627487727,0.44843229086346326,0.4229255788101841,0.43336523343795524,0.4197869256738852,0.415153059749816,0.4305626420238312,0.4289773953017347,0.4325485789794944,0.3895012729533141,0.43522520011605337,0.4182832345369401,0.3791429788756365,0.4256346699475273,0.4477096615416022,0.41664955906989337,0.4495388592697532,0.4500070773102544,0.46061984827260916,0.39198045302938844,0.4706501200855429,0.4467890641594373,0.4140938362376566,0.39760727203559737,0.4640926946403818,0.3677985971652828,0.43517988112958184,0.4663914293420497
0.48063780235696985,0.4165703107847979,0.453251168434051,0.4107420924649546,0.4707600917706451,0.47938856333666346,0.4306053252515628,0.42290324162697485,0.4307959545701069,0.41495299501970495,0.4315596334147193,0.4295369578422509,0.45208498292334026,0.39336286645984847,0.43983057548057375,0.43487854287070066,0.3834860071967449,0.46035676948873144,0.459712811925862,0.42880049020957933,0.4558964430285567,0.4625234967569601,0.47071381959062075,0.39326162235590245,0.4593213376991273,0.45329809097774093,0.40317515246853247,0.390501685421069,0.46349603557936037,0.36679038728289265,0.4369068665491788,0.46742695477396196
0.4730132109918843,0.41509362542389794,0.45102618788297255,0.39014657066282593,0.47814167811441455,0.492846211373154,0.4223426361486292,0.39701320806425444,0.44589315021507736,0.4067242990112304,0.42220236441179965,0.4378301172839193,0.4438668204660675,0.3989656706165571,0.4331654184573,0.43251587762418175,0.37691166919390695,0.456985930383639,0.46004486341521705,0.4209283280903034,0.44684895121554086,0.46668527415880795,0.45477894282101744,0.3752538805623465,0.42225980372311134,0.4392431687740243,0.38007263621209286,0.36696975142917343,0.43189960485602535,0.35550384655093353,0.4020859076965042,0.47277541533093836
0.4713564964722395,0.4194732617731716,0.46683608715323766,0.38262599985931534,0.4749212704930073,0.5129046023597459,0.432086751817294,0.38371367638688436,0.44099561574842416,0.40602020219673185,0.4187078126662725,0.42594566209799384,0.44797469405740414,0.39967966077043,0.4330291330722334,0.4320097421551785,0.3769484167792048,0.45438698646853937,0.46143859105714014,0.42124941432477436,0.4469594010263341,0.460266725082096,0.4409670554811091,0.38296948867661545,0.4181046609768931,0.4517224323270702,0.3779251375444018,0.35964785525819326,0.42436373076006345,0.3654675297857045,0.41263238994782425,0.4637724506769009
0.4694869554934811,0.42382827534900996,0.47405646685945496,0.3871039019951868,0.471558875122758,0.5166129771810467,0.4420555679274406,0.3713285694456641,0.45200896893960385,0.4036031689695619,0.4204241476821852,0.4285697796916572,0.449905717142516,0.422603375472588,0.4278499635118679,0.4252072886951453,0.37975928330748626,0.45642032842749003,0.4559745540086159,0.4107562749763564,0.4349153379509831,0.45524756006609723,0.4368498773968827,0.3891182168622683,0.41974396554378046,0.457683031907294,0.3857931751329401,0.35781682867008835,0.42499736926975845,0.37430869970351377,0.41753770689281416,0.4502167865819098
0.48183881065835366,0.4242176048470555,0.477299345492251,0.39119221377848523,0.4754050271952156,0.5233757670781111,0.43272775608853625,0.3712326859832937,0.45958592595421466,0.40428624788379186,0.4185605105273303,0.42747917476379876,0.4479440412928738,0.4237671418990362,0.41955167181461284,0.39706007238242025,0.3748311415608355,0.4520493187169482,0.4566911665924524,0.4001102513666575,0.42795381293091406,0.44915731598562736,0.4291333983962603,0.38342074025511313,0.41269210739394946,0.4528354139652011,0.39722596006296157,0.3603442075723201,0.4266557467592956,0.3774903618795658,0.4116836887810838,0.4343016106634678
0.4790392904713918,0.43690032071456414,0.48412631943451256,0.40755830690489914,0.4763324561921958,0.535971903163271,0.443280059723643,0.36162133897700327,0.4345493535650051,0.3917477062153293,0.42375015854295395,0.4119478859479821,0.4426063118833529,0.3933385823907093,0.41403209253121703,0.4004169853797021,0.37419239040458585,0.4481988910119218,0.46280224119791374,0.41646557736407985,0.4324644975836486,0.4495719959077542,0.41666951391983786,0.3832382482979855,0.3923444624612341,0.4430957229886514,0.3707146395951299,0.3340965568776757,0.4058479473980351,0.36849014785524903,0.3961209823467671,0.4242566988882386
0.4780844191302076,0.4320653276730038,0.5052874935814072,0.41398341362823415,0.47284425170734756,0.5362892721369805,0.44306276096987,0.3560213491697823,0.4370876091687938,0.39503289536076436,0.42927605699319327,0.39569556008364526,0.4488511523308094,0.3845622088696853,0.40958218077448455,0.39753035869925624,0.38013120346566664,0.4505250605978531,0.44181174660006456,0.4131420926842556,0.4248248943105302,0.44463094010543175,0.405278337243095,0.37911082170288135,0.3943155262891797,0.43809441011946065,0.3380738627627419,0.32320514046095244,0.39742263235051,0.3563882431445473,0.3967161708463933,0.4212853812940167
0.4788950922903487,0.395472553546213,0.5043861301636794,0.41104400566430016,0.4681556851610549,0.5201246021412234,0.4446678927229923,0.3549028932379968,0.424232145085931,0.41480075247089954,0.42962234924611625,0.4131738022688874,0.4403597072370084,0.37939145956725445,0.42743588888939743,0.4019141531271224,0.39425199517006865,0.43040257061482184,0.4429468885897428,0.42985498351643975,0.4372007274412184,0.4378284951214467,0.4183030805707327,0.3934281727338519,0.39765672727309764,0.4414270834097125,0.280011076855378,0.3219882212443376,0.38233966601374364,0.3410064616828875,0.3699106983369775,0.42415755435249325
0.479229474647121,0.3965867354887386,0.4989182464633927,0.4087367293062546,0.4747242929583823,0.5136073548757977,0.4270686172573867,0.3498409829014254,0.42091581797431377,0.40529713043612425,0.42147289094880264,0.4054952790330277,0.4380156404701947,0.3849725991070556,0.4256473537824328,0.4018132486878444,0.4109581571084564,0.4267272260295108,0.4323489929373736,0.4279549058480336,0.43068615027296897,0.43242340459191136,0.41798227479486566,0.3887093835125373,0.39724620570876124,0.44226430641840764,0.28417963362847154,0.32346389994558256,0.3778574835021442,0.34251641325562987,0.3667068749903802,0.4270284950230704
0.45653839820060627,0.39656851597503406,0.5112205828933573,0.41096851033120485,0.4714154534028747,0.5138254116828986,0.4317939680170187,0.3538620110944097,0.41512136107568565,0.40723404432633364,0.4168239199321467,0.39509155721322936,0.4379410597849847,0.3915745824960687,0.4242608448041431,0.38062291909630336,0.41974147178893195,0.41004739811152136,0.4263822944760021,0.4395525670317407,0.4325939975306306,0.4255418114275022,0.407987898630379,0.39650231600411534,0.38009710602091396,0.4397451607622171,0.28107980279492506,0.32513477059609924,0.38521615790534014,0.3376030231880532,0.371078779871473,0.4267241599080869
0.4490082180816875,0.390074712075334,0.5015713496210197,0.4109774617824015,0.44846109974847304,0.5067036583861199,0.42646654273280193,0.3658412492441602,0.4111535103598637,0.4060374270405152,0.4161243090872887,0.3746452281593294,0.42303667011009966,0.39225225044689915,0.4193945756236238,0.3843029038913779,0.4127028676643089,0.40216241587973506,0.42450470438721233,0.43530362573935455,0.42609203607573803,0.42972988594786493,0.4236598207446844,0.40875750984647125,0.45127308113500786,0.4524670709333636,0.2991095689026935,0.3625887240700511,0.3977374648786121,0.34333056843226967,0.37624533252111886,0.4359775853283727
0.4632588690101451,0.40089690873484574,0.5053173001314797,0.43152933898188767,0.44332215285706816,0.49862303389508716,0.4411270057541258,0.36916909929446534,0.39728778835210804,0.4172612260956154,0.4302269696993577,0.38247026423878394,0.42324208250666445,0.4025562668205305,0.43293304334047555,0.40083761014337066,0.4278388193765124,0.4004257934025114,0.43794372884032506,0.4335983972245408,0.4919983681817597,0.4512188389222871,0.4863308450323248,0.5276790145247849,0.511633151506506,0.49121128829716326,0.3771343059883803,0.44258544040679276,0.44561030403627905,0.37104461049601023,0.4205213823806612,0.4542813408221076
0.4738234566839755,0.39695743133230044,0.4928813503621167,0.4320457489096497,0.43904083721358345,0.47290993203901033,0.44152508775940436,0.3645103085834674,0.3959288024186131,0.4173528587284304,0.42699627102466564,0.3864487696245687,0.4206101508462708,0.40374758336669037,0.42920203953591873,0.3991606040643062,0.4282803734375708,0.40253794096021484,0.4428829441090157,0.43692936595212206,0.5043475806529281,0.4615698278924347,0.4985865347760538,0.5347985478951137,0.5138405455205064,0.4954399024392226,0.38816625341928374,0.46183166759742283,0.4556528450665156,0.36868929192125044,0.41929609183422767,0.45497948598773086
0.48713329571966973,0.3991928715437551,0.48261160189596347,0.4222326808457302,0.43033802233309115,0.45393644786303505,0.4443995303171306,0.37319482094120443,0.39788331566289553,0.4170749448138177,0.41897579800277146,0.3834224952926416,0.4080803642559414,0.385569422191186,0.41553411732206164,0.40098415177835106,0.4285750004967692,0.40369648323014345,0.4436203590081808,0.4352219286988347,0.5065119934914817,0.46455715056833197,0.49948599328284404,0.5384311944258249,0.512182058936743,0.4964623371948617,0.3920500023974503,0.4961397479471462,0.4712754457333415,0.4052422567693824,0.42767323677094954,0.4618465315149885
0.4832120068490246,0.3946301692907552,0.4810845395504664,0.41045755650412097,0.43080203980058424,0.43270475027666766,0.4524627842628379,0.37657535861071806,0.40390766672931355,0.4132457485261206,0.41639511525799033,0.3765379122252577,0.40516148651808137,0.38141865886479825,0.4108410672373201,0.4084684072103144,0.4262593584705515,0.3983508584561482,0.43622424345793875,0.43133813568689877,0.5020587624227344,0.46846530715583734,0.49800833085369833,0.5392464130059469,0.5128077573393759,0.4969291062767837,0.3936245037863637,0.4989878950665836,0.4706104416951763,0.40925153808996567,0.42793617189080646,0.4611830161024063
0.4918280197205712,0.4025240455266433,0.4716465156237891,0.40635830199093836,0.42771716641203084,0.42941166396807406,0.45015292228194925,0.39997297341436333,0.42536957759043276,0.421583480992668,0.42034152600769475,0.3720849122801027,0.4073645519833083,0.3925691706450016,0.415832358028904,0.4134106092741666,0.43381538691767035,0.4056050641690117,0.43898738992788017,0.43061534464226975,0.5028969217601185,0.46970924537254494,0.5005236544474146,0.5417168797326036,0.5156710713331698,0.49797912803543987,0.3989277835220859,0.5110173523631801,0.47670047877861293,0.4148210033326679,0.4353186040693062,0.4632840248414999
0.4900017172048858,0.41272939877612247,0.4681920781880726,0.40926868423676566,0.42610445505472866,0.43599208894184244,0.45768026423303565,0.40334826967226833,0.42718533824493266,0.4288188714845654,0.4209757490467157,0.3765031663312783,0.40257477075922676,0.3996262786054005,0.41685200704287345,0.41834080919477995,0.4331794058358128,0.39753989442540305,0.4502838757586379,0.4279406398614466,0.5051137051020081,0.47045678771112587,0.5049592215664839,0.5428622564507579,0.5172212694636893,0.5018666070713969,0.40880611896855795,0.5197239846095308,0.4866403414273753,0.42705739654137037,0.4455844105369035,0.46488955854936925
0.49730696562199866,0.4339553922507852,0.47516030228236916,0.4076544888831276,0.4124821569648172,0.4488376879275691,0.46221363559786155,0.41114169100332615,0.4348056405891141,0.4309850299030202,0.41921265873734287,0.36066603657069424,0.4083164920455103,0.40490271749605367,0.4045765266960678,0.41593651984863683,0.4357400612533497,0.39928765665796606,0.44984636423094804,0.42261128792513775,0.5030784113390114,0.4812084269144393,0.5026968364832818,0.5440023063943674,0.5169663097876637,0.5024791796087358,0.4371053599934086,0.525002296365224,0.4981882436853167,0.45718397870900324,0.4691766207800979,0.46801909985508083
