Fp1,AF3,F7,F3,FC1,FC5,T7,C3,CP1,CP5,P7,P3,Pz,PO3,O1,Oz,O2,PO4,P4,P8,CP6,CP2,C4,T8,FC6,FC2,F4,F8,AF4,Fp2,Fz,Cz
0.41041723658778356,0.43970718592401375,0.4349005584394659,0.4405438122115319,0.24479851797867994,0.3808707940579071,0.4519447764186749,0.32734327177410594,0.3794095244285526,0.3337614015977642,0.3924805421736679,0.36100053839248775,0.30718622454340594,0.35654165728168197,0.415395153923352,0.4129606446818834,0.42771427540822127,0.42483376276898965,0.40870012664176897,0.4158762674988321,0.39393759387069954,0.34961069589673227,0.387206742343811,0.4272662464550018,0.3941016666488805,0.34025564074875364,0.3930176284152533,0.41175769134711726,0.49133916496050006,0.43401294513482,0.35205962045739636,0.31331300382536104
0.4325085187904596,0.45465242482279655,0.4274070142614442,0.43172559714255954,0.31952983170036126,0.4313018175916771,0.46038492671194353,0.3703630331353609,0.35008963316282704,0.3227889417061766,0.4242912731150302,0.31545386530673497,0.2993297455658928,0.36751462662064766,0.4088189672653858,0.373306055841774,0.4247497004449328,0.39146033684744197,0.33868836348005804,0.3935895636147735,0.367069742526354,0.32818355556562284,0.359402139744883,0.39047145349893075,0.3756033555165109,0.3615612147758116,0.40007411353991457,0.3881633674955942,0.49034830435491356,0.40571821348582154,0.3302750640980667,0.34330542430939476
0.4485814602615516,0.49693819031074954,0.46329041895355205,0.4293540560593556,0.3475812207843506,0.44380090734352023,0.4938343191787538,0.36453663059886193,0.34836635408696476,0.3655945925640964,0.4400247899191627,0.3173870983071919,0.3280991034753726,0.4279701552877343,0.4621901519656225,0.41146096615837663,0.4581370053888098,0.4098157439788384,0.21841563757280225,0.4348810334009987,0.37679612164720117,0.30618967443555484,0.3765091680060026,0.4316687173066995,0.3973750531514108,0.38500152120175407,0.4326438840224647,0.41007790488234147,0.516036736018965,0.4261492768464624,0.3550561771893656,0.4030628209209819
0.3913201793442211,0.48170230232488837,0.4205894527223231,0.3539870776834838,0.3273887108579244,0.3779874121837887,0.516048608489194,0.3030298773286835,0.37345855459900945,0.4237447398667486,0.45051862132983667,0.36670853554451266,0.35577484657438735,0.3659017590643012,0.4446828453400881,0.3986794311688202,0.4396263283202318,0.42672107761225425,0.19540333598373513,0.4401810341530125,0.4201551633956797,0.33283023852305016,0.41979860026037524,0.49012921869386067,0.39111360204870793,0.40358329450382247,0.4868179499959037,0.4176804984429626,0.5360711390247136,0.41531320101193275,0.33842000453724763,0.38502634042506295
0.3873442627382186,0.46861080884263545,0.3520948397750641,0.3468047983318961,0.3161277177255987,0.3240280649688368,0.47633828581588017,0.30530646690923396,0.33607678974925415,0.3991873953891673,0.4295770866755374,0.3260850874350569,0.35298244707628723,0.3137376674736208,0.37751803488336266,0.33856566378001285,0.3710074765182321,0.34454605145628125,0.2502629871702832,0.39600501297656665,0.40482114638124084,0.31359781225602007,0.3939720831162741,0.4649648692599295,0.35690171825799755,0.3919671883128431,0.48345218261272255,0.42275796345706546,0.5112321419811982,0.39170515779548526,0.32543056632808853,0.32416162858367065
0.4032337451895178,0.4991325836746984,0.3536732011375148,0.3833236905920464,0.40518435404864733,0.2811729146589701,0.4584352294103875,0.3549409092562203,0.33748017078387993,0.3468517283636499,0.39356687841194804,0.28888145632044326,0.334245525000746,0.3160534816983453,0.3763487786326001,0.3887511930761817,0.36764507796987844,0.3605417126846628,0.371905429301766,0.4457517778200511,0.4119170116699008,0.3713698307621846,0.39315439509025396,0.486021580323873,0.3386996998919971,0.3922215150464721,0.4419843520081538,0.42072540041873896,0.495839000911879,0.3938683469582441,0.32272882930791763,0.3340485035753199
0.37892345225079055,0.48448703767581686,0.35204512411074596,0.3885850010982938,0.35678741940611647,0.27534556959780354,0.46320348307727066,0.35577126920749175,0.35146624641372887,0.34202107555276157,0.39206861903343565,0.29705124883945505,0.29433667704084354,0.32723403105773624,0.4127402021587601,0.39723494490740807,0.4305064943607063,0.4254361041079459,0.4124804236013195,0.469709509610239,0.38476127205971605,0.34793380222891085,0.3697590207210051,0.4779919332430794,0.32659893451948696,0.38385610711687734,0.40254480324275466,0.3486534209707709,0.47140978568220265,0.34581671916319506,0.29484091627721243,0.3740819717592018
0.3588130064221898,0.4639795664342993,0.3379085761549045,0.3897267764006072,0.31201544150671046,0.3138698643584072,0.4546885348157727,0.37824573595455946,0.30656833754470547,0.33198353126490837,0.42744709703105577,0.4062410753875947,0.30885978854762336,0.3624231824878387,0.4430581034784606,0.37693758680365114,0.44821947327963185,0.4115645045352254,0.37746534395992803,0.4510522792433065,0.3662372746322732,0.3154779748738658,0.3184733903851321,0.4268659689663715,0.29829681424510807,0.3190045486934536,0.42373117912446356,0.30145139354671946,0.441038630986345,0.3270094685955018,0.2919873599376564,0.365736636732818
0.38046889111184257,0.45440331098643905,0.3468977794273614,0.4273723184683254,0.3423738670515134,0.3467503630649801,0.45569344598815054,0.36573062538584605,0.3048431108991177,0.3367823935330073,0.4102036824323877,0.37869882724874865,0.3556627220621378,0.3261676714433552,0.4019619316081784,0.3590840164062178,0.41096842812709844,0.3718119348288278,0.3711716969264885,0.44237475836712575,0.40247438879809283,0.3897963880375444,0.34210793240351184,0.45468544955736206,0.319304692676465,0.3251414076034477,0.47087042420015157,0.3312739521341257,0.4866993900878906,0.3851541129815309,0.35247750857225896,0.32068007117959996
0.41726175922459485,0.46168672992426435,0.34852450054918666,0.47488649501259517,0.41984470706310084,0.3730715413547087,0.454370250563383,0.3652404365483247,0.3263794934868369,0.3910742408918549,0.36812335210221264,0.3559254865072999,0.2944582323153374,0.3166265089103929,0.4074293158602796,0.3652076098093655,0.4176109653606248,0.3673390802960304,0.3713716804927113,0.4407267037405681,0.4097150870458044,0.42621224016622317,0.41958661188441565,0.47173735104319847,0.3512682700348804,0.39402856456886654,0.4856522835624252,0.35207601974855757,0.5129974356710052,0.40289592814469155,0.41368464430820484,0.34142628321153934
0.4167042696430252,0.5066249893836099,0.40166620314358276,0.4389057384345649,0.37872888582668907,0.36558226497704455,0.4817231858168864,0.42609966116756165,0.35715904408715554,0.40420534913223394,0.3951014257502747,0.35078277556308884,0.2838054179072191,0.35740550498560736,0.4692863382127813,0.4073401172747985,0.45885138689337407,0.3994795231337377,0.36723042618354323,0.46589663468608794,0.43452066523300603,0.38889877125117045,0.392659639480314,0.4947588431803869,0.38528953576643404,0.416690157686773,0.46383475115650435,0.37470573351457265,0.49621321912977623,0.3909135380326601,0.37082484272680694,0.3825143261432971
0.41350606599943035,0.5022758530128411,0.4151716654167989,0.3918064032867496,0.36521397600679045,0.3015469229080809,0.5047546240865121,0.34434410481857214,0.3995739398935553,0.39866952050393056,0.4753455054201383,0.3783427337912623,0.42786304092543714,0.4104972911837187,0.4976489992951812,0.44093384745461084,0.5051331122735281,0.4425531318236483,0.3810822559983234,0.4756592601551136,0.46543345334872255,0.3975577320538107,0.37222415962921307,0.5043776354877417,0.43740730377679315,0.3777106561066958,0.4817392474258865,0.42401712753849763,0.49958308822755015,0.44017764358871275,0.3971894903024655,0.3917040076947196
0.4534026594673374,0.5110846868043896,0.4288129394987075,0.4346557196879576,0.4077416510021273,0.33850393330415895,0.5126041556707448,0.3258066625934292,0.413027335459973,0.4135526059977425,0.4870569489005639,0.38867950871159085,0.39423126858773466,0.405615252890949,0.48841611351095493,0.4424580678136499,0.4867748293370392,0.45006515891576815,0.40720406863437286,0.4625050873540864,0.4581798382117695,0.4052742697261585,0.3626137398876466,0.4837977070911408,0.42805280208154245,0.36943013442543055,0.48986588031395006,0.4193422180781001,0.5135408237689003,0.4604134914190744,0.4395816333520343,0.39948327259512484
0.4745131062073801,0.488294960992215,0.4379598602702629,0.43531876135913766,0.3900500912791542,0.3114865037875987,0.5174425066369933,0.3910797514907799,0.3816009346764734,0.4163162070589033,0.49592209222584027,0.36475589876117165,0.26181565797570805,0.3719442304092975,0.46029139149065973,0.41321011038228833,0.4551384289995885,0.41715494124222174,0.36600357522593197,0.45100189865296364,0.46371096761541863,0.4078034088133847,0.33161996710546915,0.492180088910857,0.418363485054297,0.3807056249767925,0.4850990715658161,0.39898942362606526,0.525325321424287,0.45851466698138715,0.4062061974480307,0.3725917661343908
0.4788849782234255,0.5058670736586945,0.44395298427315116,0.4617414699195031,0.39164035462603386,0.3147373985185088,0.5020331785199885,0.4342893362024854,0.34173197494964624,0.3440526075375707,0.4231222807701115,0.3857573285373436,0.22024269595422338,0.3616223004317957,0.4742450350014643,0.4259554842991341,0.4717292342696005,0.42640063386391824,0.35693123955792083,0.4461551559777176,0.4451586220874996,0.4270299688680051,0.3342604328723781,0.46897796670566944,0.4160616820192245,0.3953949301581049,0.4734259479045539,0.3882368869707813,0.5353451620630563,0.44922223527391314,0.37808209998034653,0.34917409672855315
0.4824158925324566,0.5361932022574152,0.46174157793163073,0.4773187406472193,0.34279025827171467,0.40459578621092557,0.5074842198620816,0.42557089452114394,0.3252939189290879,0.31107938630267057,0.39075924065039197,0.42201952520595565,0.25611347107266047,0.3997708317537054,0.4893636608589824,0.4423172087377538,0.4584784199294355,0.41223291422177194,0.30714567801609155,0.43488127627731793,0.442254046750715,0.3840186108104542,0.3812749080574251,0.4687744212221817,0.4093068307639441,0.37572285596405103,0.48602253370300336,0.3645302658901361,0.5345942223290614,0.4302973132271287,0.44855965818378746,0.3536635706546294
0.4498344905653668,0.5228695693448568,0.4138209889478995,0.46891820763928943,0.3122576405051703,0.3286921899890921,0.5071234696802871,0.38123777475713133,0.32699276431329083,0.3197815207619917,0.3823041588060352,0.3862176468386567,0.333084777133187,0.4290370194093311,0.47684971750880445,0.41501462536870026,0.4589223765928443,0.4137695119977563,0.2659703214199369,0.4424122650449498,0.47169785156347815,0.3586410951818689,0.41289618127264555,0.4862107998011852,0.4294022895934132,0.38184064489743935,0.4951306653072532,0.3796049523701742,0.534875674817786,0.44855499306174873,0.45377166071633074,0.3317393130023524
0.48386388941562325,0.5204857520034128,0.4100372551481782,0.4736252846115739,0.3477724124212186,0.2823856508145176,0.4570261230476348,0.3686067897534844,0.35762674070172645,0.3266935261857871,0.36447874350526827,0.3519371941885278,0.3235747210283558,0.3944348912238571,0.4438810996868052,0.4015143916919582,0.46422933850482406,0.46183956378793084,0.3334064956374322,0.4132462751967791,0.4599693661205553,0.3725089718267644,0.4123730786397722,0.4536314656531391,0.39708810392401817,0.406474142036777,0.45869242644833946,0.40945680060679557,0.5321447789395259,0.4511821471116999,0.3955685507635781,0.3143079451222863
0.43156971549435236,0.45229606854561055,0.38761517778200477,0.4459049423388159,0.33456694452061,0.2697680021404821,0.4457465353358942,0.362512806608216,0.315814651077511,0.3650891818004876,0.39563466014708215,0.2958567336799441,0.3249395749689038,0.3825382961409523,0.45018249567179985,0.385687907354891,0.43549049480534874,0.42803698208882535,0.4162308558087724,0.36976416357008113,0.4246144510046993,0.36740243339635587,0.4057785070908019,0.46114429061670165,0.3864961916910874,0.43845704663725266,0.4739651349408328,0.3784118372240412,0.4934706097553817,0.3406142007715948,0.4030412009215198,0.34589988773967156
0.41718740438823254,0.4521773390802199,0.3569805515352235,0.44795308954776336,0.31185044581896404,0.26888288914259223,0.4180588601247924,0.2582353100040066,0.29980783629866176,0.4046263255794595,0.41547251494381726,0.29767818357462444,0.3609154416355133,0.4163164326838665,0.45314550015716243,0.3918574612654948,0.42607826335457544,0.3870472565018798,0.38957968918877245,0.3849925585199988,0.44127505785874044,0.3335964096263027,0.4072050338755899,0.506514938565575,0.3946166942163688,0.4395444299436187,0.48991847970569086,0.3903675624878261,0.4814153580025731,0.3313006692026575,0.4271583920523834,0.4122628441814871
0.4468586554958528,0.4993251069015135,0.38131242144848054,0.4412869145762857,0.35357834436811153,0.3337127081764601,0.40762203827270815,0.2238907927430115,0.33700752207819823,0.37193333636867754,0.39240141223089703,0.3775923674722236,0.3656816936956216,0.37998298169569195,0.44981081270926604,0.41636971371180526,0.424030464405677,0.39409801673587774,0.38789728884775787,0.4142051735285297,0.4232531055625199,0.3178296576013198,0.3759884770329688,0.4674447906366981,0.36701513400278074,0.39345476453492734,0.47236306767037484,0.3563120479984282,0.509200571222083,0.37915994834113986,0.433166458430487,0.43393932532059604
0.42600003616817467,0.5050124199707027,0.42147303009993337,0.4554307039740835,0.4105614876031414,0.4042804826122799,0.43970853875184845,0.2424444692426874,0.25258450361426593,0.3451194498062147,0.41197061970681703,0.3708907887573582,0.3591695491616328,0.3587797396735141,0.42715797971410496,0.42492295330321384,0.4265004318586834,0.40653275734647976,0.3937207218095256,0.4312653356509784,0.42459088418405005,0.32331350372532186,0.344969967302045,0.45286107497571915,0.3815717949675652,0.3939454225404841,0.5039820728220749,0.3541462419170793,0.5128299088838908,0.4358438360820093,0.4117326384935503,0.4232718747423179
0.37403005026134556,0.4790883912433161,0.40570466456781185,0.46354749040742366,0.3967046279991223,0.4073320716694891,0.43423197853199935,0.34198291650917784,0.2467344364255066,0.304555118528541,0.3861391694461703,0.3615749921156249,0.32691778185303366,0.344498434366008,0.413729169982847,0.4108420369101823,0.42676089072424556,0.39069738954542144,0.3668278701691375,0.39784282949524363,0.41197768684783104,0.3361038247675453,0.35655259967575714,0.4418650409222374,0.43000044932216663,0.40336724856699085,0.5060497420743274,0.3787279146416035,0.5312307286414488,0.44074099625843904,0.3636380885970297,0.4008912108443569
0.3679590136233186,0.4326470973969502,0.35843714916838976,0.3945205767973829,0.3600165577997129,0.36442577129584364,0.454391860809229,0.3494656262783724,0.27332569048645416,0.3115648779277589,0.35731065527511824,0.33587415413481875,0.2982372457080129,0.33010446637870183,0.41466330828553805,0.3708446633459886,0.40587079736758647,0.3517696180390698,0.3332626225587572,0.36054048713105397,0.38456990565107446,0.3338733828791846,0.3630384064843675,0.4034104915866462,0.3897163753221555,0.35069432766790887,0.45363940148157705,0.36368007942438685,0.5020621468551035,0.3933853912464956,0.353233585731086,0.37603722253465327
0.39262697448744577,0.4571198502109021,0.3610640858062269,0.3716989639851737,0.35156509629257804,0.36389096946112015,0.494445888910814,0.2758236449123402,0.27811859278752427,0.36811429626467906,0.3728223156066392,0.3117603019869883,0.293989475852006,0.34190018196490424,0.4243793944734658,0.3755262412303108,0.42715475882801196,0.36168697951140494,0.351271224350807,0.3906454631712718,0.41559881532269477,0.3267487422585108,0.37133934259589535,0.4296622224700466,0.36766398186807997,0.3582414113342885,0.4474609111540067,0.4164135528432926,0.5141690382938674,0.4155322338980117,0.37209089711919235,0.3709499316163465
0.4387791677725382,0.47891086800295435,0.4204771461410197,0.4447462380566457,0.37992102914946174,0.33860458786843883,0.5102306923991715,0.206051938789646,0.3007438275704279,0.4030758608426456,0.4404377541212132,0.3035452138205054,0.35224217504441396,0.34678396015524277,0.462319875698664,0.4071054755924851,0.4349916925195661,0.3899020366237873,0.4335316097451013,0.4574003578724809,0.5152019317223198,0.36699382641644396,0.44745702888925165,0.49621295723861003,0.375899868018028,0.4085821006864819,0.48809893057916265,0.4684098467728335,0.5393809393341169,0.4556552069561719,0.4185091293928944,0.38676050199536555
0.42964905933448505,0.4405938232182124,0.42101294683050866,0.44629288287505864,0.36061985016996634,0.32458109009454705,0.5230291599324457,0.2108360578310344,0.3491649484129219,0.43544953069017983,0.45043909509350366,0.25469999327741727,0.36797727685471404,0.3395424856872605,0.47324818571115285,0.3632476732148672,0.40109443074026746,0.367005528765687,0.37513058826618306,0.4346091974268323,0.48979040099640003,0.3468787968823518,0.450022618816937,0.4986128391103962,0.3484126313474067,0.3915979723662376,0.5013518897460898,0.41317721779739713,0.5211283959447252,0.4237407277943064,0.39086634533959375,0.3900419057770475
0.383193663719684,0.4409435880935896,0.39210035087408657,0.4170739548606875,0.3233953855866843,0.3352708058498898,0.507426357075628,0.19678955884310495,0.4097030331199144,0.4385192170934685,0.3095088007130474,0.23121493107993782,0.35912796576086176,0.3440357300199643,0.4889409231364835,0.39118140294723974,0.45488429735773717,0.4096405119348477,0.29071121140896633,0.42894210676291417,0.4375214997606738,0.32567884580578454,0.4134253948772978,0.5054132141166854,0.3659671799646021,0.366632979937666,0.45707411179855406,0.362946376756323,0.5178043934019079,0.3373407641664141,0.33353369071820144,0.38103721267344043
0.3375468420468565,0.44157441876433223,0.3412045164588189,0.3733447328534825,0.3054666385387319,0.28410171055424327,0.45667335013947985,0.19141814700036974,0.4036780372924536,0.35110713442190644,0.30044204953768494,0.24850686534068603,0.3326429367127264,0.33294554582428015,0.45053392253828406,0.3923901593591713,0.43381949003991915,0.42368340890212974,0.27393116056123723,0.4309133701241887,0.43255933984839656,0.36602326303240473,0.3621907180879711,0.4431430434213313,0.32935510923647443,0.3553205873044039,0.40106962574412847,0.3064293552405406,0.4938944308256178,0.29785510652380315,0.31169002248533295,0.38467293629288424
0.345515004285333,0.43842993956174003,0.3537593277151148,0.3461429069118332,0.29438353845064763,0.2852504650601473,0.4621922598084066,0.2694235359627858,0.2977489207961929,0.32166277228425477,0.4279676073424962,0.29234951903580725,0.29702395580479085,0.2945835199513787,0.3836936976181021,0.3533009670539827,0.4128668148457817,0.36812730118376663,0.31491650762653955,0.4336452305341526,0.461124498303391,0.3734076316698943,0.35143084336290153,0.40605478939510586,0.33468093890972084,0.36821318868555797,0.4126651316336341,0.31095826400948506,0.48071523677567923,0.34771644621794234,0.35964583566613,0.29607361720738334
0.3796617597247524,0.45173201490667014,0.39206460511586966,0.39615350303110075,0.2838897790463237,0.30750196861234225,0.4787510426904182,0.28580372592918746,0.2601093138150932,0.34930626210762944,0.3785210187256794,0.31740829558416256,0.2992139014436383,0.29115186310126306,0.3836706520771362,0.32720570408016986,0.4226118120873994,0.3499281914822808,0.3687025530354997,0.418278142161347,0.4778345408087042,0.3491159893259058,0.34322398820118705,0.4566941323468029,0.3523550024233574,0.3547890042954266,0.45947661893960323,0.3300200356658585,0.5016421336690495,0.38648435661442393,0.37300111921770746,0.29510947412576094
0.42289631415504625,0.4557904627291059,0.36980749338783747,0.4425041684699985,0.3096094635378062,0.3019749705102162,0.46270613324769844,0.33994680531588745,0.2854504830259755,0.3159950078637445,0.3543381047845287,0.3509486770397876,0.307386036198549,0.3174610305379778,0.40414375138998154,0.3064414656423118,0.4278504789654508,0.41669426148459326,0.417655847721807,0.44078740604437305,0.43898309759173165,0.32658488565604915,0.3533508026586433,0.4523888501947608,0.3225061822107181,0.3500342121525755,0.4282745109902672,0.34596001911404306,0.513420997969927,0.3767340479327497,0.3572189589668099,0.34950028763501456
0.470890145070178,0.5117636210926277,0.38956273267455677,0.4760993572612924,0.40062344861069205,0.3349448993071033,0.4803365205266722,0.4100175160784033,0.3965342244747346,0.32436156948388595,0.45347332950238795,0.3731389595891532,0.3074417553953298,0.3285655417440109,0.4611532913594676,0.38267469139600746,0.48867627417682713,0.4684576485533114,0.4115363541565357,0.46927581172778293,0.4223953079491371,0.3716427145285014,0.3976721917548539,0.49159134839705804,0.3853660876370464,0.39673263830431377,0.4471860042208143,0.39157994726319273,0.5074846492966492,0.39811165518765995,0.39694498707940545,0.35010174971499225
0.4922267514202175,0.531900341418509,0.4482772946175661,0.49392763801967376,0.4549463007243245,0.353339072246629,0.48904243438328115,0.4271552840670734,0.4087000017214618,0.3930648540444306,0.48907876135361184,0.37481760195277514,0.3271079966414792,0.34627889521696875,0.48740912728100716,0.4425744107313245,0.502350362727529,0.4370440445712933,0.4081272056512091,0.4688664924083721,0.46016722204746807,0.3832050252096712,0.43703775932736316,0.5238682397659221,0.4705611955669984,0.41462926416116,0.5148060364297428,0.4217775868623718,0.507232168632819,0.42084446005863774,0.4613290684441154,0.4300987693376492
0.4461090102430991,0.4935665165783145,0.4328576482856338,0.4248021992608579,0.4445128432029385,0.34969163383910923,0.49265264296219485,0.3882821072446398,0.3215307203381793,0.41096547774290915,0.4569787704762493,0.33674072590064047,0.345844213986562,0.373841982322953,0.4786902155402559,0.40052583100017775,0.4774440640868395,0.3953492795998189,0.40288776199728077,0.46666758868500546,0.4369863968977993,0.36470437031215014,0.4072243870472267,0.4922548607791411,0.37736863276419386,0.3800045421345084,0.4635920865657674,0.39377422416290997,0.5022436702626167,0.39198751145793526,0.41422238529659094,0.4267487253144616
0.4013769172944271,0.4751542153775834,0.3856095165719254,0.4235805470600336,0.4135932934149553,0.3406200259731098,0.43927328920010505,0.33019172158458215,0.2850730359432903,0.35519967206857683,0.3923706684932226,0.29395652021428537,0.30575342439393055,0.3540070836282693,0.42673688101019835,0.35991383863550447,0.3809045654496568,0.33619984956762106,0.37134265736596433,0.41473032761262024,0.3742629156320808,0.3443918126934811,0.37231887575305983,0.4108020058297322,0.31919570208774756,0.3456203956596078,0.4188578070350156,0.35503827679943617,0.47874910981565644,0.38427764835979894,0.3615213676037692,0.43484459043791884
0.4184605790633064,0.48282446837509396,0.40399859485630674,0.4531397486335967,0.42461037391138695,0.34122185402671046,0.4126775559281279,0.321697276179376,0.3009059628322702,0.365894159716582,0.39214678122751395,0.2366967842133061,0.2949089470901899,0.34338898763723896,0.40487572745306377,0.37193421661723824,0.3860750394265683,0.351970522040983,0.35881472537783926,0.3861503759887628,0.3574021644366714,0.34859991548319536,0.372175653580683,0.40067882901292745,0.36668529270810285,0.37801581842916,0.45594144696464345,0.37587266011072507,0.47108729022330903,0.4236811132699948,0.4273271769241162,0.41224123903208326
0.42245950208646216,0.4886075264416861,0.4239100951576035,0.43571234441322054,0.4314358139803695,0.3592269340460116,0.45252497691773474,0.35175257143172733,0.34702378783010807,0.3669383498173062,0.37646662938716996,0.26103165067070305,0.3016174884766527,0.3642521927138224,0.4319834369860696,0.4135952503074387,0.4488441630223938,0.41489787266734807,0.38862864522422225,0.4170948652343386,0.39387461007674246,0.3727483172006179,0.355874054352083,0.4568280139384584,0.40533375019069356,0.4114576138822996,0.4950487864930624,0.3988286610083369,0.5028437826325263,0.4318979462409532,0.44572712923448554,0.3878951484138975
0.438845418008893,0.5258252681964927,0.45961936980834633,0.4538782236603417,0.4429737620168483,0.37661882527046153,0.4897990365649228,0.38210672387817407,0.36517459830722854,0.35528850089678526,0.3796244667617409,0.32440811952041737,0.32567648253883313,0.3537788703542622,0.4287981337426342,0.4147366549197763,0.46099921080831224,0.4155788858939327,0.4069550138162068,0.4382131997122202,0.4406710045375919,0.36975034517654454,0.3485408095248061,0.49368614135745487,0.3998927547856242,0.44028405306069884,0.49670274152414595,0.4035242423749295,0.5211842242117782,0.4313661040919954,0.4484844250437424,0.3767662471782334
0.46834117828902083,0.5337254083505011,0.4971484235882554,0.42645912774033273,0.45116844058085154,0.35095234156547445,0.519311611603475,0.37848954253284606,0.38191921814799923,0.39376609613178293,0.4317633676491644,0.3574625898815042,0.3251488254487512,0.35793545467253024,0.43508723920455167,0.42456830228886167,0.4529919523592052,0.3983240424078377,0.39392292670230833,0.4335444573810727,0.44739619113831325,0.35762677010742805,0.3794432092303409,0.4906996062572014,0.4120841465347996,0.4318782599466484,0.4969905375198979,0.44304063203808985,0.5199205749681503,0.4797821943895746,0.43328413865832827,0.339443642792402
0.4023114559997296,0.4941535343798484,0.4172681574600915,0.3869535237079745,0.3621515363447303,0.37023864173169974,0.49517216315456425,0.35220038724809594,0.3589907156967882,0.3498527120326944,0.40278327712039935,0.3417659360948857,0.31935414864328227,0.34662567108039727,0.3983106648712941,0.379643001167465,0.41040479114033446,0.3547028922481261,0.35891288016987655,0.41478953849596695,0.43943759302362884,0.3722667356321699,0.4220433971092745,0.4700336120369941,0.4164452430657988,0.3551530342758145,0.4317455693351426,0.4133885185459777,0.5232268246341288,0.42461890479102427,0.3524286143199043,0.32882309387948705
0.41838266783852013,0.5007207220036171,0.40141440965999464,0.3781893978438772,0.3540467409478784,0.35879229335634477,0.46016062553077125,0.3056090514766656,0.34413023539775073,0.32904521120674707,0.39120687133550897,0.3338317447639217,0.33855052620431364,0.3313350492131231,0.3706380076088386,0.3614475236497178,0.37977972449467906,0.3362356707104249,0.3342724389420478,0.3886510343175485,0.3954514224191641,0.3589123840376474,0.40562206617583985,0.4504691273806147,0.41531649105638396,0.37061294915215043,0.4470125140740055,0.42081252936749475,0.51179491422142,0.4184033860919123,0.3550388953662922,0.32718134695409434
0.45762516728240815,0.49164446011835455,0.42352464626558245,0.3389932865492712,0.3438587430974546,0.34423149850137325,0.46159147439158715,0.249628254750588,0.3423543827347939,0.32125372966376936,0.3919155494386137,0.35503200630841814,0.35253617049738634,0.3294758511420099,0.3902408165556481,0.3893424843526754,0.40571965241138697,0.34758360569832497,0.34228575231021235,0.3796057312977715,0.35876470525842835,0.3398204936670828,0.38747698319767854,0.46689898133352015,0.41934785078514425,0.39430905367629365,0.48869824320725247,0.4590528069766722,0.5354042240438172,0.46723116544733145,0.3702742144113099,0.35254344798333387
0.478388930345336,0.49906929067609734,0.44270321291525244,0.36832362142361036,0.2933160392657987,0.3498314629947582,0.47522287389123313,0.28274149957954087,0.34397179207174167,0.2938244703742817,0.36341782988168675,0.36001199481260776,0.3269394660972316,0.31971099756004934,0.3863070191032628,0.39813854081936245,0.4281684658269501,0.3603587732912363,0.36990213543406103,0.3833889684717292,0.38814856925830005,0.34083261926115105,0.3817931127212651,0.48138358443233675,0.4360187015755545,0.3643478514020656,0.4880769454805238,0.4629861485007189,0.5490191084974971,0.4665041444138962,0.3646602026632763,0.3930230717132808
0.4821780373441084,0.5295688388408684,0.47171191825737974,0.4098874371854547,0.31545821920086886,0.3612029819064936,0.4959621064784474,0.38618076459867723,0.3596053392963113,0.32570729175236346,0.3887383768318654,0.3434261475517695,0.32242002439194906,0.33285981304653206,0.3695259162045626,0.3755143010163633,0.4079105232417624,0.34864029400472213,0.3533767011421241,0.36798647150234004,0.3710875913097481,0.3347946142278744,0.36357483039534416,0.47102552409560533,0.407032758598806,0.3504240490613514,0.48126669202988703,0.44205417984567935,0.5434583682223338,0.47667079836149273,0.3703329837268158,0.3944142984605957
0.4573331114818513,0.5140383161173128,0.45139418701594,0.4714680926111935,0.3529287868652165,0.329238342776495,0.4776122284971336,0.3858001806582653,0.32131987857679933,0.36248328306909144,0.40199573420382645,0.32261938807563395,0.3498229397276326,0.36102066710704045,0.3903851348340525,0.35658626960072964,0.40470813928898774,0.35086275647202253,0.3495297339873394,0.3782298618958643,0.38172161830416257,0.36695982203149763,0.37793680712516836,0.4772393149377381,0.3779951447041556,0.3550469487089236,0.47693739070662766,0.44563568046874785,0.5530575037546241,0.47741767167166754,0.3684809911805515,0.40634083715714814
0.4653170743188387,0.526143572214795,0.47171383184762217,0.5209235679233809,0.3839689858104545,0.3291239649313773,0.4686534644770609,0.4194582298280454,0.26420428065467827,0.3781273922142877,0.37696501211120553,0.32253581039727,0.30358136575389716,0.31864605683884206,0.40087634448729775,0.3495818958967386,0.41179622809105265,0.3538864280984395,0.3483603737481947,0.3950013565285012,0.3371125395226434,0.35435256716206925,0.3979773355181246,0.4835999528564992,0.3958298877786756,0.3924135508528296,0.4960983906112436,0.4310922467452885,0.5494218351599112,0.49113343260371095,0.3906168887280295,0.4067291546125956
0.48369301848120705,0.5143663532912064,0.47892132544203264,0.49304334056547816,0.3706348014006213,0.3546553296136356,0.4703760193929908,0.4633325404747907,0.29131328444740445,0.3601164352097281,0.39359063514982606,0.3088254585816288,0.27856220180143954,0.3197319450890253,0.3825310599778564,0.36128824038889656,0.38601900622944746,0.32525110937201746,0.311674379532159,0.36833236769131605,0.2988494843903881,0.34100566280650335,0.35904437675223716,0.4530089673155487,0.3757291464382974,0.3749855714363289,0.424622613135169,0.35462915695485003,0.5029136115830737,0.4688986773585106,0.3910166259189741,0.3985154368007013
0.4765579449838684,0.5064656336261297,0.4819163113189062,0.4537735289729227,0.34713145935551026,0.3608365093231051,0.46550965200253663,0.4349930238818182,0.34126573827716805,0.36015485644574313,0.4125405560572952,0.32352865098877864,0.31886397438029424,0.3418204091944107,0.39189392826750336,0.3716001292801196,0.3807456005345384,0.32026320268249414,0.3054600805710593,0.380066209027285,0.3148780782609249,0.3622487249222153,0.35766436994071776,0.4645323811464426,0.3856493011838169,0.3811218942206291,0.41783901627450504,0.3895091869177584,0.5281131057837275,0.48441436761663165,0.37047558090681926,0.36897613418305103
0.48157184631167665,0.5113332131977121,0.47653461180137496,0.4700885040225896,0.3651409024126316,0.33322993729849604,0.4750242090196819,0.3845005525345375,0.3534542043615992,0.34973978486605456,0.38613976204852934,0.3632794299012157,0.35372288025847476,0.35837231452452173,0.4102539590690661,0.39301431532563497,0.44560267674351917,0.3828245246960585,0.37219526802225095,0.4102158310351897,0.3611517427509941,0.3872809376696409,0.3987933348833418,0.49228736381266147,0.4101327830772829,0.40111846554100294,0.47170531373984975,0.4490595013700228,0.5423405175753675,0.5000931113516933,0.3935637793870897,0.3594314389472324
0.4800985444953888,0.5363456366460354,0.43965178918602216,0.4913889952065307,0.4044047034422761,0.3300900990825551,0.4658693362562808,0.37718289463579907,0.37026713753853885,0.31587425846749695,0.3581559162545681,0.3552415404765372,0.3349913149099748,0.3649235745538935,0.37973511048545866,0.38420495177709796,0.4254048076507697,0.3674771779058773,0.36445043335370986,0.3658110301853238,0.3473054745706752,0.4015619375004448,0.434307182700126,0.46451212251921664,0.3990334713011608,0.4344393601992546,0.5027497855987519,0.4232675422443702,0.5322103304020415,0.4606820481668946,0.4442924833005165,0.39497587914210003
0.4326118593061471,0.5195866970006711,0.4290511444202907,0.43713938244317396,0.3775080101812441,0.44282343315962924,0.43282123757441243,0.36985288034656927,0.34709065606212347,0.29956418707986554,0.3347258323373947,0.30189815844060647,0.300281169779884,0.31011359944097694,0.3384897905837788,0.3412244788040125,0.370750119213833,0.32660064353565427,0.3248528183392234,0.3462472458811693,0.3302353910990606,0.35068804319187746,0.3746087097846679,0.44834035726380117,0.3767404463201705,0.3953330899527355,0.4787582939440449,0.42474186624114824,0.5212775797060036,0.44128614798969623,0.389726640103165,0.3655493855640759
0.4502870568922432,0.5203842282778736,0.46138961596678973,0.4252438135721201,0.37145504885584524,0.4786934254837432,0.4447707951026961,0.3485456615680509,0.33231118873254517,0.30010686220854144,0.3282521818937894,0.2833345764535806,0.29427966232135555,0.30398633584224516,0.33852337925506565,0.3322748007614565,0.3595052259564185,0.31662763023815144,0.3144599604785996,0.3478322695504586,0.31703455365583466,0.33138414489441353,0.31162716485015235,0.4183628761057817,0.3385991249263046,0.38484669212736267,0.44390945395025005,0.3868285731608405,0.5049067378959118,0.4347886334661188,0.37725129134934426,0.3658403597619815
0.49710401965742745,0.5521850365538317,0.4840605296342239,0.42400486938189674,0.39087371448939884,0.44328414470315197,0.4896878185449397,0.36758656764225583,0.33830641473915835,0.31733972846355346,0.3347936177863969,0.27310822216533887,0.308200503020058,0.34253048671486075,0.38689254126925593,0.36723726504150167,0.38871465360275737,0.33005683336823954,0.3220926167852421,0.36275960307660776,0.3260678442852905,0.3352411766848908,0.33145844052493517,0.4174215302049846,0.3529684629520098,0.41082916171239275,0.4228179665637314,0.3941964652249076,0.4991348652037574,0.440881484321886,0.4114298137168545,0.40195308228599463
0.4745627318886315,0.5301102176174574,0.44702997944630796,0.4478990580300094,0.40973836854127876,0.4004207901545465,0.4889574680402009,0.27671942557087603,0.3745330467467449,0.3210505360431792,0.35243083352596843,0.2874553434557434,0.2891943464482219,0.38494226245991486,0.4105438621080608,0.3937173972232799,0.43545612927464317,0.35613380604187017,0.338765317395139,0.38296244666352175,0.3596476846688202,0.3596785019682224,0.3607316083737333,0.4380925670529245,0.3700442101735372,0.4373326737392626,0.4456168789653622,0.4087587994985867,0.5350168239540422,0.43973561233655245,0.4004193958370899,0.3790351283014588
0.4382492796599328,0.5012823839799144,0.42420195794754634,0.4501810026796158,0.4114097603949353,0.3474616653290351,0.4835944324448587,0.25789335938351093,0.3846516083989449,0.32627938484942626,0.3935936990884116,0.38525138971494716,0.32360015438288825,0.4143246272063205,0.4478788829586906,0.4196184773278978,0.4726632842203089,0.43294879798915686,0.38959059515470634,0.4287234141461585,0.38952112239892567,0.3573862151643351,0.3615997281671975,0.44984120229542696,0.3792025832462178,0.4324801044161008,0.5024859283216261,0.3851291773758533,0.5538674354812462,0.44777594915111096,0.4024498839449067,0.3587934388719074
0.43236236700278174,0.4651940461105725,0.4273126510835755,0.45578266112924487,0.33003577623776864,0.3525453967030818,0.4879247878812655,0.29214751984263987,0.3973275388580675,0.33521012432250386,0.3668688540739669,0.3780985895593941,0.3277912953286999,0.34808203834613194,0.4114523033014382,0.3857742325430731,0.4189486506878923,0.37363431268332986,0.3692608099034173,0.3839668049017652,0.3673532784104124,0.37215004171402677,0.3470604024764984,0.46076622740024503,0.40671260648453345,0.3920632183652371,0.46772655369508664,0.39536869111916895,0.539158383391949,0.4447632604158081,0.40826669814740996,0.383903041372292
0.4435669955944842,0.4787808168117689,0.42593986710615894,0.45423180663243995,0.3084678986111183,0.3807516669840199,0.4917929955440557,0.29211799684498946,0.36248413520791434,0.3356977182769078,0.3471906706796843,0.3174666546404739,0.2976140274250867,0.3285322514262771,0.37222177516768934,0.34942453257883327,0.37637415839465493,0.32846545344695605,0.3232023803852878,0.3463472184904179,0.32217073063596935,0.3665843695304577,0.3035125668183143,0.4357751812760676,0.38835495150327975,0.37593057478997055,0.4334991877968133,0.4000347952539613,0.516548549384693,0.43513219886595816,0.3636507686281338,0.43197697263447604
0.44276425992737733,0.4959212325643023,0.43337919407280784,0.4051895245978525,0.30629311202466153,0.3287994122559935,0.5055243010644014,0.31894238762870875,0.2971630003085046,0.34239066808761165,0.35873909031767115,0.31143879165167937,0.32864658116781476,0.3610493645954863,0.4011278202335563,0.3740216796822522,0.4177982432037244,0.34046176599572664,0.3312949253325437,0.3650063981062464,0.34346449017296454,0.35096239140993524,0.3018598731367422,0.4349775884977797,0.3648580672608688,0.38110841249164307,0.41872214358635834,0.41431372169348324,0.5033217316083844,0.42087007760537315,0.3390964386896942,0.3888810757425748
0.42627232421219635,0.48856531963035804,0.4277899866181273,0.41647643254775757,0.3255782709930922,0.3395985352134592,0.5006945719516986,0.3750066864476357,0.31872755978309286,0.363451223889016,0.4094771238692407,0.3759103072765774,0.38106158739561086,0.40283745383677727,0.4581434830544304,0.44383656259459775,0.49494113977458165,0.4343019317932542,0.43535783880497114,0.4455895318040167,0.4298344085742512,0.3935575576116556,0.31940312264160675,0.43568657815263734,0.3589206116595632,0.412628019164874,0.4341978882672532,0.3957003710985983,0.49058966837028584,0.3953339063691761,0.3518131847698471,0.37778155437977595
0.43167259946041847,0.5016175965009734,0.465560490618971,0.4214005306029681,0.3723526297411506,0.3405268838486799,0.5137932961421714,0.3911364735167087,0.3423223170938355,0.37626930587375207,0.41300413891667864,0.35496997619971515,0.33063238996143857,0.36545366237109167,0.45200723168321577,0.4675404178790135,0.4808435065705641,0.42291858356306755,0.4004750163941527,0.4489017096442755,0.4185665385349842,0.3880175247856631,0.3315194601682066,0.47613523202833796,0.36773711772144546,0.4058240281979007,0.44885865741559,0.35848442491780375,0.5309300003154687,0.37168702914665874,0.36849942534897845,0.34221371671631745
0.4319295188049861,0.5184884794273972,0.48430949279661906,0.4198638070822778,0.3444584616433201,0.367815394830272,0.5148618955338704,0.335198807582481,0.2955178502083708,0.34391746307350207,0.3833382909089227,0.31669354001175537,0.2718360831993192,0.3236536575438668,0.41438507315323825,0.41032921650676685,0.4344523459780079,0.35716439055864757,0.3332122621142582,0.40779031792671294,0.35210832232913186,0.34636057076141,0.3389380877398727,0.4961139683204981,0.3818811351115769,0.3741965271176652,0.4213096803845737,0.39451069218376517,0.5408904473313597,0.3840518645847299,0.3811437218769346,0.2972894104086259
0.44515829157970144,0.5058503516806582,0.4239578491497639,0.42600776923795497,0.33841119416243454,0.4158397529279757,0.4616917832026723,0.30872681709975647,0.30475289166075614,0.30593197949155765,0.336557267034797,0.3113253552056009,0.2895753047168018,0.3066175164689739,0.341756272752572,0.33097148262173115,0.3747195606806966,0.3147707196828148,0.31833045010526656,0.3631368407363928,0.33141397941515877,0.33928413378387223,0.3499736946495336,0.4543571094765936,0.37649453911350356,0.35993507805145003,0.4295496965830803,0.3947857377344549,0.5246758488327744,0.3703217355335161,0.36726668520397815,0.32309223969481804
0.4348636863146799,0.4699140557960077,0.38676506717975256,0.3954251921354593,0.3491429339213302,0.3263972807733838,0.4401010932769068,0.2755655579559099,0.3113379182243464,0.2927505939539823,0.3203466795983905,0.31534806146904965,0.3301060573433849,0.31251748904791804,0.3536421864470297,0.3217169138627526,0.3652155399844039,0.3108910838776751,0.32151674203557645,0.3533793009625856,0.3438992642869166,0.3502182950537406,0.37570418333771355,0.44765207084257935,0.354882704252528,0.36251644797972776,0.4240828254454631,0.3570486393371758,0.5042261976086998,0.35143302291754974,0.33705881330238713,0.4039222739020968
0.4454570397763866,0.4782573456081156,0.3848018861887145,0.4234946848058886,0.36137431950257676,0.32733900142710887,0.47880335158294024,0.28231458278367666,0.34395731369218946,0.3609771989001006,0.38735825182051736,0.33969215714453704,0.31121215002592795,0.3818920089997702,0.46041903184673344,0.393707653032868,0.4402908024517247,0.36936054763036974,0.37724535059400843,0.40387303977276084,0.42428434343511556,0.3757438584169668,0.45057441997248204,0.4819191590053516,0.3947278976154469,0.40469960624645535,0.44089739102273623,0.37887542813082536,0.49109774985606797,0.381757796027032,0.3408535934252258,0.384497896779445
0.4473277866662431,0.47173943089463327,0.4011782139633519,0.43136755293240586,0.3670431119265112,0.38609943272055625,0.4798731279092982,0.35970963675196205,0.39764537933201616,0.3497269682397054,0.39925739831008383,0.35954852945055954,0.28616777693309076,0.3678754666322397,0.4336785673331913,0.40549210663815954,0.4499663744219756,0.3875256681837236,0.41385564719497564,0.4067312893893944,0.4194289204563646,0.3609165545475378,0.4213848230115934,0.47029649920267025,0.4550298285685198,0.36300159837871454,0.4761465600148023,0.4287959210817632,0.5077963671618551,0.4255886849648999,0.36905618315522853,0.37476500458150197
0.4067313260559692,0.4551648887690169,0.4008012495610649,0.3979633490037102,0.36695297028148155,0.3341474907193629,0.43607561340446954,0.3475007780396753,0.37940301209832794,0.31257557206729875,0.37035977498431627,0.35730582158890206,0.26792560176558233,0.3363250153113104,0.40075822707482556,0.3759134863635123,0.42585039651945983,0.35906965645412664,0.3839625180500479,0.4048025371224833,0.3834271162139668,0.3442866305135247,0.3632161295294527,0.4507981286561891,0.3862809375873675,0.3732081140891776,0.45584454654475126,0.42837774327980155,0.4829933799314739,0.4393331264499555,0.3886422116593152,0.38988255488181484
0.4233682621124095,0.4955740109852449,0.412353328472382,0.40144333372595026,0.36632919110826156,0.3743344653517542,0.4266545721120655,0.35297461337709324,0.33376147998782396,0.3061654964310805,0.3585446779822271,0.3385315755461503,0.2948404366976539,0.35578550990350555,0.4009939371556734,0.4182347466334756,0.4615289095010148,0.3731688861480048,0.3751757357321063,0.39851949713666773,0.39275043855558933,0.3606986415273799,0.36104959009764354,0.44284158575710597,0.3756437217183346,0.4120561529711803,0.4546428736320933,0.42757627656500896,0.5056588235771703,0.4404548701704696,0.4021337086814398,0.4318006514192474
0.5034889606836659,0.5292651511510512,0.44373389572160643,0.44214756378392484,0.38565684353797214,0.38144915334849977,0.5005384711409785,0.38495219430360483,0.3438991237948528,0.34995874604427213,0.37963858394758565,0.35084457261806196,0.32504654058724236,0.37953278769085164,0.4046269926753385,0.39476873966634324,0.43779239034308004,0.35236350998345634,0.3550592928682514,0.3925429436898295,0.3699739334183124,0.34855241115278246,0.39816578900017663,0.44117178549378305,0.4365440318493418,0.39936251427100444,0.4688769223621301,0.44357877586522854,0.5214515770241616,0.43360516626645734,0.43013427553032235,0.43000137007948674
0.5092657782315405,0.5188560494637824,0.4472426219967745,0.45158841652961473,0.36236446431219327,0.33708416014050907,0.4656960346836861,0.3479135861027661,0.3776414858756856,0.40290015429834847,0.4082564099148608,0.374590342151512,0.3071886445047459,0.37727873585952376,0.42820748619134286,0.3700521251608461,0.42407834445294557,0.3500421598740073,0.33446377637674696,0.4021870853384788,0.3344716892227553,0.3488325161461712,0.39929782601777464,0.45251597235987107,0.4250079733356836,0.3891641739909362,0.5002821805101009,0.4409760992388032,0.5179920041476035,0.4232302966746147,0.43077009538273325,0.3858718014520032
0.4340487858933736,0.49966622279747647,0.39860947253659273,0.39917423737232954,0.33966727627324533,0.35817140311208145,0.44840692329290666,0.3330712372973278,0.3190348106342615,0.37723804983203985,0.40626437640243773,0.3544489839704864,0.36327786162323994,0.38885646868723256,0.4434545164547348,0.42195493515030513,0.4696693435835724,0.40529106413093985,0.3611983012763192,0.423558101605003,0.3723760944353888,0.3997158479556326,0.394135871327993,0.4864836688607379,0.36699060726661353,0.39665905364334364,0.48158329921036175,0.41590561648021185,0.5253573974082347,0.3863151679894977,0.3816574694734552,0.40182373159908885
0.43612562158340223,0.5233682509688793,0.4189704927729973,0.3873834965291481,0.34760494673396486,0.35462426650439893,0.4856351730213515,0.3448979731062933,0.3317779611968492,0.3388695206921051,0.4044010555841961,0.367760941928485,0.3631225840454331,0.3871507785363081,0.4380005011478586,0.40843802631024256,0.471752571690858,0.4136740066190578,0.3803739474110019,0.4275611703362798,0.3936910767039337,0.39820552054687564,0.3959502796991289,0.4939103082297657,0.3663135702479231,0.34376083912839317,0.4644520353074002,0.4425553223511254,0.5380459509622014,0.4393113651671043,0.39148188233145415,0.3989560762194099
0.47799676477761815,0.5389127503125862,0.4791453939783791,0.45830976223727027,0.3602801442995186,0.37860397650240246,0.499602653146103,0.35068633608436234,0.3497876093178862,0.3414632906421932,0.4135440439252218,0.39320616083704163,0.2970039393386435,0.38409151779888784,0.4550815849974059,0.4004335449851768,0.4567828364803822,0.38828127446495,0.37165402793793656,0.3934654033625073,0.37501393111290127,0.3565608652037147,0.38276830309738336,0.5042809749961994,0.42427992294412503,0.35514025670877747,0.497682570002844,0.41414241928534334,0.5440896390865411,0.4724461297876806,0.4343924930298493,0.40225673171276016
0.4417473250372685,0.5172741335703201,0.4366128580246638,0.4726810365613964,0.3675323837249121,0.4208818839578803,0.49456555118359913,0.3410486683987818,0.3266953520431984,0.39185137918271995,0.4250124266414048,0.3752851888390969,0.305243200393522,0.36557332212445803,0.48587854596526103,0.47164312070778797,0.4825280900439886,0.40500024064486084,0.4050783691771125,0.4120331949347981,0.3923411896380811,0.3042280003430167,0.4026087173590113,0.5067753566202351,0.4252931597990531,0.3911872741868049,0.46445573976330856,0.3657256770110216,0.5095281684151372,0.42120542830707053,0.3999232997030215,0.3970155380702701
0.4463496860977901,0.5208790043320795,0.42286564352871675,0.47026577757764493,0.3319489580073499,0.37998340946290027,0.4784418274279923,0.32921151507933133,0.35694088261941803,0.37471557172511405,0.43622064720335874,0.37583144824678255,0.30400162420446114,0.35942462916912377,0.5119871211331647,0.5003171197859495,0.49902923560583673,0.44998414690300587,0.46341009115191234,0.45708460482046337,0.43784453597172907,0.3290555873070364,0.41920449551440964,0.5146953953593344,0.4276560220619835,0.3794364870371912,0.4687176778505059,0.4080470843495151,0.5259706765611925,0.4272832918011758,0.3488700666780163,0.38815992590098863
0.48945674348850043,0.5286664391532757,0.4703735259802235,0.4529129641922402,0.3364146756200168,0.40757372076106313,0.49112639930428675,0.32847833292363066,0.3451737660162242,0.36796744240985446,0.4321467370422839,0.3785929396764498,0.26951734601274446,0.35643680265271876,0.5197565196812539,0.4900657040023573,0.46803100038321327,0.43033732995376495,0.41560719219603964,0.4338540408266369,0.40363864308279807,0.3854931134695478,0.438007954955622,0.48076226922201126,0.459998399588564,0.3942412532876689,0.4903064750928812,0.4593116121001383,0.5389269893600556,0.46528011884303766,0.38221704190040356,0.37840288651302606
0.44307153486994394,0.4955334381601952,0.4370437855218995,0.43862791741929874,0.3879734688021981,0.3609131012252326,0.47627177450979186,0.3534912490001298,0.3620960225325567,0.3296506774873367,0.4051903656711421,0.37634481065669867,0.31329575335290455,0.34337199836973975,0.4739347188229944,0.427431895803449,0.4422332877713704,0.41903983621771246,0.37692201314488266,0.4159992635851337,0.38434338990265127,0.37909788680953677,0.4056874032796043,0.4424545708849372,0.43074035451260395,0.377796768557637,0.4776610566669929,0.4086646307571415,0.5269979582272588,0.4218522391201283,0.4361765219762368,0.38203434784662355
0.4508282833680934,0.48469725399294183,0.42773246357283634,0.4577752296173227,0.4098449822154621,0.33000320292814406,0.44231480746968566,0.3894857423345038,0.4036184913017944,0.3147744245820518,0.39145044051226147,0.3779939184980862,0.3728079555792239,0.37442588995243903,0.4406445583199803,0.3973165630268729,0.4562893611736975,0.432299395612202,0.4060076480432082,0.4513105248035414,0.4061237034467292,0.40230034168030937,0.37506161770259455,0.46085964258657597,0.4182510334374762,0.3814886440403822,0.45719377357185415,0.3948620399463723,0.5412665870590828,0.4116366088113802,0.4519260243223379,0.3856168843984407
0.4686497244873978,0.499895478812614,0.4424800587505432,0.48196924643593475,0.4255232830444955,0.32563908784425466,0.41918835001962274,0.3925799109275809,0.3634392950613044,0.38298641022876967,0.4162342929452706,0.3483207255821047,0.3729603860725208,0.4210795385942889,0.47247941336185906,0.42543614881143654,0.48857432770236514,0.43342077154747116,0.4356482115410898,0.48740298455465225,0.4262440024826153,0.40128011684672404,0.35002048333069996,0.4939256132206767,0.4434771905632132,0.3917673008627958,0.4597402047144662,0.4392627756299797,0.5560056397033235,0.45191073741001647,0.45244196779420826,0.3460223147550572
0.4564950665137302,0.5168672852790127,0.4610495131685921,0.5135337265133636,0.422918548350496,0.3437015270044415,0.43444139483681404,0.3507946818926047,0.3440335593505548,0.420430115337122,0.452901671682038,0.34007419228643626,0.3344658586918526,0.39115263473416273,0.5070873944743832,0.45013745914256637,0.4782233585334804,0.41724804003242466,0.440719493549776,0.4856254224978156,0.41326190477334723,0.4040784873755207,0.376879725691338,0.505032729122479,0.4548097664741359,0.42099894427774665,0.4742452493294448,0.4722753770281642,0.5309005501926122,0.48727964902201165,0.44193005143458874,0.3588078193585733
0.4949650499932991,0.51287838203367,0.4627711661849346,0.5083280947146318,0.3905040286643032,0.3753832950805314,0.4614033821775693,0.3433831244343866,0.3826877836956733,0.392860004986202,0.42695463666391625,0.3371128142340795,0.34395796514687754,0.34211460537637967,0.4843077496445292,0.4424156920414198,0.4540842888387923,0.3867014436347457,0.3911543489181207,0.4295830070305215,0.352345189828945,0.4032616800100751,0.41347963031061896,0.5022483883841239,0.3913212869901038,0.3860979144234595,0.5054440976932842,0.43274458087275264,0.4890584224550031,0.4595479669934392,0.4422387969420869,0.3483707611592657
0.46083310348590245,0.48885071446601114,0.4177779069671362,0.44318951690106706,0.3514048174451498,0.37488943036977745,0.4871878777073969,0.3297640943238532,0.3750629694408728,0.3640588294492939,0.39829300968185466,0.3196516024134587,0.33061236308551656,0.3188050748003336,0.41608607956202287,0.4134614921248551,0.44272015555903704,0.3676655742726248,0.35161024120004264,0.41272988263504845,0.35905773459896473,0.39363550690699456,0.4080045696106482,0.4914250819684573,0.3879285056515767,0.3536473067814568,0.49851620616494363,0.4158839264805851,0.5015749068688808,0.39120568551963864,0.40026998646027523,0.37279961115127
0.4203388081671764,0.4797095905991693,0.41754021712711975,0.4046887895866464,0.323924064940713,0.4028413754918865,0.5112602243018443,0.3261233327520386,0.32501788116338143,0.33058843721116843,0.38382648676543496,0.3138031298570896,0.3088494590897634,0.3174951843841246,0.39307678218287906,0.39116688023633006,0.45475401115197206,0.34647965632447364,0.3260894481197557,0.4011973835603365,0.3761580410776384,0.3689424306241752,0.36613859299611534,0.47889703331558126,0.3917670678361135,0.3420824573171448,0.42801272108910493,0.40642114370753324,0.5207220013970343,0.3832579628960316,0.3438196265364476,0.3534539047181927
0.4260144141574006,0.48927863105532515,0.44427313731060253,0.40546405130304797,0.3129146277181705,0.3850990137662996,0.4903088832449818,0.34807149667886766,0.2915045689950823,0.33868800423711853,0.3797507829808473,0.3007045282100867,0.3026623954300829,0.2998696089914253,0.3806794534415426,0.3873700544881643,0.45108395193305184,0.34148957296647736,0.32784491708049873,0.38429990013295146,0.3517446066821444,0.33880581024414774,0.32551920793090183,0.48336208867389224,0.39409292797319073,0.3487600313333722,0.4116455724696473,0.4073893702052769,0.5200078803426492,0.41073465977838447,0.3364140338443036,0.3360741358867325
0.4499648302275691,0.49338394789204915,0.42425431329745056,0.4525319230687484,0.32361420154361803,0.3363524427323011,0.482384542399298,0.36460538915376633,0.30343279336196477,0.38560182476610927,0.40904494426649873,0.3202491689174018,0.32066961571753866,0.30077384014848996,0.3953041497839578,0.40643936136950265,0.44602579259429515,0.3572925879404773,0.34633822630012184,0.4110797845956715,0.3578875690590553,0.34505338672662034,0.34340400027192886,0.5006152756173038,0.3746717042721981,0.39673934521490245,0.4781134212607691,0.42608616374778246,0.5282339313102762,0.446003043054442,0.3667670903200516,0.3718885363127917
0.4289927803954428,0.486692364215909,0.3988661992509796,0.43346726221081416,0.3581835115219805,0.35108526344127766,0.48493592979562933,0.37215159905457573,0.33076558998139005,0.39883215118675047,0.47751898800913906,0.3579429169521195,0.34340258299634235,0.37294635070303817,0.45982572048494824,0.4281309128527089,0.4518791380814481,0.4034945325932908,0.3993378444454138,0.45407247921487787,0.3922217530601258,0.36418916565203746,0.40601672122504734,0.4908553581528932,0.3547450974599944,0.41208644952014395,0.5021292331471298,0.3648860794243469,0.5392917010058389,0.39087905131499606,0.394256325319568,0.40738518670389423
0.4312764206744026,0.4933106622685869,0.3980577875710889,0.4456710167750076,0.37398270071596074,0.4077499143411358,0.4748231998787311,0.3749096949075179,0.32349973127319964,0.3794574527495332,0.48606066125775577,0.3301970690653009,0.3324593315903026,0.33513076489999877,0.4638515345484286,0.4388385119384193,0.47115036419249856,0.4259404439980322,0.4190010231081821,0.45101551461456924,0.41682403682911995,0.40322840657128695,0.4307324356779336,0.499214203093781,0.37948800194221327,0.4311890886441984,0.5064202588120577,0.3746989828189139,0.5346626542186899,0.3768820272384099,0.39095916627291677,0.43580242126152907
0.43353016394272054,0.487084304856422,0.3814105978183102,0.45581180997686943,0.40460923214780875,0.3708879910416825,0.4727654406539978,0.38365514069660833,0.3660657959410998,0.3574478134990583,0.38692773475545034,0.31352307519213835,0.2871233892036837,0.30148462464867587,0.40917888293246435,0.39677721186189024,0.4443074167475234,0.3813046015676767,0.37898431265143384,0.4303910587030566,0.4476347647987499,0.37433666037155483,0.4223002838944637,0.5151297990420417,0.46055966732716774,0.4268498371545406,0.5350942352898578,0.44743946924059685,0.5147850924085816,0.4151832428215093,0.39670111530081814,0.42516655942403003
0.39366432424046155,0.4771003253053989,0.38135337231482974,0.4445419412137613,0.4056224393013389,0.3233031306122785,0.4618578555201801,0.3959845518218906,0.3298952495151148,0.35547186886091287,0.3426283775325685,0.32269899051706424,0.3059906479199246,0.3143474335204433,0.4043239809955211,0.37504730885877385,0.4340017064792718,0.3667749419803687,0.3713155494093906,0.4282067837465456,0.43903904996993615,0.34016691727448023,0.4134851606130147,0.5200258742173833,0.4656933677125029,0.42148660287244677,0.5188992289001092,0.3730591295791236,0.5084363478242686,0.3614359032038882,0.4193889682768484,0.38398079500775995
0.4411565895378125,0.4849229131761781,0.42148451124438274,0.47554873362043054,0.3584873575024262,0.33938658875622085,0.5055176150091009,0.39757411162513245,0.3137111716758877,0.390169533134908,0.3771895885994823,0.3694117645411128,0.362683237960615,0.32386989295868074,0.4521272920505821,0.4108468093297933,0.4677440622268402,0.4054377133496636,0.38952105583903435,0.48134346268486256,0.43015392283653603,0.35436070362655314,0.4122260373095939,0.5553819633788797,0.4207029347908677,0.41342951408781115,0.5081504012699369,0.3906721414687588,0.5049777637577356,0.3820922825742656,0.4113491598289344,0.3878041142229186
0.4695335778154091,0.49909658924951916,0.4373359115387343,0.4960724113422837,0.33941168644925457,0.354120343753558,0.533412980437248,0.3685186055711876,0.34295615386612854,0.4009517751492987,0.4055351738527539,0.3547063755973183,0.3703257166943482,0.32399078284459226,0.4821195216914249,0.44997451653538645,0.4465687986846626,0.4133333150423308,0.3906467118430345,0.4835953404268651,0.41392546643408895,0.373585847985924,0.36275789882970283,0.5301717420142981,0.3884699230040798,0.3977987518648339,0.5019360110935555,0.45722560385983607,0.49467523071979297,0.44462564677068006,0.40620204157214734,0.40092554937950486
0.42582354228384245,0.5137063699479484,0.4498950345283244,0.5214797283839687,0.3791394671403168,0.38392659711196064,0.527907665881385,0.3466489586065912,0.31477182809979887,0.38558375091476776,0.42171838681779233,0.33407590643050733,0.3453718915354481,0.33968128074455756,0.4775740210466784,0.4343573072424118,0.43721196499103654,0.4022339426797895,0.3919445849926507,0.4669577797417176,0.42364300773087926,0.36402377945922504,0.36062677589845493,0.5010814510542663,0.37675584419514635,0.3953489901250125,0.48468151190338477,0.4391854351388338,0.511483362772821,0.4276149488751939,0.41258602894102026,0.4067342798088321
0.419176523415294,0.5356760014003581,0.44570933458111633,0.4908440822037495,0.40977375091600016,0.35378153983997696,0.5155633191695967,0.35342808025350225,0.32548257873658637,0.39194360067806694,0.43334900215175326,0.3627571945341864,0.31919295156418837,0.3514016627713725,0.4602108275245143,0.4096114267116016,0.4464040095676999,0.3967280735412796,0.3866844191512296,0.4600092075936348,0.43749058253158846,0.34692685295288755,0.40033585086756196,0.5074748320570938,0.41269639989449575,0.39820418516087586,0.49098547829290556,0.3967214410148346,0.536255487436838,0.4062446637053001,0.40320243065725453,0.4411793217685366
0.43694047401267627,0.5280713056223629,0.4145601348644785,0.46957470204285157,0.39971022760819125,0.32379515366498784,0.4939352139959657,0.3880839627044329,0.3390030634174046,0.3990202543527001,0.44127624165999846,0.3346657658799518,0.32327543950997817,0.3741353856788355,0.4625069911377862,0.43384494768226556,0.4802974925989015,0.36325639648182295,0.3646915729905418,0.4330413731108196,0.35224353186754453,0.25671660084233383,0.31768533515499164,0.46822307810571323,0.3579216664719531,0.385756690509083,0.47032194615003725,0.3550460117386519,0.5279727384402372,0.40029838752473074,0.41877298263259327,0.41699892456189364
0.45892506582668574,0.5042415599158622,0.39278367773963047,0.4686161487029211,0.39913452294720353,0.3443819961970593,0.49025388716983775,0.4162470908969897,0.31802525518220787,0.37430867458502204,0.4112437254139998,0.3140469303066576,0.3220379672364605,0.3570728809234623,0.45074526340437493,0.41427271906774565,0.4617614191236756,0.34557067304708544,0.3510402686661121,0.40221006894865546,0.3307069494094316,0.2618430652340654,0.3264225246589378,0.4710781122299883,0.3818636999120118,0.39395711692440244,0.5109232075244717,0.38604993301808915,0.5392606093143137,0.383759414267819,0.42069266959187934,0.4123857159002156
0.44986393885357756,0.5117272209042486,0.40561643525558094,0.46868589614010253,0.36099913663810035,0.37064447251978266,0.48330320239303487,0.4071934605542002,0.3387009827780829,0.3829157151705894,0.41565870594196225,0.3473712833225786,0.32389180023118247,0.3675535236205152,0.44585618235779745,0.36580746087261967,0.4422630422153803,0.3823612804107135,0.3975655785731815,0.4389505257850309,0.43168409198077884,0.37564477276728253,0.41202359528842464,0.5131922720836766,0.4190789175635763,0.4028702887792206,0.5187789496061871,0.44630433033598177,0.5316948420363354,0.405057526032272,0.39762193680657487,0.44104141249846596
0.4378495580928431,0.5243437681762954,0.39303375764156534,0.4858913653310896,0.38346605975732484,0.361851462205012,0.47943891089102386,0.40294440599383613,0.364631544782727,0.3660367323536683,0.4078079970449023,0.3560985429783186,0.31208711406972306,0.357893500847242,0.44573826907955344,0.3724331774372887,0.46003042425002677,0.39019859453546674,0.36414773365666353,0.4398027187800547,0.4197485911865875,0.35002636276708193,0.37550262017199637,0.4877853762369423,0.3687383581284382,0.42483851333803835,0.4882533646959769,0.4440154865430389,0.49397685417027354,0.4127769639124918,0.4253989794267496,0.36561803367327333
0.432711666470331,0.5233194041347841,0.40804721141280964,0.46564776781338835,0.3842426487960947,0.36703566039469115,0.46867226873246454,0.361566246583848,0.3429563974101419,0.31728086796514127,0.34923011577408464,0.32387634690958295,0.3001681671726819,0.316405980921598,0.3891402373753808,0.3537115316932642,0.38453014616537273,0.3236913767170014,0.318307893124562,0.3796972343838511,0.3546899539583605,0.3358003185705686,0.3680293380358773,0.47295755968177333,0.35958130288799117,0.41877950557459276,0.4465252694040888,0.3675208913952845,0.5232224010241994,0.4179910296892173,0.3879991323563471,0.37683076085103445
0.4300755504870277,0.49640775289068206,0.43512039335370273,0.4058626777938333,0.3289700987215415,0.37254028705177444,0.46803507057480553,0.35221845069987967,0.3303770262310782,0.3382478501185556,0.3650040182672438,0.32375261615772505,0.31266523540868496,0.3272441113304362,0.3778816313631223,0.3703852373249204,0.3796926521591073,0.32853868242337625,0.3339475320790329,0.3791744770632334,0.3491059075268563,0.3463412794101201,0.39294463373312094,0.4841048967518213,0.37205855306852703,0.38423444919632743,0.369567490188461,0.35130951414598494,0.5184050590888188,0.42791836335732975,0.3431304777623756,0.43137775086072144
0.4117949189560353,0.5036002898723633,0.3839304133615933,0.41095915103313857,0.3552255296402384,0.35751353727469065,0.44540323178862534,0.37944140130529286,0.35447837441173163,0.37009436078626473,0.41448328896328385,0.3555367091556514,0.3415024343647734,0.34605201831163784,0.4075668923651659,0.39342889506482226,0.4115538212896565,0.3655140052930313,0.3657100703086079,0.4105263454374228,0.37009772447024114,0.3466451617939226,0.37775212752875836,0.4670929108705477,0.3830192352546263,0.3696471928326387,0.4412514502894141,0.3911477437998395,0.525656123685191,0.3947778348770799,0.3803269625630566,0.3910683775212738
0.4261463065563418,0.5304885133765205,0.34788434515910327,0.46636547380227017,0.4084267664602032,0.4228229647364271,0.47968503524554273,0.39045671418904365,0.3752759943564393,0.377602068157629,0.40844046440869525,0.3749615501974081,0.36823914119439616,0.32808031361586293,0.4117481943156595,0.3720777672415401,0.3891278065750175,0.365676075198224,0.37278278492350203,0.4071481787305964,0.3798558669806134,0.34908105653079974,0.3775582214407092,0.4773668959708036,0.39261610214329373,0.370459959457062,0.46713887255406034,0.4394671057430342,0.543780458992078,0.40709084287476865,0.40478773744959284,0.4051794908557537
0.4780975092245375,0.5239252133245463,0.3961557604352046,0.4485442776032728,0.3338397559412531,0.45506860028380436,0.4956426024651928,0.3518690656857997,0.40028022944012226,0.3408478565158124,0.3586343166208705,0.39381663982502535,0.29767748068970235,0.2978176544000058,0.40351600758825035,0.3683544094412777,0.3751466818012593,0.33669506472970856,0.3468930431983986,0.3843229712222781,0.3598576695043943,0.3269434842947851,0.3916349093614987,0.5139128535107543,0.43912808534222086,0.37131006750291723,0.49558208783846286,0.4831335293363456,0.5475956380370324,0.4948639523479813,0.3771589816613527,0.42211472834738134
0.45495263416230236,0.5051814919102483,0.4172384255017702,0.426413705505077,0.27260520352145795,0.37145167741851787,0.46141850076601193,0.3503173138408826,0.3542660767115686,0.31318152420631273,0.34940968911619535,0.35995990452731425,0.26192768641445463,0.291357228822547,0.3962118381336046,0.37318445632578146,0.39134116748251485,0.33847847812506104,0.34162002724887147,0.38688377173688554,0.36034079419046217,0.3172522052172274,0.3580629228235048,0.4935864190932174,0.4043395123641169,0.358617935490489,0.5009164131086792,0.45889176640517265,0.5567618668025675,0.4845865550494884,0.37439728623250473,0.33191158241889707
0.44828500983585023,0.506129795287871,0.38300391264174716,0.4665112111356108,0.28763204729237485,0.3675628737461109,0.4445337731301026,0.35186547415166936,0.314996320832747,0.30455049481544016,0.3100088923079727,0.30191242467028495,0.29470985738831884,0.2903667417463625,0.3368114516728353,0.32726773927889247,0.3543890889301472,0.3226567630851498,0.3245972360418149,0.33858416638210276,0.3253480382990594,0.3138108937389924,0.34585351020036315,0.415917957296392,0.33872038528479476,0.35794631815746286,0.48609270144007033,0.4015885536745616,0.5362453872440069,0.42745384460070457,0.36941751891578284,0.33650839252918674
0.4945992319404081,0.49261716582159776,0.40839402462551844,0.48711042512109004,0.31503647266533774,0.40311141204589707,0.46784560114893203,0.35582561593706896,0.31404585504455274,0.30435958949831066,0.3201319724194895,0.3178352827517822,0.33451723091585445,0.281825341301259,0.33617620538775655,0.33437886768206687,0.3476879795904844,0.307803818623419,0.3067272325152389,0.30970312104400505,0.3044351248526357,0.30198718613787445,0.35789768630019164,0.37537460216023544,0.3468761233439404,0.3521592333929975,0.46033276254289934,0.4317192286220693,0.5301380132560991,0.4331934335982314,0.3629844969491663,0.36530399843401434
0.46793979125054497,0.5030375190736313,0.43995997998987674,0.4560562536138979,0.30725790253775515,0.3949977718308075,0.4905117083736831,0.3910009726404298,0.3129246211536813,0.31769674074147364,0.35973170008302824,0.33159095519057985,0.31961944606899584,0.28792987830912964,0.3771127168687898,0.35947773121201293,0.36109501515599723,0.3024796240129689,0.3039067375050126,0.31821000014599765,0.3136649455055121,0.2979857635317821,0.3778524908624807,0.4199132097843288,0.3905631540976045,0.36079503686035386,0.4617848206245913,0.4454403619724148,0.5535353811393355,0.4410271932063006,0.35375850699731437,0.37108250397575565
0.4201861382735642,0.5029731146159331,0.4240348818757606,0.42226114420674704,0.30114258051728826,0.3888484473143851,0.46537698329486826,0.37685444483113606,0.34293548417246994,0.33677753475979944,0.3767106274042661,0.3125237593993678,0.3152485205638636,0.3270002584081051,0.3967531108689576,0.3521499815194904,0.35839655889457783,0.31009373875532753,0.31934897365351206,0.3603725292874684,0.34218432511948815,0.31215928229805107,0.3943838799971075,0.4774297878255096,0.39682158951613933,0.36014175818667793,0.4612358816990771,0.3971930601478938,0.5421599284690521,0.4031134316405135,0.3413774237729526,0.3516578731474525
0.4434963801147548,0.4979135707831771,0.43497460271417393,0.4077208776912673,0.3277133753533065,0.36927557917299597,0.5020194200699007,0.3558884653868191,0.37682349067430104,0.3735554923429642,0.4030379434667436,0.3177640519583271,0.33705199079201353,0.3565477206542047,0.41241330978583257,0.3647381445923042,0.3935271718230532,0.3375686360352152,0.3338653026877455,0.38583249309404927,0.37318899736115996,0.34613855503789676,0.34966315938395587,0.5111538070541644,0.39522314061031194,0.380422322495011,0.42917738884641127,0.3980788319184653,0.5062818205176585,0.38237821014157325,0.3559321725930777,0.3596659971717067
0.46852408363490794,0.5134279729821944,0.4269676838682978,0.44874484472664916,0.35506631355665924,0.3459254992791725,0.5211810508099446,0.3488404653669916,0.35084721261465257,0.38067809962722277,0.4021943867051017,0.3363524844745073,0.3267891479031898,0.34857648733055396,0.41609053724139733,0.39954959023184555,0.45737663342240065,0.3539676885682579,0.3404164363660808,0.4148850221012144,0.3898752566296369,0.3305834150120934,0.3401341873991172,0.5174090048413933,0.3883988842300207,0.39854576722582113,0.4373614162359283,0.39855248275103783,0.512057478102956,0.3934311724793893,0.3829035701761264,0.33078855148726166
0.46683820033663026,0.504626606077903,0.44545719278657686,0.46990341185040935,0.3426562885669854,0.3649806788043604,0.5054446643253837,0.36601388497940446,0.3288532798477623,0.35743417527208027,0.3864242359837948,0.3526708425778941,0.32619152226978826,0.3542615535167115,0.40070081950337993,0.4047722411950357,0.45110341899544476,0.34507015667484553,0.3360964930458578,0.3992518092332868,0.3760782371190445,0.31220326012936817,0.3836097964822913,0.4949093774496383,0.35603170307363774,0.41312725047223436,0.47810012260004403,0.3795551941580056,0.515371151687459,0.430497056512942,0.3962977151807842,0.3269423149105424
0.46756379794247893,0.5119770560846718,0.46421903738825054,0.4746103402130747,0.3823293594820402,0.4061600940959446,0.5101858735202536,0.3829780362158711,0.35060559779459843,0.35299233895916066,0.40223157222071004,0.36400177401147044,0.33592826950992816,0.3617428379002181,0.43078103723486844,0.41815810594734976,0.46267987904304936,0.3631200735167485,0.35538432987498675,0.41501740799604575,0.3929862212959434,0.3031458706477938,0.40923154142144347,0.49636651107074287,0.38418304004918524,0.4194040527750334,0.46176462876896046,0.3957789680968051,0.5290652604307395,0.44509102273575957,0.39573758030986883,0.40395355026320456
0.42543732619346486,0.5049540001358781,0.39326832492342806,0.4537718902247042,0.3233126476388853,0.406790146297262,0.5049548614608078,0.3528968614068709,0.37331068861030015,0.3689510082424822,0.4214510581941465,0.3537697294749629,0.31113888658377853,0.36504182991374223,0.466190509821314,0.4328080927956961,0.44670299106548944,0.39961006836480895,0.38813234052787515,0.4704304199812533,0.42920615578893095,0.28365675315991035,0.41778579268422034,0.5089245997833861,0.40871417896020235,0.3541146076145788,0.43456688650613556,0.44513086732355706,0.5421963427124067,0.440167652742267,0.3408032022236496,0.45477362230382234
0.43237725451139464,0.45485039746069356,0.3998231300528553,0.43119046171598374,0.27468705904352503,0.3934229685875031,0.4920148408665236,0.34224541162695676,0.35350759975814233,0.3686128173928479,0.3996374098255926,0.34813244282357586,0.30452176430627376,0.3829482304674108,0.4312727342551079,0.4021066641293908,0.44089992762972485,0.38048688469468406,0.3621746163464806,0.4419436392692633,0.4140849205767655,0.2943690810029649,0.42124821195365664,0.5261116272986486,0.39720957762805537,0.34995673304492053,0.45981514553601927,0.4582805488782236,0.5318268066491102,0.430928298485376,0.31516983729694226,0.4247824618090162
0.48184693389636063,0.4842189286365782,0.46447084869542465,0.4410804678001549,0.3286883915253524,0.39589962225797354,0.4695550770533146,0.35684581712624996,0.3404697641135612,0.3508421731009611,0.37576806003748925,0.3476550656927887,0.34309081386537865,0.3314526849375789,0.3984402368082794,0.3638652924259713,0.4245574890534504,0.33791413245577445,0.3212670094913711,0.4079586837687854,0.34868195927959944,0.31126144259584415,0.380780363934608,0.4792796886329899,0.3998402836289809,0.40906914671339045,0.49312677677261757,0.4336846961633421,0.5435758017375931,0.4559543902862929,0.38271773536848513,0.38029553815618633
0.4428019568906356,0.5015805253053416,0.47338453034822886,0.4313331909597652,0.33047049286847086,0.38504491470256386,0.47124069608673064,0.3635959456718102,0.32087977520456434,0.34643586614825284,0.34774540950479815,0.3148794863156584,0.3273287809163188,0.30861243408887074,0.37922906888203495,0.35043066065629863,0.3749556259616864,0.31209209703935487,0.3015247453461586,0.3718679357481012,0.3300706226990439,0.31195933755179645,0.3631643116787797,0.4674078121432798,0.3911842167725667,0.41909751113138427,0.4982033291823367,0.4148776438717043,0.532480626542786,0.4414411257302387,0.3721160641139584,0.3931681995276899
0.42994199834215235,0.49014238364177154,0.44771807699112764,0.43845737207413443,0.3243265519975439,0.39168753406856105,0.46189418120751463,0.3176876202697962,0.3165907316439335,0.3364930432802478,0.3422007763141753,0.32644283640109606,0.3063069382702464,0.32034897387120953,0.3641360396636406,0.33891704459324185,0.3545454801672015,0.31084313275092795,0.30524956025832944,0.3560233569839462,0.32770825106225054,0.31761116261951367,0.3591244215181991,0.46611368637493406,0.36798885096641004,0.3826738216414368,0.47775400580253224,0.42406239612594687,0.5249906784566635,0.43358683726862185,0.3518671466120191,0.3743618617993197
0.4320907928242792,0.4789313534617291,0.39652081385561416,0.4607109368141145,0.3486461458792136,0.3643044170411767,0.43158219298610045,0.3338929177015496,0.32731505427985047,0.3287227519130279,0.3341712599533318,0.3192433572428847,0.3021019226497729,0.31584464799783685,0.34101975132646295,0.32160378529944794,0.3541522022860971,0.30941893116093444,0.31206812251769567,0.3694590697660817,0.3357054431757586,0.3003341371019,0.3561137806691016,0.4326352917012542,0.35433894700364693,0.35582309435165477,0.47473789489214663,0.3731763537485682,0.5436811881119054,0.42207774981760343,0.37121215491909804,0.37483707677560324
0.43056508410947664,0.47856365582332283,0.39312331568726755,0.4484259572056378,0.37614866579279305,0.3058049747199216,0.4732001976979064,0.4024627005474288,0.36166466502190736,0.3382775459731715,0.3481561956555589,0.32346158265256186,0.307489238659477,0.34086555883609154,0.3839437408274701,0.34699617271260946,0.3790601588733479,0.3177860755978713,0.32079187729845116,0.37702206513853076,0.3631937352409388,0.30540469038694334,0.3645106811916213,0.47032971137818463,0.40111277809517226,0.34324630624480157,0.48487637117012977,0.37503988087615486,0.5484314562155255,0.4143051423680569,0.38482017695367243,0.40437090570202916
0.4395669568394491,0.4942327501709149,0.42693954324009953,0.44548986527550427,0.43196650489880767,0.301764389867994,0.5043616844868877,0.37322884664354117,0.3760969654620405,0.34438471656895675,0.37447205486480556,0.345040583622856,0.31270433145116,0.38609837352948034,0.4356504808293646,0.37897190723743834,0.4107364160842696,0.33476342922962904,0.33275325856259996,0.3996623770884592,0.36175066602269645,0.3085254418512192,0.39009730264778597,0.48667979387698385,0.42321627628826364,0.382518513706214,0.4517868517453564,0.42245901437454064,0.39619630288564056,0.4346712353664798,0.3991267671708624,0.41000470732501754
0.44263658859414934,0.4926890755731099,0.4395932139042609,0.4636837082396247,0.4323000368852775,0.35564470312573593,0.5110877498290709,0.36399599985631603,0.3705896771066483,0.3742700114053716,0.4045726537959292,0.35078196580592036,0.33397699332692804,0.404852714215932,0.4570629885339174,0.4091993759995811,0.4396884043753167,0.394231724299758,0.3794314789279351,0.45946108729627644,0.3825039076055868,0.26916394101809105,0.4243928867173378,0.5021436352330749,0.388334116649486,0.4107335255547239,0.4429788999046237,0.45188874838832616,0.2612270103186559,0.4226448755020152,0.3859655108449834,0.3865944255933855
0.44070376855621163,0.5020816716666378,0.4348495604730624,0.4423400632796446,0.4027105814175458,0.3863627420991563,0.4933593465476377,0.36184437206073217,0.34689962686247394,0.33633600388301704,0.3476466297456377,0.3249532116209933,0.30485551441256686,0.3446511464609243,0.39565140559399986,0.38678663120195655,0.38652321144450474,0.31914696832539124,0.3150141053226467,0.36897150374619486,0.3456965457676121,0.2727314390688317,0.412859654104019,0.5184546026872804,0.3515098090979676,0.4104721852432241,0.45320650962079057,0.4473050974671394,0.28723909194891734,0.41270345491335036,0.3793968496054044,0.38588893038550137
0.4282512324557853,0.5180221823230682,0.39947171729710657,0.4395072050651934,0.41290165245654065,0.3697981837144265,0.4387689309353491,0.34640740442032975,0.3270656384276119,0.2992169589364797,0.3530283229519981,0.3419127898025743,0.287028252549306,0.3215633443694676,0.38727300924062114,0.38409185814430774,0.3895605901138213,0.3086487890049103,0.30151780623650315,0.3641681683159341,0.33956665680027937,0.3190229012767161,0.3984049740303091,0.5258104766307834,0.3490457707791111,0.4097754396607264,0.46580431604525513,0.4360941505853288,0.4330279351671652,0.42416889000778113,0.41506878865948366,0.37455441041240717
0.47515976373572744,0.5115833424368337,0.4536464841065826,0.5296421781454129,0.5337099812939213,0.4321905469700742,0.4449143123344212,0.5079981037639103,0.5125726047500009,0.42603808135081866,0.4489836761084588,0.46812752588772705,0.4069967775843202,0.4280997372018163,0.4326043793955411,0.41186964947850935,0.4483069386966815,0.4026414089893173,0.4261157455860607,0.4174513427683077,0.41065505591968027,0.4511528100905033,0.4561004204035771,0.5221804632633872,0.41943270803317023,0.4703583641265842,0.4878664010223201,0.46799293340937387,0.5148940092850889,0.43832509951428184,0.517794940850976,0.5204419301943057
0.48004761263778506,0.5117021521033713,0.48440027184814893,0.5450282492274868,0.5219903160323434,0.4658135316394559,0.5116101439258877,0.528760079015838,0.5178517333609824,0.47903176483513515,0.45716397865369734,0.4374721675982729,0.4448236533753477,0.4676224796899963,0.4467544995111517,0.3750902832469041,0.45568626628220105,0.4209045390429602,0.4436093912347897,0.4259896198695115,0.4025049199698246,0.4518625843392642,0.42228773282446597,0.4932095598104603,0.4241594864500967,0.4613666470038944,0.46503672506676436,0.42663223714321846,0.5571993544980252,0.4374315258667841,0.4979975265393958,0.5320140951043059
0.40483424980446375,0.513454354812712,0.3950257247084428,0.505867988628838,0.41289931427882753,0.3444568808108955,0.4853114557775777,0.40205173366915875,0.3480714221240549,0.3604473400446513,0.3743794038145388,0.3634769715496679,0.32436641757858764,0.39943545288079707,0.4291615027823504,0.3699990267381468,0.4323914837152381,0.397268976136831,0.37965743440599775,0.396310731344812,0.3750238766685203,0.2701887514313891,0.3460466289430881,0.4581355772713377,0.3708810507844974,0.3569796536456183,0.4496005117018767,0.39168717913356077,0.5407570126931187,0.4145844853552906,0.4043623740680548,0.38636352056423684
0.4405149495741468,0.5268370986240587,0.3782947957181536,0.4957078796798591,0.4367715051054616,0.31848254225248235,0.46082950121750577,0.334959645932427,0.3780604292268497,0.3617909601283596,0.3556035150050415,0.38864560848555685,0.3204338643182346,0.3673149537706314,0.39118847776961424,0.3674424588821113,0.42687310831353487,0.3986505317504875,0.38442516816954847,0.3836907918170119,0.3936316208855394,0.2678081382913702,0.3888222564145825,0.4496766507287814,0.3999760153526961,0.3671202081865491,0.4776963709717953,0.4184184733242913,0.5073967524369495,0.43982119568114364,0.4102580147292981,0.3898501608317566
0.4500933687567661,0.5128823701283844,0.38795993089364317,0.4826261391429329,0.3181995887568387,0.41234121406028357,0.4909693332816787,0.34535831202626144,0.3975217624002063,0.39399915265354407,0.400117051661418,0.37661105813926454,0.3101757999386334,0.37591069587560855,0.43254221770039464,0.38896936049269903,0.47227539030195936,0.4220473657241157,0.39330249066125617,0.4503875754155515,0.40568771086122435,0.3201366625816491,0.3568124883807963,0.462280098928731,0.3666137654687613,0.30569113868545295,0.4371450727609796,0.36926019435339463,0.4738627425419531,0.3911281230487076,0.3260367351671318,0.34502883449652705
0.4336936015171463,0.4962040451678,0.3849926734497969,0.4739487607445538,0.3346795162175867,0.4263605487183208,0.5065099039412864,0.33490789807067406,0.3951080912673027,0.39198284474403966,0.42559627515070575,0.40036149557491907,0.311714271616424,0.3929365396848443,0.44720363015579007,0.3569294962646497,0.46819917821184703,0.41364629293849065,0.4272155227582229,0.4762369488688643,0.403691341997782,0.36094367136389427,0.32536482767095365,0.47705526095159073,0.34883686822164567,0.2798826804784997,0.44004949358862766,0.38402391259914626,0.47638252645094886,0.3756349804749194,0.3249934111627652,0.31904139169214435
0.4198955090310538,0.4992040366120119,0.36508939011606284,0.42710030341262467,0.45089583594877464,0.3732759285175678,0.45910707529210903,0.3301940973429802,0.38232747756624264,0.3437207841052356,0.3794437390233657,0.39335679080341074,0.3173331188248891,0.3824275492171963,0.40821187397019093,0.33842116332240985,0.44431248825562686,0.4053695315294617,0.4363157100924902,0.46915641525931023,0.4220982795936102,0.39123925843971247,0.3957842735800206,0.5012959114101972,0.43247929325503437,0.33661455333573476,0.5062468370624191,0.4767097133427422,0.5467967928336489,0.44820779044496506,0.32844436745515243,0.3821198854647166
0.3746030195361057,0.4561129507091315,0.31376365575521065,0.4177180251879509,0.4236320306208621,0.3330111280054517,0.41583588712210473,0.34033737204662734,0.38307475731659224,0.35493996643745723,0.38204029980619825,0.38624042218915183,0.32416185676126424,0.37010024465395236,0.41630643809908796,0.4123525421039214,0.4485554691683411,0.41919856518811743,0.3521578298316058,0.43396431938950014,0.37349767839069276,0.35802675425848995,0.33039340739391154,0.4416671694403385,0.3187018696131447,0.3158852181190932,0.41307910542010773,0.3300887182039064,0.5170986599070211,0.4214173854941744,0.3122089598254385,0.3760664393829391
0.3155049605660331,0.40824903521568073,0.28874792143620365,0.4095374436082123,0.38083687343332695,0.28405891538983724,0.43358573778887016,0.31766715594165545,0.3502597633006745,0.3868082900637167,0.4106783119678163,0.37626125274951266,0.30235814348002105,0.35813169333065115,0.4433414982512119,0.4234152274415421,0.4443498359191578,0.39521922877889337,0.3306000509312783,0.4319343443258885,0.36172098802590785,0.3015335483462004,0.3094430810639662,0.398194105511096,0.29435494829369774,0.32821798442506084,0.4175033593936786,0.2906906016368421,0.4798103321884709,0.38398649406265756,0.353619651147316,0.3518266956550931
0.33657566404803085,0.4252778794245507,0.31879133820530714,0.42929082884276815,0.36644278888932474,0.30524018885907084,0.44141763914951393,0.29754805417194424,0.34885782615957267,0.33336888194341174,0.3560921884587032,0.3430041684761152,0.2989802271245917,0.35112237629785104,0.4149334455852159,0.3850097639962836,0.38143813917695574,0.34864369189349803,0.33239589474970227,0.37243290131779794,0.34670929360030395,0.24699458106689676,0.35421449079176187,0.4006368588680452,0.34476398088861415,0.4026480857415863,0.4750491863997764,0.29713612053781285,0.4875790938324703,0.3962965038771472,0.3977686087932745,0.3517103920506543
0.4557789938960711,0.5184245996542215,0.41922303026853996,0.48799978100051605,0.37483035551218363,0.3637832545831241,0.427546103480326,0.31221164698801185,0.35677941759121984,0.3045250835133414,0.3427569375421852,0.3144027593116078,0.33767037043579917,0.3192347504688475,0.3549273609986172,0.3414667690068651,0.3401900812115481,0.32074682094691037,0.3233176102821923,0.3416744357171057,0.3319648353484602,0.25883523538703446,0.36298214416253627,0.4229429764499731,0.38652534751387496,0.40122162743253026,0.46866631580779217,0.3584582988682215,0.4769075099912375,0.4427614778668049,0.38060057512450773,0.32470906534200367
0.4330698268630125,0.5287797874580812,0.4095534027533333,0.4525079499930081,0.37957751118225347,0.3624163341606595,0.467381234820823,0.34067902477830503,0.36302742005466526,0.3311953892111813,0.3627364984137622,0.3258682740440551,0.34525467766414847,0.31539632296947184,0.3482136689078224,0.35376243439074645,0.37535954826638285,0.32495167987223017,0.3254080440735059,0.35062093451274096,0.33746900066774604,0.32253348970033735,0.35992768100566164,0.4503183245937537,0.3753605104442503,0.3558029328585571,0.42786476052177097,0.3732737675524071,0.4856252372969392,0.41370309248199333,0.36237611011411636,0.3458141723166417
0.4234010628038761,0.5140800532874157,0.38929262844372986,0.4429181764899007,0.37717803490061913,0.3721669145579219,0.4834660295407586,0.3733218796369243,0.3533741881337445,0.35734924619891606,0.37951609042449924,0.3661107690751396,0.29150854463053716,0.33492577006843605,0.39958663003359524,0.40898358626361747,0.44173012987542615,0.3454976520148594,0.3416016968217671,0.37739075183261617,0.37303168759792144,0.3199134647965492,0.39695707899859356,0.46605356846342055,0.3976713809301065,0.36272019852779114,0.4521760820655102,0.400757154914658,0.530490112816241,0.39434845954517744,0.36322976000781115,0.37437919954784926
0.4735177519315616,0.5116428601055731,0.42257610770405407,0.47884950691712186,0.38880077642239763,0.36210346313130165,0.4703181112839495,0.389548306267439,0.34276472613082926,0.33503488259023545,0.3763973897777066,0.38851260495406426,0.23899074511976756,0.3526383184466573,0.4234251359629054,0.4166931268604601,0.44452156064815784,0.3699515989531117,0.36061111723706524,0.40729848744451563,0.3988001867288684,0.2857962288951927,0.39409290580880724,0.460701671598542,0.402110859256917,0.36746463280901787,0.49480835341283796,0.4023863080747869,0.54145092729717,0.43311750049876935,0.38823448935895344,0.3428736495043074
0.4364755941090821,0.49601654795054256,0.4404570616040514,0.5107854828318539,0.3915527088197113,0.3583968298498553,0.4728380447888044,0.3619308239107255,0.38648029616472235,0.33805750004282714,0.4028913713176859,0.35869345873076736,0.2299773048952576,0.3752735242359617,0.4444301301312547,0.424612158174445,0.4468260556490275,0.41720359911860383,0.39750708411540286,0.42661135502989944,0.40085493538804223,0.3179291896010711,0.42530861617756155,0.4879101310602751,0.38854094804208483,0.3924303510454231,0.4815652381694017,0.346658335853162,0.5381712480739502,0.4214468211986988,0.41298526299444815,0.3371945079064238
0.40647614314924113,0.5096761955147926,0.4071764652161689,0.4443454819189721,0.3683616306795343,0.3719474562148853,0.5185261310059194,0.3595232351027393,0.35404840921102576,0.34886998312808143,0.46403579614227886,0.36126142464252303,0.24212740590141116,0.40838006761144885,0.48955007032139297,0.43988744599821195,0.4867221753870746,0.418832252415189,0.4073610604876209,0.45666855540077533,0.3847033103616672,0.3436371577547323,0.37916034179758207,0.4901913352395556,0.36588747662552973,0.36817345876579055,0.4789297544172221,0.3733165701661479,0.5434041288357117,0.40853183917046665,0.34706446230960597,0.3525864838145762
0.4430560229193874,0.5361572473200336,0.4083022559983098,0.4081606341252727,0.35529196704541577,0.3860095900865399,0.5116990197376637,0.4132935244423381,0.34779476397221576,0.36464167671497144,0.46069756255718075,0.3925808085079153,0.31251476197164285,0.38425889749751363,0.4928513365450595,0.41644263965034695,0.47627222452745543,0.39123029739760923,0.3939763941429269,0.4385302936209654,0.35669080823397387,0.35332387680204785,0.3303937395152132,0.5006445389300764,0.3651263202862505,0.35533205184063765,0.48949377326157584,0.43744396929826423,0.559882683526014,0.42378760814924127,0.33016050192193996,0.35855999894664525
0.407558060326991,0.5231581198952279,0.40256057109099386,0.4340803764704608,0.3796229090545462,0.35727882327232596,0.4684398354382368,0.3530830081246884,0.34326653970014603,0.30680460424113637,0.42445544996885803,0.35755175276865486,0.321108824151767,0.34505524752625083,0.4600005380748617,0.3801566413724519,0.4428152343839576,0.40328817056829497,0.28846556297090287,0.3996078152518277,0.363415406117322,0.37343271576799175,0.3721862741010049,0.46439955274132255,0.40158443855176756,0.3962531210105525,0.47542323939140746,0.44627283532211265,0.5546126764121525,0.4279850533738451,0.35571160830949294,0.37125960445546713
0.3972459883599739,0.5004473466308824,0.3860943095010652,0.46175071424430114,0.4080121480753574,0.36128514831024516,0.450373947313077,0.3364541532681506,0.31833522195135455,0.2787093254526994,0.3805293118818977,0.33152981546657223,0.32002041730276476,0.31904476216149386,0.3638167877169818,0.3374885089030778,0.3714733697878013,0.33688012202904116,0.2731390081058751,0.37183613105404906,0.35117952749791986,0.37400923183217644,0.3667120082150784,0.43777883396853806,0.39780150145072485,0.4162108591279515,0.462295039884253,0.450595052157376,0.5440483899929789,0.45417944972639007,0.38514104050262343,0.37440015823746536
0.4563323901014347,0.5016177369918856,0.40681846104541153,0.4136872127898536,0.33522356047651536,0.3696537135450561,0.434660378202916,0.36160075401262864,0.3309926878424964,0.29256910347125387,0.35806844901700335,0.3091660309336206,0.2993003748561643,0.31173168010332797,0.3574416002648984,0.34369898143211225,0.3475649312168093,0.3207458182316789,0.3089874166160013,0.3511801211806527,0.33393333564281547,0.3471175986158624,0.3557846394239418,0.4483455128124132,0.3635728371118686,0.3899005854582771,0.4833206834981329,0.4039528836925594,0.5279051219105643,0.43688858107369943,0.3852831997600601,0.4196012360070654
0.47250101632122,0.5102424110418876,0.48773960652922793,0.41654901327116683,0.3431735536431228,0.45220453576670305,0.49182189238024304,0.5073854167381782,0.41146220266734385,0.3176283466628764,0.3636014149045176,0.32097099934221046,0.2948500699099051,0.34361398024194917,0.38519947490140527,0.35773827104521005,0.3590263495529071,0.33106290512461345,0.35126850349220134,0.3703292036660754,0.39022201303654636,0.3991840228849174,0.44598342321885104,0.48372306321892605,0.4383423469869048,0.44826420124394106,0.5181873201010119,0.43107863495286697,0.5165710563456156,0.4695664690137765,0.4280252678269995,0.5264137108163356
0.5154442621736385,0.5206223818695122,0.5287347341886521,0.47020733622219507,0.32416716357335473,0.46570764297283457,0.5197979207877875,0.41640429302236076,0.4064303875921959,0.3102285125901576,0.3967827067938833,0.36753839468163974,0.3415334996423676,0.33428694273433923,0.4331116327108507,0.3974734872799119,0.42711381920479236,0.3764915079955702,0.30508197471630166,0.38159544650949667,0.4228667855701066,0.43417727664442285,0.48578271256668815,0.45201339780078154,0.4643955702387782,0.47820820764783506,0.5128104537999119,0.4610423685650852,0.510845679693179,0.4980407073371489,0.470291078931672,0.5175586177516291
0.4810957513507482,0.509349014653016,0.544507898198737,0.46451555683449497,0.32181061532826805,0.37989775220603045,0.5043902778182597,0.2843474247197446,0.3423352414437558,0.3235038674362801,0.3721628586589959,0.3512115837127567,0.3591480499361239,0.3086881433712479,0.417772563060349,0.4026366417806622,0.4034665242628167,0.3521906159201695,0.1738386747525647,0.33829783892181525,0.3482548098805048,0.3457243871810739,0.4130571370167337,0.4016561563432736,0.42901793892713197,0.4509165112342804,0.47138311226408075,0.4367879162497058,0.4752404678303412,0.45232190834840064,0.4503366055997307,0.438709930648886
0.4528931323988327,0.5320584491476487,0.5235386597685043,0.47670668354498574,0.3815730030377799,0.3632598246810801,0.4897368291956981,0.3182501176002028,0.3380582378482014,0.3535888716303016,0.3763911358531609,0.3373750323655745,0.33692030209217066,0.3277877642429129,0.40184205125438227,0.36385100674149495,0.3820731684773816,0.33751065985650386,0.16407107160635434,0.3439706803606221,0.3534221998797178,0.36262441831390724,0.4286678957626893,0.4346452672109697,0.4324098899252202,0.3984433096979742,0.446304410873968,0.48035041258690475,0.4837131975720165,0.4327070427763087,0.41800118723982665,0.3798019445824797
0.4878321054218952,0.5417669503213813,0.5059787515984071,0.4660091046718134,0.3859515962814229,0.38626054266189636,0.49712759381564825,0.4083927564280081,0.3423350454942778,0.35739419062213107,0.39540443588775953,0.33871683220184057,0.33270189349373214,0.35380045976705,0.4210540566706026,0.35337413148367725,0.3808534751921356,0.3450754478179203,0.18916166794736733,0.35627818550186363,0.36793652983545794,0.38999313019413895,0.43653050745011535,0.46379622149133826,0.43372249270625934,0.3851765283169728,0.4372374419275492,0.4832074897156633,0.5406243479296625,0.49019957786968843,0.4297864445083726,0.38324816864524985
0.42678776705219795,0.46522359838925637,0.4363713394441676,0.3834735064213335,0.34226245909014785,0.32613608331081145,0.4893386635499158,0.399261972959838,0.2897915591734563,0.3604115380334485,0.3801596047055188,0.3590481922721375,0.28731868693827706,0.35654973474897084,0.41632526609798465,0.38592846310365425,0.3918073262068641,0.3436174986628003,0.32459239241202237,0.35825217612043964,0.3422965702180736,0.3330260026982205,0.38813958635436363,0.4419797144896709,0.42224131496786194,0.4006884890434834,0.4333282525347934,0.4567451721388275,0.5464867675390018,0.46803432660833255,0.3972135086648591,0.38019860908797803
0.38553607809518853,0.4385935140800556,0.34923199139830374,0.34626565691024175,0.3283991262982016,0.3297912084518926,0.4683471443958642,0.374198400427562,0.2731174309824366,0.36300756145736024,0.3951279687051388,0.3614178593945348,0.28887514577991685,0.3432129745147736,0.40315270579264667,0.36700459556793597,0.3889944169389799,0.3280347407043124,0.31982089869324903,0.3684647588624688,0.3358461468261933,0.3063840138220324,0.39022392215680396,0.43943591246751884,0.41321719212921737,0.4138435234560191,0.47713925715810085,0.39606211966182864,0.529761733332581,0.4040789366489969,0.33768843695730955,0.3810206834377465
0.4809053336025229,0.5090068795876346,0.4381805631137486,0.46041758972968233,0.40640471332675265,0.3909288609336202,0.47982503964399414,0.374243831069009,0.34989475908097095,0.3394293804959461,0.38098801631922885,0.34667992577025863,0.3687766999705329,0.3581585456345315,0.4273747987678881,0.38497122336999257,0.380434512344055,0.33181452194531613,0.3371947108021992,0.3623822678035349,0.34490028535145406,0.332068257977733,0.3899415777563418,0.43125594016999563,0.3868396816991072,0.4211962805422161,0.4867332645252094,0.36251376475525393,0.5249974249322857,0.4605062591219998,0.370035994744265,0.383385914462709
0.4535900984975545,0.4999672080503484,0.4157406320173438,0.47683543362849456,0.42031973234152015,0.35111119564110094,0.47454626108559544,0.3463678958693038,0.3726031474384849,0.33602260807030326,0.351060692611319,0.35472968963325435,0.358024825250582,0.35073330506220063,0.40720267505732655,0.39139277010902257,0.38467910471269723,0.33626787373775724,0.3356466352286887,0.3656287040079044,0.3459513179828277,0.32404720585558605,0.37200274319820703,0.43175669609034467,0.39695289301914044,0.42920782590922046,0.47744099485348146,0.3854816563652384,0.4961705277308052,0.4296986329415579,0.398998411225787,0.3769721709817857
0.4219405027684368,0.4826790638671734,0.41832548906397693,0.46863506737562427,0.3895781531466616,0.3264114093171337,0.4539381742318225,0.383969173967253,0.3400677569610729,0.3335230256282906,0.340734429987617,0.3438997359701581,0.3180877265753074,0.31062044487732476,0.370444397790791,0.3573129959217517,0.3566653782095643,0.31888054906455976,0.26991196174537085,0.34652471284181247,0.33012888077506625,0.3283510006489488,0.387736468139416,0.43317523351103443,0.3764101243191209,0.41459377090569666,0.4740311241303458,0.40329808800068134,0.4883502623020632,0.37967136706484067,0.38214181591567087,0.4299771119967169
0.3785334909868409,0.4583909074816135,0.4024216899249252,0.423460036464135,0.3545670367096928,0.3578489925405154,0.43020368323187475,0.34401214143193265,0.33329463319119396,0.306989640563947,0.3229576315370803,0.33715049084950555,0.3257977656758137,0.2967523788955797,0.3601606255068816,0.3383022713548526,0.35080826108662844,0.3124322687476256,0.22394402603653088,0.3425366863329269,0.33086072989143595,0.330669996836097,0.40293723519431945,0.4105505906090412,0.35885861124235763,0.3973292441421104,0.440023406582823,0.3687429839705018,0.504280851194813,0.3587737714055507,0.35759389844220607,0.41612157389481075
0.3065838260307386,0.4348969174825506,0.3501517563597032,0.3565601943987377,0.3132082792791598,0.35694133102990555,0.4293443349911366,0.2905323645300272,0.35622519600712715,0.3125337384889453,0.3515736841795984,0.3605891985838894,0.3826854550869567,0.3148919571372759,0.3759100995025004,0.3367810940563688,0.3818264461396856,0.33890783241037575,0.1878484989932523,0.3705967598751858,0.34655203477896607,0.3194475438887008,0.3606309702722374,0.3941202579245481,0.35031589098127686,0.38434377826751936,0.39606058100685126,0.3409811786077665,0.4618522535115843,0.30501541543238175,0.30233645360881467,0.35878345207681245
0.32448816723824575,0.4686469021025854,0.3530957647992268,0.36612516072549783,0.3341660016600594,0.3234247290001658,0.46197895969810954,0.28564505487968117,0.38365523567206555,0.3441190924746243,0.3933697297247094,0.38998069452858325,0.4346306950749226,0.37280155773626134,0.4299247876424756,0.40639731845235527,0.41838578754861727,0.4040961943473032,0.21219080158601644,0.4213549209421686,0.37081893599412197,0.3278257330724069,0.33974567295285824,0.44001339784298543,0.33538469889015293,0.3625979595080566,0.397462607228519,0.3679940177553521,0.45905311621826295,0.3451628394437255,0.311876671815304,0.34736286984822706
0.4404877928872084,0.5190140020171161,0.4188730773438858,0.48575794465452904,0.37862420819073284,0.31677209399748407,0.49145997923054974,0.30703886970132926,0.35524846454713793,0.34323800716223807,0.3881044119884525,0.4101011049630425,0.38936140448995754,0.3853357456867844,0.42199702858458615,0.3753439040793136,0.37774190731797536,0.3469006995766429,0.33861286265291646,0.3578850894518754,0.34484343424546465,0.2886621874445375,0.39092488160935945,0.44488574569009565,0.3702981357749317,0.40056429625270595,0.4841628456726948,0.4270063164496749,0.5128661195232942,0.4633289971778862,0.40285882379357524,0.2833911224506804
0.43407482110034457,0.510482958487509,0.4148061589988834,0.51892342843028,0.4101268306632448,0.32536331530486085,0.48290908697543944,0.3140613798861451,0.32899879113130487,0.33183119412845496,0.3654291447079065,0.3483589476339197,0.3409450818688535,0.3341159049129585,0.3990528180283936,0.3524985113220531,0.3820550802595654,0.33498160982610353,0.3265950790278665,0.33550300507325825,0.3271639219866231,0.2633345935007622,0.3780930695302918,0.418116794741731,0.3928938930002786,0.4211528177994734,0.4716085627935922,0.4188713738826254,0.5215512335578948,0.44703162025767096,0.41801985338718395,0.27224031989984704
0.4207144610025104,0.5351093056755921,0.4067186774510172,0.47866895493308825,0.3620854126246687,0.350782385618616,0.46852582250380975,0.31816330980415564,0.3521993659927372,0.3302127577249243,0.352036205670601,0.3488268029849332,0.3430498918758712,0.33327630461406926,0.3995485104586503,0.37373252480087177,0.3868366733130513,0.3355932965342278,0.3349746825247996,0.3275221498780662,0.32429604536240475,0.27266165113465374,0.329243435990881,0.42256368951762346,0.3878723200096641,0.4022008942642559,0.44585080363452967,0.42145963495206595,0.5059157000144787,0.45407673914861557,0.3934301856558114,0.30677835185529106
0.4165978563260167,0.5320966566132377,0.40103010607880213,0.4856529696349672,0.3361093013372203,0.3730988865360465,0.444969975790737,0.30478616828632266,0.36814395481592066,0.3218964893955436,0.34919683254551515,0.2918277581258569,0.313974437577925,0.30575529037133375,0.3664992344125223,0.35185471238190313,0.3541396692752835,0.30630002329216716,0.31768723375699126,0.31390742809594857,0.32300418187286045,0.3257948084762203,0.29778899564394606,0.41234051254062587,0.3724147985238656,0.38924898799077967,0.47414274272760126,0.42269942389589055,0.5181321728690673,0.43797945499600466,0.37183652669095735,0.33268914473465
0.4103059228253498,0.5262104486234981,0.3957791713237594,0.4894153812185187,0.36267997765562776,0.34806770241650786,0.44545550307173604,0.28940556113332805,0.36185833835158426,0.3139476558354012,0.3620127728156503,0.26434988290695727,0.30740704265364893,0.2894839616133372,0.3437083855923206,0.3647697133397743,0.35388770811344217,0.3032320943622817,0.3172119342410381,0.3274369377194102,0.331774650588025,0.30827995869138014,0.3307610994001327,0.3969928514503627,0.3744210984043258,0.3868550660579964,0.46464263766691916,0.4333150274155346,0.5323999478844262,0.43482793696427835,0.378329705964865,0.3763371045145579
0.39356997692837337,0.5235209421226075,0.3913992484552025,0.4511144204781658,0.33913579008447553,0.34249658094274354,0.4481006248365614,0.2834425874592735,0.34659157655363154,0.32857296883304926,0.3552664662815473,0.29388924214129586,0.3369271002690813,0.32578064907948184,0.34473403324953794,0.36336436699270463,0.3695462805822172,0.32726584667486147,0.32968500430124015,0.34242887308429704,0.33025165066696704,0.2901773272576557,0.34966781009761927,0.39607769457164055,0.3365107015878496,0.3694783540805735,0.4683673547051462,0.3982935978206773,0.5309012872686375,0.4285898300017517,0.3685387105180613,0.4109293082512015
0.41550256001413216,0.5115676682983334,0.39308120479960296,0.43963531428444824,0.3429443256719618,0.38821007914967076,0.4570019822639316,0.3260239012991615,0.3651633997320314,0.33425045017986704,0.3620229475640615,0.2972228930384166,0.3634668597374475,0.3530199217474315,0.35984321296347754,0.35069684699072223,0.3676198343939349,0.3335494440884878,0.33308101088496256,0.3449972847607354,0.33109344538251123,0.32665879530726616,0.3165119113784401,0.4059752569786645,0.3224016020026422,0.365973639943078,0.47715497082847724,0.3761428568648019,0.5124551789345334,0.4302280993520292,0.3664455040388326,0.402712664275353
0.4538980063029412,0.5067165658315472,0.39473169074665776,0.4257626670270141,0.3554808936767957,0.39012777510914304,0.4818237399745704,0.36191036288275263,0.3944256451062923,0.33914134401691537,0.393838391088689,0.31373151089047124,0.34266676104018373,0.378075196273598,0.4024579829940606,0.377038561633683,0.37925046958885533,0.3346462319792966,0.3325958873610821,0.3614969695450739,0.3444377610368911,0.3032094257831065,0.32822814086928864,0.4008149349074218,0.3397813269653975,0.38138792969434954,0.4561968560902876,0.3754285389048652,0.46985821782333353,0.3789744741853257,0.34983168770090634,0.355777073774139
0.4806818227820582,0.5065830061771495,0.3901425161304666,0.36500495289484386,0.35695152942016134,0.36282564042630555,0.4484415144656872,0.3350235102173882,0.36976054732184244,0.3247981726472931,0.37592794345479685,0.3523355424915123,0.30531977712094327,0.3471580537878025,0.3956723264528879,0.4056394082418575,0.41054411565498566,0.34734386905577386,0.3368033738212062,0.3934563868434061,0.34805542000640954,0.31970797538775436,0.3705334021253175,0.42789944369048494,0.36903784853194876,0.4026113070043647,0.4867582921448957,0.36797541794619143,0.4899860681260882,0.3625617117314414,0.3488082419805375,0.3528968241746683
0.464891325142515,0.528335755019995,0.399907068321129,0.36677644925178154,0.37313721664623845,0.34837012500991027,0.4374697346188087,0.30751092368416444,0.33519487225006034,0.30900256302504076,0.3308749080460416,0.3289515126740644,0.31075508456513684,0.31222062656829347,0.34202213776452156,0.34091396319411726,0.37548217732920597,0.319467585393177,0.30646425593931503,0.32541793520057577,0.3023842719129211,0.3264686787953815,0.31785067315764476,0.4175580615551698,0.3960868251946316,0.39453860102976257,0.5200771426159561,0.34186540708832386,0.5252412242808864,0.4102725199288642,0.3746685002849396,0.3782541972991116
0.4274722469796132,0.5270350631630878,0.388969594265071,0.3735395950618869,0.3568802944100657,0.30276181413953707,0.44024605977577563,0.28968026502475275,0.34362177824868056,0.3044872033814808,0.31441903823786294,0.3167351314036005,0.31778172944579064,0.32171178473197964,0.33190507749676845,0.314863810747686,0.3574296430345925,0.3131388353337559,0.3048731735681798,0.3124610396542895,0.3001580171423707,0.29914441333124103,0.297693117349266,0.38909102000298046,0.36138670415086677,0.37125648999773014,0.5016687215455892,0.3673723421553948,0.5293114491551878,0.4042486375643984,0.347339950198101,0.3925673167039591
0.4181408068061905,0.5038095666417929,0.3656630320808459,0.37690668999581545,0.3608519635326036,0.31452669632327146,0.43869922769481245,0.29028643913802266,0.337731583547224,0.291541944942548,0.3215788261618292,0.3312951829220856,0.30786988049353764,0.3419874279691666,0.35572068913112703,0.3348178817101127,0.3776625626424832,0.34439838774895254,0.35014013517532167,0.363240809328106,0.3445727917991959,0.3416555132205958,0.33290363242594223,0.410372240589874,0.34414540051620285,0.36078481550240654,0.48259479276605166,0.390957072197872,0.5221801396762341,0.404973538520178,0.3550662464247624,0.3691388791503764
0.4332980296539971,0.48576011601000274,0.384542407344953,0.4622344270719403,0.4017797729651203,0.348331179825398,0.4237205542708858,0.2952327352579735,0.315791233935253,0.30395195674204367,0.32957516316123636,0.32095108547632617,0.3004329198984812,0.26659735073081897,0.38309608286256913,0.33439254000448615,0.35590741623031474,0.3240371664552454,0.3398895938810335,0.3671295261785888,0.32093692928558537,0.33810428733246817,0.2962510762313986,0.41403404315424935,0.33841385170430444,0.36804300803875367,0.4643621097876787,0.36119580470684626,0.5116250564463177,0.45228539922439875,0.4257545893460525,0.35966074887471244
0.40661973769019444,0.49859841178200937,0.37475550544857966,0.4536539007119553,0.3885031360555733,0.3349592234935377,0.39627283757163856,0.3083366891206909,0.32010335527771777,0.3230852843903429,0.34903883882692643,0.311414386811963,0.2864964608550843,0.24127841183757406,0.39698953877600374,0.3484638899673575,0.36403237579330416,0.3235096021213793,0.34156997004175355,0.3566172368493428,0.3238797355138959,0.3450105817149023,0.3166186046427949,0.36973219787413614,0.3388874841839341,0.3775082436283801,0.4354265733664673,0.34841303522056466,0.49272380305485847,0.3915061970665546,0.43483544548837083,0.34902064044268266
0.3657481151253386,0.49421181772995326,0.3462346351714845,0.43608479853803417,0.3448813066405625,0.28414008482875514,0.40226086290873286,0.30272040945381645,0.30596941865197747,0.3101522030160661,0.3535593159596374,0.30024457198160376,0.2891814418960102,0.2801490965773127,0.34953685641910354,0.33141271852714094,0.35848638584609926,0.31351207454598295,0.32521587895001414,0.3300034062723761,0.3153495298728215,0.34066311135994215,0.3298117194613059,0.35572822654220865,0.309401098693851,0.34009413619197787,0.42399133757978286,0.33923727199176884,0.4843904557913487,0.31711997087331967,0.37790162679149386,0.33368717932569575
0.40115572334593524,0.5106876087075001,0.38111769542191,0.4491749849090179,0.33880365020802844,0.291829661250444,0.4254326946831759,0.34360428547161653,0.25530147972488254,0.31629573299029135,0.3519585466080299,0.30947039606664456,0.31384214926176296,0.3041016773037459,0.35703083600017244,0.33377563084253287,0.3442221998359445,0.3082675739918131,0.31110479472427505,0.3130274399139724,0.3012895827156877,0.32113572331730295,0.3355392116135872,0.3693946226088478,0.29438295255664787,0.32904348598522887,0.4444151310366429,0.37227881234653803,0.503165535803338,0.3249658346289777,0.3697271638729277,0.3605672843876146
0.47363241959562347,0.5200498450748307,0.4306294674018739,0.4265638931346056,0.3602055417492465,0.34935554355887866,0.4561337208002147,0.40832016091363965,0.2640908508532913,0.32913963655091844,0.3786117918802296,0.3057674763521388,0.29189731594410406,0.3237695124562707,0.39443995791048175,0.3644573203372103,0.37178527102120446,0.3286176995448365,0.3246814988157628,0.34155238201807986,0.33096240501542906,0.3467515819617579,0.3469552644423533,0.42332831822099476,0.37351423459046174,0.34518058064607793,0.4567190732590254,0.43318584822484874,0.5260346102085385,0.4175131548403057,0.3792721358728986,0.3651755409604075
0.4780660457095654,0.5274319303473343,0.44359509180808937,0.45310408266231256,0.36259103711958907,0.43397723669489896,0.4847126831456497,0.42853375935279175,0.3677935318335932,0.34334372427611554,0.3941849211193498,0.3178298089009783,0.2967812631747072,0.3385473954488276,0.417746181266836,0.40413569612025746,0.40664305000367057,0.34474382136997556,0.34419616607916886,0.34598005847037877,0.34085514853700055,0.31289653474759005,0.3377605200483687,0.41445435682189086,0.36387383035939497,0.3385101735802701,0.4502870209944187,0.4139785350861702,0.5335893716615894,0.43847527500655714,0.3837164885655976,0.3247529393765854
0.480799267657542,0.5331981273154275,0.43003249701750307,0.49462724185215073,0.3925795466365814,0.4530794014921741,0.44821813211794936,0.37660024496322647,0.3787812405987979,0.3528159815705425,0.3617773737324604,0.3788653684410076,0.32868166566203416,0.3279033825406568,0.3856356802474933,0.3734606992162296,0.38458222972332495,0.33408992022554984,0.34127887822997627,0.33182875715716587,0.3404105595453444,0.30865208842747044,0.34988000774808736,0.39627833465024004,0.37127955966597437,0.3719477059599399,0.45015940536989874,0.464519265778466,0.5214332285822092,0.4529880665597068,0.39506996438144665,0.33272540040059795
0.45330304353298545,0.5201188101568104,0.3990009877782389,0.4343795684089958,0.34414874043791405,0.36669102273547555,0.41663829193321633,0.33143269113377255,0.35738468489309383,0.35225199840828975,0.36740650832418364,0.35760450130773935,0.3456847423401093,0.319221522263587,0.3874610700040153,0.35986194806921473,0.37676130719946493,0.3319659909267172,0.33448049249343426,0.3534401494783599,0.3346175188789263,0.3397774328317949,0.3615185100167361,0.3946302737561958,0.37972171233615937,0.36122167398003563,0.43498256551961245,0.4734792318579694,0.5095219053838499,0.4281614963245547,0.34849445703394105,0.35326254308446153
0.44501120048030585,0.5132942301434017,0.3918143261681736,0.4131477891971512,0.31430698725147954,0.35961037242644023,0.4446560891565366,0.34184269670329354,0.34244693018509287,0.33595092872113524,0.3708652197130694,0.34551025143392444,0.33689668249017557,0.3453153286072357,0.4431739284266943,0.4331048093291549,0.45391793050205137,0.39323677017316394,0.3739968291754138,0.4069787670773094,0.3574980627312975,0.36976386001964096,0.3793342867149304,0.44863258295257474,0.4069715098027242,0.3445628561803084,0.4657422794707425,0.459033500663717,0.5360416480315031,0.408898786597288,0.3517302319683678,0.342479758897815
0.4611971997965364,0.5073622482916245,0.3690186411237321,0.4471774871804631,0.334933087694131,0.3508429155089125,0.43334290870753317,0.3841047198849646,0.35521433948977965,0.32264245246724266,0.3398498875293028,0.3288251785399009,0.31186894682688554,0.3155637507141976,0.3658783399438055,0.3641007824709181,0.40308513143908453,0.3560275302209422,0.3641261368460541,0.3451874062810378,0.32620746512843113,0.36195256620512334,0.32787386843440414,0.42261250088437696,0.3180502733005099,0.3422786813415917,0.4685630194489772,0.39399313132838404,0.5220724210085645,0.399061636761158,0.39148862159359754,0.3749362039728538
0.43085787602184655,0.5244432497872827,0.3477386445501536,0.4505871372501485,0.3393916001588732,0.32906934937941906,0.4348563292866736,0.3741955562790821,0.32626655539384347,0.3418986568842359,0.3574834510258186,0.3252155067990387,0.29815057020221153,0.31976986596263673,0.35821137456619906,0.3434195837062605,0.3747470180524283,0.3324737614903014,0.34114996050107044,0.3385816698486724,0.31924321476088685,0.34279635743989234,0.3272788656887154,0.4001789480228141,0.3046126515332934,0.36260934850438825,0.4553602820032038,0.3778539118948488,0.5200219902589543,0.4014623440793197,0.3835419256156725,0.3696446140155252
0.44175818346316087,0.5238845347805013,0.3792407348249782,0.43027801181128755,0.36299375957783603,0.3606971739930563,0.45789133585583036,0.36291354162194134,0.3188482059936122,0.33369858509081646,0.3771869591129451,0.34925538714456106,0.32346464640351674,0.3497705113741209,0.3906086309778365,0.3552338402813546,0.39919131017192605,0.3426870078806457,0.33276237516785984,0.35106861844188086,0.3194234332107332,0.3385280751064973,0.34519307163979635,0.44224529567373627,0.36066852958744666,0.40278391740199454,0.44021627153068715,0.4151742871111249,0.5478686106452397,0.430542146323092,0.39430087478366993,0.3767298388048547
0.4595900494638506,0.4942467002767654,0.4201688034797117,0.42879507798701755,0.38090289195417254,0.38983155277432385,0.4738339930324912,0.36688942994589363,0.34334489811746116,0.3311732184322812,0.38993113601233836,0.35657361095102524,0.3050587601062733,0.3603494663855037,0.41640844795603826,0.3613954960306957,0.39555923154292427,0.3487269270027043,0.3513811339089164,0.3527293960900813,0.33073340678961416,0.35522362372327604,0.35158951976704,0.4544969951708035,0.38883577539783754,0.4075694106947599,0.4410166094517122,0.4360922909594431,0.5364543038662737,0.44312367710821154,0.40187796553406496,0.4093101269213188
0.42037157273530196,0.5051998090382036,0.4006241124257821,0.4597283898069639,0.35536499941548416,0.3616160617369008,0.49366661647995386,0.3629497972573812,0.3599515899721809,0.3256518072335703,0.3933373452910096,0.34352710940810294,0.313906529511163,0.33793718950150875,0.40892718971238573,0.3676648037638634,0.4113949343882576,0.35420311652126,0.37490844252840017,0.37040329745493916,0.35048321348548606,0.34893111864612575,0.3852670224910069,0.4352880634189907,0.4097319249881544,0.4320037055671115,0.4958495591869625,0.4502728502847682,0.5314265666692962,0.4418001581578763,0.3843672290321102,0.3742813257435678
0.4524254200684166,0.5265155322135744,0.43371236138011526,0.5208397345670025,0.3652010538143548,0.3775734487682446,0.4942659796785423,0.36249330996063567,0.38175961279722787,0.33467804252504213,0.39330508504994666,0.33242668895254696,0.38121641159830877,0.3292254727276043,0.40377456620920904,0.36718338650452315,0.4162077348927972,0.3669966057224759,0.3623805595271354,0.37611545656345946,0.3303320464949985,0.3041202301784656,0.3262012637054394,0.4291822908240212,0.3539452958525494,0.44243232367169927,0.4769105508392324,0.38504585275418346,0.5085796696988852,0.44611787279108267,0.38069045395564227,0.3222385411385814
0.4633747738783221,0.5150361982448367,0.4434811973492156,0.4338786915473064,0.33480344920525074,0.39686047439853045,0.4793831603861239,0.36297134927228725,0.35227045575082366,0.346425782679381,0.37641108717627814,0.3441819878612179,0.3317490526426066,0.34230719950635613,0.40443398554343657,0.3880471410832901,0.407136830249146,0.36207739811058753,0.35102408122223133,0.3760189345840279,0.3373101010017377,0.297406671112097,0.30356083723512667,0.44519688561602866,0.34313539925735675,0.39023310535448996,0.44740443270808705,0.3663561889348472,0.5089223303242679,0.4138971227934875,0.35793182682041746,0.3334609479782894
0.4366907227457397,0.501238739280941,0.4288324944777296,0.45383862776896206,0.31394502534947866,0.32456666007526924,0.4715360302527785,0.3674479466597734,0.32192855532841547,0.33855062339478775,0.3652437839377297,0.32261622134838014,0.3249151466828762,0.3298138800296307,0.3797504063220462,0.361020223300386,0.35914557536773417,0.31235481149577415,0.3190234144291041,0.3530384580798063,0.33671608956762544,0.30983756512972244,0.35656471350289337,0.4688996493768831,0.4089408879857004,0.34534217461740746,0.45702657722315276,0.434800709971334,0.5116900817226747,0.4078873934866012,0.33910810296460164,0.3375196371091076
0.4795423782402139,0.5077675209320401,0.48493062401988524,0.46966201461231977,0.3425257229540371,0.33903286393836357,0.5098428023612551,0.3812447741842187,0.299844366406687,0.33180292447189286,0.38892421124770965,0.32124459824907126,0.34069836724750274,0.32830434034829126,0.39259313572270177,0.3458407429472757,0.3389061275928252,0.3013393659342716,0.3046489944837245,0.33657222345150495,0.31016923490642906,0.31829750784172367,0.34051005259753103,0.44623503841218654,0.41020572373093284,0.3512566976854128,0.4662717220370542,0.4301480702875977,0.5168774249576701,0.43087321358858216,0.3720932022557477,0.3150972258776657
0.5030773398576289,0.5153091909454817,0.48356992113551667,0.4623892523573883,0.3786524157987831,0.39390509939088914,0.5242215638468475,0.41651759545924083,0.33233402907781123,0.323906166805208,0.40680285327263016,0.36160438777986587,0.37232730175636164,0.3575711863332731,0.4409920593373911,0.38672947555901827,0.40655438897446927,0.34557497796945724,0.33214753972561073,0.3550506108895193,0.31495045277961303,0.3347303227925712,0.3225810470257145,0.42547751960711877,0.3869743522318479,0.36007317314639953,0.4733948329084658,0.41164640949655146,0.5334923882695934,0.4482616308060649,0.4049030775402475,0.3292792304051118
0.44320928687976496,0.510852407875435,0.476579136663748,0.49143817049904187,0.3575186015154716,0.45104090662415086,0.5231524390200303,0.3901151604796505,0.3478485575869512,0.3596318128989991,0.4261886820479954,0.34414895018701624,0.3882508162782901,0.37064771243612116,0.45443082030789395,0.42826573486709857,0.44764647270249475,0.3944541711986611,0.36420568979038836,0.3760723859087866,0.35287941732729555,0.3667420880558621,0.3576459460022265,0.4603191296778959,0.4038044820102921,0.34656522745872204,0.4685628772912971,0.45206167452567797,0.5334100242094277,0.43707388720510165,0.35817956830597597,0.33021779623840386
0.4311812802503281,0.4894801307325854,0.44179918793574674,0.44856017654490354,0.30436340310099896,0.4418011138778781,0.5130415408527996,0.363644295380457,0.32161189308765115,0.41598993751523544,0.43345564609700127,0.3366332996842615,0.36561327845367536,0.3420751837179549,0.4634092925546493,0.4406032894698231,0.4532754788557998,0.40662499660955564,0.3922489957210345,0.4063194458836836,0.3858450638930781,0.3892469936992497,0.3587217511908552,0.4661019142367831,0.40763492320246136,0.31602551146918006,0.4554796883256493,0.4499261366758537,0.5109274518919237,0.4303654488471696,0.35799670128237604,0.2893268024898906
0.44712870687647227,0.5189669056617149,0.3825113900991765,0.36543157332548826,0.27679162347845837,0.40582761190289207,0.498676075839581,0.3540500404199488,0.3131508286992363,0.416337743911404,0.4135016398985891,0.36347617557597367,0.28756207513065113,0.35219485635201375,0.47070366885513376,0.41337776667282927,0.45885348164418327,0.39213468877547764,0.38450219969559524,0.42805337207715094,0.3581265498298583,0.3515838879958949,0.3420090661019027,0.4399151255828238,0.3900063669285356,0.3468041870178973,0.43454831198778965,0.414670384442161,0.4787412163727976,0.4234632692906869,0.36394560962789524,0.3067279574528644
0.42267233383296576,0.5251734657317619,0.37208355302056845,0.3767274026213466,0.3701098648641252,0.3613574301867726,0.4994688472997114,0.35848048701093116,0.358541908305376,0.35166324402766624,0.41501856218365296,0.334571107877248,0.22840648708344774,0.4108352491567483,0.4805744374826706,0.4076896457480867,0.4567794342928438,0.3829521060006531,0.3832211881333044,0.4253982422052569,0.3629423747373151,0.3526240560782175,0.3107525877588337,0.46637806568607076,0.363726408219933,0.3925584405140366,0.4368776588493618,0.3969680519646707,0.4967885231998692,0.426269578521847,0.35414163158604917,0.39847009174666853
0.40218582834783295,0.5292988576841706,0.36049220438324153,0.3978867505539189,0.3225325755764883,0.33719508798309117,0.4957881103469148,0.34648545643520906,0.3949317170374486,0.35808204969281104,0.4029257218467754,0.33882842942319147,0.2565522212855925,0.40660202312223587,0.4564162392032624,0.42074053806910944,0.44369405643313337,0.3836666067521598,0.3938954140549735,0.4196569396332332,0.39849725925622453,0.3806505846682548,0.31712103758363847,0.4890710273653633,0.3859663605424705,0.40518602214889105,0.44478788765699495,0.4164261680495322,0.5213277435573967,0.4190970493689806,0.35245388599021693,0.40231974267244525
0.42487568397956393,0.5315652016124282,0.41800202657904695,0.40891811932413247,0.29677723354461977,0.31958877877342423,0.4908280017948287,0.3260317213510416,0.3349519756103911,0.35627106640273704,0.3889046209488923,0.32366861028426,0.3402877246095436,0.37013218599942155,0.428784005578984,0.3538152019526853,0.42917984759073363,0.3619233779157598,0.3540101761670705,0.39534654592122326,0.37288276756391703,0.3239722557140876,0.3590844491036813,0.46644665524198275,0.4162535085392264,0.39662188172636476,0.4599389821466639,0.42382440000176613,0.5164747855693519,0.4247325868352554,0.32021140853806557,0.3874702202577344
0.43917980115749655,0.5146668109583381,0.4556490343202202,0.4434740011298036,0.33215263800380485,0.3675283560660294,0.503353430252396,0.37800677674309785,0.33640406460069844,0.3711615735871172,0.41049997727621873,0.32547905300736113,0.3860885973484462,0.38576047569179045,0.44589015447048036,0.3319737794354793,0.42244899422280147,0.39599169890387664,0.37185564344010996,0.40922446532815543,0.38560364030496713,0.3280874117532643,0.347151290637066,0.4770464999882106,0.41620641566929556,0.38514972450835316,0.4786644007193279,0.4312677083167015,0.5347743594362191,0.4428478689492718,0.3228215898466461,0.4066078525864126
