Fp1,AF3,F7,F3,FC1,FC5,T7,C3,CP1,CP5,P7,P3,Pz,PO3,O1,Oz,O2,PO4,P4,P8,CP6,CP2,C4,T8,FC6,FC2,F4,F8,AF4,Fp2,Fz,Cz
1.5574680424908087,1.4647413741948179,1.4929872102738004,1.4851561965398383,1.5853094386841746,1.5640231935841225,1.5351406783969903,1.6596344606186793,1.634765897194038,1.7333277411573362,1.6023598950919768,1.6596996435861884,1.5906542897111158,1.6619535932290528,1.6157526662721071,1.6265059220914682,1.6047918223782887,1.6224102487339622,1.6265292388522012,1.6579659079294662,1.7010936140608826,1.6609581260634763,1.6900544577883667,1.626488743674469,1.6858305640822935,1.6943954412196427,1.5339141174387798,1.616519318611279,1.460130075378267,1.5926344106316128,1.6425157358683642,1.6839085035227075
1.6048040113258981,1.5275273237110865,1.5076949145382077,1.4887232432853266,1.6772056021452795,1.5408901212939914,1.5294575950699385,1.6317645404123273,1.6982675452056466,1.7337301036795025,1.6438186095912828,1.7211986946365112,1.6566236262147036,1.6927459394844626,1.6214318237673058,1.627265959491708,1.5926349107253182,1.6205502092545783,1.6212908865966749,1.653629364714242,1.7427734084825004,1.6588437566405236,1.7383048395238185,1.643194113539234,1.7254317217924042,1.728399379789749,1.6152999846732834,1.652339429744711,1.4309098648463197,1.6308638011836665,1.668732687427395,1.6625858862513476
1.585863328769064,1.4948853993721019,1.5960118213305827,1.4961433485763842,1.6277114629877196,1.6106433901200388,1.5694358712312257,1.649974937825145,1.6952820562025144,1.7404768215506152,1.629600984534672,1.7073850595365165,1.6814696570227612,1.6774303060783629,1.6629344863018656,1.6502065806948074,1.6420335106263102,1.677216094639687,1.7064961735688207,1.6951031066023285,1.7394478932804462,1.7207857384524499,1.7220657374435997,1.644974097532572,1.7085744181132625,1.71090413616424,1.5603568416050466,1.6431043138494834,1.4335703331386223,1.6654215358621327,1.6482666796601235,1.7411107223533564
1.5913720365086932,1.4882850843909952,1.5829861128729814,1.5091481290665036,1.5948355697955687,1.574422350155699,1.5971823920029788,1.6556691507196244,1.749279119493451,1.7698701814770663,1.6646768470731015,1.738402614387079,1.6995722652091199,1.7176444050674213,1.6851871599436605,1.7068000235233312,1.6748103229473963,1.7249561428909477,1.7397261262942545,1.7444672285839682,1.8110840408887405,1.7098736735322932,1.8050362060666258,1.6907270076247838,1.768945585016352,1.7284213634491412,1.5500308219736427,1.721998464182172,1.4781727748140945,1.6926423411530183,1.6472243130103663,1.6810917340421858
1.604721132534518,1.4959060133416218,1.5627873636376364,1.5377820455946238,1.614129361339043,1.6181340755472982,1.5825749595054595,1.6517861527333344,1.7171507685764016,1.7711016755861666,1.6760675632198878,1.721454317229631,1.6849307254214794,1.7076895188897567,1.6909052873653012,1.6939525178453139,1.650164754760208,1.7217640856044627,1.7450009473699555,1.713192172922347,1.7818290015293157,1.7391289814027302,1.7236629783543853,1.67898429201553,1.7156217149227724,1.6822683707346782,1.556008735318486,1.6796371191791204,1.4699083341461858,1.677812096182641,1.6687004364311129,1.689523305047597
1.5736575902550178,1.5248374751985085,1.5720936161330956,1.568305488481786,1.6393530311588944,1.5995642302645998,1.5223862150712364,1.6853077073315024,1.7330038778646506,1.802046816390351,1.615356542736842,1.7752245962879851,1.639129845791165,1.7256189984843193,1.6440754443582588,1.6486428870125676,1.6178414544028896,1.6711418522904278,1.6941764328804294,1.6920593664481187,1.7511662748685783,1.7116671329686024,1.7453924191033272,1.6702286287536767,1.7168797564971967,1.707285011145156,1.5532890320230917,1.6969781719214883,1.4476677112529583,1.6494428105340215,1.6972908520126384,1.6902951289705135
1.5747084709115002,1.490426806036775,1.5831903540654124,1.4994077237743948,1.6062893831543101,1.5933290126513988,1.6118308858130703,1.6503354284181824,1.6727677000304577,1.7595099673930306,1.6525794709663264,1.7324923066670832,1.6463431232155386,1.711594857596056,1.6522621567440696,1.6820419850457047,1.6415375055405617,1.7183292841889586,1.7360767116989075,1.6980156251429974,1.7757600982049124,1.7131685187623458,1.725938014472918,1.6922369957275047,1.7400391944085356,1.6775726471721346,1.5475263446295162,1.6998873397325545,1.4624326219328996,1.647659079262389,1.629963718501102,1.6321978123005796
1.5117723672324492,1.4664053451656176,1.5392983526815942,1.4396586625721248,1.5541492618151227,1.554390863059459,1.5213362153293857,1.607150588109206,1.5963709805414403,1.700805886198206,1.6240686819024936,1.6891423501960232,1.6215873426221923,1.7273059571941884,1.6440749766797687,1.6418531837335832,1.6152594025696119,1.6645502010433666,1.6894543822505523,1.651556744307504,1.7168786581825528,1.7131376703159626,1.6822308522915432,1.59424230657785,1.6350977015190062,1.6168324347754202,1.5131826278868548,1.6008661814012983,1.3901965069468498,1.5518763829441198,1.5550861872731772,1.607623468940164
1.5658195003881623,1.4626194835405306,1.5979627102191634,1.5416905852527645,1.579071417700259,1.5940753295822392,1.563083163352275,1.576817536360613,1.6431008702124141,1.6965407302436633,1.6343818399689107,1.6758321389768702,1.6702026728306396,1.731930436534211,1.665236189570311,1.7307764815541968,1.679638545680744,1.7524571535163624,1.7903073939892253,1.7271410191514323,1.8137276700964313,1.7432529450129974,1.7346402175668658,1.6794550548583334,1.7221919453166104,1.6192294511793728,1.519582833194179,1.7073133310944164,1.451703764676472,1.6539206849655486,1.5951011608074745,1.5484017358456217
1.5822050712455524,1.4714077881629977,1.5486238700506412,1.5441015782730754,1.6079511698276028,1.593456574740478,1.490859822586208,1.6374216199355873,1.6085142635444196,1.6895474089277942,1.5915697267269693,1.676808920568485,1.5597888499970998,1.6300413638303413,1.5531139271680485,1.579819509586076,1.5511642521412934,1.6311771285300138,1.7023705833277374,1.593605196465791,1.697745833273082,1.7087730992748125,1.7004926454093354,1.59715173339204,1.6773381934252523,1.626433241419222,1.5835409648766607,1.685541007476099,1.4227443122495185,1.5762166742227044,1.6516672105434078,1.5664120195338536
1.5027652368621063,1.418879522783137,1.5218481098814434,1.5776933980224455,1.6206495813966109,1.551197941489218,1.4313251683012844,1.5490453860629418,1.6106247327303906,1.6948782580188673,1.5841910798319647,1.6700541965131412,1.5912842482426144,1.6141351315326091,1.5786606958220455,1.6350526339719504,1.5770382292071505,1.6837435075984821,1.7569384241696067,1.6662353353645787,1.7838618106946769,1.7504693474104345,1.7211167756125798,1.6148067004113005,1.714074033255426,1.688560886854768,1.559431384989142,1.6579123970194878,1.4258641974990995,1.5652108531647848,1.646326369713129,1.5788008779204403
1.4395370205395417,1.4033972955292051,1.480770973493766,1.4928928692966725,1.5492547033566875,1.5514547817373479,1.4285738615384287,1.5689888787587187,1.5581529071413902,1.6581735426488955,1.5589964018174844,1.555944731683935,1.5659724740261631,1.5489138668144284,1.4961254512056004,1.5658463710614847,1.532883862526689,1.6566417149703614,1.7673150604983328,1.6339075036264155,1.7207330711453774,1.6681586106959305,1.623997634801699,1.5894453013495184,1.6183880307557341,1.5863615949578695,1.4388472983826395,1.5777823263906825,1.3682802009358948,1.5152881160478195,1.5208041102021772,1.5143133253774073
1.4379959553544235,1.365947802852183,1.4003648973168727,1.4616118100204611,1.5171346832586314,1.458862796406304,1.3145163144166137,1.4925538484110386,1.5232808433780185,1.4868032114262137,1.37242386996764,1.5545820391481753,1.5046137948388179,1.4670588090711414,1.3879146431300737,1.4337082781882629,1.4039370367475261,1.5318854310991792,1.7089994855143982,1.5449471450963799,1.613235678786922,1.677206726959026,1.5881255931377045,1.3801369653337587,1.4865989692569017,1.6192358600665935,1.3971488947316735,1.436089582564913,1.2999472509670427,1.4126824769821111,1.5132367412840078,1.5546994575050876
1.43483109719075,1.3287164122695627,1.3983195124034187,1.395268966127731,1.5158629184445997,1.4851520197502073,1.3108310513541372,1.5312432660826603,1.5069849060265927,1.5025854069597997,1.3649357482759839,1.552310582787184,1.5166212074080834,1.4991723115166515,1.406183181512641,1.4992211050487017,1.4321212673468684,1.5113649381939827,1.6762764758746116,1.4861077627114627,1.4732312937598333,1.615527778693417,1.4399817517607718,1.3687210919816597,1.4324243925743154,1.5602847263905224,1.4218154397100697,1.368904942250539,1.2925651206092088,1.3885744090037964,1.502808328220212,1.497616720993039
1.4418395760933533,1.353792038715856,1.410076158653386,1.4175864831261944,1.5631773956343529,1.450743052778316,1.3512936632377242,1.4772616553110023,1.4975460005023518,1.4806668679663835,1.4074608831925364,1.5707336546143325,1.5116796351929493,1.4975404375483046,1.399566166950982,1.4650979602496563,1.4014157241707283,1.4758849568673544,1.6089542447545977,1.4729209614323413,1.4719543367427321,1.5966161044050382,1.5175336904790522,1.3403776253190085,1.5108426915237174,1.6035267090432008,1.4144677366582339,1.4369728001060975,1.2680711330799297,1.4337342063396652,1.4903100383713412,1.5001411101243052
1.4402737845636848,1.2982069409335477,1.321055443638245,1.4679085945891548,1.503938419542199,1.4447284591673302,1.3392631789061045,1.4653413912939326,1.5552002190118068,1.5036172138893498,1.3915134177483486,1.604418386637132,1.5118223842552525,1.5244904482277464,1.4502909184341948,1.467187219112703,1.4123889988820806,1.493415480146076,1.6645770149082937,1.4450335581256002,1.4696946872548775,1.5348554812396549,1.5595413381551098,1.361687647063009,1.5027480236262067,1.6088838121632134,1.431080504103872,1.429380372698827,1.2994913096957281,1.4146063614418833,1.4946207662188262,1.5156049081136505
1.399844526591853,1.302335006844543,1.3554990817596348,1.6184490360740518,1.5093537276492808,1.437626308363954,1.357951294052719,1.5042563821719543,1.5697730631396398,1.5101460334016097,1.4181278204849401,1.6132714009679978,1.5411023783815265,1.5353364813144348,1.4526767342537563,1.5056544330638062,1.436176217831012,1.5179092345085041,1.677149680360707,1.488683741966163,1.488754711596395,1.6444361051550676,1.5283344585885454,1.3406039434844494,1.5269199338862198,1.6091591846084825,1.4022999582252724,1.422550370441438,1.2889987301310806,1.3734971729088954,1.5282892974584308,1.5023568189678582
1.3797804503598339,1.2767118772268695,1.306598207994819,1.4347708393889056,1.4997351539343682,1.4864709480657383,1.32654219179361,1.4890042448630945,1.6050701948524149,1.5441986108873111,1.4784815116472492,1.6544145437595275,1.6381041676173942,1.5820199680316307,1.5414174224699109,1.6019488344897141,1.5085955959981128,1.6133648824727516,1.7211242626826504,1.5873560475543003,1.5840144349623184,1.691147246285231,1.582552938593856,1.415094047761561,1.447008298787037,1.5892908306785012,1.3839170146000674,1.3699587761586114,1.313178806771319,1.3526287201495433,1.5048278744907746,1.6118428631602073
1.3854679548661133,1.2731068198694033,1.347068437671751,1.6249604677066818,1.5397249098861183,1.4832406092175767,1.339238414559262,1.5013492701242719,1.5525038545818495,1.5102782306157123,1.4523995663061076,1.5913518609109687,1.605104143949108,1.6033884639619753,1.5115807721254213,1.565058113500724,1.5104276157302805,1.5916494614910217,1.5524302665023255,1.5417039013572003,1.4827083915999815,1.626224456034031,1.5125911775812184,1.3964327733819646,1.474453644111765,1.5634297694869062,1.349079497145446,1.4100111596960156,1.3094092357750768,1.4150115838691422,1.4812481280771417,1.522831698503294
1.4193927015594996,1.2928214212968887,1.3630665281808116,1.5123360838060493,1.5402546531300787,1.462476496814692,1.279990414442887,1.4661261112266961,1.6154378352108685,1.4972731287041008,1.436448123637784,1.5735057980273228,1.6960100537266078,1.5926187442314284,1.5067371459215735,1.613471589567146,1.518685750488192,1.609044202920302,1.617885530828483,1.4984829836470446,1.4589171794478553,1.6724916763769373,1.598472597457614,1.37749065173044,1.4937697618292787,1.6228375467133382,1.4208899171242961,1.4332143294832798,1.3401727886780495,1.4202928152877967,1.5375730345060628,1.5485424643562953
1.4020459663306866,1.264886788817229,1.43984797135582,1.6445089706302842,1.5586393580795859,1.49605264051071,1.3062586223914394,1.5249360124720315,1.6060096601590659,1.5044405445627973,1.4759737525333043,1.6331313425887413,1.6229842943208541,1.625199251270066,1.546790118470801,1.6046314440179004,1.5731343082168905,1.6378526157203017,1.6465801118538004,1.562664027900577,1.5254321943869635,1.6280325259273316,1.5652442969311724,1.3870110305659733,1.478792497030266,1.5408444697052324,1.3725473827178818,1.3780062919452705,1.3955971931190418,1.4249048739984442,1.4993352208013706,1.532018397895921
1.3968543839221546,1.24649540698898,1.3757076663336596,1.5550638033290076,1.5101087959036235,1.500810659902482,1.3679983648220277,1.4923234701298351,1.641234747119283,1.5212378698293367,1.4512483167310817,1.6503303735540387,1.6683223495762647,1.6246170825815913,1.599173278925994,1.6556318430113492,1.5652972222600212,1.6377593973296152,1.661480106659102,1.5117154991599224,1.5337796132000332,1.702388134238984,1.6460263101722972,1.39756326691039,1.5311724192232459,1.5410228712030483,1.4315115104288993,1.414985002054241,1.323450067303389,1.4240859134089363,1.5180295794025311,1.5573524261469238
1.4075051707987898,1.2847139345711516,1.4336134329348469,1.5382886898854593,1.5343069152971287,1.5242812300053368,1.3902130556297139,1.5291730323899466,1.6501928687234348,1.613079253455705,1.551092059505667,1.7225749302926525,1.6977405747404313,1.6961205914759487,1.6459607595574086,1.6913556011515176,1.6240311075627527,1.6897058192892307,1.6919265264019847,1.56671341908935,1.5579743483679376,1.7008237488132412,1.6466669782426864,1.4036319413369673,1.5752935636791645,1.542240890997875,1.5019099329811423,1.410561698131076,1.354227917027476,1.424024842421352,1.5055548913225816,1.5433166755021879
1.389981460724126,1.258002115928398,1.3890130369841431,1.544118406072356,1.4589983438233944,1.4904267314861046,1.342322507947407,1.460652419886389,1.6669708756235062,1.6183728289616435,1.5311337761461903,1.649916195588382,1.7628312333897755,1.6375095160162196,1.6091134098518687,1.640370922743064,1.566293248395366,1.6475400298095013,1.661552336444887,1.541829588744951,1.5100376654416265,1.7059652009565829,1.572609742758425,1.4158973834587527,1.5627521525193537,1.5333942342521583,1.4593914811037352,1.4591243689782794,1.3033667063796752,1.414086889957221,1.487213917186889,1.5147213733167835
1.3832274894070629,1.2453665981466941,1.4842067617878072,1.6064248010126638,1.5287326096205518,1.5133833414736462,1.3629913036518564,1.509977762347791,1.6109138408167971,1.6335340309393784,1.5281033991984247,1.5738297103512358,1.690630090989536,1.612361321623456,1.5681615872646546,1.5886900785373963,1.5897161719168234,1.641032047952822,1.6350102758723903,1.5227647347931614,1.5540262278192711,1.6654538322752732,1.6555728988314646,1.4282544210636918,1.5630576134192213,1.4839161270358658,1.4731587184224508,1.4544318261350335,1.3659695057272865,1.4296344764242128,1.5500344961153398,1.5250525814213352
1.4026485120329077,1.2124138494095376,1.4852023665181502,1.6218545851650967,1.5452532420475438,1.49166156602243,1.3273100081412763,1.458355948737853,1.6166523339557892,1.5682458615435322,1.5204412460925085,1.5168522975999486,1.661417735692913,1.647093937808315,1.5893161284353632,1.608717769216807,1.6464776206687708,1.6541312667053134,1.6331756275051768,1.4893923444744404,1.5234225001934152,1.6253137605673054,1.5999209207955902,1.4138137790203926,1.5889047110078827,1.5136320408943884,1.4734595250690272,1.4495448818097412,1.375341079723122,1.5048078347017244,1.57420556083467,1.553328306750204
1.3731660902173044,1.233574067163088,1.4671711346914882,1.4606055991118476,1.5535820492252863,1.5369687601113093,1.3921659214855264,1.5183247785747946,1.5925897507830618,1.6377021843064727,1.5515586194352415,1.6254424736569109,1.6380582309963485,1.6762051627662495,1.5809858185485088,1.6240951925328013,1.583045628397469,1.639477711385235,1.5896686534241122,1.5026560503178419,1.5501371354202718,1.6431404323124277,1.6154305964904712,1.4184934413980939,1.5547135176984452,1.5194366128166967,1.5034475244788608,1.3929802649903011,1.3772029148610774,1.4761494335817988,1.5611207237208644,1.5877629914132112
1.3927845981535685,1.2286108732003014,1.400102224109979,1.4705916852751233,1.5266290649858276,1.569209260606069,1.4107484674639093,1.5206982776794165,1.6017695441742703,1.579787028717653,1.5021647678864933,1.6155665718467744,1.6663067338282214,1.648004696089022,1.5604983549655018,1.5855765779244473,1.6018743235079191,1.6085281339182576,1.5955289528930565,1.4752674237501702,1.562950096172814,1.6342840163033756,1.5908005784591108,1.4381359371347973,1.6152606106537635,1.5215426814868604,1.5265338965960424,1.5255353107052383,1.3464360950520762,1.5268771735551931,1.5043221280297503,1.562071613002934
1.4903869600994466,1.303738518987226,1.5530346875671293,1.5475955368039842,1.5468183899322416,1.5698460955626472,1.421069029381695,1.5698333731169696,1.6111067591967199,1.650340879382065,1.5375985250930935,1.5922263855044416,1.6618468711014804,1.6285426969413397,1.5841790876787536,1.5872428737517201,1.5928951719352755,1.6434911593752672,1.641618262709189,1.5497941848683445,1.6215662657598,1.6683250143208903,1.6236634379208197,1.4307688744253815,1.6175255895638982,1.4984156355189857,1.4421228077897383,1.5302878147081616,1.3640034463840485,1.5201251254689583,1.521322597378597,1.5771153980513894
1.483725213058954,1.298854510322257,1.5203901586857074,1.4823241707442865,1.598135366641686,1.609716814197378,1.397809775614158,1.535357112663545,1.5995879483341886,1.5813982882519277,1.520495841590981,1.6093766617050262,1.6614376306478793,1.61178963063352,1.5705959443217534,1.5607162690831202,1.5831593196338185,1.6290814625965655,1.6379194552367633,1.498495723907849,1.6388082193372262,1.6838864051201103,1.6212995442204845,1.398234597027969,1.6154627242406006,1.468326984325153,1.4487400942974986,1.532789905482361,1.3119086233686326,1.5565739761146704,1.5397274680497506,1.5714058951982477
1.4907472810826823,1.3218090181706403,1.5660822929088483,1.4574143449318682,1.5946368351704006,1.6348269712054777,1.416411982906695,1.538677291227029,1.5941364633206532,1.5938352914702745,1.5536603232035529,1.5871632971246028,1.6349120740691185,1.6635366676636845,1.5611592851044582,1.6221526905361698,1.5254265418372461,1.5533089330031955,1.5719997661326077,1.4878506148377335,1.5981084567409285,1.6204635226579336,1.536901794673043,1.4075589754564248,1.6390290373919947,1.572326974837603,1.5213762664782045,1.5645529320316147,1.3475071965293817,1.6016373495618361,1.5900981073809917,1.550865081793211
1.4772151515414664,1.2911224888113186,1.522311970451901,1.4805431383919923,1.5956785503311794,1.6374515070967688,1.4256830124822422,1.539066076454748,1.535319633054658,1.5561659378137098,1.5823149486794987,1.5403208206053693,1.628520788271487,1.6633448383311704,1.5849230980357725,1.639868303377536,1.4912770036620604,1.5820536958293252,1.5772281133292334,1.5288860091696457,1.6102122192859882,1.6535218485827299,1.5689663529929938,1.4321326487782857,1.6200195435637361,1.559307741883583,1.4595079937354385,1.4752714875329853,1.312004405079101,1.5295876670926005,1.5063183755113831,1.5619299751683335
1.4977463793600807,1.2745785568849655,1.5225449145179148,1.5469494728985351,1.5960214530770527,1.6101473870628948,1.4388367767310892,1.527602244918455,1.560694004441497,1.5966094829918438,1.511710932752787,1.5569857527951227,1.6331688835248366,1.596375146249715,1.5292678137310471,1.5717553916648777,1.4639021870794022,1.517838509992941,1.5467053862551752,1.440084636569246,1.5678884522913874,1.5774580150040434,1.4977108215252182,1.401715499163228,1.5651520632048734,1.593771560210549,1.4320421888712331,1.5210878085218529,1.2990968461407153,1.5553239003721029,1.5481379307281946,1.6082235826523463
1.5563733880255772,1.3658443905483673,1.597539743033777,1.4990993566265907,1.615746754561973,1.655546941789915,1.4461343216136429,1.5391418130500827,1.55238046129562,1.6122544905113867,1.515583942904809,1.5874419174332564,1.593096736470456,1.65179242820334,1.5851003739721052,1.6344253575381964,1.539182630203082,1.6150077966610676,1.6325149600916165,1.5351022062682091,1.6421618605453152,1.634269942325991,1.598662451786874,1.4276577636846182,1.6572499231033697,1.545497849222522,1.4337650958236032,1.5872999996976624,1.3673020155918205,1.587445472354646,1.5563239226488035,1.666201980115624
1.5232333326886758,1.3211867686522472,1.6062447646240514,1.529931394847446,1.6515440694853365,1.6234765019156991,1.4507987938449238,1.5423179066341746,1.574858625575202,1.6506009460843827,1.5296016334622258,1.6133850121494853,1.5850640967614125,1.6701513014931095,1.546479731808874,1.5979856975023383,1.5468598097178365,1.6125904572584882,1.6428885938423188,1.50917129189765,1.609011793286337,1.6262136218332073,1.494416027596803,1.377728603362354,1.6297545964340263,1.6064177551310443,1.4081875124252985,1.5850199120845894,1.3421079904485633,1.6073338339553056,1.6203823514772575,1.5955870211312184
1.5769438145068821,1.418104518229113,1.6341576377459437,1.4633147197122318,1.6154473495941963,1.717894353486477,1.468004527413311,1.5275113372263969,1.5364804122689686,1.6342383960163915,1.5153734319847219,1.531774465402522,1.5978310729155976,1.6303198388506026,1.529246111974224,1.6371131481832562,1.5102485612688383,1.6090157379955587,1.617370675832068,1.5197402864103164,1.625115976343036,1.6405207379318982,1.5272394207691957,1.4584083308495357,1.6108479795596347,1.560392690881801,1.403958895453042,1.606725174055976,1.325293300136667,1.611577459684983,1.55877006345053,1.597072715037375
1.5603881869877314,1.4134567013197183,1.636110787882588,1.4358902445700628,1.5761240629446258,1.6841216931208793,1.4909485492207244,1.5187468888722375,1.5262029370903425,1.6333061767996488,1.5509386761442752,1.5377635812504467,1.5155234612099868,1.5910138644710334,1.4945913496226226,1.553389354073207,1.4423600482335166,1.5321122699358494,1.5671221010801444,1.5131440150015893,1.5403716620623025,1.5527429632280294,1.537336571819604,1.412600788043854,1.5884693915268342,1.5632933698622826,1.3170574226714904,1.5352719916655129,1.338248845356441,1.5761253385575034,1.4801551695939499,1.5592694018614726
1.5462842898619764,1.4147962091810453,1.6093999915310493,1.3864863428917682,1.5885957677589901,1.6637765960882889,1.492012252714364,1.521050949267284,1.499830387456439,1.6360781580790296,1.5453376379416839,1.4938040331853708,1.5447851196371718,1.5777233198842469,1.5141524640762063,1.5772390446048092,1.4340538437925368,1.5464263442070587,1.5532412490864695,1.4791214815108058,1.532479532001529,1.5673388026657304,1.539459638624852,1.4582936221609883,1.650962852691445,1.6054686957145217,1.3887977593354537,1.6085802009745138,1.293285524770766,1.5490261770769471,1.5381643174569792,1.5649884877016313
1.6052356483920627,1.488597757343729,1.6907123762682454,1.3952728391789642,1.635073418483531,1.693700601377472,1.4720190585809974,1.5761751169703746,1.5236914630104261,1.6654230120670495,1.5518981802550824,1.5327102826470187,1.535012838219493,1.594397382282925,1.4837270843535966,1.5828369664914155,1.4810048698205822,1.5690855444617726,1.5771173834425838,1.4637053005633593,1.506993650925687,1.5382453917694043,1.5400303794651522,1.4236688959852648,1.6422615555898332,1.6310050449451925,1.374967891230697,1.623121000605486,1.314414600419154,1.609598629549738,1.5316122045321723,1.6317054146768946
1.5521398374778088,1.4149527798485084,1.6459920402197996,1.4303588216618992,1.5827421301059843,1.6809070627425282,1.461685014891045,1.5110115164741713,1.5468640634153132,1.6691769066782562,1.5489465687611927,1.521797994778341,1.5619075675704144,1.6269413932362602,1.5330191184454856,1.6341129724019916,1.5037169436711157,1.5954967243090725,1.5669624300336509,1.4341617115364922,1.5002470287738783,1.4566190596625281,1.4765694061439827,1.4054575152625275,1.6781391215495427,1.5968203937221612,1.4399640055000478,1.6267847256340602,1.3649456689568087,1.571026325602079,1.5769921410876568,1.5655499275023566
1.5351756886500347,1.420645055823709,1.600289706112763,1.3857143195849808,1.5276356670919304,1.6688551468940598,1.4228279604695993,1.5212072858851966,1.5285283656780004,1.6806546133933224,1.5477068120729638,1.5173491815245674,1.5214655612741441,1.6215897089033153,1.5515625598209863,1.5874480275122165,1.5034562161543739,1.5966665001891733,1.5487583209950262,1.4618807043421107,1.4485282499601804,1.4483368977097184,1.4453322256084664,1.3942973496463864,1.5082165524602562,1.5301945961694272,1.3407946218815494,1.445640760934903,1.3075050098491365,1.5218361266434344,1.4535575354871884,1.5289859963544024
1.5040932793953172,1.363739678327731,1.5950583205989868,1.3626045096079298,1.4759704990652212,1.6260129100406113,1.4292440231507784,1.5403452453539004,1.4984027521922545,1.6674701205673972,1.5374316151319785,1.5978543129241416,1.4446795596525404,1.5930453655306707,1.554402009617343,1.5921362113120778,1.4653089328171143,1.5313121061721786,1.5204279768032916,1.457241834730544,1.446701300588433,1.469919329217666,1.5353769619084172,1.335787379777667,1.610415785474069,1.5482107394303104,1.3579235951543758,1.4624484503509594,1.3392219500925127,1.4555512390277414,1.4676708594308832,1.5381605610251834
1.5129828535652448,1.4116730934382247,1.6319612674818103,1.3784978007177002,1.5087692097168819,1.6411089202043136,1.4056891503661264,1.6135874383112203,1.589314151891925,1.6103083079873495,1.5551588875832698,1.534957129551903,1.4637219879479935,1.5368069406085694,1.5169759293293996,1.5519975209058448,1.4152242526708325,1.507401542766372,1.4890079903460314,1.3960125010994782,1.4043765292592443,1.416992606937471,1.4983414071206158,1.3660589369946903,1.5650988300557023,1.571697642329708,1.4012851902998935,1.4632160050990575,1.3191983221489023,1.5121773062331723,1.4859682850901577,1.5413310771451079
1.4724708049905921,1.4324869187185347,1.6066818534365228,1.355837055455013,1.5257640873791505,1.6638851556415062,1.4123934296545475,1.618868981130707,1.5282045123832404,1.5740359787420386,1.5218833397261067,1.5224200436393511,1.4925013347207448,1.5473515931682293,1.463556031083294,1.4984678387468113,1.4040056097730853,1.468079685199097,1.4503565337852207,1.3539927436437602,1.3216822751920627,1.3882404546503568,1.4688822022321837,1.3510976449532879,1.5187016972864193,1.6038980371273874,1.4372476715056368,1.4694295529758363,1.3234668086843389,1.5066013622492205,1.511896427299282,1.5225244336252393
1.4642506507628836,1.4158611133300743,1.614337227405039,1.3564616733979082,1.4135286552406112,1.6000174902692157,1.3749847458448592,1.5880550811426788,1.5891211171480717,1.5848028754003571,1.5131081427887816,1.505217448586017,1.5604137892525631,1.607500122761056,1.449977925305593,1.4623082285611917,1.4014080265011348,1.5098898578505315,1.4629515698214084,1.3452492664774944,1.3464672709873653,1.3733610314956144,1.3986108583981698,1.3165892787473528,1.4652910508919341,1.50942982381471,1.3790709918478277,1.4131447484185986,1.283749966405372,1.4893322710297154,1.4510829356217831,1.48658382419112
1.4145467141795816,1.3936513611709218,1.578981488533222,1.3507413001089081,1.3711045256997774,1.4813619797497648,1.3661371010545118,1.4996811383674837,1.5874898903806416,1.5403786530726473,1.5424727178995117,1.5532841776568556,1.5251782510776024,1.6280606749229722,1.5041723336759374,1.5291491437974734,1.4383389741058792,1.542673130644982,1.5506402080141488,1.4513885158094042,1.4517845575611281,1.4313203666495258,1.4155349514760533,1.3685678326794106,1.520876749112028,1.4995004190494368,1.3758855656485802,1.4274599334273723,1.2668427203716404,1.4665184938046576,1.4285410811286803,1.446948743425968
1.4579993047863082,1.338792755627056,1.5930969239292236,1.3885605310089117,1.4177111765828982,1.5688174679131928,1.396313896438128,1.5737921503182766,1.60918360452804,1.545578834277002,1.4880485108356833,1.609245673369837,1.45842027660635,1.6300222153094581,1.4513428247864362,1.5188271612168078,1.4386178689301505,1.5516857428392137,1.5384437009010283,1.3980231813371626,1.4322128325660568,1.4355449448946542,1.418218803776775,1.3284650088520848,1.5199898729223515,1.4358837095691874,1.3756269293529455,1.4392167184245288,1.2697633138012623,1.4522883815068581,1.4505027935733183,1.4732527755768443
1.4154094678071998,1.288142826759768,1.5249520576886264,1.367324511485394,1.4227052943286687,1.5941893399454308,1.346052239046352,1.577367348033842,1.5657917409385886,1.5096362611102887,1.4669345058579115,1.523861099969654,1.4582423391804051,1.5033996687708502,1.3591269932436296,1.4183183803113262,1.3714731163719731,1.4491858654662009,1.457279935231519,1.3447955818666815,1.3515576776903466,1.4071718730930451,1.4667810383818014,1.3256019035334183,1.5376542826548565,1.4525854177316158,1.3667371493053326,1.4613347231314329,1.3017645936913846,1.4654809057441307,1.4638392263609892,1.5052917028652193
1.3752038073603758,1.340629338957139,1.5093712619144246,1.4086193318721463,1.4520268676482972,1.5776599717102904,1.3857585831097003,1.5604716183903518,1.5820054224777802,1.5261192664439387,1.5092701283152996,1.6115673557431807,1.5333537751346162,1.5817074517964747,1.4191103799303726,1.4254420709682427,1.4097767014588047,1.5237024791040588,1.5650447616936982,1.3941375165234229,1.4209667460281836,1.4676844554726067,1.4564246243057244,1.3141690054643882,1.4912358192671864,1.428084472041236,1.395437447131358,1.4767852288575969,1.2534306404600728,1.4778563312598676,1.487540034361906,1.4642651736756147
1.3233843870342985,1.2719301815372908,1.402614815449495,1.3868691522793104,1.4230385183323606,1.5269920746901793,1.3500759196776662,1.5445434725194158,1.637186979184943,1.5062856848657027,1.4331499604813585,1.5926564898604323,1.5349274300548486,1.5467971276007142,1.3697865962059632,1.4407802004537233,1.4050159125229886,1.5275597731651225,1.5601972880893855,1.414151630345204,1.3972337470290364,1.4710945980769954,1.4286877760267003,1.3479047397267994,1.4470192820474606,1.4189883954055735,1.3186602045685119,1.3933587721935876,1.3176999270095646,1.3517815963468236,1.4420219227408362,1.4386778894481578
1.3903721745660078,1.263423607929691,1.4267178045391302,1.3940618311650377,1.3932365918408842,1.5484821425016149,1.350860650478404,1.4950590824411145,1.5690608551668632,1.4963790813081723,1.388901442787002,1.6444294714914627,1.5154607283849948,1.5225614757317647,1.3586006140949312,1.4742774116235196,1.4342367274787462,1.549696407934971,1.6353646991107795,1.4089925876253317,1.4672426298306023,1.5127399436368665,1.4506916500796485,1.3529132809082984,1.514172398656504,1.449672471619267,1.3652988816851617,1.4581617289380826,1.311999222734427,1.4327780415672162,1.4281768344434917,1.424910593168877
1.3992108439560789,1.220019374012007,1.4381545445057675,1.445481311676667,1.4418842331425863,1.5606568614882537,1.3905547807269811,1.4144123014652794,1.564364702166724,1.41329094801052,1.367671898682038,1.5566818952411885,1.4881342979603502,1.391678297515953,1.3233877473863316,1.4108178908772218,1.3775755243986538,1.440281883639913,1.5615859932595868,1.371014952246549,1.4492908138597262,1.4568475459490102,1.4942991525851892,1.3353130908970035,1.53290098213789,1.4717311593977649,1.3317769465983262,1.5237851227816661,1.3504439991390715,1.4558757151803252,1.4370909207708031,1.4434088486228533
1.4258078372534722,1.2668339840243987,1.4471045492441992,1.4095333272408386,1.4340942991919388,1.5750864838086374,1.3777459661750708,1.42759392551259,1.4745923030488475,1.500782733150377,1.39556755725591,1.5227021237405434,1.4208977221821137,1.3976256571927157,1.3407702173102918,1.3712064253195833,1.3397930390644255,1.4233209701954426,1.5758994236965018,1.3827977059574081,1.4749373573338616,1.5224429577243328,1.552087542128043,1.382557398778474,1.5287861307243875,1.537198468199383,1.3291731655837227,1.5894131305545394,1.3573318013629503,1.457723541837774,1.4241944665472739,1.4758575488383647
1.411448744601488,1.2446303119512079,1.4243853345405793,1.4196810767379786,1.4858603447112413,1.511596002826099,1.392464282426766,1.4313383846975725,1.5111743482666036,1.5136225437011166,1.4171114988704006,1.506786497986281,1.4403455316942946,1.3991297362450907,1.3257938208853157,1.4020499676330929,1.312822485689441,1.3916670380973708,1.5676076182908054,1.3916838149058115,1.4407862865988537,1.524107602864233,1.5506121390957206,1.3432320355037421,1.5383849417783781,1.4880317761688917,1.3392043454400833,1.5398028383587516,1.3580155691516602,1.3914271066421817,1.4340279218629213,1.5001779405443607
1.3913995760158546,1.260139375771822,1.422526964608537,1.4567410663720568,1.4659000009873593,1.5989960412547553,1.3756407303769238,1.4414425024637023,1.4792656593365843,1.5824430033061565,1.3229962953111059,1.556467609846004,1.4923919671380383,1.3743057177452926,1.319668892635316,1.4286632455491883,1.3449392055382872,1.452424714210053,1.5590921443658825,1.4459770122061875,1.4718996454281061,1.4861967838130397,1.5353908764574495,1.3675109255594848,1.444985641331813,1.4625567839703482,1.3221657703159015,1.4517783549827923,1.3467556604891564,1.3128797996831694,1.3986751825043708,1.4879987333749176
1.4323832021589618,1.2913892249895231,1.4445064633280935,1.5275619999758028,1.5413527586912126,1.6459093919792742,1.399973635991053,1.5118932844189006,1.4519584553674345,1.6567432309025274,1.4645441800394707,1.5393236574236917,1.5354798610500955,1.4803327081359334,1.4169205709338188,1.4741529741836314,1.3823294679331763,1.508185404890309,1.6014322965480554,1.4083561424212814,1.4642709886394767,1.5223614804900363,1.5526190218482105,1.3637602206915098,1.4615628022043445,1.5188648650196486,1.325052112406774,1.4642519933863807,1.3950231345118242,1.3124573575828615,1.4700078843208209,1.526875288564875
1.4254973496486958,1.2889043213843814,1.4362969088264808,1.5491550054511747,1.5550713714089657,1.6265940423439458,1.388537668699367,1.5083819905649094,1.5021989137066931,1.5689337688424911,1.3952876480126022,1.5067259523868124,1.5251801471474375,1.4479766353379047,1.4141041733755622,1.4777220256678145,1.3996616411805713,1.5405759025543457,1.611752069283095,1.4897153871310407,1.4747091187513188,1.5408929627880676,1.5759324146010223,1.370995361226145,1.5143017528594445,1.5884524917011429,1.397304793558121,1.4725476063843335,1.3707137724690246,1.342841584214989,1.470668321318802,1.5390391009214524
1.458176688015602,1.3276902924458587,1.493900336953112,1.4293012958479185,1.5052277887740184,1.6652543126744546,1.4099949485067431,1.5021702801483323,1.4658988618996298,1.4944561633040996,1.3956866504268448,1.4413745977262535,1.4892892478403,1.4677962614580695,1.3777851735265068,1.4110794053972187,1.3371941296765613,1.4722981592320183,1.577139633798988,1.4682342771250683,1.4904090624829756,1.557825915857313,1.6016922560832811,1.3739080605010463,1.5341528503591535,1.612278368883408,1.4201701728183185,1.5314973429578704,1.411616092916856,1.3982547757109929,1.4789947813709508,1.5569202989113802
1.4844455395870066,1.3299090458911778,1.4907970904537122,1.4640078520528448,1.5105438143320904,1.5889885852581058,1.3757675795258673,1.506401396994236,1.475261282883298,1.5179149667254026,1.3638388438005398,1.4704219399068064,1.5116807504381917,1.4196706329661737,1.3669824213514288,1.4602378308367605,1.349807818289863,1.4693026863663956,1.5706742359885097,1.4795014307564416,1.4506540529678267,1.5547744093377398,1.587993304227011,1.3378699042260283,1.5406251693995336,1.5287873907668736,1.4143979219614042,1.5212994826585424,1.41590569885229,1.3843704257068417,1.4629550061625156,1.5307878520950033
1.4574870763372751,1.3303150114384497,1.4755184997557567,1.4447514385792157,1.5041880275005133,1.6357495626624114,1.4026305156958216,1.4327201801954124,1.4580135250555808,1.5675850813141268,1.3926860849565377,1.514218060176157,1.5104400198145451,1.4581999531125,1.3816830662855706,1.3983985887035837,1.3279494655796404,1.4624511121360435,1.5476146905248698,1.4364933527624517,1.4635926482234052,1.5803913660176394,1.5893076736587246,1.3526775674538365,1.5243961220038271,1.5679583739139786,1.3736992201615639,1.4702292267177917,1.3951281958133053,1.4241787486500255,1.4428070865576483,1.5334231997386871
1.4414392611093594,1.3415790090947985,1.4748250905729563,1.4745785288696693,1.5226435442559838,1.6523259224856777,1.36280370027385,1.5247594741195603,1.5234684637906468,1.6026839966469268,1.4108699687612778,1.5655810554350837,1.5509421131632377,1.5123658321114817,1.4372980286647334,1.497780751891431,1.4124818079578212,1.5429784730479474,1.611086668190029,1.476711234902076,1.4853023529719436,1.5828766461643862,1.5640736061275586,1.355136832518907,1.4992199784723355,1.5826534291363619,1.3556875012358265,1.4848938458099898,1.3829079012816559,1.4013742916208904,1.4723446542567606,1.5321045632741095
1.4845507048289317,1.3449212729877287,1.4939978912897243,1.4118112349577652,1.5112255318527463,1.6291808260948473,1.4136885845932357,1.5348115755556935,1.5155720282199983,1.4881317196334796,1.4043081669904711,1.5099150538919712,1.4926405955759594,1.5085167467232499,1.3706771515466818,1.398426003690861,1.3655416071627136,1.4909643136992374,1.5675970591506236,1.476511392188532,1.4784897862037405,1.5482567149013056,1.6720054966980047,1.3737394721845733,1.602356881222812,1.652960519420228,1.4274214556540006,1.5840429154006772,1.4010915227654839,1.4758390128811527,1.5202101990686843,1.5537793808486415
1.454633241865171,1.3696701584763065,1.4915325484221165,1.4296518198629966,1.5336254579467714,1.6166356523759993,1.3705192912726403,1.544394384862763,1.5730916568953788,1.5299807471763298,1.4165468096532443,1.5259638311866137,1.5860990731457842,1.5366741832247048,1.3882615805426528,1.4388938038089125,1.412519929624611,1.5236976379481997,1.584696019700186,1.47332641920663,1.509948231277459,1.5823776165157568,1.626215679918826,1.384177736762727,1.5769676831534296,1.6037386221295584,1.4410031861809436,1.5327351817773964,1.3661312630246354,1.447468729949707,1.5265401846421092,1.5669972750651793
1.4439715830652171,1.3521849318220605,1.4992574498460887,1.4452836227771297,1.5390496167963998,1.583666028605925,1.409605145881349,1.4836539478555868,1.5499737919601342,1.5104385857296239,1.3843204739966044,1.531603974464866,1.5791440574778648,1.5437303439840162,1.363185604308475,1.3841700420124396,1.3556263026107822,1.4723369001960982,1.5219278512631884,1.4280293522504057,1.424902658934234,1.5236955350617498,1.5554194480685681,1.3191741716384147,1.5230747419253365,1.5697622711856505,1.4162522957200399,1.5027426879546255,1.3920521833894184,1.4583450697735638,1.5302897500244583,1.5127178417635323
1.4262484427800963,1.3617960629824695,1.474257729467807,1.3960549143320138,1.4986492642017668,1.5605477084651576,1.3468210255626643,1.4480055330339463,1.5462480544515698,1.497910599792789,1.4831803526709961,1.5808910268738998,1.532549216467597,1.5626718949236977,1.3817568505130013,1.3892340976501056,1.385604625220425,1.4867198452017925,1.543012523257828,1.4328210432431188,1.4409568003535749,1.5810914712587993,1.559326914547778,1.3296424263184565,1.5707001427812977,1.5491024681319374,1.402678678475155,1.501835237515631,1.3428066070693125,1.4505541612490902,1.4865686455070577,1.4662948155068491
1.4229573860487807,1.352679117548493,1.4755650749227627,1.4391342969276288,1.5174130884006403,1.603917031881201,1.397984899897869,1.4740567065593702,1.6544914841675336,1.4657946819714636,1.3888896401592359,1.601156184785961,1.5901678367907648,1.5701099102303602,1.3972251723134543,1.3288880312466433,1.3610459318373354,1.440816348082197,1.5319634640983648,1.4307010733534091,1.4471253088962166,1.5501520013748709,1.5617725091613281,1.3441424430517237,1.5579996258651965,1.583599815498555,1.420775727570027,1.5285078281816722,1.3439895041179601,1.4926951005473499,1.515109872382477,1.513660147221917
1.3978938403068093,1.3743470331101573,1.4880002251972715,1.4048744598585279,1.510978202985793,1.591255477237252,1.3398178852399552,1.5075888385049123,1.6400800182801374,1.5140922110768926,1.4374783988108621,1.5818948210059325,1.5955063584241356,1.6150527714752687,1.4148927195194936,1.4407752534352039,1.3868145418395486,1.4851597924827578,1.569912071955303,1.476547066768337,1.5067992191759976,1.535087402071129,1.6515492179853237,1.3651211114642319,1.6317006357161201,1.584558525298253,1.383974990910978,1.5448685727053948,1.3403067504844894,1.527831864749018,1.4999356848891428,1.5101911750251422
1.3713293801998259,1.3499096930441847,1.4268640313869543,1.40059025987437,1.5224806332889638,1.5736996692347056,1.3434428886795544,1.5363592382862277,1.6231857436332506,1.5217816300617837,1.4281369933138472,1.602299681129936,1.645556710291317,1.6046343073306186,1.4259198790574907,1.4160035752793785,1.3575554017873488,1.4661140423430705,1.5485899535353684,1.426754582107159,1.4587518652785876,1.4854033363644823,1.5339863423338742,1.3763258684162236,1.535306117111962,1.5434548716449938,1.3845700558423448,1.4914267708963582,1.27800655005569,1.481431640640543,1.5118053832459066,1.5381038742089868
1.4191709713982592,1.323000751621052,1.471339517795346,1.391169441790079,1.5493972865652605,1.6101476549238183,1.331654389404315,1.5761939874275346,1.5771385203130917,1.5227757535224633,1.4127290660400473,1.5618894276629052,1.5127275567174985,1.5445477358618658,1.3670224759978922,1.3970298271367756,1.328556789067883,1.399941153223239,1.493504080081506,1.4409109312407233,1.4588455325836138,1.4693180864178825,1.5763011008891352,1.3684087954071447,1.5409726306397549,1.56647904385275,1.3532580755955224,1.4773484030889796,1.3087534853133775,1.4959841990610137,1.5360581661750372,1.576098441173222
1.346685623914121,1.3187781969906531,1.501479259171816,1.4222269483806111,1.4633945561459747,1.5538529740066438,1.3433515126951818,1.5685655623563692,1.554386410247582,1.454938550348274,1.4358592488764532,1.496212514047815,1.5407497364516203,1.5022877521794462,1.3295864454682145,1.2931782446886926,1.3074542860512692,1.3476202108950512,1.4383350392689567,1.4209714013576102,1.4677400382662256,1.436915999348369,1.5643017016325746,1.3528788811369499,1.5122432547250808,1.5749667721485423,1.4063696378081239,1.476221484072624,1.280527945187662,1.4620643536082427,1.4639827548480897,1.575338189066476
1.3060424195385636,1.2661559047896693,1.4571309197087965,1.4723089202821795,1.5237871790270847,1.5587287024640237,1.3524225936976368,1.5357520164658363,1.612053842662753,1.4938363502922138,1.481745896644121,1.5344103544580618,1.6842113807547574,1.5780183906585727,1.3677968596163799,1.4125912709410924,1.426791573114365,1.495860838113308,1.5698439292791793,1.5159955878542068,1.5047415427145794,1.5413768041262534,1.6280386995999188,1.421844050427378,1.5568702945667519,1.572933929728715,1.4106366225956883,1.5336920419214595,1.2916543361629516,1.483455817655987,1.4983638200027765,1.5263403425100763
1.4070779607454238,1.2602510154799529,1.487840695734317,1.4187881422174162,1.4960932627175338,1.537287910987497,1.3138254533862732,1.546162822843253,1.5865680732154537,1.458622435795418,1.4947737711322298,1.5402469395599665,1.7029490615313079,1.5982819775713177,1.336694766427537,1.4125126441790643,1.3751119154439206,1.4742816734256339,1.560098755117969,1.4632970666726417,1.449449085145878,1.5098806315128575,1.574513180407689,1.3922205748562833,1.5263942154257333,1.5649612988093358,1.4163026929317069,1.5826811059366195,1.2923973288400423,1.4979656181637473,1.469342054145557,1.5167447715535782
1.3930643164259644,1.2963270944655534,1.4954238064168162,1.4927844968558281,1.534050213156274,1.6004029867815903,1.3577538296734428,1.5291663502909432,1.6087479014098327,1.5322651102166847,1.479366664249133,1.567915105859702,1.5722145023061884,1.5609987973117214,1.3323997837505623,1.3961399223332738,1.3419348293658002,1.4245472519843305,1.5310856731424731,1.389021988696639,1.4320238561876735,1.5000516192733673,1.535570363715865,1.352552538782267,1.504198012944969,1.5426964139909651,1.4517600236568124,1.5332232995358108,1.2572191556414147,1.49590757479727,1.5114331839359143,1.49669641250776
1.4415603892277946,1.269142405527557,1.4918349945518818,1.3931769450817955,1.4920075590744548,1.568600168700375,1.3666780959072897,1.5770767156803114,1.6190128645786153,1.5237824980963401,1.4975422339469835,1.5019636759729649,1.6243393809954554,1.5312686349525269,1.327940322119679,1.347820985630579,1.3988777908152095,1.4776006092251104,1.6311221441145967,1.4294307663888315,1.507942941462127,1.5268421302977735,1.5539637257397318,1.3602383235868403,1.5262141524676116,1.6047769809675951,1.3986259851300715,1.5690349308030982,1.330531293436055,1.5291311924325361,1.442634785905983,1.552883308120429
1.3778536105114785,1.2431458540637894,1.4572966632864484,1.4224440376153487,1.5256022193637346,1.5519120581172172,1.3904430246653876,1.5161737870319103,1.5462179194038848,1.512596826761585,1.5019164838749681,1.4596421108236188,1.53994088644511,1.4260388603506002,1.242562421726149,1.3399066810106255,1.378989714389044,1.4660790744213625,1.6281969122626545,1.4347021469073264,1.458573242513238,1.5091934666799425,1.5289002393842208,1.383306297315224,1.5430637404054652,1.5861419910849188,1.3846467672090543,1.545463031332748,1.2903780647072156,1.5175439307316507,1.4610886808917627,1.5776203865856697
1.4034300798979997,1.3006198855908095,1.4838156365310187,1.391532461928295,1.4778557312612237,1.5148125195908655,1.3628800068614724,1.5578189383386483,1.5432013641788929,1.5741555978004624,1.5621408546385158,1.5507098208261283,1.6208177149559482,1.5311340343506723,1.332123808648872,1.3996334434380173,1.4378350275889618,1.5243454493378856,1.6229264448167313,1.5368826449988986,1.4601985415752172,1.553959438327499,1.4871883513416564,1.4359888042600568,1.493563549054082,1.5118430244397516,1.32686858256707,1.5587543473994836,1.2857780347895402,1.5505509826443862,1.4098394540827963,1.531228285894354
1.451092625006654,1.3059622630615515,1.510581264702263,1.4110721486076934,1.5484591218275563,1.5216449641550798,1.3495246859758137,1.5061699719452368,1.49064636311226,1.5983288711152168,1.5622297798133882,1.5111479115886313,1.5648013517370498,1.4978564694029264,1.3021971537182029,1.375810576830914,1.3991299737781093,1.4456124960739372,1.624782438315655,1.4748866281732624,1.4685717798095774,1.5575839224703334,1.4779225262969578,1.401613606418541,1.5162806739289132,1.5022633018363267,1.3471028854916158,1.5925487780338972,1.2753977866133548,1.5609841645057856,1.3655392448246417,1.5073331962986003
1.4251433554970112,1.2247073316852808,1.4980679841507611,1.4277852062935588,1.5847146426500156,1.5335336063204685,1.3721343559775914,1.5257307204384811,1.56955636156628,1.6146729855452908,1.5647219326463708,1.498357187224104,1.5927246179573127,1.5416112304020422,1.393644046924691,1.4088421579752641,1.4581257504692753,1.5005865629736888,1.633769971263951,1.4980881803195731,1.47119419700014,1.5813861305120123,1.526147332836511,1.356535398773314,1.507227069879236,1.5834056767135727,1.364270182028121,1.5451449406969089,1.2414787288573048,1.5146030192350044,1.4632876462617204,1.547644355665547
1.4255829743317747,1.2857448927174764,1.475816530197431,1.3875905177758425,1.553746719221362,1.4999248332150903,1.3289630177172487,1.5667141136592606,1.5724227206423655,1.5912300238257415,1.487918567504953,1.468583414044551,1.5870067535441295,1.43197475443403,1.2951193393128573,1.378172409689104,1.4055492718165534,1.519787012308624,1.6870225913454735,1.503904713889969,1.4712658116644883,1.5770665025974868,1.4480324532100524,1.3405901589517362,1.5261324399323808,1.6370653237601158,1.3702342651320558,1.5785136536348465,1.271389266643576,1.4803102720104486,1.4259304438876006,1.5086348880433025
1.4096094672283483,1.3492147496022358,1.4911480310573075,1.4045829249345443,1.5182099789846504,1.5398480254779459,1.3407063210941663,1.4896753169037176,1.4817268739168397,1.568664008339786,1.4859168375364094,1.509192251443845,1.579090817429183,1.4905957333678659,1.3519488605811913,1.4181224467690634,1.4479524726967825,1.5495398724766054,1.6663906014990775,1.529140791976092,1.434004041598693,1.5900853576004665,1.490153431617043,1.3561115638712145,1.5105008682666812,1.5367327541675264,1.3389202708994414,1.562256083384306,1.2736080886260375,1.5172189027418646,1.471905386251107,1.472938881477033
1.536796165133639,1.3976842868180124,1.5826119435647452,1.3686733711249435,1.5189705887378897,1.5701142668683923,1.3524335024120382,1.5027387936377576,1.5562103453343534,1.6768997547176225,1.5709030843110239,1.532582675770931,1.5805631617607416,1.478297029640113,1.3652559490399245,1.4373061656529014,1.3941000376238557,1.4927087851784087,1.5970810332325847,1.4500099190890874,1.407766527794251,1.5599180833441542,1.4039295155655915,1.3887303191580738,1.4907434807447484,1.4468490036219048,1.3019669751065486,1.6144204654098526,1.3394039030381621,1.551377196921377,1.4111740103444477,1.4328164472749525
1.482294129617143,1.336156531088382,1.5387448845112652,1.4054568146294466,1.56707375893885,1.5923101493015523,1.351948898388764,1.457482033109758,1.505911159683788,1.6783931066792874,1.5598261874136452,1.6190278952430195,1.620735729654614,1.578244737393654,1.4388718193047325,1.4677718196123102,1.4625694784404868,1.5223380846255363,1.603102621270372,1.4680130299922345,1.417958671960703,1.5552942123876246,1.4994274323817909,1.341492264348679,1.5004616415028986,1.494810473315632,1.2692862305381196,1.5794166302031334,1.3014462171150767,1.4549859800598204,1.448551160031664,1.4701522071321562
1.4523863668049117,1.3132871846351368,1.4947280673801915,1.4086826200783236,1.5647526281835573,1.5221316624557613,1.3576041467990436,1.505481929827034,1.5714260565167144,1.6262910229995395,1.5650929392013435,1.6103199509911346,1.6177906883551463,1.557815690311413,1.445954201817702,1.5584475203429033,1.4550062088072535,1.526029593756281,1.6474980391120393,1.4595915325267577,1.3631514373533793,1.5502816546635554,1.4807677866927467,1.3833615482966515,1.4864761725736138,1.5405256592254624,1.3140571740610811,1.5549387571911917,1.3237342949367819,1.4512024561737604,1.5086668665033434,1.5088092527481904
1.4562449155847323,1.3042836888014688,1.4963479728978,1.4134467226844212,1.6412326371480905,1.5663403066980557,1.3523449598783568,1.509228890039036,1.4982432085483066,1.6163540290396414,1.5128153531041693,1.5771677005451896,1.6292704450523154,1.565738776379435,1.4410898559567926,1.5319732277781162,1.4489245582037695,1.5324797641568817,1.597652315248998,1.512872153554536,1.451724405906036,1.5692116265216902,1.537267600779829,1.3809671648307604,1.5236548091645525,1.5874154287791664,1.3776517091345333,1.4957088789502204,1.2867039783184393,1.4142385690802604,1.509599433022956,1.5167866061159334
1.4119021316573341,1.2571281728463666,1.5223063742130345,1.3946718233873157,1.5219815052721548,1.5286426361588472,1.3774310796576614,1.5024716790929649,1.5582470038175562,1.5580903290539527,1.4946853161123441,1.5808846204461904,1.617493945304062,1.5790886296430642,1.4227632813824929,1.5331830876830663,1.4485126241977955,1.5303070818075186,1.56928772918349,1.4906000162221622,1.4261787451423407,1.5153313044407353,1.4778580144769875,1.3790645343664096,1.4877746955480484,1.4909092271236382,1.4370643595228467,1.5615723591258754,1.3227792118303476,1.4630503799774157,1.4791577442134398,1.4804382535472511
1.311932495681,1.2359869777554504,1.4712781911746657,1.316491276354769,1.4837006126403207,1.5248484335422194,1.3670130731199661,1.3883226795420003,1.524934680274356,1.5386945909103902,1.4565245713324728,1.5464598121459492,1.604198791897858,1.5152218529520143,1.387036919632148,1.4860633106082102,1.389811761046554,1.4527965052463852,1.5205616879440074,1.393712811737941,1.3885738546128097,1.4754148990785951,1.4776396723659264,1.369246917963979,1.4475218963072995,1.504143160782583,1.428106709632296,1.4989265340151288,1.3087130597977266,1.3527650492977212,1.4787197632259126,1.4905497707810211
1.3888154571881315,1.2789148754645177,1.5044190110284996,1.3737572493842984,1.4714359361091378,1.5893534086809316,1.380720166252082,1.4965780732930243,1.4957741370329458,1.5699138410320077,1.4987858581333897,1.6136736510862093,1.618168123675759,1.5886313832631624,1.3855991738717313,1.4993466733337384,1.4398565265462788,1.4762931615017456,1.5155678638392935,1.450794800775833,1.4542301547561078,1.4820250396845174,1.5953376572577862,1.3929205846559862,1.5059816328641178,1.4731762578472913,1.396825769307204,1.5078526261918619,1.3748042676981067,1.3951724311117382,1.4341622965882488,1.4947558502412244
1.3616130579645738,1.2887115807069243,1.4635404199282727,1.349301569119218,1.4731136843061705,1.6267120470209333,1.375534860456632,1.513181261514234,1.515720689345782,1.5397996039119526,1.4208320257077496,1.5125548802896167,1.610620613891433,1.45910550578398,1.3151324940062243,1.4749586714246894,1.3947421334464745,1.4470765473774034,1.5295187148382654,1.4760114980421584,1.4602404101941053,1.5548971890138086,1.5689253170201805,1.3830229233505735,1.551677765928183,1.520507799685537,1.3802852370063539,1.4796411352290837,1.3269964701176633,1.3940567259489978,1.4559794225026828,1.4967185359433701
1.3337534196798726,1.242319215652451,1.4316618057671093,1.397211610034381,1.513980507204041,1.5798744455186045,1.3971978746618252,1.509594277290219,1.5956224540008983,1.5602385776257277,1.5034794650541425,1.6088257188497521,1.625375415005887,1.594533568853162,1.3862905654129225,1.534660261612974,1.4965922646029857,1.5391102314980822,1.5998930143258836,1.5658067295197668,1.5115340496293943,1.5628122677842704,1.5598045777567453,1.3921234782915477,1.5389434980913952,1.4857930741113092,1.4131860730439687,1.4997064354063967,1.3271755000021286,1.4194052242673434,1.4177550139266293,1.5231065781064623
1.358944942515252,1.2341115439163064,1.419578518618597,1.3637313137217362,1.4840720903857256,1.5891476254417563,1.4175435760793347,1.50521184259586,1.5961584023185154,1.4963711233089256,1.4707560258522858,1.5888796712499613,1.6133931703495537,1.564975881061997,1.404358722507188,1.5530784344084934,1.4820387474044967,1.4982761701476466,1.542956303712697,1.4873807911575536,1.4282853324376785,1.519504783179155,1.5180466041779357,1.375086077333514,1.5001513247290152,1.4711682517952207,1.4061181450416618,1.46387975087568,1.3754579888972929,1.4444006939668,1.4430651391501037,1.5784340099981407
1.356419547471333,1.281192092692225,1.4478040473728624,1.3264571835857988,1.4672370502347467,1.566046643584704,1.4377981998577443,1.5212709436686898,1.5504476102916938,1.50966138132698,1.5210903247713743,1.6426500918635827,1.5822473976098745,1.5959221406929338,1.37896795445796,1.5339973308336161,1.5313093160132452,1.5658442512248338,1.5904078096165157,1.5283063821239935,1.5227933889988667,1.5664185068524725,1.5646334901186707,1.4102802503301606,1.4971263352909545,1.4746150280721602,1.3934267742023672,1.5016152954523692,1.366575963071738,1.4988016755654776,1.4365877721616214,1.5309861298375314
1.3614929881686557,1.2918416062317983,1.4343530964960118,1.393784986969523,1.430148778849461,1.6133470984806917,1.3718244572418548,1.586096180602273,1.5722881401274418,1.5469747952850477,1.4712767287731459,1.5994142056734069,1.582542382857915,1.551160735505358,1.3570683107428505,1.4794746359927535,1.4535389491805353,1.4960872149495439,1.5441666230166353,1.4831625727339628,1.5136913910062175,1.5819573989969853,1.6120022577682398,1.3746686723283492,1.5126241966416494,1.4177796654550499,1.372934625705198,1.479403865813384,1.3442165210785653,1.5156511872948328,1.4431904015800285,1.4827679200806934
1.3444593029175096,1.3010652068111614,1.425392207414433,1.3787330071517656,1.4474919846102654,1.55736625290207,1.4517822574329433,1.5975641218545777,1.605799030349556,1.561178041611932,1.4689946484757859,1.6039047923144474,1.6036595103599394,1.5541772126989497,1.3576901276964564,1.5085186804352204,1.5334416446190537,1.5958951453298307,1.6173629306374102,1.6092077389693082,1.5453312028879225,1.6133424907636302,1.6004530565929151,1.3859848778374617,1.5944913260556945,1.474783430977537,1.2953779366963407,1.3879027235400023,1.3520385087504565,1.5192938288622373,1.3848756406555098,1.5215657460401797
1.321480430048509,1.29258635158165,1.4097485006458248,1.4005294671926172,1.509690405079011,1.5298498437305434,1.3849275736395719,1.6134229322599956,1.583698254375677,1.6124048219800722,1.4731876176538166,1.6064034613635827,1.5831558886113177,1.5317092104008623,1.3419127157241306,1.5123765117140384,1.4932556997011033,1.5981777054871802,1.6059310050193791,1.5613023060334328,1.4878692097359185,1.5458431351897766,1.526128758124794,1.4139922486878687,1.549065853901594,1.5339351631659561,1.3080551141263497,1.41825975827933,1.2875198455048056,1.5097592271416271,1.4459332619077474,1.5595184622325224
1.3587543451687094,1.2947464891038345,1.4292114162182723,1.431131046509638,1.490400620530559,1.5877167833695363,1.4203418374598724,1.597136605471118,1.540275783215537,1.551137989518781,1.455114799118464,1.5461116296283544,1.5704061888943102,1.508734612682246,1.3269839056719879,1.4939544013844124,1.4863565093979734,1.5925322460704223,1.6462570302024762,1.5802574699509842,1.5069321086191134,1.6382839977799362,1.5878249362898453,1.4066161750092359,1.550524501289815,1.506413679043446,1.306322304818436,1.4006475654969102,1.3167403789117142,1.5280837865139947,1.4376191097912285,1.5233814500427203
1.332625482892216,1.2968420346119804,1.4199583175083457,1.3812383334605094,1.4721037014601681,1.4926352082725738,1.3599423881143113,1.56605307798871,1.5287709323287983,1.5137631622451175,1.428970461520359,1.5748803546097327,1.6009643339514328,1.48606299963103,1.3022945158756243,1.4771238141079166,1.4925805645092933,1.6072208702736195,1.6121387682489243,1.539405662392296,1.4768632201425844,1.597522061128239,1.5692595240627047,1.3645202669367575,1.534532855774342,1.4649923992534877,1.2715086219115121,1.3940675476281317,1.308858040377523,1.496501768362422,1.4234936314101592,1.493946695583314
1.3580810355829798,1.3125181416509035,1.457565918774637,1.4021658613308556,1.4949989890530302,1.5689255420120887,1.3809144595856186,1.502708071860845,1.551821403472683,1.5377460059931156,1.4235108604011264,1.5951997059392018,1.6174471100924241,1.5002517195948872,1.3374933741861277,1.49889962562206,1.4835899462526212,1.6332336666116078,1.6534936526374533,1.5374045370630565,1.4661110076408852,1.6180991845392054,1.5369216702287751,1.3707145437910133,1.5261399387399184,1.4838762972046982,1.2893931307603794,1.48609035523699,1.2844335994627454,1.5818070151420496,1.4425434591885502,1.5395735651671678
1.3937568439749817,1.313543583103554,1.550413339307156,1.4764583766289696,1.4940046839031025,1.5762618169801084,1.4329637120805254,1.6881537655031966,1.558264999124239,1.599890747098566,1.4664920664046412,1.6336270506823711,1.6142651227759734,1.5277940023283192,1.4320447121546924,1.5653749305661935,1.51467764560781,1.6363367513980691,1.6110552885662668,1.5600960727816726,1.4759676236930532,1.5289999177289824,1.514476190195282,1.385400171488188,1.5893683022094247,1.4807790730053672,1.3563926904101435,1.524097642609356,1.2763950104917947,1.5899738099088179,1.4646038724095207,1.5235044524564643
1.4589306501308046,1.3451411361885441,1.5589854124001332,1.4883252747407147,1.5517619687774689,1.5457198047799021,1.4180573194722488,1.7490608799299194,1.578534211557377,1.5974510730271534,1.4769332956032986,1.583147991751744,1.614876140971524,1.5398504915849818,1.3612110635250991,1.5068138264167987,1.5129284084137475,1.672842131370272,1.6765242126230278,1.6453765189306802,1.612716968971384,1.646407021425914,1.6542802555882008,1.5043351732615224,1.6831922741274312,1.5535939276599162,1.4090926759509919,1.6239022317769418,1.34339593995715,1.6179781267801072,1.5273579937326773,1.5228313680449341
1.4726207184623663,1.3784741425510416,1.5447322475670773,1.481833132483676,1.5038131209379764,1.5229037540816814,1.4314846843022047,1.5676668670251293,1.5065534908984612,1.514623154235407,1.4453242057865283,1.5479698284280425,1.5991125261454193,1.5750091647250843,1.3763217320522025,1.5032181061340597,1.5189926684809965,1.6677003294398336,1.7110672723316496,1.657607944164477,1.6351282401717833,1.6700535467911375,1.6938401713349787,1.5700961272260796,1.7168682395344874,1.5127240978195011,1.3886054006616988,1.6897381308082289,1.346123871242109,1.6319401644549285,1.4973607448319048,1.468437058260787
1.505081032015891,1.3950828123602959,1.606545745943438,1.4945461159359563,1.5450435646894636,1.6617610839373969,1.4723673581868475,1.6581719751415556,1.5358171553666506,1.609460243274887,1.5479570913299767,1.495733420314632,1.5731378355516648,1.5568797521597104,1.4103102071659328,1.535042525490448,1.5279866272485063,1.6413051258958544,1.6616813126181962,1.610705898281279,1.5889692707741339,1.6151608548775729,1.643837606888928,1.5500924404731138,1.699784599443184,1.542715514070478,1.4182633907246833,1.6877953550204257,1.3499360347120717,1.657599701486068,1.5396663328909284,1.5674956581179558
1.4425857786730951,1.305516925288743,1.52098906549616,1.480615035186882,1.5152268697845837,1.6088604225560674,1.511431493293912,1.6061362725956092,1.5482829898739277,1.639436960832197,1.5642904488694245,1.5305063045613463,1.6087935802205844,1.5677102600677881,1.4729676964913443,1.5375317514064155,1.4528218440871505,1.5992460518500207,1.6482804445955794,1.543768532329793,1.5789834681971833,1.6064241491308313,1.651225678324935,1.5340685087021138,1.6574631678266862,1.4793455231081956,1.3524549232671408,1.6264022152875102,1.3006699257037055,1.5817179516672943,1.4784700858510507,1.5632456251480238
1.5021475236726507,1.3339549721089417,1.572810836946496,1.4808858688451976,1.5378543709018409,1.6188542023897967,1.5439692951822814,1.679830970666337,1.5802724581158258,1.6391531205511836,1.571034956223745,1.5979940453931576,1.6182816258555521,1.5893567701929048,1.4911302125544466,1.5513238325405247,1.4412493239719848,1.5707617786727384,1.6236246580572187,1.5536856831930468,1.56194137885516,1.6131901217197269,1.6249977249932197,1.5363899291684868,1.6365738499763687,1.5213814334713252,1.4329425699819658,1.654224310756196,1.3242635622232655,1.6032284491736808,1.574913686470074,1.5847820577764977
1.514963923527919,1.3253217150564742,1.5357822630177107,1.512510529794489,1.560262843197139,1.5764442876600484,1.5243270440481422,1.5537329519045313,1.6031310995323111,1.609467711016807,1.5530027691525696,1.5533646408041217,1.6802130335592107,1.5659026620136547,1.4778851957707888,1.5377603578651589,1.4551962136634862,1.5668954797292716,1.6324810803589795,1.5729183910354774,1.5767696568110448,1.6089483071101491,1.6739605330227174,1.5440150420837788,1.685821410578735,1.5247023388539922,1.4326440530602953,1.6687017902838521,1.3056284821935187,1.5906778834656814,1.52609565972938,1.527090562913014
1.501319049658579,1.3791591295126657,1.5063922025220742,1.4483588200525723,1.5554294816114551,1.5707963409605576,1.504503347328658,1.633488955454254,1.5858154565208635,1.6161598518938673,1.5863917187527894,1.5636588641586293,1.5707884372516308,1.5920930893280114,1.4697357637844142,1.507594284637154,1.4125415186685715,1.5354843449353401,1.626053445335824,1.5222079661826415,1.5784028986284893,1.629184765495668,1.6670810878139783,1.5479628673034902,1.6468345771022745,1.524350198025743,1.3883052490998986,1.6912112330851843,1.3421840748587923,1.5574063474839548,1.5122794464980625,1.5526931077362875
1.5110258774873684,1.3751308296858462,1.4736868848212679,1.444299950691104,1.568191850838935,1.5806800108424668,1.5176335129992202,1.6101374545180975,1.6799299038809417,1.634928549895344,1.5717721251434877,1.5870859845020657,1.5980694875480161,1.5572709948018806,1.4597617708482415,1.5486759027568655,1.4647454783492762,1.5611923624273503,1.6167891401480978,1.5112654140009802,1.576816914541751,1.6129612689728448,1.6774467919013418,1.5235128907206392,1.6491134284722844,1.5371247090574065,1.3791517779419877,1.6242512605961423,1.2952916249253934,1.5302465859596412,1.5452012528087906,1.5665559509173426
1.5602518331543394,1.3982754634952972,1.5371101538978378,1.3855798818332399,1.5558731755917334,1.5150848654029287,1.5624189798522194,1.526664942309144,1.654801258587095,1.6685107105077022,1.580064207203412,1.6025060254914534,1.6228668068866148,1.5826156385797687,1.4782233197356023,1.5299593887764056,1.4732980733886727,1.534719675327039,1.5965332577557951,1.5134987245286506,1.5717107745314538,1.596082195675319,1.6642755776037181,1.5576469901581684,1.6243907589788993,1.4971183650445408,1.390146410536673,1.6160516173310726,1.3163109373527275,1.5230155258683327,1.5438676999406962,1.5769039160593747
1.5353927201915862,1.3481932571917516,1.4953413674158393,1.4129039582618095,1.582210280192807,1.5704903965944654,1.559086781473511,1.534895881189181,1.6374457747969546,1.7001082353575239,1.6072463839528548,1.623869918731582,1.5975637444257267,1.610328524198462,1.5210563034418705,1.5595665850221947,1.528650101509025,1.6087541455661405,1.653160967954225,1.6093241773970894,1.614519358630047,1.6097093195719183,1.6471686018329963,1.529980317851124,1.6330529455286273,1.5616004761405928,1.4493456733826409,1.625191763044895,1.325221137123384,1.470723071016059,1.5646901829263777,1.542373278733684
1.5247244108729079,1.2877429759952483,1.4801217776335038,1.3953083263454304,1.5164627106442201,1.5793777348506721,1.5420154442310432,1.526998902898456,1.6272206758831733,1.6607387528723623,1.5643548182548233,1.5335677246341495,1.6175047110844174,1.5193667183802282,1.490384282205524,1.5302514174867647,1.4691033603888708,1.5345341341731902,1.5677362511386501,1.5385384361226597,1.5161543548001772,1.597390707776904,1.6241166974530508,1.472757166541516,1.5184663514637862,1.5377662671374048,1.3933719363194002,1.5245567991207116,1.248186123381736,1.419526586048578,1.525196638244362,1.5975075581872198
1.4222990115038692,1.2753675916663874,1.4087050422004581,1.4558944946254486,1.5320319031339582,1.6032011658896208,1.4310769763743239,1.6561967434809566,1.639526067157992,1.6920858459559318,1.5717501604375497,1.6335750337406012,1.6100378181008954,1.6352090983383791,1.5200471704343432,1.5514696304409519,1.4517706945248012,1.5363741743821944,1.5742434544214634,1.5495556920347737,1.4805531116053672,1.5770863375427917,1.5871771711646145,1.467756226457617,1.483284402979527,1.5725767621210076,1.3680138451633614,1.4490683331051102,1.1855227878448162,1.3464335951181772,1.4707497338414641,1.5744752605473606
1.4726732182339433,1.2571006751195526,1.377696138721333,1.4182044884370846,1.5885214346184728,1.4739294993512242,1.41042717695489,1.6143442468650253,1.6865967878932138,1.6830078384968268,1.6255238976240565,1.6538471864022146,1.681523677721798,1.6642580693506508,1.5205431096003297,1.5244022515434554,1.4625698337349275,1.6002983310165422,1.626496359888314,1.5985481446757437,1.533187572697969,1.5990088803084017,1.6167059793884608,1.481576436463323,1.4802079679939315,1.5347243404417468,1.354399981698119,1.4478106124629393,1.1746577296789356,1.3733940965288813,1.5250942972075263,1.615186538873717
1.5050418437223971,1.3693419750861564,1.4407630841204797,1.447178271611492,1.6044011723821154,1.445004494584215,1.4090008927627389,1.5892868216475688,1.6895405853544485,1.7630578278485804,1.696871050560963,1.7166464837562978,1.6877196682441584,1.7266553120552706,1.5849218342630818,1.5594142057624873,1.5600111072064062,1.6684803814177904,1.6813286023351304,1.659057085192244,1.5804044345922628,1.6532063737375564,1.5794719412516147,1.4786623583327598,1.4689674116974205,1.6152835842594206,1.4198979298755048,1.4823938633872678,1.2305093352346803,1.4572158092517626,1.6043090378024394,1.57883839313235
1.5194772938631984,1.408762821745919,1.5276946212575042,1.5009086031393872,1.597252752521402,1.510072073820088,1.488506746984133,1.6906844087499864,1.7512212699507836,1.7644694335321687,1.6752015180486588,1.734012138445186,1.6686833461995505,1.74981224043062,1.5818543329783372,1.5692462841144676,1.5671257405457244,1.6904302766557426,1.7198428949218936,1.6829179555783207,1.5871157127472826,1.6903774456628824,1.597500922702239,1.4499921669943583,1.487831815581354,1.5665550830761346,1.355086604607083,1.491119597914575,1.227268946220193,1.4570135361595384,1.6118221022877754,1.5486563269147267
1.5229317979279928,1.4275365140424852,1.484099173867729,1.5164216673145057,1.6123998202428522,1.507776808936399,1.4772968258468466,1.7108853548934868,1.7953359815821253,1.81029873339149,1.7314870545889998,1.7631211950773065,1.7262596657544702,1.7643476585842293,1.6123292430559766,1.6346336583382963,1.58824001943988,1.75905087453326,1.8016404144511569,1.7271623043741298,1.668675564591255,1.7879250295554576,1.6756780723679412,1.515597282512865,1.4757134496723814,1.50677885943303,1.4422084488861278,1.5349142130250226,1.2305785928631436,1.4263805710349402,1.6288700164359804,1.6355980278621391
1.510186868833229,1.4482464104110928,1.5793558007852246,1.5610826625817416,1.6235912354846345,1.5609737435626456,1.4985182329724434,1.7414421387323096,1.8321670761735718,1.8155520235489906,1.7426220183322423,1.7830294037750336,1.7810345153056444,1.7969004205165513,1.6288478806231914,1.6401673439401216,1.643922464353121,1.8136732939332727,1.8462479025017384,1.7754452316789788,1.6880770757183654,1.7858739998963113,1.6869007483600278,1.5435495345724715,1.534258215123944,1.5530423105627098,1.3941077700079525,1.5372075502891225,1.2739245611875911,1.5023659842153503,1.6064313147883822,1.6279272659269581
1.5368289142317813,1.4735588047637111,1.564779610414935,1.5677028039261092,1.6814867401755023,1.514616554658668,1.45067674225178,1.7094226759981863,1.8147122879341675,1.8344959694563718,1.760011355199998,1.7880682910762973,1.7766666119347023,1.79655752725951,1.63442254595293,1.6046066917377728,1.6598442531685034,1.806339949738756,1.8361290610832757,1.7806172180553774,1.678224414985219,1.7552060229476159,1.6846976396103488,1.5871441334154817,1.5747056490905849,1.6645093789194891,1.5331172216241917,1.5625301328618295,1.314660829511881,1.5449505582557284,1.6968298159501356,1.6192541063291244
1.550880623770691,1.4681350716161994,1.6201836534618612,1.6199075577463526,1.7315044434334261,1.6160474287089437,1.434192220166554,1.7525278690192978,1.8336479885494068,1.837478207448366,1.7655489429442084,1.8298035160348916,1.7619786852156496,1.801818237740517,1.6456643440531582,1.667437260178387,1.645588015344928,1.8144651510086012,1.8254644888982523,1.7717664045359174,1.6892783110269896,1.7898969341759323,1.6149656340837881,1.5605010025058546,1.5368732526396418,1.6924103046050754,1.476397383945621,1.5617713944008482,1.3003725536238553,1.584844760983582,1.7149289100680847,1.6050660078337735
1.5342524886467475,1.4747953693994775,1.6193870693305599,1.6529538973618756,1.6922404741522523,1.596751401435919,1.5152821228658002,1.7164801756204264,1.8189537491125123,1.8226655474266715,1.7857340547627012,1.7761850175246428,1.7277082065235596,1.8055755007545384,1.6650988905820474,1.642057607213738,1.6101901933166403,1.780106882334272,1.8118755108950948,1.7606292507498982,1.6761912203841687,1.7702687536954884,1.6433835929387024,1.6092904808038353,1.588692309782731,1.6418753216627324,1.5187405098991213,1.5720390320121964,1.3270292376742714,1.5742580042559993,1.6710626411105147,1.5844833882830531
1.5617559263147247,1.453694319305282,1.622921476725225,1.6278610608134425,1.711143838726726,1.5919746142957705,1.4825497720265206,1.762267901561743,1.8530749193607425,1.8236715035132993,1.8029357713725451,1.819008757677243,1.8289722566229292,1.8235645823547173,1.6752424901115917,1.6837577090357034,1.6134660727630523,1.8246512588436452,1.8729742061208312,1.771478846881923,1.6886742617503263,1.8472367274121073,1.7015006014221545,1.5835168724602766,1.6070974898795736,1.6550392009456305,1.5061411628388839,1.589791377005228,1.3090514690198891,1.5417122001594303,1.696433325424602,1.6052768250874705
1.494337369987248,1.4407465648694635,1.6133914911109106,1.6362051534015805,1.6917259254899424,1.5840519339353274,1.4650730524428404,1.6311515710093787,1.812580190606388,1.7757747973671247,1.7575056707058092,1.7418187268722651,1.7908359172100674,1.7809754389083765,1.626917196582791,1.6464771214686875,1.6178852497614666,1.7791254987119571,1.825783313722796,1.7190643408350483,1.6225813317763091,1.7617837581186566,1.7059415376900753,1.5434974552965621,1.601738209440014,1.6298913224194744,1.4959560027515182,1.5303576520132012,1.3225561090449627,1.5425625656039796,1.6720397985889373,1.6199671668676408
1.5501025367417818,1.4839392860483955,1.6276579214532054,1.6429733176858472,1.701589940341272,1.6044886490451353,1.3869006040088323,1.6231053450397397,1.8137600727673902,1.7254937431729154,1.71124542555807,1.776033693143876,1.740870157118736,1.7517815708885889,1.6142091802526333,1.6525868220943967,1.6053100505691764,1.7676409669222526,1.7941273226553451,1.680872217882075,1.6258627393196434,1.7795896162638047,1.6092477894607733,1.4654807321518812,1.5787301418693036,1.6235684100802599,1.5434588350620648,1.5613047324453373,1.3577987160428606,1.5437352991014641,1.702784477154426,1.5213016746425823
1.5071475494663928,1.4474322078130426,1.6437501668826244,1.6325933019388603,1.6811671924779483,1.637405100873642,1.4188145125876124,1.6232251234680626,1.81152395229567,1.7088210609542258,1.6911869700717705,1.7440247422702624,1.7280023944570662,1.7385726438798033,1.620987088380953,1.6485439233142198,1.5808192694924341,1.7324500324022216,1.7284332639696203,1.6573710656548597,1.6127343928615718,1.7276904990596873,1.5971505945939393,1.4941079221548337,1.6216207539862275,1.5593075320150132,1.4802601508982343,1.5327679798503742,1.3216817318160776,1.56833499709817,1.6451712609401516,1.564052334465614
1.5063033558788546,1.471400582600995,1.612468457835767,1.5630944626668921,1.6259529753246753,1.5923500673083457,1.3953367541445079,1.7318498389356787,1.7699848719818325,1.7033495713580196,1.7019253445097224,1.7506830322274243,1.6703375880828506,1.698456768618167,1.5669025538622972,1.6175846570065775,1.5703938551938552,1.7157479471669257,1.7403787829395778,1.681204030094823,1.6364855887495384,1.7386200070496294,1.6502963608167036,1.4730196009342702,1.6037571912820354,1.5479933758689148,1.4812637243286229,1.5671662292739297,1.3215787824030947,1.5308421843496494,1.5789712251840136,1.5262403352830998
1.457362130965019,1.401228859059865,1.5320804639158674,1.4662545263581337,1.613611323211653,1.5729804264696177,1.3418171295101968,1.6587874853795206,1.7412773857301158,1.6918437764005174,1.6844886499447058,1.7349245906505009,1.6910440296859872,1.6869981782619923,1.5686278967147973,1.6111313042191207,1.5486359306408917,1.6806106685717932,1.686817062959102,1.6032295785120196,1.5490292308869493,1.6483606024191273,1.5580773836506399,1.4546889568073933,1.6219642699794474,1.5525491294987592,1.454664869591931,1.4918942718360717,1.2916276421506876,1.4928263139502191,1.5915270540136204,1.5012723085450452
1.5254271074341241,1.4551016129090049,1.5775140397627274,1.5323142403154004,1.5743477326128965,1.6081084307640117,1.3758751973845325,1.5839478862706706,1.659663449863658,1.6928669153117393,1.6116291873160342,1.720860108007898,1.611619119286566,1.6889176761430538,1.5237435625138978,1.6328573308665006,1.5039331057159753,1.596157306451672,1.557201889908133,1.5290052037853394,1.443865901271353,1.5882420477065566,1.5231123609477186,1.3497895401118338,1.5890390248231971,1.6048236885816043,1.4691220236915796,1.5018698796940169,1.3243831085467166,1.4791407009481352,1.6210818710953554,1.5404565049393002
1.4861119581422653,1.4322596418093896,1.5577051570843812,1.4936286123960922,1.6041089209569976,1.6136205694207542,1.3355213017800767,1.6806263779299813,1.648829934623375,1.5855151432490753,1.5370847911815544,1.6422943942637402,1.6203627177860742,1.5973080522229968,1.4697226411266593,1.5744008184680884,1.5257314000600897,1.5819905379333798,1.5003919963363195,1.4666434757639506,1.3886819592369875,1.5646464882702595,1.4193079320854078,1.3187390000696058,1.4728262468458886,1.4601393349332334,1.3847613523013054,1.4552596460894984,1.2750605237140664,1.4301456283887728,1.5596357732702635,1.545797805563341
1.4191355645665635,1.365451043276841,1.5166861526105695,1.4822300794816665,1.5781908076774018,1.5834277409926656,1.3839397311646486,1.7145014328824648,1.5896794526842286,1.6076092390622534,1.5107051690132831,1.671717595984955,1.5545725919746016,1.604918115950307,1.4622998404794443,1.5420914558317904,1.5010308256219076,1.559437139312664,1.5059798851935884,1.4363476195002818,1.367474919571599,1.586164204193901,1.4532364860083677,1.352612251373948,1.4552798745715734,1.4126390709960706,1.3786334581267747,1.4449407026622436,1.2869390101639335,1.4433125836788008,1.525089647842622,1.562999913252202
1.437460586853792,1.3845722959052642,1.5094697734544356,1.4336512483737984,1.5150533852097403,1.5798072284758562,1.3066717339565057,1.7288397118104957,1.6535045735881293,1.5029121273196513,1.4601744087392958,1.6496038699579185,1.5766218021003802,1.5613383705858368,1.4363168641170625,1.5341801724484416,1.4620501270849102,1.5195285872437665,1.5218468550136588,1.4515094927841625,1.3712272827839143,1.516453589409456,1.4476291029397752,1.3127904004230408,1.4665149451025894,1.4245696478987797,1.402330402456619,1.5096917429785988,1.250249190088763,1.4720827777893364,1.4430027586271819,1.5271897693766052
1.4640930954355496,1.4142283800179907,1.5259469344892658,1.4375976319776111,1.4522606803138345,1.5795596731543105,1.311140960881086,1.5527944642509737,1.5597841982769094,1.4925658039218614,1.4453270197549077,1.6485914503476384,1.5295916560420886,1.6041456940033136,1.4620575449595246,1.5834833119311529,1.5455714989004325,1.6135009582081163,1.5637647008146742,1.4495330660262318,1.4023875834737591,1.5430406234086953,1.4733687390752788,1.3494432936098424,1.4880502816307004,1.392374728804689,1.4076600580041045,1.4757531681890979,1.291530098664165,1.4717693037092612,1.4443750143467458,1.4521255955266845
1.4571564304733329,1.4384491116444766,1.518541792777353,1.4060529540479343,1.438302947691569,1.5246662605816528,1.332586320055559,1.6127284203873509,1.5960978691199705,1.4700499692160047,1.4338893965713297,1.6735822688849937,1.558356888860495,1.5706686204870997,1.4550495115707185,1.5340193507967619,1.4889984095284925,1.5765519328700512,1.5325560497737423,1.4170240157071705,1.3829697454515069,1.538277040300923,1.438135457815649,1.3231431761465942,1.4683694812509376,1.3992573227901686,1.3461653959413409,1.4927531664820406,1.3165669302248137,1.472849305003506,1.4523836586294834,1.4417473597726447
1.4772344345171724,1.4530862684579138,1.4946748402614425,1.3946181241729028,1.4837260068982343,1.6102534415236482,1.2804156182360469,1.6428299672100695,1.5356670353737913,1.4970284263379385,1.3659266232066498,1.6764405937571636,1.5824285292023283,1.4846911310670745,1.3865153717869856,1.5464270612922906,1.5428887692648545,1.638195199909305,1.5940257238079356,1.4774847124606907,1.4120668108955459,1.5819097136029936,1.4779973425189894,1.3711275609366094,1.4786861179300217,1.3168430606589276,1.322829389017559,1.484475651658757,1.2839869095759209,1.4368919477256836,1.4639976777554944,1.551612474597994
1.4258781068931945,1.3696223230276563,1.461839520180413,1.3553205776541692,1.4851954003881127,1.5881009754985003,1.3268437067538787,1.8093730119916351,1.5516821866228099,1.4843178761602938,1.3647941118377533,1.6488589607729378,1.4853398784168446,1.471872935930094,1.3956128948447553,1.6022292149810688,1.5473454087346017,1.6236397932945639,1.6017882219192592,1.4782905461247424,1.353675113580086,1.5490350292994262,1.4097277724391133,1.353234433792279,1.4212126450532527,1.346515798442947,1.331125208201347,1.4606413667686289,1.2715750456439183,1.4465099519902715,1.4205137127375775,1.4727886883902972
1.439452214261969,1.4019415456883837,1.4828074053835838,1.3772426397350992,1.5104988312956686,1.5987615001436104,1.285409389285426,1.5639948293884023,1.565847858808482,1.5037072081169924,1.3808694663945036,1.605646326721041,1.5915671309550206,1.5159003615480218,1.3783568233404693,1.5510285847177427,1.464936511695968,1.595005467475273,1.6013834319628988,1.4777141495845054,1.4234831691944891,1.541401758287028,1.423655941733327,1.3433246554090208,1.4711625458687818,1.3591358505319666,1.3783202083932682,1.4657727967817589,1.27971454144917,1.374156120548945,1.494047646423957,1.491424855200741
1.4393044990365096,1.3784467942874323,1.4660232906790445,1.3420864619257526,1.4907405435574772,1.537372389792088,1.3528693270677963,1.6800092432054785,1.5938107593824142,1.5214006448859931,1.5127249677061372,1.6130953540705733,1.5593020305989491,1.5524747763556412,1.3984179621469486,1.5327745215531208,1.4563275461155791,1.5809812522482665,1.5808663754758747,1.4627100031205909,1.388319887292513,1.534470853526555,1.4067274860273455,1.3308924784850875,1.4274595860489525,1.4033749534591033,1.309725712281359,1.4442839409480253,1.2835674730490587,1.4440977522578782,1.4419685247617604,1.4682401185571543
1.4771792315160572,1.4105946204599569,1.5003349472407903,1.3785726382595158,1.5103771938273673,1.5500608265959372,1.293316215946049,1.617928135593738,1.5455738558885141,1.4775358818296767,1.4346582191763668,1.6332187294050098,1.5473847048345148,1.5302400940248853,1.3584249363999237,1.4843714240146975,1.4440235801266783,1.5450150998716035,1.579800629010992,1.4413850513496034,1.364147720744647,1.5566093930108689,1.4227209044344622,1.3622412237520483,1.4387770551263461,1.4276446087157424,1.3721683336034265,1.4899211564576222,1.306881730462152,1.4654677162008072,1.5395460849969929,1.4984599924380364
1.4144701068569958,1.3467865728849986,1.4426330920928152,1.3318594904285692,1.414433468050686,1.5554403722935688,1.367739675368934,1.7176814328533325,1.4962666127815865,1.5516278647463435,1.6343357537017325,1.708398828263087,1.5619300017295572,1.497257930549549,1.361319013521586,1.4996393157312626,1.4685718871969222,1.569252570883425,1.6151072535260755,1.5017591241477277,1.452408465106072,1.5739131091116283,1.4689114422113128,1.3945057106172603,1.459164080247999,1.457523277044465,1.328070116288999,1.4846083927950313,1.2684020898552126,1.4796390463810358,1.4697636689737983,1.5325939574676164
1.4198382678685426,1.343446999465528,1.4715039598974655,1.3238614746947601,1.4402095882967056,1.6263304352380983,1.3877464055249757,1.589638197086614,1.5104360239527441,1.548798979518396,1.5592809271135153,1.6828839696437217,1.5833854875904805,1.5311992962660796,1.3932029265699772,1.5328179347459432,1.4795319354331156,1.5461274567596148,1.6330129918497083,1.4984560550219375,1.4563755978780422,1.5825000727538336,1.5143301935922644,1.3853174654006086,1.5137543976825725,1.4616495497020192,1.383636338820013,1.5020020740513889,1.273016538845854,1.4549225118474234,1.4995920296557668,1.4870307622776906
1.4585774889508554,1.3778346601148979,1.525970120838482,1.3543814619109467,1.437845791971866,1.6132859714396324,1.469673050997802,1.476530621310696,1.5512846230379296,1.6029887391899498,1.596331977961211,1.6940563959281174,1.611569382435591,1.5421236546526178,1.4001160225874179,1.5098075282875418,1.457919033300571,1.5482866527592827,1.6730415202422082,1.5179241905115761,1.451374885913738,1.5707415910310438,1.5308622719186136,1.4235244963711884,1.528720177374304,1.4408942396420719,1.3499487469337306,1.5622311456987608,1.2892132390550746,1.5467968347319878,1.5229114911258488,1.5043773892832828
1.4481148876459184,1.3790827528448066,1.4885364257945883,1.4554386309605691,1.4935018090966012,1.5848077632685835,1.4348169371696806,1.536227896091738,1.5482810983730224,1.5271920799895191,1.4693160198505955,1.6184719206333473,1.5710397750001246,1.4915708986989427,1.3230212103079304,1.446657578944913,1.426932509692431,1.4976993793796187,1.6267405634950909,1.4304541879359298,1.440162422212372,1.595206539507179,1.595724023703428,1.37607807019724,1.5348525217873756,1.5007409271932695,1.3808609027013294,1.5502288758718756,1.284551795849732,1.4953460554997826,1.5732225968001812,1.5659865806230613
1.4876349767916222,1.3568754628580157,1.5186295200303654,1.4797927427005302,1.4578353796176655,1.638237949414654,1.4233546131310362,1.6560045242276282,1.5202361643254931,1.5713882667883787,1.6021864312900742,1.6761712317037238,1.5490290437397267,1.5272256241518525,1.3675502343425847,1.469000767647844,1.4215333733121815,1.5005406014691935,1.5824305746917786,1.504986747139627,1.4218872002263154,1.5620164216241275,1.5953509412617952,1.3865868818147864,1.5546945054841144,1.5189819970785625,1.4152128449438324,1.576532478388234,1.2887103689748671,1.5534564506876114,1.5357809923185106,1.5426187090962178
1.4630494801960654,1.3428519122734475,1.5631404587680848,1.4444035476415673,1.4004094072818407,1.5834666879374844,1.4251320220142694,1.8079979010717608,1.5506766776533352,1.6400124072398339,1.626398796182262,1.6857292012722513,1.5622215326529962,1.5417417789268315,1.4283340939848947,1.496944988359548,1.432036354582282,1.4838471816078969,1.5725601395029447,1.43543259038611,1.3985888802729385,1.6026962678836347,1.6039896924912111,1.3780213574380835,1.5675693396650767,1.505870468316307,1.438975949110359,1.5660238604684094,1.3014297647242372,1.5972932624654583,1.4676752543321805,1.5171686068135206
1.5170667445475652,1.3412406430035337,1.5523967703980872,1.45780149096342,1.4520097398617187,1.6333770320616252,1.4733274484688739,1.526390740696755,1.5329443443808148,1.6318542806346117,1.6291073520810773,1.6971835397753834,1.6250570945612004,1.5663509274760103,1.466034019694669,1.5419137018388989,1.475496125579499,1.5143365900956376,1.6310957589538466,1.4424600957766938,1.4197706336549882,1.5307472203584958,1.5958076464863957,1.486211605796985,1.6000864880985004,1.4859511021443628,1.4250821869445265,1.6053428304624249,1.3020410183371838,1.602071978842506,1.5154445475056717,1.531980664667386
1.4587002921693952,1.3286753168278684,1.550129650312158,1.4970578150085587,1.5042020281826127,1.6056468372722243,1.4415666889994054,1.5605793780267603,1.6088971361895206,1.6506401055203455,1.5678816062101268,1.6431995831935868,1.679396081752936,1.6383675389357057,1.488646826539697,1.5387684269323143,1.4794013362577476,1.5716298092175909,1.6477654728962357,1.4971314474033224,1.4117501344410692,1.5953349184878012,1.6437100422648685,1.408655806718681,1.579808604823395,1.476537405798521,1.4234738725799287,1.591665907073309,1.3269351614290363,1.6148733022503432,1.5468316646357827,1.5623194958954831
1.4312405563895483,1.3381201568022234,1.4573447132542006,1.551794729892603,1.4922600069885708,1.5835591155101085,1.3850792138654644,1.4506287767890944,1.589556041173781,1.6168824764023606,1.4988442909532238,1.7032260047678764,1.6094933076552056,1.6061824367469284,1.4765337886105794,1.5373105618298244,1.4998536503507875,1.5701476454008858,1.6260311215341265,1.5253760797021794,1.4446656632297754,1.5875013099420896,1.6193250446504883,1.4096733898509204,1.5695930829405258,1.5625999437629792,1.4555985259837947,1.5818260582418795,1.3495014870278321,1.5128904630348552,1.586440739324025,1.577421585613036
1.4771210133668893,1.353342603084966,1.5051422650449946,1.501547046005059,1.5018469083334485,1.617238539223183,1.4002375241586729,1.511052049320007,1.5767530052158871,1.609478059132803,1.4693412633797136,1.6081970758684827,1.6034254442604405,1.6064880497242693,1.5182212234502928,1.5404376894546294,1.4702172284649746,1.5338549886075292,1.547665765506012,1.4364607623318,1.4211829170168808,1.6119223772054687,1.612145618383423,1.3848856501543698,1.5539309146389917,1.5325382091586397,1.4672824742997295,1.5052111451030157,1.3340768224846526,1.5226760726020314,1.4789359655724936,1.5605543865150655
1.51831733484669,1.3731660302020452,1.5532196064327022,1.496082235325859,1.5175621982524201,1.5998930683114785,1.435376631123627,1.5239618058369666,1.5991079816576146,1.6699326669588903,1.5049817413947189,1.7181982077624536,1.6371485362344933,1.6426936201796318,1.5594318588386147,1.6031508320142551,1.4957660925820242,1.5592271883279905,1.5656216712773978,1.4538213449487252,1.4109230921827118,1.5759256165729765,1.634240049003345,1.4311903038919769,1.6281468035624684,1.5497558496821795,1.4433705995323394,1.5623359841883508,1.3726786755264235,1.4960508658462917,1.5442083256636947,1.6292401635166187
1.500152080015927,1.3801683179363509,1.5254200542176106,1.4700367267648686,1.5338682387879694,1.6602362223126734,1.43732727527171,1.6221737812302004,1.5979219290931415,1.649062415392273,1.4826765526333199,1.6492090777497244,1.6330928628328403,1.697507544422807,1.5702227830448645,1.607934595680849,1.4510948107786172,1.590114371458616,1.6339867662152125,1.5219766013498754,1.4166613960487646,1.5685192917902113,1.6225189674435954,1.495460590324013,1.5567483339065584,1.5439075003103704,1.3637401051367506,1.5484945857272565,1.3632148646466633,1.5684382596195465,1.4801769156980231,1.617268335669919
1.492525117924003,1.4065291607566615,1.5508582490280283,1.5241295092660403,1.503049628373389,1.5900872368942782,1.3825279935159605,1.6205732300939024,1.5899613929933087,1.6412355086614066,1.5056299161079738,1.5781243366638384,1.6285503436300763,1.665947177798736,1.5174936771713825,1.5616333654837005,1.4814552671845556,1.5556432084852787,1.5483597591663227,1.4444748404416945,1.3921216323121506,1.5531896772076643,1.6204730203191646,1.4039865365853978,1.5796150884240232,1.5227685805545417,1.434748643374282,1.5885107899242799,1.334853299490735,1.52432020608129,1.5352130629365572,1.5580449611177116
1.4350638739257384,1.339100761329423,1.4267913236236063,1.45788079182685,1.4868291617840295,1.5971944110807028,1.3606358218001355,1.610075155918429,1.6336919543831019,1.6158490995439918,1.5108043976171452,1.6126294982539608,1.5934538198573402,1.646671218184337,1.5602438671893184,1.5525813570245834,1.474482624672192,1.554316646492233,1.5282367777539927,1.5051278991891428,1.4204824688652489,1.6117707431510235,1.6082428459312879,1.3836828767079405,1.582513305911969,1.5521203688078746,1.337360847862919,1.5340801694857413,1.3612146915504697,1.4173884452261984,1.4829679374189513,1.5664870438279963
1.5204536690665196,1.405268061591125,1.5335556215505506,1.4779485199671034,1.5282527406934223,1.608053509821829,1.355543026996672,1.5390355574107777,1.5419900692371182,1.6098303410220793,1.5474869410644148,1.6237907771474058,1.6267196919330458,1.6165341703986669,1.5497356463125675,1.5664797965420554,1.4730512209609377,1.5142531375855748,1.4547551813186679,1.4281142252790793,1.3715944478553224,1.5719150111936742,1.5034409116994747,1.4028142735679343,1.553048855850675,1.5774686481191236,1.4341177806697016,1.5519495294074284,1.299200885574795,1.4299681081201145,1.533837537023863,1.5900301951820122
1.5130723736748937,1.4243846589197473,1.534665703538524,1.414560065071827,1.5561277456035942,1.540531254544739,1.4120674069817547,1.5401240188756657,1.6117154274647012,1.6215814498505983,1.5215654588365555,1.661286744971236,1.6361708890033715,1.67435606773032,1.5599860108368602,1.6291702029895956,1.5030205842034614,1.5612858539785706,1.5351889737137903,1.4640320035079808,1.3672430855521487,1.6047983217391903,1.5569797781608101,1.3709863923855221,1.5818350395315932,1.6119144258923106,1.3660314881881686,1.506907002216762,1.3337335770757812,1.4501688696607595,1.542077680275016,1.6109534206112417
1.535203508989443,1.4318497262735246,1.5714592034733152,1.4682989592585929,1.6165350129771208,1.610492250817291,1.3832877868996034,1.5231962678682698,1.6063509735843733,1.627001534300286,1.5289420453914961,1.6104547401027427,1.6626917544324415,1.6699729060404782,1.5286867277432954,1.614107686513048,1.483997402956719,1.6165744151115984,1.6048575142698496,1.5482682430449286,1.4302824503408476,1.6196017392187152,1.5919194058584047,1.3818111329954637,1.5668577351717246,1.5866106711228984,1.3906161368252614,1.538927964668324,1.347245921901034,1.4608622091654904,1.5396698641794138,1.5780533373712902
1.5078412471946852,1.4773585206984585,1.5623484609492966,1.4275886485145926,1.5029517611903567,1.5287490951547507,1.4365571313998908,1.549772265896084,1.6388732746705796,1.6558730012647536,1.525921913557889,1.591109290541576,1.6399366702525744,1.6266326189682896,1.4984171038951117,1.572283313623001,1.4572436321245141,1.5131566251086261,1.4906815830458036,1.4543244465287,1.371107967573863,1.6265895360432505,1.5950576497168365,1.404699714631931,1.581486370220861,1.563631712043311,1.386381202847162,1.573583349460261,1.2950822328566425,1.4574560818225815,1.4912317654842064,1.583564278099898
1.443891346870846,1.448382249090502,1.4580643081376834,1.4635418469478416,1.4531255520069155,1.5401436325747264,1.4057730102832868,1.4429396665680727,1.5900335661540301,1.5350499129462698,1.506062385806724,1.5780131713830434,1.6131701340572573,1.60534723446745,1.443839335413736,1.5120741606514778,1.4117755259188123,1.4500763521264985,1.4735604672532587,1.4302473591641454,1.4243108113250555,1.6372484018860443,1.5270669191822794,1.3922990778170699,1.5243394979802514,1.5188880603425403,1.3393969170559563,1.5186277232001228,1.261807285725934,1.3696240913992745,1.5198600956544492,1.4947852192185658
1.4894763345989712,1.4768211450972681,1.5535741545818524,1.4451685099088907,1.5370519513253869,1.5585236623071221,1.3646321265151227,1.4631088559659478,1.5462686569661264,1.571089920030982,1.5311541296481626,1.5929237260340678,1.5455051764715781,1.5564113634068144,1.4655779160166165,1.5399536083195324,1.4288023489367547,1.44968494218791,1.423057377593693,1.4421395222726283,1.3242277315091617,1.5798698929089345,1.5325882269219042,1.3788510805867347,1.5703483767075006,1.6250507123838676,1.3986212966513745,1.5991884236890013,1.2931746618588966,1.440844007511229,1.5903570975902073,1.5474535537376872
1.435357242217218,1.408327211941633,1.5065094899679847,1.4056777385866766,1.6208208145682967,1.5336620003816677,1.3529323462988114,1.4897451623089488,1.5535523433775345,1.5738466408174885,1.5084215722111036,1.555109348758657,1.644845625436234,1.5756260052172488,1.4608237916604596,1.5685383602774619,1.4324221250667557,1.4356210021683524,1.4464187471272292,1.3917195606458284,1.3943111319836938,1.6229104302047062,1.4869544164901873,1.3570757383679064,1.554528156527384,1.6016248845610415,1.4167375189909317,1.5234194361393674,1.2507561209095301,1.44329081962968,1.5754760771583802,1.6048949498175284
1.4658072411105467,1.3946725696182727,1.5408846387559125,1.477823596045512,1.6197509553514522,1.6163620680758852,1.3821059419276984,1.445719279746778,1.611847624661081,1.6116912736498232,1.532237427044935,1.602321019503878,1.6141857714265233,1.613236612660615,1.4620201905885546,1.5380616867098613,1.4159438036487533,1.4179918548026194,1.4623866030993156,1.4062019041153682,1.3947903816014486,1.6036838287637551,1.517459023361473,1.378305370790744,1.5791459444838134,1.6339383993375058,1.4634012852562805,1.521414868719275,1.2601248811772052,1.4362553820544888,1.60866529342366,1.6195165144946417
1.377694244729108,1.2946098393048273,1.4964465051952311,1.3742394592792957,1.5005212221603486,1.5747193565379813,1.4052228437845162,1.4262904182354745,1.6451819975317783,1.6142452266918748,1.5185829094764773,1.5779677013340194,1.6694946072597936,1.6134577599833995,1.5030772457726465,1.567942863163714,1.4195465071623754,1.4548012499103706,1.4596538922991906,1.4059534144569696,1.3748302886701702,1.5884523881824717,1.4725064177458567,1.3865832174382529,1.4756648923901983,1.5053317050272392,1.3851371190013504,1.4111704763700648,1.2760903430004724,1.4062352269674772,1.5100622391391054,1.5941081534352692
1.3814409177849152,1.3055651339382528,1.4576599041368368,1.4544941814489154,1.5917526196235268,1.5768169104726897,1.3762656382148881,1.3706318449482786,1.561283181894312,1.5411235593267925,1.4295649267790962,1.5840892372647137,1.5111883665668773,1.538329584323598,1.4097705817426314,1.4311492541839703,1.3229617332389825,1.3950813088317577,1.4066845719725056,1.3947426811049435,1.3710368108642286,1.5636980621453844,1.5318388207682216,1.4171958783149963,1.5175750545972462,1.5614822051720167,1.4971896674716252,1.4204010718555156,1.2437744277340403,1.3910787639879958,1.5479020679972648,1.5277052798950483
1.3969895183726957,1.2323847624448756,1.4321555715213867,1.4364502626290647,1.5771520777572199,1.5693487164296684,1.3856275135144722,1.3913540555125476,1.5462131084733923,1.546031414811634,1.436312464294499,1.553567754686596,1.5902132752007536,1.6217254763208435,1.4749405791793795,1.4616050386447692,1.343710553589357,1.4324749272958728,1.4910275385463485,1.4344256358051133,1.422221820914275,1.590912460148303,1.4460845429153262,1.349015151541929,1.503216631938701,1.5386268833042769,1.4593915585980026,1.422311084018718,1.2883943831896374,1.3648921252371848,1.5341008194775083,1.5082722279608325
1.322335265288056,1.2388719597240236,1.431533692955238,1.3832444588196096,1.561499971570476,1.5361575347729353,1.3820427671862932,1.444088194070031,1.5938482284047717,1.5347465718088067,1.4658105692934642,1.5618721859372702,1.6120593526396219,1.6125265297947668,1.425599576824763,1.4007656660184544,1.3191249423397655,1.4095223922799212,1.5039693604182784,1.3808412819419786,1.464777828593315,1.6096721034382553,1.4883855892200943,1.3693805332187812,1.5014033385853989,1.554447152992229,1.5088342444326583,1.390114034056657,1.3008589837471272,1.3706814726071643,1.5188972054251872,1.610389177611039
1.3285611192008207,1.2223573988080725,1.44623096529988,1.3626031994164716,1.489692197828184,1.5172626665777165,1.3889306694746872,1.4569290372271246,1.5185540404052653,1.4981493131543113,1.39213001442685,1.5525220523455168,1.589646954032265,1.581021121263118,1.4218617217337761,1.4356350286615547,1.344334643562242,1.4208667290399541,1.5192969294683714,1.431336437289674,1.4817201014831902,1.611972928789633,1.486759323598857,1.3354913750577866,1.4631579917449928,1.5606682012814475,1.4388102672420289,1.3593265011816618,1.3006440525581469,1.399240182217936,1.504233370449251,1.4989311994932468
1.3275548509883388,1.2606077956108879,1.440804374493213,1.3866659429852677,1.5506100919363472,1.604200365886099,1.3931593661332928,1.4736512475432562,1.5875361255504297,1.531336106772034,1.3949787249447116,1.588296416772191,1.612010988216607,1.6458707207181276,1.4174562230653454,1.4106576757658136,1.3512555835669706,1.4605429184136585,1.5533667194802483,1.3795306360126895,1.4857042687030317,1.636662601157246,1.4256581986427102,1.3670694746018794,1.3837575507070348,1.5306551643501016,1.411384735946417,1.3692590641007334,1.3216486520548831,1.3656838331162229,1.4896485888845832,1.5513801406073224
1.310098098761955,1.2149491452424843,1.4094091460469211,1.3591680075973809,1.487076528660368,1.5708852559409463,1.310931902089969,1.561763720902838,1.4713267033879112,1.5016329501602252,1.4123094775838203,1.5203363738971047,1.5222557957728948,1.5893952791626638,1.402243685460117,1.4170465257365208,1.3371824468620517,1.450630617416723,1.5051510766859648,1.3937812089981045,1.4476683556220113,1.5281995212430992,1.4230514581038345,1.3562257333810612,1.4170651975635884,1.566610505789251,1.3939140178628866,1.3263090234414412,1.2986382500859517,1.3617969764068418,1.4656043622450363,1.4325778721453517
1.3194031927456547,1.2595924270959267,1.4275314353161106,1.3621986171996199,1.4708227286250137,1.5185843129131478,1.4127607943329292,1.5220463424012263,1.5017381110644061,1.501569210869947,1.4082771008011943,1.5680060805943392,1.5724438922770287,1.6119753151295466,1.4074409022414662,1.3975180287619193,1.3108904856896795,1.457972868180228,1.5313988059534143,1.3853719309017782,1.4479229210647602,1.519816624243463,1.4096682973862609,1.2867633207395222,1.4040038024662977,1.4823065388879106,1.3401351229316698,1.3806074866519413,1.3334009660454282,1.4510843073831845,1.3842133422127838,1.4801350871562589
1.315156023721706,1.2110666643281196,1.3683166759451386,1.3759769196019092,1.406051297120769,1.558115228813109,1.3883338118694,1.5156692890243972,1.5133239681125719,1.5046358616845477,1.4199789908844318,1.5241938816617142,1.509614687411152,1.5909163082214297,1.3991179140036576,1.425886851810426,1.297539581982037,1.438390544514038,1.5355064592796914,1.4207428731834906,1.4340142443152712,1.478140016103828,1.3920910030522455,1.2795205269584768,1.3741347303286138,1.457661404440485,1.3299780491824083,1.3474569940424954,1.346960479812129,1.3713793545454536,1.384990337459765,1.4196529258094208
1.3874968941165773,1.251838815305447,1.4635240461536587,1.307391199881001,1.4068193205887944,1.5778832288579672,1.4486383054993082,1.481812738713882,1.5077177718242516,1.509773285234064,1.4282042280936564,1.5465728738498852,1.5035417683764978,1.5676657246939583,1.367567662781211,1.3962096960228005,1.3364633474287744,1.5271209648614132,1.5545716923315485,1.4509775124979654,1.4735691316192356,1.6053583117815289,1.3989789429937078,1.2984504543241429,1.3743882763142548,1.4675556803395418,1.3317434808697555,1.3513531634312912,1.312484481899314,1.4292919797074668,1.361876107289633,1.3794257720825507
1.3776811893711163,1.2833326786953172,1.4359161017691688,1.3644883880613397,1.4440171514845428,1.6429460425801554,1.3831790368863868,1.4727068588562948,1.4944012001354323,1.5196838868831657,1.44896333448386,1.463523654937214,1.4840732436119501,1.5988477434062023,1.425207858311932,1.4304810363650893,1.3380600521625157,1.5057801218423899,1.5649422557155583,1.423172131024325,1.46505487263192,1.5814792166213454,1.4321043392248676,1.308556287909173,1.4694653252575451,1.5314218402320479,1.282879146129947,1.3689129343316098,1.3313903782342371,1.4231895743458385,1.412426905996404,1.4498291580960168
1.33584180364131,1.2830104449945352,1.3682775272833116,1.3491711089755956,1.4280193683939981,1.54255441679942,1.404930049845156,1.5172249717190973,1.4781492436330992,1.531747025963106,1.4254843334594032,1.5409434202866574,1.4464783953922384,1.6177599766782227,1.4293595513001225,1.4644356129496279,1.4121189422554665,1.5624290576699595,1.5704313375234493,1.5070570554624203,1.5294034447156086,1.5900107746366083,1.4044870817009962,1.2938321053664552,1.4763616324218376,1.5691256202614607,1.371576439793925,1.4165110236192762,1.321366706088077,1.4101265744880769,1.4569669399522127,1.4985228051802701
1.3674024218010123,1.3049966168700862,1.445640775827409,1.4329563424155802,1.3991819778810364,1.5858418437123503,1.4167393641662003,1.601502245183602,1.5253781397987305,1.575626215229441,1.5154315108633805,1.6319500735331478,1.5559960555314931,1.5731672582713814,1.4235662963207298,1.5164471286986212,1.4474230004496775,1.5952135870387254,1.6193973242781867,1.5224011031605793,1.5278869751117028,1.5832141230151187,1.4900130947826495,1.308087583752506,1.4496850502646088,1.4939305040376678,1.3081339195598025,1.4104733285661595,1.3565294367242473,1.4232665805080986,1.4145316262741068,1.578226274106141
1.3859757927589593,1.3175927797555869,1.4433593392067372,1.4028984229306953,1.456419549580339,1.5640069990163386,1.4232560013673978,1.533495297819143,1.6183160499055795,1.5829899501736193,1.514394134525507,1.6144562207423105,1.570528179774808,1.5784045975439613,1.4290912403124827,1.513160632089745,1.433001792944735,1.6122040165926965,1.6068307608823749,1.4516021488867565,1.478719595117444,1.5855374966392972,1.4396657585957549,1.3551600835634692,1.4656083860780111,1.5030152603293365,1.3518063917537568,1.424514490722129,1.3459337893041263,1.4572650525074542,1.4610055890588587,1.5675838804406168
1.474825265199388,1.3504483274754493,1.4494298265964738,1.4348783774559657,1.4550283898493452,1.64068919294394,1.399500385227695,1.5246413431688965,1.6179885762381019,1.5507276648356199,1.546468979344617,1.6268751474991716,1.6387929349458263,1.552301627944728,1.4278433888397446,1.5255448542500438,1.437971603164071,1.587786608287485,1.5662680351571003,1.4452764304959915,1.4591947300695338,1.6328274679631527,1.4698578181931035,1.3243475019607573,1.5450660658353088,1.501575807407765,1.3386591406327824,1.3804331040897109,1.3088899837094323,1.4299534831577219,1.4310019921874155,1.5327420038953834
1.3761999331935821,1.3226680058288172,1.3544534142994962,1.4011385116953168,1.469554335287264,1.5262209851689452,1.4100573520979423,1.4517002099501657,1.63956259061964,1.6107126666457157,1.5336634672699898,1.6657337328103548,1.6035433119084506,1.5980705397485868,1.487764109960316,1.5531345558736285,1.4731159208694748,1.6206788743834837,1.5717315012700144,1.4806664171496011,1.524707446641701,1.597716718839281,1.476375984421134,1.3273698932423519,1.5872869329453752,1.5654499989629924,1.3775761332784486,1.449418432073273,1.2965550854149976,1.408306419629584,1.4973519161096005,1.495460964816724
1.472976433069408,1.3322955152196831,1.4678476596861922,1.4381996761708924,1.5176620012666024,1.5152028271866003,1.4250883777940544,1.4972943629883588,1.6522917863536568,1.6427152382086394,1.5256551510765237,1.6625745564379928,1.6405768906582294,1.5888812560639405,1.471940095183059,1.5603065500506101,1.5648452962234205,1.707951903143522,1.6212565670528396,1.555441104309481,1.5889673615445945,1.6635131484202714,1.5816256322410278,1.4074060257587409,1.5787506001752412,1.5960883489657487,1.4492628468239763,1.437939180813949,1.3397697107975726,1.4647430313525527,1.5560025398486883,1.554617254805833
1.503748194022173,1.3595391513002482,1.4994070234189796,1.418867072334961,1.480053377675863,1.6331224703401184,1.482676604431754,1.5348591252214812,1.5965198993348355,1.6696275814639374,1.5489940090907033,1.6626648532171453,1.5861923909317701,1.5978092374385524,1.4977103749325777,1.589295454770962,1.5896350886354718,1.71100715583289,1.6596394916911499,1.5720378463540643,1.612121205996692,1.6092352219947386,1.5917854680595052,1.4190235396960031,1.6004946539103446,1.624723643956323,1.4823824214434709,1.4925436400874175,1.413901946947306,1.4733947950202013,1.5517103952986926,1.5371893813307267
1.5344419380869856,1.373313396703125,1.5210507591714628,1.3544395448453088,1.5100833039784332,1.6250072229544466,1.4596350411963614,1.578427819082652,1.6724292173296984,1.6446838042719778,1.5651465478351219,1.6556018803902746,1.612992388149118,1.5480475596895267,1.446419350754186,1.4783708611661308,1.5043682487474677,1.6248699825227089,1.58396359567646,1.5425223917360065,1.5656557240078397,1.6570047830791086,1.5596486494528494,1.396457868722906,1.6160610221031557,1.6021007546859054,1.4667715329888917,1.4947031041465577,1.4006058799408547,1.4734757036150312,1.5779476817094606,1.5330845531637156
1.540227833075466,1.3954858612125807,1.5247152390912249,1.413678384751101,1.4699494852922321,1.702915506855054,1.4170261797965662,1.5932489208526062,1.6340475286993248,1.6035191298142688,1.5138568692617556,1.642680554502328,1.5936428743397435,1.5441396919426262,1.4265402586436207,1.473630323781708,1.5081156196517493,1.6206621336681934,1.5697052418199673,1.5066916596855042,1.5406960599035067,1.627846091503063,1.5225963657377461,1.4513039135193913,1.5718989675163946,1.5436001915596327,1.4190194714257085,1.527605535197385,1.3843630615104705,1.4767986459709541,1.5284697596564067,1.533880438967691
1.5588082337410014,1.3633997806847775,1.5198316118935526,1.4610559922537707,1.572042425336483,1.682121843233836,1.3926943444452542,1.629013792076509,1.6345845732314528,1.653999703317051,1.557752505098222,1.6389492727279837,1.6001054002243484,1.5450924404592117,1.4411015435992856,1.4986376576650207,1.5181521214121643,1.598379208439676,1.5386022879665775,1.4974828139137266,1.5644616056991447,1.6176529335231136,1.5190713514840446,1.4306614938167548,1.5697271692471297,1.5535220071661713,1.4449674364449059,1.4910306931865276,1.3786022324060652,1.4790304293372627,1.5869978711939012,1.5434005774773338
1.6041799284841038,1.4503953459120484,1.5871978592165308,1.4824687847328022,1.5448473077620846,1.6812419307488582,1.441795939139121,1.6263842134186781,1.6560706313801967,1.6073171703718323,1.4912641544718073,1.586894400080751,1.6482066230641528,1.5776357481920145,1.4596562164067854,1.5198986856613064,1.5464879829398512,1.6538162580524731,1.6011528913133029,1.554000491848727,1.586993849854489,1.6658075497907259,1.5916892821873103,1.5647876212094731,1.5719320570343864,1.5267405691142573,1.382124522804982,1.5525332743347897,1.4228112413840008,1.5158435475347702,1.5666656203594966,1.5620606235040715
1.6252759779209838,1.409152033983389,1.606403391705634,1.4533317579785918,1.529831352359285,1.713597484725306,1.5385842035867874,1.6816553848667557,1.624626483276762,1.6891792574655116,1.5429870998064263,1.5884649825523964,1.5773157844081158,1.6330740738365417,1.4959620531691316,1.5088402453360092,1.5006197966934793,1.6049915818000466,1.554831500877703,1.526578995590405,1.5952369615673256,1.6543487316796697,1.6420803985224965,1.548917247152592,1.6024506671687868,1.659793517295666,1.4640297253072205,1.57755765322019,1.3988439787913969,1.5820563129425593,1.5464597677377803,1.6205558523383499
1.607061331052029,1.4145113837464458,1.590734169553543,1.398635417819968,1.4968753363121308,1.6843468245116966,1.5118155980405568,1.6771766880165173,1.6359677365652445,1.622687877303307,1.5149218299393319,1.5811453160773126,1.5440067651778926,1.6054445533851507,1.4987171712829523,1.5095614176429333,1.5224621397949896,1.6065205289193336,1.6105345234526869,1.5993900840348891,1.6223454349670614,1.6347239602583814,1.6284606981607437,1.5666618085963377,1.5889226646077637,1.6588106857328042,1.457046769694249,1.567678786196712,1.4153254781323394,1.5435738260198755,1.5511246822249174,1.5833011618194395
1.5757885040927595,1.4049980868154477,1.558576891113972,1.4448761818482072,1.4797430177269868,1.6618609053267654,1.5045240118508647,1.6867147167674803,1.6090299073917465,1.6444690779145872,1.525811436595117,1.5760159189661538,1.566565243970763,1.5607812112271644,1.487035841721893,1.5343898903674584,1.5258820441987444,1.60402715296307,1.6112429687706884,1.6193299064874298,1.621703432059902,1.6175629992697373,1.6264847908043492,1.5799805149453423,1.627336198250903,1.619160691192166,1.4230065350063341,1.6020633832954494,1.4452926023113373,1.5118217970609558,1.535598959198001,1.4924208635668628
1.5648255755884435,1.4049496603878138,1.5530881802098553,1.474899997783199,1.482082914185945,1.7278972779572548,1.4937842678675404,1.6668015926808721,1.6062203701284412,1.6401332546116796,1.5666228691112212,1.5961339688811178,1.5275378420191428,1.6436326745666772,1.5038540486630156,1.5206270944897762,1.4793196456372604,1.5648630773934176,1.5912827519495845,1.5889437008714598,1.5811475467996197,1.6133806069513073,1.6105039295801384,1.5940492469681085,1.5869350788442123,1.6359138764340593,1.4199499268745719,1.6063929528036036,1.4116822951120758,1.5157766441591112,1.494794068416169,1.6043087538224725
1.6011638507222568,1.4446149139750308,1.5830610488453707,1.5206824108188113,1.4856147693693345,1.6888106283725453,1.5027875543988918,1.619211897050289,1.5901975585406318,1.6285216440789603,1.559694913144252,1.598336279887033,1.5205040343565952,1.6170579521326032,1.5083178501121965,1.4997216450828712,1.4636589703796463,1.5544168173789683,1.5621377178154336,1.5829802412505503,1.604933011126484,1.5684208804921167,1.6296300455586787,1.554981989496823,1.577013857276191,1.597646975995331,1.370061320938645,1.6180572012979189,1.430907557673658,1.531050222481179,1.5216427697508745,1.5949501873684704
1.5608706761547209,1.390982995217908,1.57044479589611,1.4847257821643707,1.4833904397601467,1.7030321521890344,1.5009626660267446,1.66710272107254,1.6229271536781358,1.683590516070977,1.5740804335631184,1.6093366286034396,1.5768632160402816,1.65657419803573,1.506987490450796,1.531817499158855,1.4698682116578248,1.5658034411687929,1.5619205630480895,1.5568920208476056,1.5481432735927148,1.610505045547503,1.6190871379835494,1.5523236211119276,1.586646042218458,1.6602858321425393,1.39659924111303,1.612286241691043,1.4306648043761527,1.5542775132514666,1.5252002520707535,1.6631998656307772
1.4943644759125394,1.3773712091918067,1.5082076652203782,1.4917327898659662,1.5199937458153012,1.5868949869328768,1.4958476922740775,1.6626358089398596,1.6414625622649657,1.694828887316121,1.6796735179465214,1.6636441921074765,1.594147426989124,1.6691907163690738,1.533271814771406,1.565968809700464,1.4857380146351884,1.5629837785868326,1.6012495022456092,1.59893020209875,1.6054357634623655,1.5939371289624522,1.602409367587595,1.5698279748541861,1.5863914717160148,1.616718613341168,1.3653004547941288,1.5925273466409169,1.36981968587754,1.5499080678539683,1.5200455611100046,1.562852264473149
1.5408598289394373,1.394043617007046,1.5670667724436198,1.4945412591744316,1.5599515100716657,1.6732110300287324,1.556328285115738,1.706934163664562,1.6289585510544897,1.7416416725647241,1.706114919129775,1.7011358508406391,1.6561137231168288,1.7197083360119467,1.5873357333615774,1.600395887387862,1.5320075727464442,1.6059714537627632,1.6591974535258396,1.6431504871315086,1.6226711709861046,1.6106514364258018,1.6266887440998714,1.5708107564982914,1.633104317889791,1.6489573721750157,1.421073107368602,1.626523287214527,1.4172808074906094,1.5201403841616048,1.555173730016748,1.6237247062773015
1.528581646496353,1.4430416654309774,1.5577301764540314,1.5101961385108078,1.5324429036064096,1.7188398237767157,1.555216934590404,1.7064565569116439,1.7116894405188194,1.7751319860550114,1.774975001158278,1.7410922063583483,1.7204622023013056,1.787040958552729,1.6370387378358775,1.6402460798330474,1.5706353699334388,1.6711375298199342,1.7085107553100374,1.662087890827282,1.6289518408141865,1.6628941528918166,1.6733203225359625,1.5655559984243688,1.6618495953117738,1.5658113695053295,1.3809859538993552,1.6426167840880899,1.3247505904926842,1.5302057214096998,1.540574951080575,1.5742750578141833
1.4940227781027708,1.3980413906214189,1.5005733049687218,1.4728975477496125,1.4558599733981212,1.6962763792385007,1.499944450480222,1.5805893612607491,1.6414660926092874,1.711141445469316,1.708970635401965,1.6855895639826781,1.698994752591968,1.7252035393156564,1.5999272093030383,1.6221462880429633,1.5401859720465136,1.6414117850364907,1.6778511646942116,1.6383093524899273,1.6515096568323029,1.5773611005966868,1.6715884900394358,1.5084434952593773,1.6795642776262043,1.5530503898562569,1.4009655160456935,1.6420463206860179,1.3098483038414075,1.4843483769818744,1.5045998306424904,1.5487236049905577
1.4443506530035384,1.3553023741030874,1.4578551296136795,1.4608110913753927,1.4879215003706265,1.650177622664363,1.4641038920015232,1.5900855096473543,1.6666571199727573,1.70314724143414,1.701523719365917,1.6685916942589738,1.6612805737940102,1.6965211228443944,1.5809705768179256,1.6127223305268288,1.5353999696625966,1.6477411076470398,1.656822450264719,1.6316496362049955,1.5777091572819804,1.6136625835599276,1.607076192960574,1.49225560288222,1.6390915851437167,1.5006827963198506,1.3993793988863563,1.625977713804983,1.3208183779864466,1.4841035921205774,1.5313620945020596,1.4970405958764925
1.3616978636201476,1.3176946704365566,1.3845970912418413,1.3880706218716614,1.4416697837360848,1.6120611123322557,1.4261223470362345,1.5917094486553391,1.6244708980253333,1.713237955739958,1.6837514224776526,1.6800361585229853,1.60800015739513,1.6796039175479445,1.5640526471126062,1.566606509982579,1.5074912024774654,1.5813735255595387,1.6293900176375502,1.5521289657318404,1.5202692196025083,1.5673126281049379,1.5383440190895208,1.4172351074998464,1.5779797962611866,1.4624320519945386,1.3946928586482938,1.556341226151297,1.313980198599523,1.3602973613751048,1.4642562794095184,1.5025321356035128
1.4122683948962347,1.278385518933144,1.403212212058649,1.3996623947516662,1.5311855365561093,1.586931065239591,1.493416281011585,1.618258225921738,1.6720505010980022,1.74185167044149,1.6859727895919725,1.6857077567564878,1.6318923006060666,1.7332875980176397,1.593743340149909,1.596945060439877,1.5180498423565156,1.6026943997154461,1.6196983177924205,1.5638025544397247,1.5375185596004621,1.5755550039005521,1.5879931172534303,1.4427858788468402,1.6118260117065506,1.4289384281832633,1.3723813551137731,1.5433999872939708,1.335842931993583,1.436492477463674,1.5331546928184625,1.5937463354731458
1.4559569368055942,1.3001935970300977,1.4014809763404432,1.4031151838667604,1.4897910807130714,1.6115838670783376,1.4525806977291935,1.6236256012688361,1.6333876289972846,1.7245996582662375,1.7133342773757014,1.7187168710297176,1.6893744656173757,1.762532772677196,1.6191748068644596,1.599109687534476,1.5262682035470143,1.6236126703541112,1.6507006465228145,1.6014694342114892,1.5634824779710534,1.5898504774826863,1.6096511585018491,1.4220674309097514,1.6061814883240118,1.4590543186074252,1.3843548331637399,1.594659597116677,1.352447824306128,1.467605229852566,1.5331299904406215,1.5127861999975987
1.3888204438295675,1.2919565270372375,1.3424944171328197,1.3846199995827255,1.4659375117891882,1.598996737123944,1.4493521325639311,1.6031392689176884,1.6006180259178944,1.6973569364533272,1.633493652494635,1.6579693237210789,1.659504615186017,1.6877248986161801,1.5717159836846233,1.620485458734101,1.5462317367069078,1.641370723641306,1.6736306264265643,1.6441871279861382,1.6028363162349504,1.620490849438171,1.6289062769657612,1.4575060126440633,1.6248336354917723,1.4708684135493557,1.3639900848637547,1.5285572593764076,1.3560531744268924,1.3916417643112697,1.431818781203121,1.4991449952734635
1.358807363255886,1.3306271327008063,1.3794336410248669,1.4195341677703148,1.481049397009577,1.605660755207997,1.502154181929278,1.6629804177352765,1.6044162897297443,1.7209008748586738,1.6926838668060022,1.695902341527114,1.6309510611657347,1.707780090838516,1.6448557300746454,1.5938719278156785,1.5063051455606777,1.6396991418172409,1.7067949776987632,1.6315276726005583,1.60068034129201,1.6584478178683069,1.6210917025420712,1.4468734919983668,1.6061597244755215,1.5376509704192605,1.3935109831877557,1.527143275477388,1.3450273414807306,1.3608080392324422,1.4838110585314022,1.6009396737495243
1.3396329104488478,1.344243589659201,1.3937256751373683,1.4370622522142213,1.5025306051660021,1.5321464346609117,1.4404199579289854,1.6377912136178423,1.5898482508600564,1.6964819329631355,1.6196992515712545,1.6930508011136285,1.6240209005576383,1.709753474450292,1.5887650873738708,1.6022604940540173,1.5028051942788383,1.6456085578617765,1.7000526124817295,1.6168095883852687,1.573952915764402,1.626803484895605,1.5984599178920864,1.475771772280221,1.6477402559202379,1.4217564969063468,1.3996884391441815,1.5326352197906152,1.3589867779006002,1.358730688526068,1.5501343144584623,1.6158902666369959
1.278837369763691,1.2791866752766774,1.2629953375259104,1.3702128568678373,1.429660994423476,1.5268749145387692,1.371757363288724,1.6517447612081282,1.5469130793681787,1.6397689053976345,1.5706635192985827,1.6279865800078588,1.5140075275461702,1.686757911957783,1.5572635594668298,1.5480005442744542,1.4803247446397199,1.5910611098522267,1.6212950099352068,1.5835703782024144,1.5459971007153661,1.614785170222659,1.5496118389627174,1.3988706620733775,1.5543693116291397,1.5138715565502951,1.3987492989027752,1.5017806748666354,1.334934656401964,1.329721191407972,1.510877677694763,1.60292324998662
1.3386221536554634,1.2726041796467258,1.2618698777366857,1.425991618478904,1.395138094029603,1.5444424554897118,1.3088427602824702,1.6334794187828903,1.5659900720835638,1.6141727222270355,1.5612663310315937,1.6595602382341401,1.5338087543754582,1.6383357720304157,1.5163681370359292,1.5371418954135554,1.4702984330525293,1.5860124956353765,1.6199364238589327,1.551126820248613,1.53576859349253,1.6217566831211603,1.6108941085138098,1.4010651039519169,1.5384165006295933,1.5743746396418783,1.4359875250797847,1.4801771882475414,1.3260404528913254,1.3335054913379496,1.501792453105778,1.6353091736140575
1.4441055299174341,1.378876419427773,1.3699035274332356,1.4077435826757732,1.624395362917387,1.5772669724020798,1.3580210616479447,1.668645472077477,1.5499026403913616,1.6810579082912234,1.5592935090034301,1.718087480870559,1.5837319954102522,1.644406876603083,1.5562904883523325,1.5667256783346908,1.489728277604979,1.627507976449683,1.6621917706569225,1.5740736629907668,1.5308479763793477,1.5776973556702092,1.6145892503127075,1.4066823595658808,1.6194206789048144,1.5962457935291423,1.481417891745742,1.546692059648348,1.4045363151262,1.4780815584373441,1.6235103503398016,1.7028275436068427
