Fp1,AF3,F7,F3,FC1,FC5,T7,C3,CP1,CP5,P7,P3,Pz,PO3,O1,Oz,O2,PO4,P4,P8,CP6,CP2,C4,T8,FC6,FC2,F4,F8,AF4,Fp2,Fz,Cz
0.5569994894976185,0.5318556087269418,0.4623865552345923,0.5403912721045787,0.5263025934861374,0.5693680304712935,0.6097454412308978,0.5592657794430306,0.5465306016667162,0.5746264207956387,0.5853295494062078,0.5179822854089157,0.5411381403418353,0.5241995972260958,0.512424653627255,0.5353289268250064,0.4734159522441441,0.5390787276349943,0.5540704495116958,0.5440964380615269,0.5382684220687655,0.5543288546978601,0.5432727692259192,0.5676883568749713,0.5299382682940967,0.5512038532112992,0.5400331490315272,0.4776283666887556,0.5301246024476847,0.5348597311116625,0.5212534231222098,0.5461087153171478
0.5423932574034348,0.5232170320396188,0.4523029912979545,0.5315990954718667,0.531043925300972,0.5473388342817386,0.6163488510217036,0.5675293465501465,0.5323373544973449,0.5625214177665602,0.5853459182546036,0.505056200685293,0.5162703498997347,0.5186432745315072,0.5015452091298703,0.5289471638728162,0.4998492349373394,0.5320874380683385,0.5454143879446272,0.5523221999908237,0.5419931985209895,0.5546900980003765,0.5377913390692026,0.5714183869035263,0.5426218660558983,0.5560836842763487,0.5503366562339941,0.5039544290126948,0.5390944965402872,0.5338284042408105,0.5220042775973757,0.5574195606986896
0.5530035642517178,0.5294730166839233,0.4648980189793433,0.5383946857544554,0.5313346802394973,0.5630740725781466,0.613003113676675,0.5847402997290233,0.5189210763379721,0.5693536103569254,0.5799095227915001,0.5048482753974607,0.5277029795225284,0.5112835475860219,0.5111958980161461,0.5361030753154007,0.5257307879243719,0.530911148085812,0.543874195063332,0.5470919078613083,0.5343108231936557,0.5474786243268258,0.536660943363826,0.5838476274803971,0.5391558820295449,0.5486656299232516,0.5349360711857554,0.5132213247172102,0.5326077932629817,0.5322567858890819,0.5166264146476011,0.5570348015109264
0.536717633985516,0.5087173770826692,0.4379966281446893,0.5354659414966463,0.5292590458542827,0.5718019780026603,0.621870108584788,0.5680262134088226,0.5322375310795037,0.5645850441583807,0.5900732667818201,0.5072798654311251,0.5290629147260211,0.5265132126397022,0.5166226556468039,0.5462499014314125,0.5308874128337433,0.5423066567488617,0.5411960630425833,0.5476957728059352,0.5340422087307163,0.5419699779396284,0.5320548965843518,0.5678097630227181,0.5116244340154847,0.5442749685094297,0.5258423978016958,0.47904017713771324,0.5137981401012697,0.5201064256485721,0.5151047183047197,0.5613333460224893
0.5344680814344974,0.5159991764377737,0.4634478909312689,0.5362030899480899,0.5520718674853585,0.5759463289054424,0.6210647283721911,0.567690712074395,0.5270695929524395,0.5601532770227059,0.59961500773487,0.52214407062276,0.5147356547705944,0.528863771114951,0.5158633616692588,0.5409591990006164,0.5323708120668857,0.5207095354965134,0.5215049730029923,0.5218977213751879,0.5033234102822578,0.5309828352507114,0.518245339166784,0.553975576127424,0.5112650422827306,0.5598229473430473,0.5330134836238584,0.5062894568246026,0.5214907901712397,0.535922543322925,0.5462409488603072,0.5713766358818685
0.5451905810682485,0.5283177617420374,0.5064134417480024,0.5262516114113961,0.52574394143874,0.5755612112681352,0.6220487230740196,0.5736982995143513,0.5227536651417444,0.5645938932491691,0.58117964970504,0.5126899163383251,0.5189810666888619,0.5228669644278453,0.5155386201019324,0.5470007718491262,0.5327337336321508,0.5308168410022754,0.5324819216200006,0.5281115957472193,0.5083843648462502,0.5459146411733304,0.5427888315527445,0.5479396332240728,0.49352005982947683,0.5511125218348406,0.5457735898375647,0.5077533941785527,0.5317288647057017,0.5477489645930724,0.5382524540472269,0.5696359024022577
0.5479053343056683,0.5292793584042272,0.5151260945489484,0.5309139968075152,0.5325224285152081,0.5593035068154347,0.6007892836729387,0.5625511869029878,0.5228317504253011,0.5643120626713762,0.5725806075563507,0.5151351480297596,0.51256088455823,0.5272972966500378,0.5117404179803371,0.5394752621170199,0.5196320482525668,0.5269580720135394,0.5252951327708203,0.5282318553992866,0.505062366880063,0.5353562039381495,0.5456377557463838,0.5425410282710758,0.49857013322098886,0.5723592248107857,0.5442629698670094,0.4907150285185106,0.5268672555291158,0.5443947376320551,0.549758226656856,0.5803186845413733
0.5498597614261689,0.5365243886853515,0.5339396688636782,0.5291786003551053,0.5308979369799322,0.5657642369890983,0.6091814143335672,0.5656721744654111,0.5324002664686226,0.5803317997702916,0.5911392797194055,0.5334306136512666,0.5221858850564374,0.5404987362254403,0.5246490158974473,0.5556148129431802,0.5271514037950381,0.532218143051522,0.5231020019344078,0.5340199702548066,0.5115808141978321,0.5407387962356313,0.5243680396104151,0.5440693868089744,0.5164315253770917,0.56656825112118,0.549212971163121,0.5018442458992358,0.530144071392244,0.5525687297637206,0.5572681466574795,0.5721066754213597
0.5172171168244062,0.4974542522372419,0.5267873096350367,0.4812897726278593,0.4959360787237301,0.5576532703856754,0.6049072040909914,0.5617981078112732,0.5398361414651675,0.5930320366745333,0.5756906426563063,0.5121158470000245,0.5358401009287701,0.5276516141751139,0.5363621486813583,0.558163713183661,0.5217452372410676,0.5303989459135956,0.5087055757630217,0.5262217920287166,0.5212547694773203,0.5377636322219851,0.4763213920283244,0.5602498632736659,0.5147005090896278,0.5578976108695597,0.5573303834521864,0.4987349876061407,0.5434898326600709,0.5373034759506481,0.5299208190540005,0.5732902945260236
0.5431240695975715,0.5256572420226494,0.5364576342409538,0.5070174124478486,0.5234225832745518,0.5625194052791574,0.5954240868869439,0.5527111109614965,0.5527638498321985,0.5790557905827269,0.5787265188545786,0.518474068078276,0.5389785419915301,0.5248433783085926,0.5300330840749962,0.5432109338280035,0.5193848038960024,0.5300100754693332,0.5164377698637803,0.5241471129782079,0.5227376463128596,0.5299278815327759,0.513374959960222,0.5705570783590272,0.5276105000614322,0.5675633057473617,0.567898409480818,0.5054949669917217,0.5555891319346784,0.5644471091393358,0.5661673492691875,0.5725052946340278
0.5313721328002562,0.518163864460821,0.5258781246493962,0.5079807571030996,0.5064366592336931,0.5523508719990086,0.6067290913359682,0.5492570252548079,0.5413436487054026,0.5791707418674997,0.5822845407178197,0.5440670439480106,0.5387629984720651,0.5447665898880217,0.5518097106509838,0.5576570662160553,0.5421698280215916,0.534307042370118,0.5304028705027036,0.5298737479756103,0.5399631360401179,0.5481047843818472,0.5104712936570149,0.5614358732186687,0.5381662252376499,0.551496136167657,0.5414518695654742,0.4971065964535958,0.5208360643095492,0.5393695605249901,0.549132996690206,0.570114631971288
0.5318963257003282,0.5249899856457171,0.5274829302526234,0.5196186711100715,0.5071038404361911,0.554158901262549,0.600977237127929,0.5398832807327447,0.5356006218643188,0.5903769059871514,0.5845021251804593,0.5541502561540758,0.5433901817808773,0.5474470453805373,0.5552508341951424,0.5583185012987768,0.5224399661621453,0.5393074488499636,0.5393668863022982,0.5357175768179119,0.5454940115553193,0.5348930433763437,0.4967024988012109,0.5752254503210982,0.5435114850764743,0.5631402353663948,0.5435141176301652,0.523931332947617,0.5361580451415623,0.5400513631025179,0.5415468763403956,0.5733263224859397
0.5384728312946876,0.5446754009091626,0.5527059218530613,0.5443372401088715,0.5164101640539097,0.5710020770650699,0.6055815056222655,0.5663156246912384,0.5306695321295616,0.5810005336451447,0.5926620155304027,0.550061912767914,0.5454620085714007,0.5308541669503248,0.5246562924758512,0.5367800793823535,0.5158970108101085,0.5350965410501323,0.5334055809841514,0.5364683727823227,0.5464282502172457,0.5554659878307505,0.5122140427072523,0.5882378718426874,0.5585873677768819,0.5519204804399407,0.5452177384704728,0.5314629213569949,0.5326285125075356,0.5297719875922257,0.5307000962735747,0.5706135573804596
0.5485628972109606,0.5521044242765676,0.555364817632236,0.5480684292093624,0.5269819812795715,0.5812398839028333,0.625572181069364,0.5671557906702419,0.5107129516480112,0.585395547579798,0.5953407247053855,0.5508835205318199,0.5456405428566363,0.5348859416916346,0.508308677721149,0.543413971159569,0.5322829686903633,0.5299429482543859,0.5374181808596727,0.5362424315625947,0.5533880394641006,0.5668114404332988,0.4839664908651685,0.5880796632886485,0.5508041324162465,0.5488595228445609,0.5360633108895282,0.5264841562777279,0.5294434236292206,0.5393709699520841,0.5377990244722894,0.5739119344494555
0.546661629001875,0.5370325208791212,0.5548705787080684,0.5321530077432134,0.5124815533633101,0.5821068678289312,0.6274185574286062,0.5568464125541678,0.5024200145561949,0.5861795377303022,0.6068970401363031,0.571440895049252,0.5616595558381018,0.5571439399531528,0.5361509073782821,0.5597023828955499,0.5067140995709036,0.5525054251817918,0.5642031191243924,0.5571924187500631,0.5690174171451454,0.5693458308937075,0.5331008036336448,0.6080343222123611,0.5622476897075431,0.5233225358300586,0.5360855694856566,0.5359221280974342,0.5302251670644711,0.529723928814548,0.5183329909299977,0.5542816699060583
0.5481666977279422,0.5448747500486048,0.5468592396440768,0.5394744709797957,0.5356419429667401,0.5759776373342584,0.6104724951650734,0.5575750432132996,0.5240992064351943,0.5753738019664776,0.5937190282618892,0.5647381092938139,0.5597873824900713,0.563503642763622,0.5197272732443622,0.5638339957024109,0.4816587037890133,0.5444122250169594,0.5560489434101552,0.5604298630606133,0.5645271397438808,0.5682858463018235,0.5587684426091473,0.6068659958636036,0.5648006256790901,0.5389584733127537,0.5402369167628693,0.5318626279119085,0.5316105801667824,0.5398464102358432,0.5387122273970713,0.556809534573109
0.5504063710790986,0.5455169213245492,0.5426180017903857,0.546000023686265,0.5356920472231408,0.5806362234037642,0.6160364782634495,0.5416798657697811,0.5111557640055517,0.576630719267201,0.5933599335471624,0.5700257579469714,0.5581138530061609,0.5669033907768726,0.5235588278059221,0.5676649491985217,0.49561306832371177,0.5511155860401205,0.5585012459746289,0.5567292117701541,0.566076659082377,0.5600335186079496,0.5514529690434021,0.6068806036806921,0.5526562525930078,0.5297264823538621,0.5399819031449071,0.536338849102858,0.5294819349268765,0.542682992613991,0.5500476672987152,0.5461735404658442
0.5350304076899781,0.5187392145520986,0.5136794236323773,0.521764947414754,0.5305328774505639,0.5915876551379408,0.6089625121598174,0.5458451688226719,0.5311401960892328,0.5608282095044097,0.5773932822193742,0.5514902536645739,0.5636354950369922,0.5560255569564924,0.5262666757015542,0.5747183433532925,0.46811880776360293,0.5506045003302152,0.5672189090736038,0.5686740325513214,0.582235823314919,0.5549102606643684,0.5604326922442038,0.6292222873462902,0.5820341693658376,0.517440611585969,0.5554777099339472,0.56473828965811,0.5388055397668279,0.5379336533143226,0.5300984493100501,0.5179041871539651
0.47710020846477014,0.45933584998100724,0.40729202560850064,0.49577820324555993,0.5288849740699237,0.5204923431949329,0.5922396098042682,0.5276700613908358,0.5262282840673922,0.5453343495961769,0.5736140705378223,0.524708098567431,0.5390985888570706,0.5256286546532047,0.4602523497951284,0.5699131558057738,0.38003243519038143,0.5126017103205931,0.570573581436405,0.5859403658047722,0.5812259955662253,0.5428784977278087,0.5490540841169638,0.6192877191833115,0.5752473352819244,0.5423288591898516,0.5769120490467612,0.5391386770847569,0.5585871552187968,0.5713974397228567,0.5557157117653443,0.5552536954350603
0.4733365526901456,0.46342283092979725,0.42011660525681926,0.4887536647958052,0.5003862966797777,0.5285146256141577,0.5858998614970466,0.5231253607257461,0.48546681074115045,0.5500840988792348,0.5762873106057889,0.5141532453673016,0.5388698067757208,0.5114738359494033,0.49675177470822135,0.5614400420171659,0.4209300122492499,0.49551065652109727,0.5563521866677967,0.5569268688536023,0.565870407208275,0.5039823395895914,0.48294803077462517,0.6062440182536819,0.5247639025740893,0.5434333392094877,0.5669525209875538,0.47442368595312306,0.5505465739663592,0.5678880013342681,0.5648448869472341,0.5148312326381281
0.4718568921796891,0.44860151255487357,0.41484116007899907,0.47813880120546626,0.5004558002274404,0.5304691085066099,0.5835960249813921,0.5585578666539364,0.5118628153851494,0.5687621111784179,0.5719527227830259,0.5148167465357829,0.5282592347373244,0.5089464180228825,0.5211716916223326,0.56130326556257,0.39477869968333157,0.4780966288564459,0.5030053879906077,0.5389034019437607,0.5452064392294914,0.5102630690832781,0.4692005980546513,0.5846912939815607,0.5504766401976974,0.5391852098239107,0.5444886238098195,0.5016819829497822,0.5216737446607207,0.5477810517959953,0.536044831176128,0.5062212048509456
0.4559781812396575,0.4489420317435923,0.3768624287992147,0.49568960228311515,0.5099660273776457,0.5023388907454643,0.547182364606245,0.5474714320030925,0.5121260301313312,0.5626692046822239,0.5669513143763263,0.5431338842990374,0.5507746629232131,0.526393212680227,0.5236168776552174,0.5611496670169502,0.36210671214411383,0.5061467563767726,0.5382580671117706,0.5410763888853543,0.5496509054559208,0.542857403595854,0.5112810800293565,0.5915415797645722,0.5163281525747662,0.508779961308687,0.5124981966971894,0.4433101156937155,0.4846932267285801,0.5051399949702182,0.5301570491616705,0.5358748592548244
0.47259802119740174,0.46762931722892664,0.4221022330277436,0.4977179579550542,0.5093577915271533,0.5334819546807337,0.5535492642161655,0.5629537333121672,0.5149568289781161,0.5610311264883272,0.5515306705318942,0.530689144310756,0.5458078414086356,0.5086358357280837,0.5185929653999397,0.544344447583913,0.379427509300123,0.4938887504186693,0.5148551365505842,0.5280092543509914,0.5438165007255976,0.5248550872610164,0.49732043601838205,0.5808001795737733,0.5413972614380482,0.5212954511926927,0.544000719964022,0.49243546855966347,0.5221110104010952,0.515365077089387,0.5413442221175356,0.5453807286490789
0.4509950941985706,0.4347470280684869,0.372769410754652,0.48533839470110296,0.504718231437843,0.5030687097753571,0.5388122638752681,0.5633608075049515,0.529296309715155,0.5621791229036203,0.5600269164484413,0.550813871284164,0.5431217043076295,0.5165220312968404,0.4198370056187747,0.5534763269958558,0.356509525202168,0.4755698863581359,0.5131169490405336,0.5422416638347551,0.5349178555317978,0.5249885237672767,0.49479482460319474,0.58497994773137,0.557125863379747,0.5170899780063758,0.5281923873043529,0.4893294321787391,0.5026324037550131,0.5067281475298365,0.5148753765466787,0.5393439088492717
0.45822141473894773,0.45540297776010524,0.3743253930262178,0.4986689333003448,0.4998197577755998,0.4990510072059565,0.5113475751061802,0.5294051398152779,0.5164470526944895,0.5368023331096236,0.576108272939305,0.5547995430856054,0.5520472141429256,0.5448704708879393,0.39483984770115815,0.5739417552649915,0.3852443275046742,0.5272188853075952,0.5522231858354433,0.5695495980350046,0.5474015975614881,0.5380150653472149,0.5167748867187031,0.5848761576280097,0.5091098528057877,0.5168637257568333,0.5106820630159893,0.43888672037355136,0.5102014426830429,0.5108186680039032,0.5313160479841847,0.5469449583424708
0.4724905416228169,0.46465053764171677,0.4256354419301504,0.48891014327764976,0.4947514746366957,0.5367393840123456,0.5624781239081472,0.5867360434196988,0.5322508420278765,0.596988482633079,0.5860511233262363,0.575854258131015,0.5464043353255422,0.5299053413301734,0.351922776638871,0.5466808139311549,0.436316052337197,0.5090438141041717,0.511959100063744,0.5419545301712784,0.5342011011668985,0.526369877673428,0.5044576033252394,0.5909152478766655,0.5377216280690166,0.5361644819217312,0.5408894614942606,0.49578596175417033,0.5399324897776379,0.5145045582532695,0.5304022053061718,0.5510814598622127
0.4784362584935867,0.46630553159515914,0.4252624717490998,0.5074235729482339,0.5022723312316774,0.5297951823086828,0.5762365492136942,0.5829600456946782,0.5576251795696471,0.5892518928103108,0.6006359321273455,0.5913392101844671,0.5639302130009194,0.5263071328038524,0.2778472854186741,0.47333980944086174,0.4374544832833768,0.5386309683279066,0.5471134642142645,0.5503840658695776,0.5543986913610036,0.5507440866808081,0.5202466695680051,0.5900386234480791,0.5233377401939293,0.5161394243967823,0.508358494881534,0.4566302571824753,0.5060865463062909,0.5039049111173343,0.530421950539748,0.5293973685893976
0.48798113618350264,0.49706686099771,0.39156629691249384,0.5335694698700805,0.5124527576377154,0.5435340731969164,0.5612505750380826,0.5566956562220245,0.54281471024798,0.533553532690364,0.5679495144519033,0.5748079162790501,0.5778902449362906,0.5236401201644064,0.24224299260794596,0.4464322602763506,0.39744051920999335,0.5651414899172925,0.5552353306517741,0.5666886619462815,0.5608364190748989,0.5130608215883649,0.5213888235108202,0.5923965694718213,0.5256151353748699,0.5285402909315465,0.5191396765562566,0.4843028467672614,0.5284311533611151,0.5191417704494597,0.5348598329712515,0.5516723644560093
0.4990444736554808,0.4923940304670515,0.4643856105255713,0.5147020541995401,0.5148705187766935,0.5428010822218826,0.5897820553195098,0.5778727303157931,0.5284426682077984,0.544428949844747,0.5898925908909984,0.5767693138591963,0.5520592629064065,0.5138350813751624,0.2735917879574711,0.45252574446832694,0.4790492921070539,0.5719003562657403,0.5909608446669115,0.5752939985038983,0.5733946733015332,0.555817948842511,0.48658053064259826,0.5835661165799799,0.47628842013380257,0.49595747818860186,0.4947218859203074,0.44547728399295466,0.4815372547658023,0.47750602173416434,0.4970824386421849,0.5334644840092687
0.4670326275229091,0.4416928272285385,0.4199497486643903,0.48318545086451464,0.4865104233188255,0.4598531633615322,0.5757539943410839,0.5261690888756835,0.5043751594293002,0.47468790692928636,0.584817951063897,0.5357288660726535,0.5050242242129521,0.47858174795040626,0.22081327392358474,0.4311377493301702,0.4752953350189866,0.5483088670467595,0.5676382511412323,0.5831662934404908,0.5530670366502152,0.5651298863727621,0.43157017567514494,0.5643848542584141,0.4481961328447447,0.47567878297277993,0.4401218617246765,0.40567604081147673,0.42926505543197035,0.44456449477105164,0.4620419892571849,0.5519901692898659
0.44262813230262077,0.39919725412579576,0.3679616337630635,0.4220320635015113,0.43417255371516683,0.42014518865971434,0.5907411883210323,0.5647648636744691,0.5219179903194999,0.4983519304225728,0.5865931859565139,0.5487539761433702,0.4884533325021484,0.49045080360601156,0.26659687271290333,0.4459424910890719,0.4999434702741513,0.5326670749529723,0.5462654364471827,0.5473549221403867,0.5124941213633573,0.5569622666603672,0.4292762463977337,0.5622399807753912,0.4190307138345533,0.4932325300405999,0.4090087607140564,0.3662448876688716,0.41099988754107786,0.4475523913868216,0.4783868377692862,0.5471870788977712
0.34911455124504187,0.32132326032313474,0.2785215717484134,0.3587676861885498,0.449793371956411,0.32857968351142963,0.5247234307851778,0.5155458571885574,0.5488628931301776,0.500661013406023,0.5828132664090723,0.5822350879338993,0.46247475560738055,0.4998450657393615,0.2719491108720461,0.42291823328579375,0.49032756327016475,0.4932866034548501,0.4756243498436825,0.5013232752247636,0.4414773668472664,0.4939523107490506,0.3996556486840934,0.5616965158685744,0.39207444594003976,0.42554500913259496,0.35598123239494833,0.3001917879400958,0.33491574976345195,0.3735036236254759,0.4347580073069846,0.44735864727804064
0.31911477529906424,0.28844734484036155,0.21820761817306233,0.36261861723424194,0.4513569990528996,0.2976621478283242,0.45318241354489297,0.5132350920729385,0.5605232277279811,0.47359025846453845,0.5265527538842532,0.5515306073594374,0.4672252157739845,0.44096209596323105,0.19333526845880314,0.38818254183973033,0.3923842136387947,0.4812235032050054,0.45391139050257967,0.5308907805934994,0.4234091007838854,0.4802045701462165,0.3973793832467597,0.5423700329249284,0.3809894761752288,0.40049863124485285,0.35193471676614607,0.2919105638465643,0.3254247521511063,0.37675531965711445,0.43174943230184126,0.38623519908928594
0.387393674336472,0.3526621923860352,0.29647027362293693,0.40487868677347827,0.4452110043655814,0.3565552873178083,0.5204384882938309,0.5410769164346992,0.5867282355902593,0.5028174816128793,0.5421995829132009,0.5312117666357309,0.4782098777968933,0.4243228239733696,0.2126649030459773,0.4308278068484253,0.43151087492648904,0.47152413849257674,0.5009170644593784,0.527285080177341,0.45047694179432074,0.5215641928142424,0.4377658004468071,0.5572697160965214,0.4079600192649565,0.4394409193144148,0.35119141709295554,0.3111216909647552,0.33592607982380635,0.39304795427421696,0.44128411174719717,0.4534676341765678
0.3298661594012215,0.3073732768855257,0.2570591287238123,0.35626141735640343,0.4583756798321227,0.31292803575085204,0.43630261096155365,0.5178077821412645,0.5458375951696374,0.4733735289893963,0.5628757232896353,0.5217739920509414,0.4237128176958203,0.3897014649303581,0.2507976214563773,0.4638557667903179,0.42288422355667643,0.45130772600012214,0.4504368219038069,0.511718292310057,0.40491787511549476,0.4608199477756251,0.42312086036668706,0.5600302885410446,0.41943175806261346,0.40237163489504996,0.36935698998333105,0.3097834083920245,0.3330771735436735,0.369861043918773,0.43546372036018643,0.4040641908917926
0.3526359965159746,0.327446555718573,0.27660928462498485,0.39201539130293706,0.46359828510496986,0.33409643036397324,0.43778240744866875,0.5375670720238592,0.5403113480892509,0.4919959528316974,0.5802487957495523,0.5230926518655478,0.46145753762094,0.39708156950700907,0.18071258666681816,0.4231521140286858,0.41076914115040436,0.47273843581192126,0.4796061389055499,0.4952598873489199,0.38934426318264026,0.45896009295197226,0.4030914330682938,0.46090331451881394,0.34033744962982393,0.39750913663604176,0.3448849686213343,0.28319955027696175,0.32276317856884323,0.3824056878201187,0.47177300754259205,0.3815774217323154
0.28583702936010297,0.27431271968025583,0.25025452467590154,0.3200360715873616,0.5225899359484822,0.28576297068189915,0.37606760420081264,0.4201438032448777,0.5047022911148691,0.4741498251584317,0.5970022631762207,0.5392077476409785,0.4205485695011124,0.4156919876302066,0.25850372683318945,0.4704521564776614,0.41384136494005214,0.41561884063524646,0.3964124674797898,0.3697755357279147,0.2924449786204543,0.3407123964942453,0.31464420496456386,0.3502003733081413,0.2517669774369805,0.309638010508857,0.25071209599665045,0.2283109709662569,0.2517798190803588,0.30714042176708106,0.4918185403180632,0.29848440779052093
0.2655973579083348,0.25509777140889794,0.22058468698448383,0.2959537918671487,0.5117703744833026,0.2524161128442418,0.3311806723042218,0.38358999839906294,0.4964963847798262,0.4465177812439782,0.5874564064852805,0.5381454571255159,0.4087691439432063,0.3964734290689846,0.24182881569761133,0.4518937477114232,0.36912304912907207,0.3930555262332364,0.3858220174640426,0.3899715432505341,0.30711357583706655,0.3443582729898136,0.3094451074313166,0.34606672126502175,0.27339827209424233,0.3076836700616673,0.2814085098722966,0.2431142290414231,0.2626115881973313,0.3035303877824031,0.4721864409743996,0.29916982500220973
0.3005015426087201,0.29048866680708646,0.2622699512840635,0.33933555111066166,0.5131313809935282,0.3109435575390894,0.40934338444348334,0.41871997454049076,0.4991018028825062,0.5248453099338065,0.5964936466663603,0.5031095954069857,0.44137887591678204,0.4219592591443091,0.22808897133878978,0.4350365957226372,0.34422253753109144,0.4220259443772341,0.4049622907632136,0.3819805954576518,0.3216666888594101,0.37316548945222017,0.3479699086929711,0.3195606836627681,0.27496513612606077,0.348957474865215,0.2883124969407133,0.24400005029870758,0.27476004755670486,0.33894301682780276,0.5074943374035554,0.3517159650341405
0.26380625623900517,0.24792972401944405,0.2255198244177841,0.2902804265813925,0.5248155544247736,0.2691315959105917,0.37853540209439884,0.34012872324004206,0.48628558036358477,0.47692382247064824,0.5855858050543244,0.5164359491961711,0.40256559354593746,0.4232708840671957,0.3044370746231997,0.4961812754229093,0.32220903543420176,0.3873051924697814,0.3446458827668043,0.3010178780235748,0.2557051992073732,0.3055099729801644,0.30274479868465515,0.26566183264669824,0.21899701800619611,0.29015349896984804,0.22772137103509466,0.19136467492858591,0.2138462098487463,0.27569820351621743,0.5239253003757448,0.30436933216193945
0.3006511587249766,0.2991563703766494,0.2700737005874334,0.33390016319008936,0.5213979697041935,0.31953384994602224,0.43426137212405863,0.3931278980113098,0.47217652621263423,0.5069367952612639,0.6048933290108794,0.5220018537779343,0.4275509031676814,0.47602215062658276,0.30580614193180733,0.5469686070077184,0.3561416857776412,0.40420775813666776,0.3940752055329998,0.3603713052801047,0.31797305704426576,0.3717867376612379,0.3594801532841852,0.3198874770118179,0.28172895716094654,0.356138401183247,0.2927431283414413,0.25200768218035874,0.27215495875682305,0.3295899179362713,0.5102130521429803,0.3998188882672035
0.2832348771510037,0.2731347042790807,0.25137316275470073,0.3252545538517624,0.5123223782087544,0.3013431107143903,0.4050216350463108,0.37205181229369305,0.4642266089921284,0.4882357890312372,0.5818134382493416,0.5027577728909205,0.44658712301337694,0.5055724075026593,0.2638375937091216,0.5626372544887659,0.37991071246747665,0.4537698467183816,0.38794579302612525,0.35839607152408814,0.2966298812925045,0.35652984945937816,0.3293740407005717,0.3035332602056094,0.25139367576830424,0.32482931242110963,0.257051845190625,0.2300392454597141,0.24742153217510748,0.30285073645441424,0.46696581514960467,0.3516716959518393
0.2726741563680334,0.26650870893150597,0.23309443904435193,0.3171023085725008,0.5411826799959144,0.2834952213332818,0.40121999253075646,0.3606402702576951,0.4672850165844711,0.48452190290542846,0.5773919643487135,0.5258448097207237,0.42270988889974237,0.5097855318163234,0.2614313134982702,0.5608078014413269,0.39737668966068923,0.40076881732759834,0.36449862093018875,0.3526196112674492,0.29290959362967567,0.3342292950331535,0.31988635095390094,0.30939629418713194,0.25400911274369453,0.3198975501781523,0.2549804678257528,0.2207931071824161,0.2465544238658903,0.31799517101122116,0.5044116917526422,0.3517429126052997
0.34371082191728125,0.34766093034703116,0.3099899884421174,0.40401628270256457,0.5461719742449128,0.41433706069013315,0.5513539150174187,0.46150469427907365,0.46232583732017324,0.5698110278091607,0.5944433392462172,0.528131076060089,0.4708133901620335,0.5269702967077711,0.2677562378483453,0.5500151684558994,0.41454506579573425,0.46510583117540966,0.4207628527813373,0.40624289120171936,0.3498462859409336,0.421271837060245,0.4208571753578933,0.358270021091753,0.2957203604403907,0.4239056584382411,0.29600369805316445,0.24200409732226702,0.2870033448862945,0.37515666149517124,0.5130388360128134,0.47293371159858855
0.429048327773373,0.4452274413739181,0.45928037158366514,0.5110207096813836,0.5175850068151053,0.5465390962972816,0.5843649632730855,0.474959294517141,0.49144686871833343,0.5715225055757751,0.5411735544265102,0.5211577183087267,0.5041063366054678,0.532883079303641,0.213731549088124,0.5692550449360259,0.4364866053149291,0.5106204351616268,0.40560182395252764,0.400972387291396,0.34539759309379486,0.46894990792436325,0.4770673873696078,0.34793849117192216,0.2659359579697272,0.5221469409979719,0.27824200228188734,0.18775655389957807,0.27332263241495347,0.41649698232389654,0.5117019445721757,0.5574946647901291
0.44605536873308477,0.5022458728794376,0.4841611743100629,0.5495496089767894,0.5569222209088506,0.5526685826659476,0.5873478615497694,0.46589744390851634,0.5173358710126196,0.5733186981798674,0.5577536694384925,0.5467098374961731,0.5344277919955658,0.5535489754035678,0.23485262189709732,0.5823420465039764,0.48891926940886254,0.5246851311325644,0.4531117850628336,0.454745951764704,0.39484950172213057,0.5267424001746226,0.47097094217563606,0.41893838700968417,0.3355143204783208,0.5045884872378339,0.32041954640140646,0.250564075550875,0.32115212096296536,0.43682418225398273,0.5415442320319546,0.5449475380119823
0.4739873318250512,0.5199778657954544,0.48149603426144194,0.561183908102908,0.5251663324689035,0.5257453279467967,0.5507284243757907,0.48834138321860393,0.5095426258401713,0.5636794042277958,0.5788402121796911,0.5328573613377003,0.5439915103850832,0.5651738195347791,0.2217937400888847,0.5971805814384458,0.5450603769502387,0.580640179503643,0.5349691592853273,0.5680031417928129,0.5425798210948739,0.5726663495736264,0.49324091591104485,0.5811039762756822,0.5245640541473696,0.5164483668025004,0.43057250628908955,0.388413839921503,0.414693334159866,0.44885761989652734,0.4960411938306631,0.5419999766403548
0.5030466448072363,0.5209042441605766,0.5264567923067635,0.5591601684647336,0.506522726850837,0.5410782891099142,0.5762229087316918,0.4992693493418524,0.5480941471996132,0.5888806589772742,0.6041627804840698,0.5703627842467709,0.5665195805031348,0.5668134960997131,0.20724169440474813,0.5610417111384794,0.5229574994360681,0.5505216461737205,0.5232918311829423,0.5950864095175927,0.5257080623616127,0.5488898188204963,0.48840013546307454,0.5992024056373494,0.4991096664622062,0.48800143083270975,0.43917401078407814,0.42817409559394437,0.451038018843286,0.48608184005363264,0.5336422177676863,0.5486387656650662
0.5582905279185624,0.5773451108134279,0.54731010449309,0.5738214357028637,0.5200103245229541,0.5328467385844368,0.5703740894116061,0.4980392369589937,0.5729453313030746,0.5916091250302016,0.6165082567044289,0.5956820450034813,0.5597743825528531,0.5826288764811269,0.2734559045965999,0.5130520562789235,0.47527108834267523,0.5484479003537378,0.5197933575376038,0.609537447455568,0.5467269662817567,0.5738690754950445,0.4807249632860773,0.6042216530143147,0.5187950814456506,0.5019937653959783,0.4789603775589747,0.45615479831687306,0.48864852846730933,0.5326899311685298,0.5547668447350823,0.4876248399619409
0.5644051892447288,0.590015314382384,0.5499694335980849,0.578917965980881,0.5465868516340575,0.5356500669652398,0.5630635088254144,0.5238550016700354,0.5704589105202884,0.5702890573087515,0.5953635102651452,0.5584608554059345,0.5738493021633946,0.5848996345001168,0.26594026575148855,0.5546362353185478,0.487965606037871,0.5788270511742143,0.5238414765363408,0.6026039847862944,0.5518818102797051,0.5853245457160228,0.49695508183068066,0.614118541660751,0.5400080772134744,0.5109774733077873,0.5023122780358584,0.5027406385402352,0.5348331421197297,0.5693676147185852,0.5536832696132965,0.5391270825941239
0.5921986806790219,0.5971150497168953,0.5642201273017072,0.5983722675635332,0.565001711961389,0.5917618499465807,0.599518279626312,0.4923460496099755,0.560331723362475,0.570495444146231,0.5986583625328668,0.5708428284047169,0.5578958257060851,0.5697041550309762,0.29935904359947824,0.5345837190083922,0.4411107534445383,0.5634722434607075,0.5075765669468614,0.5818601952546083,0.5479276218687473,0.5705474400504922,0.4429479398106006,0.6011210647091206,0.5180272216134066,0.5093229471825285,0.5221083568970346,0.4575443233109463,0.5323511366662732,0.5655268295349991,0.5697215211243458,0.5325472441219323
0.5769851802190893,0.5757689715190552,0.5500260217178319,0.5772948149296666,0.5419054753709268,0.5943997877254994,0.5941585962644742,0.5439621618401945,0.5634046527563771,0.5354013689621384,0.568253110519354,0.5444433174042493,0.5148204081547311,0.5452513994525221,0.42622884719295684,0.511940149564342,0.487294198692982,0.5357728544289627,0.4744197947473933,0.5626299588630432,0.5408341832657921,0.551008589953244,0.48853439527375586,0.6096161587019499,0.5542194238448063,0.529951146134434,0.5438121234130566,0.49719406488202367,0.5618234004828262,0.5662786722041606,0.5455471769148688,0.5281356527273069
0.5905583396599642,0.594661022023043,0.5673675466659385,0.5901843812134772,0.5412355838789672,0.593345064459012,0.60596885141691,0.5791353224262161,0.5613851088963181,0.5448389920867679,0.5743183546126521,0.5434699327893666,0.5229617212947727,0.5702658511110941,0.4468859021251683,0.510376291751212,0.45496818197218064,0.5475466382996707,0.5014855080476968,0.5811121817661802,0.5341332076713428,0.526632438611826,0.5051876919750696,0.6142980045578597,0.5151382810845766,0.4983764714611816,0.5243936015828772,0.47547497103813063,0.5381398298685134,0.5351877521211567,0.5549722849284701,0.4851645512606571
0.567453610243773,0.5804016011267412,0.5328137242069858,0.5809334685136943,0.5141482770763044,0.5830619119759936,0.6016776235172416,0.566100544768869,0.5656300184121252,0.5418304742939164,0.5774942726477629,0.5371564581211985,0.49676189793609526,0.5393921254344113,0.4513834915453399,0.4943122528386174,0.44678088316462633,0.5395028037176369,0.5115644347946884,0.5719820647450866,0.5482061152175924,0.5456243140821615,0.5339327735021276,0.5965825997635441,0.5514616003188454,0.5211752773211451,0.5548643390312886,0.5092180076144114,0.5533592682500857,0.5410733610293897,0.5249345711270901,0.5000044327311787
0.529382482617759,0.5652258170351867,0.5342895444258171,0.5525306941708242,0.5054190508159904,0.5584188065751078,0.5956898118093973,0.5703094630718792,0.5485876845578319,0.5538323388348513,0.5760503739731008,0.5382586701094155,0.5005580698770479,0.5677026272685183,0.436445343419862,0.5264239944618567,0.46847375362156807,0.5374272498336733,0.4938192643509351,0.5650419890804868,0.5354748247433735,0.5440731627222641,0.5287501516801231,0.6044190238234877,0.5446734203584211,0.5205465831624992,0.5278457442627656,0.5135754882001387,0.5307479985359549,0.5259458367290628,0.5170751489838796,0.5099669486083563
0.5661201936076664,0.5848189773655533,0.549424044836599,0.5797255751467901,0.556269472821991,0.5729563845402182,0.593986430310793,0.571571380165909,0.5552039518352417,0.5727610723704948,0.5792182403022804,0.5615700174151101,0.5117651910862833,0.5739307559044308,0.43703131853851523,0.5130763894599892,0.4274028955800033,0.5441085441065767,0.5006523536956464,0.57097531753878,0.5525304250357749,0.5474315112189316,0.5290955477083417,0.6143221137161499,0.5712626226958364,0.5492161856495903,0.5552604169042866,0.536547772019265,0.554710619398015,0.5551264944236922,0.5560107323287593,0.505188661431256
0.5528236227934515,0.5624462541388228,0.529566421913856,0.5590085960221179,0.5279544782579879,0.5704367855575871,0.5838073703407468,0.5559019012357284,0.5888066305862875,0.5612781281145267,0.5799666109317645,0.5467390158811962,0.4919311317865003,0.5391180667457949,0.4279381455418073,0.49390215588010766,0.4697975023094211,0.5215053583475685,0.4935392531488912,0.5509363035517986,0.548453509722306,0.549354466438005,0.559823971139156,0.6055805211113561,0.5963055829676813,0.5531720728492509,0.5695835028287093,0.5402171104192522,0.5539092916362812,0.5678950827830972,0.5502827467499177,0.5301048182205649
0.5629834163929668,0.5644984585489777,0.552256068197003,0.5674865461774953,0.5410807382119119,0.5565946373774118,0.5827880713262322,0.5635846669035608,0.591196833238694,0.581744847533852,0.5878171772895286,0.5567032194430123,0.5120878467450817,0.5642578900900825,0.40565786954391353,0.49320879200384327,0.47151842674964545,0.5279060953697322,0.4890214158542895,0.5642534037911988,0.5478780579516093,0.532776248469435,0.5607492622107197,0.6217959514051569,0.5759625033209831,0.548124750157311,0.5552686318008236,0.5306672636063428,0.5540821304493644,0.5584138344576379,0.5451188696649939,0.5283470392869413
0.5574536904348952,0.5611062770593863,0.5474047305571348,0.563298294490808,0.5313108754008229,0.5808007229782327,0.5662360522198174,0.579240600693535,0.5906533423050389,0.5858891118454317,0.5742283588161009,0.5355087908200565,0.5198450827808164,0.5383267401670644,0.3810693221412892,0.5104770408611509,0.4582695550930223,0.5342031359283487,0.5079881743557634,0.580478958156987,0.5533821853622324,0.5344269346122766,0.5528489907323473,0.618219596706594,0.5747009458162783,0.5472549925010011,0.5675541045121559,0.5845673362861754,0.5624643032038807,0.5643190594515217,0.5495788359259691,0.546641075421181
0.5425246569986047,0.5500129130347281,0.5397350477971987,0.5476322243818033,0.5255038475082434,0.5844497121345341,0.5734332579038733,0.5612445953029341,0.5888241005741801,0.5782193241629693,0.574619872711713,0.5367596646415798,0.5586473138367993,0.528018883090415,0.3917723732885818,0.54636221339297,0.48551546003566004,0.5535540620303296,0.5227631369811859,0.5784531559294072,0.5471847191971221,0.5292516996274628,0.548058371684916,0.6245227487854833,0.5670816530660622,0.5230848817991173,0.5530503708282744,0.5926861146205932,0.5561908494024798,0.567392611732404,0.5315706105080771,0.5389029220438689
0.5631566985637,0.555421151168779,0.5743283114904301,0.5644914759885646,0.5093691171670172,0.6013328723003305,0.6030069598213944,0.5839465841871863,0.5744659637645653,0.5810395649059555,0.5837249208279762,0.5346918432658532,0.5538772972813889,0.5459149872498225,0.3658167544515351,0.536546812196164,0.4439373219608438,0.5382486329000737,0.5199386776100022,0.5444674484024585,0.5135483580836459,0.5162377682556232,0.5367698296153202,0.6112529234933949,0.5638428049200519,0.5046906235985508,0.5273622783487888,0.5782418828140783,0.5516184901416998,0.5650668287379751,0.5262590848234501,0.5147415916852423
0.5590716142462834,0.5483288454248978,0.5650223381817739,0.5667563757007238,0.49616684218364304,0.5925791648064218,0.5919978262114545,0.5758240894725261,0.5919361994889882,0.5694151356730264,0.5658661359634763,0.5242075264325442,0.5629189641475205,0.517543346756682,0.401120658439533,0.5253422143882581,0.4591643875773648,0.5561334031065174,0.5516467349233173,0.5666328031370548,0.5421689039300408,0.5383624138839384,0.5497743066574556,0.5969858633874277,0.5694339795680521,0.5222864343814368,0.5569657234747779,0.590730871863416,0.5552847524701187,0.567207474821945,0.5399818353476883,0.5412385328745313
0.5641616016779625,0.5520071234829182,0.5478325142570356,0.5657719491123773,0.5153121675773702,0.5682067350314561,0.6005318109654793,0.5773054018995957,0.5791046864569517,0.5729854090598848,0.5933362007247185,0.5338316238514625,0.5658953625975897,0.5299836237229405,0.4250195381641058,0.50664520792576,0.4965796748390196,0.55365425339504,0.5542284151279118,0.5642970234348074,0.5679478602231899,0.5432518799618957,0.5659205239235298,0.599678056368112,0.5806896294551208,0.5218022099659106,0.5438198190548971,0.6019939386734097,0.5604598062850986,0.570993246396166,0.535411382256942,0.5423082696826899
0.5541278860863826,0.5468598642685679,0.549682454857608,0.5674541979362872,0.5045989188923996,0.5717656334707536,0.6001301934026436,0.5769833676748112,0.5704109566090638,0.5559056159984912,0.5920671362497443,0.5079457944683682,0.5470596076555491,0.5176767572146259,0.3697688894519876,0.5162522256339052,0.49408872888585437,0.552862790304396,0.5807844055987147,0.5637804114333326,0.5759154040967448,0.5787786787283966,0.5779739462768855,0.6080084130370034,0.5483729191942053,0.5309089684202491,0.5444659960087735,0.5877257134656327,0.5583873393741474,0.5610900133445725,0.5434259723568117,0.5577991221188218
0.5286071986811174,0.5215666957668609,0.5549846788133039,0.5522748319669027,0.49972920926620146,0.578203235220897,0.5957919624695259,0.5681750490469087,0.5445764237684777,0.5418403742291672,0.5776145867045198,0.48234079486705755,0.5655946705653229,0.5064591813776153,0.3008261470798437,0.5307235905137341,0.4673324706143795,0.5805365385688723,0.5751744358652556,0.5711378452975792,0.5866810366709445,0.5978016836836655,0.5520204679965451,0.5972245103065603,0.5535154358778319,0.517632552376589,0.5203099595606844,0.5759091023524745,0.5394747852958216,0.5561747133880223,0.5238994790641422,0.5781782016423146
0.5024014016059603,0.4905545506120491,0.5304819945050212,0.5162172225437891,0.49561489327720565,0.5652351118561912,0.6113970367048133,0.5886612970018678,0.5427939498099635,0.5728489099028324,0.6159575128507624,0.5281598014466694,0.575943005401406,0.5595887797847667,0.34363546036744874,0.544654025939146,0.4077032971435154,0.5702068634009455,0.5526390828403417,0.5560068978746061,0.5710518549081568,0.5591740445997414,0.5397818319895596,0.6084134355067906,0.5542888496837826,0.4980262056785009,0.49632763163078,0.5667281264750939,0.5194010877651378,0.5414187397828271,0.5015108306477455,0.5585003680457552
0.48743350303099564,0.4755169142872336,0.5259412104487655,0.48628663129883487,0.48582879299068016,0.5745299163169926,0.6056500096523224,0.5762997186962022,0.5543642309812647,0.5668134312632092,0.6106524953186652,0.5445585754475161,0.5346637792413625,0.5642428724759018,0.3475826765721709,0.5370299719786732,0.3623921387770923,0.5538565561622212,0.5141520647978132,0.5435805422548619,0.5323124330229294,0.4995718389189491,0.5049545199090052,0.609076411478481,0.5112251944163482,0.5177814059989759,0.5270709287149812,0.5632478698855876,0.5383690823950383,0.5455477660090104,0.5342285689214947,0.5225741062913893
0.4255123980475899,0.3998800055577474,0.4803705722519489,0.4211275317755154,0.4822145267956005,0.5383381950843291,0.6045662608602181,0.5675961844615123,0.5531185278417622,0.5546635918066862,0.6122258766402124,0.5448069619918992,0.5478621274692346,0.5610683567479529,0.29457766151529546,0.5273197835480445,0.37038111782273064,0.5470239758833703,0.4793425072919658,0.56717252416126,0.5410289780025176,0.5172200883680923,0.5205760806566162,0.6039807835046347,0.5389413883070396,0.5280199702026429,0.5261680531307349,0.5421615026828732,0.5266518132172731,0.5315620152963966,0.5107603402670764,0.5278052051807318
0.45967038466508614,0.43672904079368285,0.49697150322504274,0.45462761293022114,0.5497085372923528,0.5520568149172395,0.5969689662501386,0.5820376974101544,0.5560660329974236,0.5737074513319732,0.6290017286112943,0.5634635842499075,0.5368830211205778,0.567510920756916,0.3395979479945976,0.5226256023789618,0.3272317060552889,0.5167478160777299,0.48275521408793465,0.5682888298765612,0.5276194627861878,0.5024156537457938,0.5031291032564421,0.6187175647752174,0.5251636472999729,0.5248694699190282,0.5291524597128177,0.5568811936689112,0.5443541734209774,0.5426669006400507,0.5157132942824634,0.5268135536596725
0.4607885024578876,0.4455611311842121,0.47892185327765374,0.4427285798925931,0.5527082032596736,0.5413254550334152,0.5975680894515308,0.5724476998214009,0.5527920948305828,0.5813509059522158,0.6026634514625157,0.548333943445953,0.5042339313827001,0.5529574577974906,0.3056114270429787,0.5309627232617765,0.34964463621006747,0.5140252140035548,0.48032103526668696,0.5538126017363114,0.49838861651186916,0.4852435872839341,0.49369958707047734,0.6194598938461254,0.5129260465912511,0.5071096761523295,0.5264440249877322,0.5486442293658815,0.5442693274180361,0.5679518212016765,0.5370263245171465,0.5095822140181602
0.4131033159790658,0.37632495594211396,0.4567966752911106,0.40868648079496667,0.49509941739948415,0.5275289779986546,0.6204062730054904,0.559766465793861,0.5730485534914286,0.6025476557788623,0.6073656725165208,0.5813784309647481,0.5390420176738019,0.5601062976566099,0.34386529849024666,0.5313388317063049,0.35061889484767406,0.5490392248114306,0.5033977191817857,0.5724287168139521,0.5434505680589337,0.535969800041239,0.5222093075829952,0.6150279547658217,0.5522949154460061,0.5267567537335912,0.5360827597983032,0.5763274093751937,0.5553266952385876,0.5635875319716169,0.5216528424735923,0.5346003309959529
0.45696550746110126,0.4175747604313401,0.4700855307295305,0.4194494840903695,0.5668346786309401,0.5135866590305698,0.6152758863813511,0.5858438281527089,0.5697347004031744,0.608241398849852,0.6076412966453654,0.5988943398871089,0.5201904729004703,0.5800154860515346,0.46816776934612864,0.563162685863513,0.38175735237422864,0.5230724696539003,0.4909192957868442,0.5671392522603748,0.52174641149847,0.49483740460155723,0.527545808179267,0.6187612576481009,0.5274668694691995,0.5122736525040198,0.5296845755365872,0.5953361674258949,0.5626554724380618,0.5773867858589782,0.5524668613246673,0.5010852050244187
0.45037245384273356,0.39639192741131934,0.4778785373857657,0.396995572528781,0.5608898231615816,0.5082233656105122,0.6306333131313399,0.5678913023261283,0.564864886755127,0.5807867052550963,0.584300472441734,0.5698854327173716,0.5163242265189931,0.5627846407794787,0.4984027440075236,0.5656439912944577,0.39012088739251544,0.529380424886469,0.49168229419673165,0.5814883809909692,0.5275531092770893,0.5071093684215062,0.5050641580642963,0.6030173715765004,0.47997714506835143,0.5217875026518763,0.5553386848926037,0.5968446923929333,0.5753893201550954,0.5901725959930686,0.5611857920130061,0.48763092659848567
0.49899021908152136,0.4331683561053042,0.4831325089534461,0.4810440377127667,0.5688577990332435,0.5301756442088329,0.6133467261219372,0.5785627199439037,0.5541228976241863,0.5892837381838723,0.585268813260921,0.566810604113815,0.5151921703273256,0.5602794972220317,0.5104895590105726,0.5488101154455329,0.4373123412929745,0.5540945283664961,0.5257894771369909,0.6002387538366747,0.5579380026003687,0.5336328866824379,0.5120429932380435,0.5984022226032736,0.5360809718448618,0.5431501231497886,0.5924658141641971,0.6135647187027916,0.5955829042618405,0.5858846680017342,0.5683180239461356,0.5133313666454042
0.594584648846551,0.5682547319991457,0.5549428130583874,0.5820236944074487,0.59340740225267,0.5301718530650344,0.6256875212786601,0.590645616799535,0.5463774895035663,0.5842392551408705,0.5903604791707117,0.5518429645941368,0.5294351315967042,0.571596509003857,0.5593204825289984,0.5683638464392652,0.406691378454958,0.5744740312254342,0.5478189599816742,0.6084549309023864,0.5724941370871658,0.5483321686515864,0.5489645713476589,0.6072261565679978,0.5701931340469162,0.5379466607208239,0.5937614489919704,0.617663640551931,0.5782703057943628,0.5886753635775344,0.5945444787656295,0.5222360575710961
0.6111314344931768,0.5945688771469458,0.5640727127520397,0.588682130492215,0.5847015100240224,0.5504368385388239,0.6215784076560089,0.5754381882122255,0.55206742731915,0.5823441232501173,0.5822554260145213,0.5594229461024222,0.5476702874918393,0.5617537596595578,0.5464646177525778,0.5774119807051077,0.38506459478851696,0.5788843308198863,0.5700369187687182,0.619926717546785,0.59310363352309,0.5716148239271073,0.5736304931417735,0.6092708434961013,0.5803493103824698,0.5623039162056925,0.5958039490083062,0.6162285133070711,0.587636214672362,0.5987941632159354,0.5896446322195705,0.5801151350403573
0.5813722080623533,0.5488884401993043,0.5038305443023009,0.5397767594477546,0.5816746217257537,0.49698293297657986,0.6084878076518787,0.5737839280806756,0.5508965684418666,0.5768441975265433,0.5794380662721907,0.5600897113514365,0.5483551144246098,0.5627008185090436,0.5420819568421804,0.5892818358861207,0.44153310628735154,0.5737158618326027,0.5734884994708094,0.6157003004616858,0.5945374846876831,0.5545516175524094,0.5549571494583645,0.6190853817494296,0.565677711534162,0.5284057711515501,0.5793425656208461,0.5941360241212693,0.5580611766990269,0.5447373551068698,0.5507311266050409,0.5665381540102594
0.5436575458630731,0.4996011980435254,0.4721538252929672,0.49216179453459996,0.5546973638173562,0.4615834267404023,0.6104787531966239,0.5677228981531052,0.5777286717273064,0.5680094256135525,0.574064902551516,0.5512324636442508,0.5502237207810079,0.5538747704304845,0.5486384602824343,0.5815201270637019,0.4158478400599606,0.5675377642829981,0.5701675115200947,0.6107708111550159,0.5897086002212147,0.5542210210846342,0.5685222491050989,0.6276616594794028,0.5497297330003373,0.4757689037297841,0.5530854277401601,0.5903600253800498,0.5311787389799879,0.474672036939258,0.4740581556954204,0.515726132432716
0.5356993303415143,0.4935450106770063,0.4650266095511655,0.4858823088292974,0.5467563813040262,0.47364133274678283,0.6037080346083147,0.5751412407206898,0.577990056945875,0.5606413496387211,0.5858946696270911,0.544119067088979,0.5372127236518603,0.5297018459930876,0.5330956758292793,0.5223543834850676,0.419746973077934,0.5424823768491511,0.5551198290462486,0.5832476885228137,0.5555770227740962,0.5371609848620347,0.5574768042501353,0.6305217855992795,0.592313218753124,0.5160617072242967,0.580044284450804,0.5837811527929505,0.5552252611477623,0.5182158550212066,0.5044504581772872,0.5500649540270616
0.518538202783238,0.4795163417736799,0.44409694601943256,0.46243178138739305,0.5029768414106922,0.45671748427004205,0.6036899260566208,0.5567434337233145,0.5322708407381073,0.5634999065707151,0.5618440540645391,0.482963515317838,0.4843624571042811,0.46286510115647594,0.4766750384127148,0.4523386152268055,0.41308592160828317,0.47735377268240475,0.5179662683167727,0.5086421856268785,0.5210762646814172,0.5194277963768613,0.5450112718065357,0.6137812130558913,0.5644316994306958,0.5017891143997433,0.5767440792170078,0.5445166977759028,0.531028987531157,0.49945368030549986,0.4847437496642352,0.5418329955551257
0.530284776038917,0.5077820386771492,0.478041180638429,0.4874121866314584,0.5306294420290917,0.48799281843481107,0.607227730496892,0.5474904311186426,0.5426983293505145,0.5503203899743794,0.5624405718244677,0.5053531441515393,0.5149238614183212,0.4939417983860825,0.5110569776486402,0.5072558901489235,0.38737091059427997,0.5132624354007481,0.5270860789253977,0.5441981014052136,0.5489799852729593,0.5374413996577819,0.5641325142746877,0.6117961428094956,0.5711219604862683,0.4865656348234811,0.5600216933106388,0.5765382049294986,0.53672953393555,0.5097623343610959,0.46671099120480425,0.5396309960974442
0.5163365012600306,0.48942289509764264,0.45514987751033,0.4728420573003512,0.5203035171094366,0.482496243754593,0.595073439825559,0.5739035885766384,0.5544449712388426,0.564151784565587,0.5702716767347351,0.5255225695453879,0.5155011216114835,0.5045340299088551,0.5245061265594295,0.4970000314008868,0.4038057502386334,0.5204809355161474,0.537195351386455,0.5482619156561539,0.5589051290539916,0.5481231473195773,0.5779529367450943,0.6189708196211158,0.5834000929453783,0.5283682390613722,0.5739788700254771,0.5807521309197892,0.5467421253641102,0.5148841871068472,0.4772965326477533,0.5622961858566996
0.5006819489949902,0.45629856367458416,0.42343632064957826,0.4538363403699771,0.4909848704734072,0.4523068304268424,0.5906222329856233,0.5520984736089953,0.516752792930407,0.5598268959625098,0.5487627005442905,0.48965874898426937,0.4808921244923813,0.46113663126119636,0.476653157629562,0.4558527961361704,0.43066330236585126,0.47217590965456674,0.5175480753145528,0.49265013182542644,0.5287796748499018,0.5382732924656541,0.5535783707929371,0.606509057819136,0.5593688282124614,0.5053250189113067,0.5645221795834556,0.5104613996504856,0.5034332892714454,0.4481391382506517,0.43060373933710494,0.5318197309603085
0.5135523630252877,0.47092907225703723,0.41107997874607927,0.48872159285380357,0.5292319003484726,0.46134130143277774,0.5855593032804348,0.5530690945058492,0.5363993017839959,0.578961285475414,0.5817771668401709,0.5304135472251624,0.5086315658353516,0.5089358892708544,0.5109921658600278,0.49726454331690056,0.44324776331671717,0.5236243384747611,0.524243964072586,0.5455388907255241,0.5464957801303104,0.5539343181872595,0.5468566620078265,0.6188394203935514,0.564992633827483,0.5201105155718068,0.5709633907741894,0.5038480155109407,0.5407633490195454,0.5010401189342365,0.4742949373182044,0.5144675757913748
0.5244597175551161,0.4917642710947366,0.4366919810646736,0.4995107842874248,0.5156504342803125,0.4697721915764472,0.5563681167221777,0.5697020753788162,0.5297231824121426,0.5801572791143829,0.5708573424204431,0.507588418515256,0.4839303604854476,0.4664763802503042,0.48242295262167073,0.4561222065378327,0.42045922127620355,0.4874638241977596,0.5051497344783726,0.5044205952573738,0.5356622193324992,0.5464169598130614,0.5603572113798299,0.6003764577492692,0.5680487409248054,0.575579363482515,0.5856196634229585,0.5012008167404597,0.5626516073577618,0.5426027141232482,0.5290977786584764,0.5468904944920845
0.5404493780245944,0.49767836035029667,0.45156312859740627,0.5285282290928384,0.5478188580030785,0.48815466672986757,0.5563090168633107,0.5612593291483221,0.5161154465436542,0.5620064330102902,0.551857782560431,0.5054811226623623,0.4921985814428473,0.46415721021001516,0.46614851226953485,0.48844328796976705,0.4475847971238696,0.5171633072826889,0.5236250971308395,0.5149028756601712,0.5335413637292787,0.5595821738483494,0.5468818978948329,0.5941777480278171,0.5516174369231054,0.5703796319321748,0.5932309266881514,0.478341210046233,0.5676704706303324,0.5327107810054769,0.5331055303795337,0.5313188457525523
0.5224160769749188,0.4991797444602126,0.43255001800929677,0.5503329225412873,0.5220476451727978,0.48279164146735126,0.5611380575812622,0.557455829030332,0.506948113943553,0.5787950916935414,0.590833069228752,0.5582681609637006,0.5140518661899032,0.5265007280852616,0.4952793371973152,0.510801873771346,0.4489601268929433,0.5659333599425547,0.5562892468354693,0.5514944773073017,0.5624013660166075,0.5861884086085385,0.5321423789180243,0.6064150880862792,0.5627950585676205,0.5677711945702596,0.5506745631052057,0.4782975871184275,0.5586778145693851,0.5468884005572741,0.5516257874023257,0.5145449933083603
0.5103033461599986,0.49216136615222095,0.4515510036102726,0.5448715514949675,0.5234816763459557,0.5011525230988518,0.5638986473799318,0.5693629456446773,0.5083618934334625,0.5949828785169162,0.6114706723174428,0.5696978342889768,0.4982313454072646,0.5601585333954133,0.5063542657678081,0.5018607536656556,0.4834305961332072,0.5843159083479591,0.5924402592662078,0.5637419705245621,0.5460310609433492,0.5998983050961965,0.5655771890115756,0.5791702571088285,0.5739774931277943,0.5802990582398319,0.5601865247357836,0.48235767483295827,0.5543394994542773,0.5817140293864632,0.5650594061659501,0.524677945226226
0.491923702201546,0.4503467205375396,0.4084133263712708,0.5240992393783084,0.5293375357700414,0.46840152751491115,0.5825424285111533,0.5510142295482947,0.46893209838123256,0.5935688867269684,0.6161662564876876,0.5648037571311901,0.4904837861892416,0.5675219517448282,0.45469153253302497,0.5084903908028037,0.4816228447741363,0.5552510940663821,0.5934376620547971,0.5514842735508722,0.5050383260304366,0.5751846008764716,0.4879347450057306,0.5875082019316328,0.5655217932457227,0.5638713707070989,0.5617385621441936,0.43375923928605475,0.552349473905759,0.5877012323044828,0.5607272619901161,0.45088420147409025
0.49968583708071235,0.4831587023459721,0.4414489699657964,0.5321163255579034,0.5041633894142734,0.4905520675106357,0.5785744131855274,0.5270995590765062,0.4738547121253604,0.5738740416477284,0.6145682327513899,0.535408698867217,0.5061859099262099,0.5532408287855943,0.501666583333955,0.5003897336967861,0.44645550914548815,0.5765934917810391,0.5889062958721122,0.555497849526027,0.5512924061024628,0.5884430705479359,0.5087681058802817,0.5937824185771519,0.5813357714790742,0.5653003876580224,0.5371648743398365,0.48999327367607787,0.5717957803206876,0.5854720584839547,0.5833559102160293,0.4463599625157629
0.4966016627722785,0.5035797130050964,0.45676122927007545,0.5308002391440134,0.5218477152606192,0.5014106274025628,0.568302675904884,0.5033441747302565,0.45189441262362096,0.4927911264830199,0.5917408749154693,0.48630120841538677,0.4584876273716054,0.4726867857400052,0.48872499992016544,0.5016887801100136,0.419316166564734,0.5413889347228035,0.5942035354106501,0.5324448793718042,0.5137351870576825,0.58178222612333,0.5033565243642597,0.5824082662576097,0.5301010005334366,0.5903192185095695,0.5144355371929696,0.46168476282114385,0.5360486868387155,0.5534249030178212,0.563693954228254,0.4578633369546254
0.4802649989691568,0.4873739428047644,0.4419410375681107,0.5278106236070711,0.5132852298455443,0.5015090256506819,0.5624567146300582,0.48160117584345224,0.3877296941641952,0.47907679141569315,0.570301690360999,0.44137351219675525,0.4339849537393407,0.4525686787070332,0.43841147162697125,0.4602284657534114,0.463560838305402,0.5124709454513384,0.5765624275076622,0.5156503514412636,0.5024652187051257,0.5485933200261032,0.48896588447016315,0.5929131020692759,0.5489690271380363,0.5721120608421533,0.5398464374235432,0.48031070855779306,0.5451656679325706,0.5511601052221639,0.5392143578549957,0.4623021583988908
0.4762680096084705,0.5039047598434421,0.4419939126151572,0.533326927660474,0.5199400022062128,0.5276360159483581,0.5397164597803698,0.49945376865456825,0.40628777284148365,0.4858715541353375,0.5689888395056115,0.4682798473921753,0.4727322645819311,0.47865762351775754,0.4317540743749273,0.5054026463975583,0.40996164695017706,0.5268670537622642,0.5625152201006105,0.5112021549621493,0.5061231061283104,0.5515922729079148,0.48650944958856085,0.5870168069595358,0.539017181942213,0.539843081926994,0.5158903369892561,0.46171691674182636,0.5048288402830561,0.5154616313723113,0.5224570315035592,0.498309646965425
0.4675451213405929,0.49133510826126414,0.43730840106916913,0.5135028980212515,0.5351273130562166,0.502053783537117,0.5445540180733893,0.4796223441963411,0.44208802633882655,0.5022782293690983,0.5695073428018185,0.47544442371215856,0.4514862021793753,0.4737500237127542,0.45983902172456137,0.5079523802864442,0.423574503382894,0.5234547344980026,0.5575019454247258,0.5118970372306897,0.5097725793079754,0.5484553447181558,0.4682558675349656,0.5917017041857785,0.5358545649276946,0.5461002047447592,0.5287135016093854,0.47265318425198866,0.5006108038169901,0.5039285563671132,0.5063427109158044,0.47600589125478115
0.48909382648550964,0.500598176200348,0.4509466971701998,0.5347347628843924,0.5320856768480119,0.5225033933424261,0.5525226894019424,0.5064332168286655,0.4617829207028648,0.5065632640287833,0.570534605014699,0.4996665632908306,0.5037572849297266,0.520302933806942,0.496567971712551,0.5408185156357096,0.43397892708446945,0.568941702717476,0.5726297689553562,0.5519390143391365,0.5218300571288734,0.5787193005035597,0.4943402151303334,0.6202791000345107,0.5703494348033321,0.559962418660491,0.569236572894387,0.5436371921214378,0.5492713020713752,0.5235721803511018,0.5180176055836397,0.4843542416682097
0.5160459081699781,0.5392807350661876,0.4835375661181193,0.539242151990149,0.5396804984417976,0.5323775781799011,0.558474780522777,0.5113653709696512,0.47216532684211704,0.49061167346796897,0.5645829290914902,0.49743614903511973,0.4916056233408592,0.4825457889661336,0.4701659581006153,0.5373803757887117,0.4080366672761589,0.5385389272597524,0.5563682653325935,0.5172521428461463,0.4858082289209033,0.5669324228346541,0.4304579074867102,0.6033270760493353,0.5373301683491849,0.5442672654190197,0.5272799371401853,0.5128574209825524,0.5124646990674536,0.4979201132587789,0.5257907417459977,0.5179743365624908
0.5269796911952419,0.5487220202788927,0.4817773306025464,0.5547365487154916,0.5532502305377142,0.5395339441807456,0.5620382058534984,0.5275989190553615,0.48567867511099005,0.519860986138911,0.5839652230650494,0.514727018895384,0.47523201681222194,0.4924949193577979,0.49850865082462964,0.5007249234751702,0.43018915809538627,0.5337372064872968,0.5394877500322206,0.5093918978142861,0.49322574953722054,0.5649940977248922,0.37676171503853656,0.5987048607528963,0.5471479399627118,0.5500466756110932,0.5262214426208497,0.5258919960777915,0.503989001400641,0.48106014012804066,0.515608596629672,0.4920068679446883
0.5313563151746773,0.5487025135253566,0.5101175800250441,0.5548495884778184,0.5517527389604099,0.5580330624117682,0.577594997809768,0.568949703756099,0.4777072076566774,0.5287910481820552,0.6037291859760422,0.536081124649238,0.512733933578398,0.5301537918903739,0.4644191407510567,0.5244522758388201,0.43241937274696124,0.5415401929611919,0.5489693850678691,0.5152705571489283,0.49733217389044304,0.575252677782561,0.41155001230963,0.6027000672990027,0.5555573512421962,0.557881598618381,0.5418142694243561,0.5406035803761405,0.5222475312162242,0.5125448990387874,0.530182046016441,0.4941308392811107
0.529109225098087,0.5464337659876636,0.5388115175184117,0.5453716014604149,0.5431278542829027,0.5682135167973197,0.6124422051848667,0.570295215264165,0.567064071863738,0.5828297724296049,0.6250264441077726,0.5508236859861315,0.5618076713147008,0.5579667203439364,0.5311226743637677,0.5501342085531431,0.3899926410978174,0.5549386557160357,0.5444442113450003,0.5491821520416333,0.5351670938152946,0.5813074608931647,0.40445340668659685,0.5926297069565987,0.5637442245072629,0.5438360950781189,0.5116422532331691,0.551103428884888,0.5098276178552781,0.5083958769873018,0.5226591607398325,0.5174324379881642
0.5567814129757097,0.5605299953634046,0.5521201806551881,0.5748322399621932,0.5430161649610724,0.5832590066111847,0.6116536788027462,0.5970825369492287,0.596805888107558,0.5919999389641911,0.6150783797109162,0.5784149784148793,0.5675523386717722,0.5803113209963512,0.5943019581975221,0.5898459688431048,0.4126718647525552,0.5730921563024347,0.5252174683450926,0.5569149120465064,0.503365854678609,0.6034925102079164,0.37785149920523853,0.6029350976766596,0.5604657925127788,0.5349129281227556,0.5288200913752404,0.5598988169366216,0.5272527069855379,0.522379342731423,0.5378140357808803,0.4365470082760586
0.5890326108175257,0.5898353365542198,0.5690317574772659,0.5852639960707023,0.5443756866131758,0.5879996413453503,0.6227653902076058,0.5342366800446771,0.6014810182312909,0.5429466562967736,0.6151920467899034,0.567877481918494,0.5345592759217058,0.5583252113007253,0.5493630440203464,0.5218366300674556,0.4186617036551083,0.5298548201851815,0.47407161892943767,0.555134685531548,0.4966884935197777,0.6006060270371755,0.3865410242245281,0.5866382707132376,0.5760276033266841,0.5434370570338001,0.5122838042086436,0.5834935848215866,0.5360693557948939,0.543850162125157,0.5562108461554368,0.482241352594548
0.5781782706029233,0.5890438008092437,0.5687955022140815,0.5998613390678385,0.5535642456466985,0.6215659039675209,0.5767764548330635,0.5021393918362524,0.5928947848827992,0.5053756101927472,0.5933735876091925,0.5042602407066945,0.5368862922015815,0.5020668477340169,0.46368765306833837,0.46382008380807455,0.38830807784543225,0.5122305224244688,0.45309098918602725,0.5355807153247645,0.5003492927563477,0.5918243239819738,0.33010678602227655,0.5629056959009641,0.5424838993553224,0.49256618553475556,0.45714769645491,0.5549736292653248,0.4804626889490012,0.5152899912476112,0.5343428506590994,0.48875808133490256
0.5941891155186277,0.6105583403483109,0.5776630927001147,0.5966994180039475,0.5482736966995095,0.6169340992273438,0.5939023116122447,0.5301051043217907,0.5827982317567076,0.5202625027020147,0.6071987323800805,0.5214578085933144,0.5680213108739224,0.5255295002691673,0.4627455353522733,0.5086712617900915,0.44433450070988423,0.5314371603203468,0.49790470810575066,0.5647802600277253,0.5545029687265607,0.5900043004056917,0.3929463822265435,0.5885988442077621,0.5458969134157036,0.49579040496384624,0.4608310465502985,0.5405961098797655,0.5134884897746684,0.5434533739719559,0.5317124066430648,0.448209589186629
0.587010438508089,0.6000745977831762,0.5864740849540653,0.5910761884482153,0.5591367633640012,0.6114570930561074,0.6074888505368305,0.5013807258053308,0.6000808037230999,0.498783810453871,0.5997513507751278,0.527084188519693,0.5803700433186109,0.519102810946101,0.46869919295600093,0.48689474831522916,0.4840178512439594,0.5339358225215394,0.482366923561328,0.5906877941830566,0.5670661125277977,0.5946574121827353,0.46714383460645625,0.5802723518292904,0.5648993699758817,0.5243976836101187,0.49311526230906544,0.5457408733801482,0.5558583928526716,0.5725669018196475,0.554668457869131,0.47182263334280833
0.5491497938732915,0.538323089064927,0.5532408775947044,0.535919000887617,0.5292188237457389,0.6166898643091137,0.5861679696672357,0.4640230948831557,0.5826591299293309,0.46629002233232897,0.5598944236868811,0.5064632782277306,0.5977818198423811,0.497293582828516,0.44601120761909757,0.47611704957809947,0.49142675434030236,0.5733877103376055,0.5568719235140078,0.6139720467740142,0.591267885940327,0.611245940258236,0.5094063629624084,0.5997491887294653,0.596955090595195,0.5334468458006543,0.5116804586591613,0.5559735830427367,0.5673559246112808,0.5749794138788753,0.5198828962392289,0.4973412246643362
0.5420346893761813,0.5167637112564465,0.544228529123828,0.5026887456143163,0.5077582932151937,0.5846152473763139,0.604579900662881,0.4549000133566147,0.5731922472974795,0.48232295901444266,0.5666264613401629,0.5502888879191034,0.5908688732727235,0.5411410649133374,0.4663932377772043,0.5301878673901556,0.4852628487878432,0.5825853317100766,0.5563069275123532,0.6133913845692516,0.5865022473351535,0.5953848604507935,0.5539918828103461,0.6212858944223115,0.5871188430592504,0.5639573000201017,0.5281937326870942,0.596404466699185,0.5848200657319588,0.5634014085028961,0.5359077071472439,0.5048722000084334
0.5519845412900326,0.5307624364402004,0.5633483815883487,0.5179339587847769,0.5528908381317665,0.6072688317987869,0.5871633489296186,0.4498473224812526,0.5448970341341209,0.4928181007641499,0.5645957210606357,0.5347007986669529,0.5716513959983157,0.5355427010217207,0.45922941058911165,0.5135546978041222,0.422476920968252,0.5736747401767665,0.5341629928465431,0.5900622843731801,0.5640478893428784,0.6047815992860539,0.5838375383502428,0.6179153913513227,0.6126095168884289,0.561116535451977,0.552295385256308,0.610488744645797,0.5819020597149165,0.5689318146664554,0.5402492544580599,0.5467979382715907
0.538974952883613,0.510844779754512,0.5483532674175898,0.509247843249625,0.5318106862316198,0.5989980771226916,0.5955010694626621,0.4694101160785477,0.5428524660244717,0.5018175575886733,0.5676379136411479,0.545144963334117,0.5699202962308231,0.5440748829453766,0.4600842786383381,0.5370725635009709,0.43783217842581795,0.5862992430920397,0.5880628138385772,0.5992439700831997,0.5870553571223742,0.5956113243371829,0.5903616317601197,0.6155032046042076,0.6123360609103188,0.5529872707786696,0.5661830622573716,0.5918382045094431,0.5895228935858337,0.5536187750598404,0.5312990952616127,0.5496337539489043
0.5377959606078541,0.50986345140905,0.5466918564341542,0.5035310972275024,0.5186356677636114,0.5802726064212281,0.6032720125552562,0.4695490167709246,0.5404518389024622,0.538897248279283,0.5926810365975973,0.5577433670051937,0.5703924214164771,0.5737169446588686,0.506261889962224,0.5911880951480314,0.4353508893115734,0.5932899488019012,0.5831784267151262,0.60480187461887,0.583278874271648,0.5866680937703206,0.5898375396733327,0.6194976931604876,0.5899430723993293,0.5739200481148942,0.5784753773733472,0.5981713712565061,0.6019747125776619,0.5436314263362996,0.5415517458638833,0.5504191306170411
0.5431502686006916,0.5058105514030132,0.528075127316434,0.5017654608405703,0.5313137314618186,0.5780511141659477,0.600401061052186,0.4687433436184684,0.5222059293812907,0.5629408564776718,0.5852962105155298,0.5451461685422818,0.5584921041342952,0.5620203849008854,0.5159396607943123,0.5732806269812663,0.3986952180313622,0.587966877002933,0.5769826101199359,0.6052389151696212,0.5914800847550801,0.602606205427516,0.5910641014612282,0.6202827458042558,0.6065170067218055,0.5614864431144264,0.6020730878833629,0.60578257973231,0.6137220374010675,0.5556193921166568,0.5414885227673758,0.558614599295297
0.534051103896119,0.48040283228530506,0.5533068179187273,0.48770803304490407,0.49269610837108246,0.5922017122064518,0.5882148433979891,0.4872588114575748,0.520994114751255,0.5462262441005745,0.5753588613468626,0.5434780432934552,0.5521381384129312,0.5501935687285695,0.5138713985750526,0.5822993276314807,0.3701254634566411,0.5912168292495689,0.5764278687538491,0.599248265068433,0.5888954091894373,0.5898614354625791,0.6057242769510668,0.622564220832674,0.6032065269513188,0.5583219767347328,0.5893389152519963,0.6173089445616967,0.6116296912316674,0.5604837937830138,0.4968600027382637,0.5690522831390153
0.551806724779526,0.5192179213142026,0.5498770751297503,0.5327262759343304,0.501123716157588,0.5931900259211124,0.5819695866122285,0.5257231213345729,0.5235953351503556,0.5662155336939777,0.5843996568095685,0.5342636689526274,0.5460028611760585,0.5488096624927529,0.5432768409511906,0.5888970893696672,0.3558910786433956,0.5682704198806761,0.5557722876365075,0.5990431424447549,0.5659839127248628,0.5803728038165585,0.5828504247577363,0.6116562766931254,0.5945235601732934,0.5592971463009221,0.5781840196886292,0.604504979324557,0.6082537181796445,0.5712131364332659,0.5020750279002701,0.568278805367078
0.5614739653127536,0.5350286705030036,0.5411561371309488,0.5414756367274361,0.5304522831572943,0.5951731273474511,0.5895879589527926,0.5791245241103928,0.5341140632953502,0.5853310946253404,0.5967932410822254,0.5239099767091918,0.5321271190989972,0.5392131595097008,0.5432915739066115,0.5646456584031075,0.3506900971985285,0.5581581084376828,0.5530060315857431,0.56839148195096,0.5735597667266727,0.5725589702423709,0.5472513891842655,0.6186482644207435,0.5764257280444384,0.5589458365561362,0.5940070899905584,0.5991138098753684,0.611138641845078,0.5735051340593261,0.5297712120901836,0.5636058319281173
0.5638890961950889,0.5409780302682865,0.5570232204953096,0.5483748334362607,0.5066833576660795,0.6089130012755606,0.5730980943484355,0.5775985958822313,0.5527258637495223,0.5859152326670117,0.6089780844761066,0.5248717515051848,0.5503303373674536,0.5458957611757083,0.5345511230881865,0.5491512152733911,0.3506365812489351,0.5583256799241213,0.5522137253919979,0.5898029593459361,0.5676323265882731,0.5852970189416159,0.5805666128262913,0.596075084233369,0.5810255401338419,0.5584009326152876,0.570878284556062,0.6080923816190414,0.5995120255566566,0.5734588364868994,0.5000986603682614,0.5651065913596326
0.5687983549091681,0.5561989503604945,0.543115064551883,0.5559463441401624,0.5206140709674278,0.5942475624164437,0.5960189205148844,0.5697824353650257,0.5696231510609763,0.5816053660054822,0.6099901133391182,0.5414920043357787,0.5629188227232153,0.5594029000983587,0.5297651638670494,0.5478116768861518,0.38142729526401165,0.5619550942063933,0.544827369529886,0.5819349917451617,0.5641641916033344,0.5551423298928502,0.5705771563084852,0.6228918599636761,0.5817041976822832,0.5743250325558917,0.5969910278123225,0.5918621924063934,0.6135544716359788,0.5820691977014245,0.5100002762897373,0.5830754807930205
0.5745358594899104,0.5564919241756004,0.555738450751936,0.5642234804407609,0.5412939260147328,0.588198248150505,0.5794292963056421,0.5905871753415693,0.569576057491057,0.5752188158221242,0.6019559047444009,0.559632140714203,0.5525342668813729,0.5458215070103868,0.5019302177693127,0.5393747098670562,0.34676095426341585,0.563749740809699,0.5515642187286445,0.5720101668825127,0.5619055182151199,0.5676161533633274,0.544009924996963,0.6158599075627677,0.5788639811775638,0.5797568148318539,0.5959001065814208,0.6159386404357557,0.6211731599123704,0.5994392782122244,0.5342161006877874,0.5694401566070829
0.58236021190131,0.5846025003187891,0.559812102376516,0.584818647816398,0.5298524860247429,0.5709165500064306,0.5548669942141932,0.5742416969287361,0.5673565193104413,0.5435742622132429,0.5716182563280701,0.5662424773074697,0.5387476090678346,0.5370438259343155,0.5093834199400277,0.5178551343535616,0.36390926640587007,0.556026134633118,0.5409142703406246,0.5976289842912923,0.5710435302802243,0.5533502226729479,0.5749701207699851,0.6218399719883175,0.5991182314420773,0.5705029764820674,0.5687007162423305,0.6056707741302212,0.6092644830623283,0.5947541866447436,0.5391718388846125,0.5818823295824785
0.5642052360389435,0.5750616974951802,0.5556362273377414,0.5727891139126854,0.5701941267871593,0.5812457038728785,0.5792948641613842,0.5817968658057738,0.5544740980404911,0.5658830227376271,0.5896405699914494,0.5434209576109353,0.540201239498228,0.537907274072598,0.5156672449339866,0.5361443537443923,0.4052976720311813,0.5601477219753659,0.5494969626422715,0.567083510383006,0.5394133138276088,0.5331582517188604,0.5290902122472789,0.6280184374397498,0.545011129203884,0.5281896697582629,0.5837831294741007,0.5821752218286552,0.5762606415361957,0.5721540941091463,0.5620101483379013,0.5627389083932828
0.5627164034625772,0.5746181730596199,0.5666750639541447,0.5682196359038565,0.5908205583628405,0.5793678394162608,0.5919300945337261,0.5821916635834544,0.5510559192827115,0.590848969705317,0.6039901405263669,0.5465541285074629,0.5237453521954659,0.5054069919452363,0.46232793283347623,0.5363427414883537,0.3777218358601423,0.5463905354568064,0.5459547057877671,0.5790481149170941,0.530829986709893,0.5203813356444698,0.5080607237359388,0.6143544538630599,0.537710057952535,0.5335187304081633,0.5808298694511912,0.5835900081264451,0.5784581788406056,0.5641595877940128,0.5637104091564171,0.5377093033654766
0.5529334421684002,0.5543682947867615,0.5532571305605058,0.5596673618679463,0.5763672862116004,0.56180843142156,0.5904281588692256,0.5628758863342568,0.5577961222832029,0.5607057408398288,0.5846487054553666,0.5512156170599545,0.5447823021634937,0.48498829872244353,0.45105811583037864,0.5242179638462644,0.4113783812616723,0.5416938574630359,0.5659057167861113,0.571911154800555,0.5482886139604581,0.5166153601711228,0.5094473254915716,0.605694202118705,0.5359978713220229,0.5228729405578485,0.5661221710435744,0.5735477187219645,0.5636679183507519,0.5578683865943138,0.550570573892674,0.5635113133963788
0.5596471350263532,0.5545894255926054,0.5434524962049847,0.571962957659087,0.5767145711579276,0.5826948421616839,0.5932057139688174,0.5766679092379161,0.5519413443838761,0.5679944384538644,0.578677986288101,0.54344844472551,0.527750878708933,0.4874574622613329,0.4499198705940325,0.5212645613430175,0.43421813141398613,0.530941649539211,0.5460424710784872,0.5650147391384668,0.5118940219469555,0.5107120118192529,0.5021079655936991,0.5896740967247496,0.5276716205137798,0.5243651992060521,0.5657537131218356,0.5722096358129966,0.5707807636895583,0.571024766717765,0.5583470937743346,0.5638451736925032
0.5725834397633582,0.5668751899648407,0.5694100923478067,0.578979203475041,0.5822124688611785,0.5779718574149382,0.6082743810625201,0.5602036698635234,0.5462266802085848,0.5763562042540018,0.5844789841009079,0.5385760857685422,0.5148431893918435,0.47328943083500286,0.3979887476155937,0.5055161737582542,0.4297607351074889,0.5141086636096261,0.5386204493811659,0.5777854263752894,0.5365541295888832,0.47381901696524664,0.48084632584435527,0.6174231137358651,0.5388447799061364,0.5227946753348304,0.573226828700424,0.5742727448735256,0.5834788916701636,0.5716554790364596,0.563755035577439,0.5341552036310835
0.5549203303108756,0.5454527685010365,0.5620872446812675,0.5599089564880203,0.57466726031348,0.5757387873688816,0.5987967178146004,0.5427741566739752,0.5510775811931794,0.5654205014131908,0.5756564226874871,0.5186170210252661,0.5320498596647876,0.46069490865494794,0.3944896589925576,0.4906973725085637,0.4700483331143192,0.5168304498313504,0.5417394766102953,0.5688013070575229,0.527745450251635,0.4824701271464447,0.49750004547058196,0.6141078789917775,0.5388709759294164,0.5230056320488484,0.5670514769271676,0.5557624591237033,0.5636764853884675,0.5486310713574999,0.531556809739935,0.5353154550615692
0.5777932792918489,0.5542874889879978,0.5607605682448425,0.5640783370622635,0.564728634689698,0.593511815412624,0.6186884190108176,0.5702394512919161,0.535701961658534,0.571099042733653,0.5650867435079973,0.5009092974083631,0.5290353545544563,0.46075629512142324,0.40799958054725965,0.5045736289539269,0.47951423745466104,0.5091044241994922,0.5400363397225001,0.5706283053316296,0.5248514087630616,0.48670559641532496,0.4894845237670678,0.6038623688207156,0.5479496449623622,0.5284083428585361,0.5772264237494016,0.5552179902890737,0.5773883352206178,0.5619147776206967,0.5498317543107349,0.518113891644773
0.5697134964501298,0.5451661588664188,0.5640434607870235,0.5641270372624613,0.5751721713453831,0.58615556088695,0.6205969568662313,0.5573318166798388,0.5510899196368864,0.5679577312446177,0.5826113706141454,0.4788983849735365,0.5390596562071873,0.4368081551355355,0.3539978593925643,0.48462950191682824,0.4875639021184276,0.5047887482143575,0.5441411820827478,0.5678894228398056,0.5466541803694897,0.49282106865939,0.4881053299977221,0.6114963299950246,0.5661809303793609,0.5322111428158244,0.578364594703838,0.546983082066915,0.5744100027413399,0.5480311739547931,0.5375995426379615,0.5218965063843763
0.5637052372134076,0.5522081282572803,0.5514551582538811,0.5617758517278281,0.57733320660646,0.5940713095326121,0.6140637829222276,0.5716291623868777,0.5391172775536119,0.5654703537134453,0.5586568523210318,0.48874658672660437,0.5444844775597636,0.4475247138239015,0.3831864305048516,0.4794955020822096,0.5072689119574693,0.5047925143400568,0.5488847332733666,0.5720668358086298,0.5491171524276325,0.5027484679586108,0.5093224563466165,0.5963096095447303,0.5816253440810768,0.5352902431135634,0.5819590073562905,0.5277984939236299,0.5712757671715225,0.5216447620505488,0.5240380109578042,0.5356223286252151
0.5476106771229327,0.5525144598015157,0.5533303042095634,0.5600141812461951,0.5430760345725398,0.601179224440258,0.5971217108129728,0.5453025029620204,0.5200989781026376,0.5828527164198252,0.5628313002090839,0.4991716335291893,0.5477145585351888,0.4794758592026573,0.4001852150757982,0.4797325457585588,0.49254447808152857,0.5095105462246157,0.5577150700130259,0.5873857864688956,0.562969000780357,0.4958591237938612,0.49183531784010337,0.5994221852898806,0.5830968473192649,0.5307888306743437,0.5855882104442929,0.5633303402560802,0.5697359762629615,0.5185395197208212,0.5224729967037032,0.5393327894568797
0.5513134822273814,0.5574150065696923,0.5798132733091026,0.5794579642429262,0.5604259418005578,0.6059323463759423,0.5891654164255538,0.5452318843781172,0.5446550981192436,0.5863372355783568,0.5973074774112516,0.5056722042383317,0.5569856865439649,0.48880445989746873,0.39200934393496,0.5067481862980102,0.510550963723868,0.5242994989137459,0.5621982751584038,0.6057162731527632,0.5799885893383682,0.5286532145918222,0.5243783270765021,0.6269771161309021,0.5864470122593016,0.5450557198226795,0.574009070914545,0.5951523682637374,0.5647798145146752,0.514627644410165,0.5314002131397421,0.5476236974053778
0.5777670889445315,0.5824068478774296,0.5941004738431539,0.5883671234361776,0.5509399030649804,0.6090208972450956,0.5971137986538269,0.5692979789537502,0.5462680677183879,0.5651916910990503,0.5970850314514041,0.5269437584014919,0.5371770563841031,0.5220793320787146,0.470249295775479,0.5314252078154591,0.4857566946895282,0.5380437116253832,0.5448098929260404,0.5918676538767111,0.5647179421744513,0.5165214631044617,0.5348782307139328,0.6140099363310015,0.5708861682327809,0.5489470793453375,0.5830678868781641,0.5887139559126066,0.56967183739601,0.5396609366827291,0.544250804866443,0.5320365968877533
0.5307636759985407,0.5533511504757755,0.5610427995783498,0.5512033254969546,0.5483591398783866,0.5925612077510841,0.5745928660775748,0.5475655465669863,0.5760764072217844,0.5575567400115364,0.575371886542108,0.5298878025028723,0.5343886992976582,0.5205637612133898,0.5061028682932011,0.5320008019422638,0.5037737318566384,0.522975907146291,0.5125802131876169,0.5582761959528927,0.5284231453754159,0.5236936677563162,0.5161494874453214,0.6005148805823687,0.5687588710228482,0.5516925069485556,0.5759896478720389,0.5799526426733415,0.5592649259799044,0.522726995240084,0.5407687621508444,0.5549551045610919
0.553550894329592,0.5668393570796436,0.5792190798593588,0.5721243780231057,0.5459812313671333,0.5992462676649131,0.5775569943369243,0.5960383476984846,0.5638591954527462,0.5729568359768826,0.5936151939536342,0.5542554937303776,0.5425553863803042,0.5313208808281222,0.5328975753756738,0.5360454740076352,0.5260952481945135,0.5276091070730955,0.5399063864315613,0.560921341816007,0.5573492060698371,0.5521058299667668,0.5560417160234197,0.6152864981395082,0.5606708693379727,0.5604692949510173,0.569774048652898,0.5720922637482946,0.5517943367834752,0.5113594338792685,0.544381251461267,0.5616907949680111
0.5229121787968705,0.5452470704817769,0.5428195437637141,0.5442411199181586,0.5319491307268608,0.5617459956082027,0.6000520644279722,0.5466145550508869,0.5706642339543067,0.569761868878307,0.591271069899502,0.5524342469086789,0.5195030920036491,0.5210087253337307,0.5209183541630599,0.536820673415218,0.551247687993352,0.5209379798872078,0.5280970491320865,0.5469773685897003,0.5491453704212265,0.5281220363913204,0.5443055839365107,0.5979431168895379,0.5433316867875669,0.5484295131216589,0.5630623293392291,0.5925785214838991,0.5404947481068049,0.5128876706225038,0.5243305965910613,0.5586683701677787
0.5070401581255068,0.5282174473860202,0.5299405775304821,0.5208165877656122,0.5252183390670973,0.5791984650420804,0.5931446388773371,0.5014586020478106,0.5492240136402525,0.5704187911026851,0.5835975306657347,0.5569917784594647,0.5542914619280914,0.5434111565535031,0.5386379875481916,0.556643694645534,0.5276964354160846,0.5359708831016639,0.5436998844100893,0.5551207076647757,0.5580519018589964,0.5676500483898288,0.565265768830416,0.6181565060740979,0.5706455076110161,0.5568130737739837,0.5790194046751219,0.598176355021471,0.5480916201134922,0.5025802296839549,0.5211941087472596,0.562866792738162
0.5048008080956149,0.5368712222286129,0.5338334440218283,0.5218770534258985,0.5198931342227784,0.5612746817280725,0.5900054412135471,0.5190075978693681,0.537843026591456,0.5690668169691422,0.5800799787263622,0.5594579563389507,0.5235508424520551,0.5275136669273336,0.5195745835759958,0.5320842053817544,0.4942638963411454,0.520451188858269,0.5313579242776131,0.5205193818415699,0.5525168294490973,0.5578445578149934,0.5634864904718307,0.6036822915256715,0.569400280800868,0.5418686153121997,0.5617984882583666,0.5706822408798097,0.5158271632259139,0.4874971801432308,0.5123412311075983,0.5302739460558119
0.5330716625579911,0.546674562257877,0.5330673353554403,0.5412532522879564,0.5289320310484488,0.5659748171894255,0.5932372940940117,0.525650123072447,0.5500519578177716,0.553870628963138,0.5595379540582475,0.5401994426913962,0.5178792742460453,0.5205739302893747,0.5074922187704497,0.5299049629727106,0.5335444182183869,0.5274909880122852,0.5326736571680155,0.5232054966034375,0.5412238384388304,0.5545657739351217,0.5238870348905033,0.5952573372998867,0.5610050243719588,0.531852326516362,0.561988217801323,0.5845875891326054,0.5410378185219079,0.5130121711906086,0.5277196625060275,0.5700004138880232
0.5170883298860893,0.5460048470046296,0.5406580079232217,0.531568692982634,0.5110728135399896,0.5759180287558986,0.5999563928556457,0.4901562167106233,0.5373900327240788,0.5775955862264152,0.5765362455715085,0.5624586519034565,0.5356702376423491,0.5450636432406302,0.5463978482936274,0.5619698484829327,0.5025649567740057,0.5517409650217145,0.5552719137744485,0.5383824982892572,0.5627888591581492,0.5584402178956237,0.5473261094642753,0.6175737375896359,0.5842424289053446,0.5270482599189364,0.5754976612362952,0.5780292589913525,0.5421319227701384,0.48874347961681175,0.5039865445677764,0.5676739869163495
0.5231919127863573,0.5439391131297564,0.5124124211296754,0.5328080870685876,0.5380660733248509,0.5542830438400681,0.601528375813973,0.5418070435949967,0.5336233843815836,0.5876400305820225,0.5780476287207518,0.5469191967068769,0.47539113845049247,0.5319714692082571,0.5390252710740955,0.5549094428191622,0.5098158763526373,0.5502358443324641,0.5468877896863438,0.5488188714370082,0.5765594204670719,0.5523865910217393,0.5320275129342531,0.6169846174973241,0.5933238841467494,0.5289556828338077,0.5858624284709998,0.5901955473865231,0.5476267337493211,0.5121114092779365,0.5255782419186014,0.5350727928279138
0.5394027403788003,0.557904673257267,0.5326464212003751,0.5584873675968978,0.5778267807658459,0.5783338337248686,0.60549256068116,0.5251376600718131,0.5223809513589498,0.5990807371286414,0.5733103493278664,0.5590027609601488,0.48661178595322596,0.5588603813050304,0.5466297819737503,0.5717696119017198,0.5097796770710393,0.5587388198697374,0.5599709580976264,0.5659119269106977,0.5849579225298531,0.5463569252163724,0.5334410226819664,0.6163695135333498,0.5961207089000227,0.5184729779392487,0.5838422443808989,0.5880901281006451,0.5734259281718417,0.558927806571071,0.5518540704419413,0.5440820608780423
0.5386521950552784,0.5535223265509516,0.5138743413315943,0.5688524814076596,0.5744006039186429,0.5791016462832829,0.5916150089986704,0.5012192976639053,0.5077513528660914,0.5806359294099982,0.5837156497683162,0.5353277960819576,0.46454821373768607,0.5128316087821883,0.5453283309081118,0.5575920299265407,0.49474998017734856,0.5430613163593929,0.5335663766542624,0.5549611966114243,0.5737432381510238,0.5386714214767996,0.5439001842841773,0.6131998476734749,0.5843439528066589,0.5443081109916224,0.5955211327627368,0.5595074257331153,0.5839106656801907,0.5650430051010522,0.5660520309145128,0.5272866125898382
0.4642845523034736,0.454879600278361,0.38929943261929423,0.5140719661724983,0.5541613159878543,0.465538423152245,0.5905197251698823,0.4951603637240497,0.47858813156193136,0.5736193234784785,0.5962450758400327,0.5040644892118625,0.44851416737718947,0.5151526195893681,0.5224371015086805,0.5433939814080817,0.5252244235818194,0.5555244895555025,0.555279725400522,0.5609609631957007,0.5407775855544897,0.5269547734555776,0.49211869447757955,0.5447337530237497,0.4537925468453983,0.5088567165712584,0.5766669433951502,0.3999353715910135,0.49629386440918083,0.5320324463745759,0.5682672631947083,0.5241731488413147
0.40482382915158294,0.39036038602274664,0.3130608301965954,0.4672637569185637,0.5152111111713251,0.3835960938296679,0.5737943257160175,0.4491203544002832,0.4490409453642462,0.5589457208740234,0.5975280289161861,0.5211761024890512,0.5091705842176208,0.5421442927120859,0.5564558166433556,0.5701954718583111,0.5068060381846808,0.5671001746990219,0.5914972458648542,0.5451525171168822,0.5061025885906435,0.5389955889764219,0.42297515990587115,0.5315771009907619,0.39015132326066204,0.4810589964579925,0.5286242187554507,0.3155235587541821,0.43939227802177994,0.4915584722117948,0.5444032753554456,0.5010847892977724
0.44482633703764224,0.4438572268558379,0.36775659708834263,0.503219847417595,0.511559101551413,0.4566043586904003,0.6001910503823092,0.4750037104891814,0.46835920370815554,0.5525775805826595,0.6020022573643083,0.4836126217042096,0.5491632978577584,0.5112711168131119,0.5511795296843421,0.560184915689779,0.487920291525629,0.5648475811321807,0.5868947288860724,0.5892321033168719,0.5724837337363107,0.56268176995418,0.4691150581339038,0.5734131854151788,0.4660012458830651,0.5199353462754888,0.5679157332466018,0.39580844830401496,0.509985219937057,0.5326740716980516,0.5557625633346213,0.5375227846851761
0.43089367348437585,0.4163458868675099,0.33775475461374277,0.48511487875830783,0.5274557275210586,0.418515125634636,0.580613500949076,0.4826361122050109,0.43501608857478336,0.5549110638880059,0.6019511299739512,0.48550196796355555,0.5005664707306791,0.5133806672765251,0.529329194724342,0.544817182327919,0.46025171822304173,0.528843635561436,0.5571538778651516,0.5608038302324715,0.5070944041148671,0.5344974936551196,0.473201093500385,0.5376953828097601,0.41854500288251145,0.49258385214405664,0.539489102043345,0.3464341893989652,0.4671834669317837,0.5035165391631183,0.558903017131888,0.5155096345877062
0.4259925885373408,0.42075358591650575,0.34292629506578115,0.4895079635419786,0.5155740960824032,0.4180882324793378,0.5731052905521888,0.47807030551381124,0.42466206507721804,0.5584504433921718,0.5832001734251596,0.5005699089724538,0.4832426146469886,0.5238948498061778,0.5348337992405806,0.562304878802351,0.46065392966652746,0.5166889246560528,0.557850850052011,0.5686503452676894,0.5269057425455118,0.5661161614029065,0.4723746821052362,0.5669523163583449,0.46254814822865953,0.5273538307285514,0.541622088946715,0.37606539271501943,0.4875115388494233,0.5257992457583464,0.5718066237726231,0.5466889500356934
0.4461133342070619,0.44230305581460466,0.3657124456006987,0.5006601282290603,0.4978281982340555,0.4478301125447282,0.5889426246590149,0.5113093382658156,0.4699214597028601,0.5720644405020734,0.6014187477406326,0.5202460461499365,0.5096916893823986,0.5365477070750746,0.5597417779936182,0.5731131934966623,0.48817060618570185,0.537003936435474,0.5634359228228784,0.5736448382645112,0.5336547324762851,0.57109424576858,0.49298832102059453,0.5509685878773153,0.4702512331496144,0.5176152669021102,0.5382397477274092,0.3970819804096424,0.4851034423811604,0.5140427959483526,0.5508316444761749,0.540894388106281
0.37832265767070816,0.36460106352996424,0.2970033864794318,0.43710255994177416,0.5084784063531962,0.38135898132168106,0.5565880091698727,0.48745457834570016,0.4599085899394566,0.568009729370656,0.5981130700970421,0.5334169654199038,0.48006345843266546,0.5393084114710612,0.5532934355633209,0.5688243045648992,0.460210117608958,0.505846603594626,0.5426631423243239,0.5255806091562264,0.486385087748321,0.5221627755343746,0.43889418020589854,0.5068504813506888,0.40602129694176164,0.5009977796534926,0.49327284537872645,0.33517319927231487,0.43076764399750056,0.4659006134790702,0.552244063856904,0.44723447681078976
0.4118499325710943,0.3874308530327477,0.31814194533259144,0.44196095712741534,0.503026952411607,0.430708663158,0.5694368451199536,0.5027963100583845,0.4981872015770211,0.564889298268141,0.58253750070026,0.5351595429706018,0.45104682902380655,0.5368077881736634,0.5525304252765726,0.5617530269093072,0.42795090364416255,0.4637171306146028,0.5644237611830187,0.5296938820795439,0.5033287765963902,0.504231572902143,0.4469743112404832,0.5232085772337189,0.4630090749725017,0.5120821042603235,0.5150047996357847,0.3886313148032965,0.46688229504170736,0.5074737199077071,0.5393186079710751,0.40315250766112615
0.4770928938515528,0.457649801640055,0.37025237034861275,0.48163101685930365,0.5135985851672488,0.5018165357283529,0.5955128973514034,0.5273025877576154,0.5476998945955123,0.5861237812396662,0.5852006172478803,0.5534944884297316,0.47388561156517556,0.549644651299909,0.5608953962444655,0.5732380864347296,0.403318568863493,0.4930510617396897,0.5378670568953727,0.5291269925569397,0.5169841233083894,0.51531234089782,0.5012874096005213,0.5558280768550697,0.515233673075448,0.5377265081353326,0.5541416945580501,0.4658568212800725,0.515195443730339,0.5386416791073456,0.5591557272384244,0.4343708357673112
0.47782844580490735,0.4555723732859815,0.35600863418859874,0.497059898789429,0.5393457299955348,0.4904122340926027,0.5878856014467104,0.5252512299779232,0.5532399532775423,0.5893302648078182,0.5866608246323347,0.5518185234906214,0.46208388922592997,0.5407884551661515,0.559665680483153,0.56075382382665,0.44760466323947434,0.4893778767974741,0.5238705980549154,0.5247396787004988,0.5034059080742556,0.5040243755107058,0.494255163283743,0.5299863359381021,0.49723795233128215,0.5431177173724917,0.5406653378274904,0.4098217635877597,0.5027323769112702,0.5379961215003761,0.5864623852673555,0.4045955430352113
0.48786081801115694,0.46685897825384964,0.36445261771207355,0.5034058269851184,0.5353255987760602,0.49436847404265666,0.5818523424235945,0.5176272891203444,0.5238890785564781,0.5809783146651502,0.588320584798881,0.5521193988336205,0.4651597057094747,0.5482525628060639,0.5653869725448125,0.555127101845263,0.44124819196909276,0.49931221582641133,0.5389274909590434,0.5363915716218064,0.5131578955103914,0.5079109662877797,0.4972079611972884,0.5378223731719772,0.5235077954104479,0.5593439926006141,0.5498818093809831,0.4459684537323684,0.5138055901606148,0.5739397409463777,0.5780504062802132,0.4034477420367738
0.489577184265678,0.4695814414349877,0.3736003778484649,0.5064218690054287,0.5355954883799348,0.49760096038086077,0.5920294978040866,0.5107662410947947,0.5446104963818957,0.5823028337139444,0.5953188948700717,0.5448877172015969,0.508437969210813,0.5398025970112406,0.5484921741005376,0.5541751340544356,0.43740655368752174,0.5198802215391689,0.5201016075123237,0.5264846849664839,0.502407792545887,0.5094998593597658,0.47484541123417434,0.5289776706395302,0.5068132654256906,0.5668052932906367,0.5607431841266277,0.42879093530820367,0.504248964807609,0.55984247816451,0.5798112832036524,0.41632231268144704
0.490048268120967,0.45996139106602535,0.34370345398153923,0.495738441880274,0.5633197022065957,0.49810992109600205,0.5728655181059886,0.4894651378215726,0.5440803343787719,0.5733071949034318,0.5866686395205739,0.5583555300962533,0.48584407905608573,0.5584822566716168,0.5771215074786403,0.5275473656228157,0.4399594447872883,0.5027060046278511,0.5392651589358547,0.537627208421758,0.5023231189435178,0.4815855317654978,0.4653804204213367,0.5310715134995837,0.4941367210566945,0.547936245726985,0.5465835237195853,0.38852210303614904,0.5024280213150025,0.5563888359203708,0.578404381335869,0.3588542660901882
0.5378876384597356,0.5135448929773706,0.39422639839803175,0.542547476533654,0.5724714282627533,0.5265864156703348,0.5839213872971065,0.5022461879742011,0.48575979418172965,0.5687046403107983,0.5872107175355528,0.5709124222348694,0.5158296262106468,0.5740391229885917,0.5560689587117369,0.5406110860665427,0.3945173408123477,0.5433867523453296,0.5434452677115349,0.580122990273702,0.5423323000781195,0.5220986649015943,0.5176424098222516,0.5801704598448941,0.53934990854518,0.5852449697525385,0.5862019742176653,0.4753855817423454,0.5827255390389313,0.5886625256778459,0.5887144982950288,0.43341543337189425
0.5799262816539311,0.5715844323919695,0.5043217742041812,0.5775273071438812,0.5586593497753218,0.5811470159013907,0.6045773383916686,0.5168587755858947,0.5318674449365118,0.5738137749602811,0.5998504796109427,0.5747726163331612,0.5706423860250469,0.5713808996581794,0.5738642596799154,0.5481991840873545,0.44288103727092354,0.5755587518977022,0.5362168505116982,0.5977775691037533,0.5713512730431506,0.5728985277529042,0.5567839596102107,0.5990918568051548,0.5912246068768897,0.5921897695764489,0.5981903228165841,0.5841663861148042,0.6180881334684709,0.5727846032905332,0.5844393675712913,0.5009805735816895
0.5744690786216217,0.5486042139146102,0.5041192140417365,0.56481931390353,0.5624984680472701,0.5696117200990126,0.5960921774821444,0.5000660626294746,0.512601716640057,0.5609596751785452,0.6071929400650514,0.5805003993235246,0.564308199669351,0.564156282681625,0.5595385449543131,0.5386264957787451,0.4209974147689256,0.5715270915790064,0.5574236822650517,0.6115678611433394,0.599537305379157,0.5872926567207668,0.5460250309084358,0.6137445929298115,0.5859804297853715,0.5881906749648796,0.5910259859006698,0.6166988644648934,0.6200260974812767,0.5720988839192082,0.5595714532837813,0.48677993260378316
0.5547140511194952,0.529661301103868,0.5057135790947411,0.5598650804213456,0.5531316416021725,0.5674104713763729,0.6001901613676203,0.517777143423728,0.5276258824604748,0.5823152015295603,0.6132965279621323,0.5710171565220137,0.5286080244415888,0.5641479477119918,0.5480891734987953,0.5277618250568605,0.3673037948940588,0.5828024721408126,0.5448399496057375,0.6044644798298061,0.6036939759113785,0.5903270605605578,0.5328619568084517,0.6052800129456622,0.5723509191340305,0.5805847917783779,0.587449223551982,0.5985611958645702,0.6157899854133095,0.5579289567523261,0.5556199229275516,0.5450500481061784
0.5481754220352724,0.5436456199539609,0.5118413325248214,0.5483111073870425,0.5367824721527877,0.596348820693777,0.6098567555735769,0.5616998456261856,0.5399640189365837,0.6049569920274543,0.6231827286890906,0.5814431192686177,0.5356278255471025,0.5691282029312745,0.5579635696245051,0.5549266754033121,0.35120175931551856,0.5764736817387555,0.5451808940601416,0.6108077873019404,0.5966069914716808,0.5798848943234267,0.551915451319284,0.6243718749770006,0.6024283021586528,0.5771973470245477,0.5824202051944448,0.5984713813375078,0.6026020972393568,0.5534437508549023,0.5534719847377937,0.5618985681848144
0.545051192219318,0.5349640574639649,0.529662301663055,0.5481255510474526,0.5348260281329269,0.6034462761854056,0.6077885598972771,0.5442342456864967,0.5198760711287251,0.5981440073870974,0.5948276646481137,0.5808155565001292,0.5523297929781659,0.5567667977748376,0.5387011229635007,0.5468335878869397,0.3871452151842924,0.5594512981502869,0.5634528364951729,0.6097398783037322,0.6081151031121388,0.5836511531308827,0.587311015252289,0.6228864610707459,0.5762522690421179,0.5858570278525175,0.5775027426166063,0.6097884914032761,0.6107220745524952,0.5378233000341722,0.5382912591010861,0.5866701398739511
0.559179398102235,0.5108037195919354,0.5313636600175358,0.5820842183599209,0.514945149662815,0.590373319102568,0.6188601100708082,0.5594829891484328,0.5031972625335456,0.6172862294251937,0.6078784422480363,0.5847568596515219,0.5308443890268274,0.5526706701465732,0.5302418944133237,0.5561673866597497,0.4023607644088945,0.5456906451912472,0.545114129392973,0.5849272151345111,0.6003588809722613,0.567887316323161,0.575687916233518,0.6157826087075586,0.5803955025736245,0.5913827911004154,0.5686461275945078,0.600390627167936,0.60453294463107,0.5307330715299581,0.5424595751568101,0.5690856020965247
0.541747302735744,0.4738929675962553,0.49607003375129555,0.528971868322548,0.4891825017987464,0.555842741568649,0.6019597193010124,0.5544628866972671,0.5099095491657526,0.5965474050616761,0.6092510406792809,0.5773598684544021,0.5452061687900176,0.5644299095983198,0.5290169116395487,0.5654874123912458,0.3758286207909352,0.5621114275194032,0.5397854295310545,0.6029126640683434,0.602317538159597,0.5725070341579744,0.5299983740442664,0.6282659429388133,0.6008727630921252,0.5937566066673627,0.5437865396920942,0.6046307552834114,0.5856728960899303,0.506505832820001,0.541547516761886,0.5621722534433309
0.49879330160253604,0.4727384709172305,0.5129162232335072,0.5104791704328648,0.4581372946455837,0.5720649018710597,0.597323533388686,0.5327768345891809,0.5021528199282207,0.6005100112748509,0.6088921260006108,0.592706189456097,0.542239969766961,0.559837807461111,0.5487709535176434,0.5555801411258859,0.3968059503597538,0.5436816972752933,0.5569805360871923,0.5925961212331957,0.5991127334681433,0.5813043776777213,0.5716554179617817,0.6102156637323315,0.5895546778095543,0.5667624710653644,0.5196271066001543,0.5867909840342928,0.5394433412508383,0.4669964236676051,0.5017618467948286,0.5748429984346731
0.5200640637964719,0.4716283986538799,0.5083144264561921,0.5076668088237543,0.44320118499812006,0.5546224038837597,0.6020780638272565,0.5668768330290609,0.5268365880911913,0.6017098178250566,0.6170243776045876,0.5850845175749319,0.5540067504697825,0.5574434669221046,0.5493315427991873,0.5799354360785371,0.43043757921877274,0.5706598676405378,0.5652121922151934,0.5766229562114535,0.5866723770398317,0.5755900459284141,0.5807473550641206,0.6280071693450864,0.5966174360703258,0.5542008534127542,0.5227567636605839,0.5733781497448606,0.5276548883960196,0.47565165722167624,0.5049891595013063,0.5511766279864792
0.4848940602766311,0.4552719923941845,0.45311763618955403,0.47289333343813295,0.4339246182613276,0.5337918362264381,0.5836231920048641,0.5438065667654787,0.5226404991840974,0.5849240112027302,0.6129824988702178,0.5775962836617593,0.5822373019325566,0.5588373156640865,0.5397685298482572,0.5780568009241215,0.4551822187510921,0.5793438022469192,0.5835460511928902,0.5557184191215321,0.5584728327680563,0.5839234652424429,0.5803094074202557,0.6283490981091757,0.5955546924040954,0.5578607539782768,0.5332083010608966,0.5733739174854642,0.5364401746125266,0.49406446553001526,0.49466479255011353,0.5493615863958236
0.43367418543097797,0.4171402713317383,0.42542780882078157,0.44281214441007927,0.4077174964170773,0.510827362674156,0.5984801979573612,0.47670499761120694,0.48969016660412096,0.5957035809978017,0.6163970100271456,0.5626349321145011,0.5391684364790724,0.5644949524865582,0.49663386499265866,0.5799721931952663,0.5003636412254974,0.5626596285399716,0.5521881749464405,0.5766357022975596,0.572098364278333,0.5744733622751936,0.5704959346906698,0.6202760454612318,0.5981170243838544,0.5224793001444085,0.5379864084420019,0.5590020127434678,0.5163281903683695,0.48763779426611786,0.46805250847815183,0.5265230017241092
0.4657186889185283,0.44560236741254394,0.44292545439308195,0.45860464569883175,0.4268742385124324,0.5169721689907558,0.5913764469267216,0.5076230978123139,0.5188981723581286,0.5803522635506718,0.6179497214791352,0.5623166782155352,0.5369918306805361,0.5859595106474654,0.48651664395654776,0.5767745644155934,0.49828846467520044,0.578771931883208,0.5231447773961664,0.5721561603264995,0.5632828167612405,0.5573453195631835,0.5651355281389725,0.6118676154084323,0.6104775201611594,0.5712464702210722,0.5546239518058107,0.5499620884558896,0.5469108717149554,0.5143576555920902,0.4998948499245156,0.5052085431743936
0.4738301161892977,0.4581802353281414,0.4489650203489679,0.4634035536510236,0.46112249386343196,0.5455145525028604,0.6007440209595222,0.5189231924908223,0.5090219694350083,0.5729195564618942,0.6235520352247983,0.5535470041776366,0.5465967259713476,0.570038374970484,0.49139733325552415,0.5682359528753367,0.45244370301592224,0.5393289873024729,0.4980776440209277,0.5547504299474327,0.5462822675960474,0.5441433942927879,0.5806757104639252,0.6124897326289169,0.6122459866448785,0.5425802689958372,0.5405731746984156,0.5566730571703569,0.5082110492847433,0.4865022542151051,0.4919712487912009,0.4971249431501049
0.46243562138044164,0.46333304610359605,0.466123903871431,0.4721688204449843,0.4546868872476076,0.5456137429094541,0.6049554794828447,0.5241673623997741,0.539496504757993,0.5847216063513411,0.6060895849196176,0.5478069214278642,0.5209697500222026,0.5483668320559106,0.4949112699468882,0.5839321798288649,0.47891164000439995,0.5603809478320747,0.5159046694076018,0.5751437146767792,0.5570657148276064,0.5629050910791596,0.554610914527249,0.6081111205261559,0.6141221457115587,0.5471429655450697,0.5626072894761972,0.5490795432304983,0.5308373644182728,0.5145356844335064,0.4923452864725963,0.5219107567344912
0.4987064124033157,0.49708781771009497,0.4947005396671641,0.488912855653979,0.475660121139902,0.5606969548110393,0.5958439972074088,0.5485699506562964,0.5247750756661002,0.5664232177597981,0.573537605692862,0.5289991375998616,0.5522798595025901,0.5061797885399011,0.4873134624778718,0.5720933401485387,0.49799797242323546,0.570199062571098,0.5486530088028178,0.5767530669427923,0.5649309396795761,0.5590710955909831,0.5693721450977165,0.6174428276485063,0.6119972459553109,0.5711434807812231,0.5904623573152625,0.5796580968190654,0.5807102969965919,0.5536386992366951,0.5361818971072763,0.5314190406919952
0.4587864114352585,0.43907727400701463,0.4579441350530292,0.4645990430997115,0.47070568182669287,0.5187827826694962,0.5864948210678234,0.5168222254112675,0.5068319033834279,0.5495317523946746,0.5550899863372263,0.48863204235483837,0.5242216530348784,0.46695177354181006,0.47470550751571405,0.561677330953486,0.4903374699948776,0.5461343071149338,0.5208931215941572,0.582770302686314,0.5583594247515192,0.5491278503478036,0.5231399219016685,0.6176145213646995,0.6162179652661598,0.5736022751245408,0.6059620889610167,0.5895700240491056,0.600228504135295,0.5584235884703151,0.541871791018592,0.5403599693934596
0.4876454920320788,0.4862621210632847,0.4767432524336595,0.5126588240381078,0.5026462447793274,0.5429948956676194,0.5982044396377086,0.530690541948565,0.5135746945592666,0.5529098397989667,0.547797512512034,0.5254448882542839,0.5146343824822716,0.48455677751402554,0.47841234080723,0.5569136650454464,0.5004521748430449,0.5280344376660513,0.538590863880463,0.5802471642325844,0.5840629917151614,0.5528018332159876,0.5094375963322452,0.6109634845889028,0.6114490244412698,0.5836045935816911,0.6154500078184236,0.5893944104786685,0.6064751682517906,0.5596616155351919,0.5672297073438678,0.5281969964951231
0.5251901770360026,0.5078032666124753,0.45958747942839717,0.5316102921301306,0.5556416008224727,0.5454103741585019,0.5784182854029516,0.5531558746214679,0.5311389033271534,0.5327250516877946,0.5278132626519306,0.5143406028762153,0.5561657018026459,0.4840463295325051,0.5048356274989171,0.5654047519892064,0.5006585470690464,0.5322336608120111,0.5535229534095606,0.5861565055768022,0.5967965179652757,0.5527891727602928,0.5331859828678015,0.6166290204501526,0.61228792226922,0.5618859555642418,0.6107773946972632,0.5961960178087338,0.5954200859921808,0.5562967970983971,0.5593824614333027,0.5428748221123337
0.5079889612286583,0.4795250562110526,0.47130522871265657,0.5317352142904282,0.5305104099680948,0.5509408665641702,0.570708875333119,0.561585870367495,0.5302454965722293,0.5533000371536728,0.5584282884238065,0.5060894013829025,0.5633712951590351,0.4668848841085227,0.5107326773303835,0.5716496189194795,0.5052740166113024,0.537728252107094,0.553258792972696,0.5650235013942974,0.5801022558827502,0.5499824594391215,0.513929580841001,0.6084037181021643,0.6032973645812023,0.5525035739619648,0.6171725354172999,0.5743037448218051,0.5967708323369888,0.5505693575947889,0.5492975236857123,0.5530631857753707
0.5053636208454948,0.4849242955779738,0.4318827269058396,0.5226112949759691,0.5450071159724093,0.5604649368909232,0.5880946873360984,0.577178453968446,0.5560564423104697,0.5598626484968764,0.5381342475620776,0.5068110586808794,0.5578068467859328,0.46149693852605667,0.5147428304804446,0.5751207292643031,0.5285342724841363,0.5459869717600463,0.5793229564789127,0.5527399745769168,0.5794187104499137,0.5728787169945563,0.49452645950859553,0.6086171195052171,0.556205310246205,0.5245479538800135,0.589656947083318,0.5161407803503304,0.5751813081215578,0.5454564256897853,0.53787738256883,0.5390109633687888
0.4598558777433927,0.4396172374152857,0.33830845534549914,0.49027914330175626,0.5438016333101355,0.4871993435867417,0.5512586509259604,0.49797616368203307,0.5643338954761229,0.544634660764848,0.5292861821400714,0.5074871010120897,0.5524642922075196,0.4634835775028717,0.5172396350640638,0.5818660036108324,0.5478842000088059,0.5248218289526262,0.5716143090992998,0.5674532409386565,0.5517992380156418,0.5330566226228454,0.48317355740016443,0.5899530810506126,0.45952804678533643,0.45202086022086907,0.49787935952214424,0.42939702820875386,0.5294636532475416,0.5239025291864811,0.5130352977432763,0.5009843980260764
0.4735943134043426,0.45249459961813093,0.34189795296623987,0.5099285906226025,0.5465070278742611,0.4859854337643424,0.5639185894975475,0.4936977165337069,0.547034277444585,0.5514317917473642,0.5724205485467783,0.5212344766003082,0.5270602305678541,0.5161598041482803,0.5201382868414364,0.5312160959043799,0.4966175913553973,0.4725217089746732,0.5462256796720294,0.5010227918168652,0.49497753379487525,0.4930885350462565,0.484830507693622,0.5675489551217112,0.45902132355869196,0.49030788029452893,0.518240339522567,0.3982276743040692,0.5071802321775597,0.5320882125976963,0.5046344995006744,0.5017478843250855
0.5061865741104405,0.4806698066351745,0.35661063339801047,0.5331162225064519,0.567232673398756,0.5291472449921915,0.5720393872034408,0.5213300164877908,0.575942894419724,0.5740901879144349,0.5815463543412234,0.5420060951299512,0.5086939834844119,0.5498377490120339,0.5490173169718426,0.497849182383004,0.48550382684904003,0.4688713464918087,0.5414192852968367,0.4944623127102139,0.5046616749403012,0.4996864993478319,0.5264085913276692,0.6009202348644596,0.49850214747919497,0.5121443808730077,0.5304849977355381,0.449589734080605,0.5275963203138726,0.5519770414122079,0.5360506990177081,0.5278839636837583
0.4346227131980377,0.4134823365968725,0.2968547544418602,0.4660068806216207,0.578065159022193,0.39670543319729046,0.49202493358330374,0.4452087524003623,0.5692357559875911,0.5677009775500492,0.5782849983609127,0.5099180257718653,0.49074253908791743,0.5184354310613731,0.5220155937897324,0.43823527666325013,0.4756976632741469,0.44663115791760344,0.5329910578580038,0.47879725027573455,0.4682238537703568,0.47604767949734106,0.5310538193271036,0.5794670646610935,0.45788168024460685,0.49614248316836046,0.49342359293345417,0.40007531286474296,0.5122478157957974,0.5472095284609153,0.5440946629335819,0.47781986637575263
0.37099533631472975,0.3346577935032441,0.25226162070019204,0.3881327746623808,0.5681198748574817,0.3257668487798285,0.4535779992621085,0.46754074477994934,0.5553513614381755,0.5471940011256996,0.5778425614039483,0.5129880945679448,0.5165509493914237,0.5546109397746112,0.5291876099159624,0.5006873361668099,0.3930799187270028,0.5015272243252782,0.5151536740777638,0.5006157784207399,0.42508934230726164,0.4048637705551848,0.487258768447111,0.4811304311388761,0.4211208583040665,0.47041451140634316,0.46146172680723574,0.35125223387679316,0.4680047482381183,0.5394518341750927,0.5573487453728491,0.40828697159544536
0.387487016169952,0.3557945343536597,0.26709859502049066,0.4116181214945419,0.5763754822656929,0.3404981537109204,0.4337308843764621,0.4449907779555136,0.5745660660711657,0.5561750895985152,0.5648477493938763,0.5121995907435896,0.47787849878197053,0.5173859226501325,0.5230715551450721,0.4812363740154045,0.3181464655478552,0.44529424674771556,0.48722284459080334,0.471094714489508,0.4159590547896408,0.39321847673003363,0.4745020579798145,0.49379114873509544,0.43086670899661916,0.46968474339118704,0.45622983378269955,0.3519497402600085,0.4826832484273908,0.5344450177038665,0.5494978519429591,0.41159634737182466
0.3989971937536683,0.3693411105610638,0.26870801695651747,0.42063957694962134,0.5826444702337745,0.3329316960408372,0.44269333814568107,0.4222549758166285,0.5411752486915145,0.5294603604668706,0.5472699698416471,0.506126909397979,0.4994119195823049,0.4932475552004894,0.48964148496271903,0.4888161666803308,0.37738759759001417,0.4812933208257251,0.5097073256745692,0.48308238256879493,0.4372775806844821,0.406439119305029,0.48995254669043103,0.52318094750401,0.446646654377546,0.49163000970061893,0.4827214880768178,0.37099518398803866,0.4898339401064068,0.5298146384443841,0.545113134951824,0.4087113894376796
0.3645905741843117,0.31927018992272543,0.23619158203672774,0.37929721930690374,0.5543237534739589,0.30039028368489185,0.3883466940999421,0.45539924067624377,0.5280750773339471,0.5032133054589053,0.521911722502479,0.5164836697183494,0.5055098304668023,0.4932216287299162,0.4912955837948785,0.4858321962925609,0.35988593796731594,0.4910208797577884,0.5252843703420369,0.49166585159336335,0.4397132013718761,0.40892565013347193,0.4842463397001855,0.49039523111229455,0.44611912236110784,0.48462101884766207,0.48193562707481086,0.3544649750861796,0.48628250669790485,0.5319740805775799,0.557507419611778,0.39413726376902636
0.39722411025230525,0.36176059432098856,0.2900504267811116,0.40136706366314373,0.5079893200174912,0.35428189235783863,0.44135516570953076,0.4810510348928479,0.55887425908487,0.511971952214667,0.49734830822560355,0.5036134109232752,0.5290442933034933,0.472821159532376,0.49240147325166295,0.4985749548660745,0.3668390165519402,0.5260395986718612,0.5715563614922091,0.5452799712382429,0.5220739178645135,0.4926020263315228,0.5245955874176184,0.5610883580502133,0.5100417862614929,0.5182717446717505,0.5147706201431967,0.4038597417154293,0.5224439916561059,0.5247809603707678,0.5477318648498156,0.4216208446723252
0.3451122008133599,0.3102186978366028,0.2477902239494984,0.33122417962008677,0.49440641028188975,0.2981007807746656,0.39804840886979354,0.4350146804504302,0.5514571871337279,0.49214085000552504,0.49429158097746334,0.5378571079609351,0.5627946831926245,0.4970251076454105,0.48237601574496475,0.5683661121908217,0.4310345624272984,0.5647253101855922,0.5737374639554081,0.5629003886796035,0.5147640630502672,0.47389509307516786,0.5015861736272238,0.5280530990635386,0.4575353709915831,0.4655257094183895,0.4820676181376222,0.3778113855515925,0.4730366535258256,0.49774653761030396,0.5322732950109033,0.37865881958518915
0.4011638487703301,0.3588797844551581,0.26620671433460624,0.3854429640987984,0.5121232987441181,0.3580634349521931,0.4439571756382289,0.4839752815171687,0.568825875030928,0.5613412411449353,0.5325991617998953,0.5679918872683956,0.5568146926097068,0.517999099725594,0.4825906285734861,0.5925651069372498,0.3469361158232634,0.5574953759796883,0.5674687580457686,0.5693936760639371,0.5180859188095027,0.5005213429458777,0.5204949242023307,0.49695285573885595,0.4571502091360095,0.49004787383582915,0.4933142898906722,0.3589179404782047,0.48623583979580803,0.5329841542934863,0.5525872863359405,0.41993679920678156
0.5128495981904772,0.48832279280977986,0.42890086245904324,0.5122603574331817,0.5251154749590088,0.5325398133791217,0.5520850123596254,0.5691613444271755,0.5717091226662712,0.586832682617762,0.5620883330814066,0.5688726490329832,0.5717675768546686,0.5402073097592471,0.5165927837867751,0.59066476187384,0.439139050818003,0.5717126588446259,0.5599980973558212,0.5859569391826659,0.5673895129117117,0.5534474086262889,0.5490513093751099,0.57964615619711,0.5624888371195405,0.5368701579475432,0.5602848885056669,0.4501639285137611,0.5644120747560303,0.5281977076245564,0.5358038493407753,0.501167742292531
0.5319216867965875,0.5194592872276498,0.5126983574664525,0.5261755398594554,0.507242129499464,0.5537950308276567,0.5268251915869949,0.5684538893514304,0.5481563949006533,0.5497619583982876,0.5572930300340733,0.5695718370774725,0.5770077324710775,0.5603950571533485,0.545332465512829,0.5949356847509358,0.5307920326893519,0.5733919371861846,0.5649245702358664,0.570083899803376,0.5748778131791428,0.5692147355196928,0.5547241558364321,0.5763895248689695,0.5315144921144216,0.5380374664919991,0.5626829587617591,0.47764011116616445,0.5698518156683907,0.5416094929700559,0.5109534504326321,0.5184050996184087
0.498141281391835,0.46841168355075635,0.3852560773751546,0.4949898938512152,0.49941252864709507,0.5054985260486172,0.5461320021855464,0.5512409223585419,0.5486547009479984,0.5344301392022102,0.5441356759879891,0.5578450908089739,0.5402471585382876,0.5533829928083175,0.5501473410692767,0.5724443269931822,0.5049286857154051,0.5209783493078587,0.5003982221473283,0.5163939845654472,0.49126500718573185,0.5127514480798553,0.4680950963431592,0.48529382241579055,0.41800354838548043,0.4845167104328129,0.48441827015528105,0.3634386100558365,0.4772742400127191,0.5088319933761533,0.5082150931150309,0.4569796792219396
0.48821152279651314,0.45234122194958154,0.38216453084385366,0.4833244148360204,0.5191579807165392,0.5099006624654517,0.5366555742827931,0.5511044217814179,0.514913618878315,0.5584058629342027,0.550640883841492,0.5475211094086676,0.5214420057879195,0.541865257984577,0.525483013547418,0.5506385929892178,0.5030871261953513,0.5315184338620464,0.5055656098461729,0.5056839731211454,0.48315431381940943,0.5038168018952969,0.43666602050522935,0.4645045911835868,0.40806243523434854,0.4935371838197489,0.45968045857643064,0.32819697853556806,0.4549173016379602,0.5013553267844577,0.5106454306981869,0.46701988172089487
0.5227269638539309,0.49001355598133706,0.4403320440019103,0.5175595834746711,0.48927811986068465,0.5381207132918623,0.5338091444089013,0.5727661847568365,0.5195094966739322,0.5488605435968215,0.5571846777710224,0.5484043982471146,0.539083987269943,0.5455944831032968,0.5329826737179592,0.5468522112593684,0.5051094503765574,0.5301195326744228,0.5117004367061553,0.5053642434728717,0.4943953057222477,0.5185416045507373,0.4838976749888163,0.48756402623929684,0.43887999078083184,0.5004515094791226,0.48615840189267817,0.3651067499651126,0.4925786685303692,0.5254759851347109,0.5010408401110259,0.4991456635032189
0.5003798440191862,0.46629117205640314,0.3807028112052653,0.502245432568417,0.5204392205529851,0.5059880042084441,0.5478451175049499,0.56538613070597,0.5078794563674713,0.55321758884693,0.5411950969752766,0.5400369732183956,0.5116219010219566,0.5381445843668178,0.5281814492887357,0.5301609107769721,0.448143815429204,0.5084760629797925,0.4708863151341853,0.46396989151558427,0.43720785595654343,0.4843532200807381,0.4374730316887164,0.4414422529788886,0.3738939401356208,0.4748495673657213,0.44352444175821276,0.3144683574839604,0.4574492686852421,0.5049245746318466,0.5171462403975459,0.46433585560647683
0.5246421659436592,0.5041683366393038,0.44872970587564975,0.5257959343354982,0.5147306666730986,0.5388559343204823,0.5394634286068356,0.5746624828255958,0.5062630639293426,0.5508936677742118,0.5614008483205772,0.5448579430955849,0.5291841386635708,0.5484690149441535,0.5273623964376777,0.5353604050497925,0.4240134865335277,0.5272671627837703,0.5015175926888524,0.48283083668919496,0.4687793681468911,0.5059860945453614,0.4506106297039779,0.467629048723316,0.4229822893500072,0.5008252532255223,0.47321864723862567,0.35735714845784466,0.4923479034593577,0.519945612999649,0.5095816089187525,0.49192270277883526
0.5084627398786078,0.4863512503229838,0.40530837954504223,0.5169794266891685,0.48488678480815234,0.49333607273618857,0.5412121684539246,0.55978133466376,0.49378243752055356,0.5448670989291513,0.549384674894695,0.519609919233301,0.5174734791529867,0.5305512418308017,0.5137417580721846,0.5263628641926477,0.41440230309886755,0.5009292360965735,0.49147678102666914,0.47821488065118023,0.4533352344006081,0.4957255948579203,0.45350234649959664,0.4646560302400184,0.4143782533912919,0.47614527376259885,0.4486554055617132,0.3383504011655548,0.46075934557920717,0.5092992285106527,0.5046812245058314,0.47715879721589316
0.49436449288217094,0.45789288029844594,0.37580305924324275,0.5013942706964863,0.551839157764588,0.4850139972423171,0.5505874135846505,0.5317391624866236,0.46011536684908344,0.5369013087785702,0.5608776715779014,0.4748480217114591,0.47501941378804174,0.5069507025442611,0.4873983197557014,0.502216129093475,0.37434875039058557,0.4927977260147859,0.4808837055259351,0.4577486507734264,0.4281977411258568,0.47693536384660107,0.4191271926990843,0.4362613936552964,0.396791806765147,0.46961634771835203,0.4151246027658279,0.2987862398762944,0.42044941389215573,0.46639028565641594,0.5343879666046887,0.4707216952664362
0.5570172092448239,0.5310229755376207,0.47079429280160434,0.5421768999386012,0.5792831412168729,0.5430664602205258,0.5711422593730768,0.5328809816479376,0.46076761821390044,0.5530146688682239,0.5788937617433377,0.4728828995470782,0.4973852975733301,0.49834976094687056,0.4678694763137953,0.49917867749313377,0.3943655560938876,0.49617716418248103,0.5056565470341196,0.48158421288727893,0.47170076426111884,0.49962577137686653,0.48005562211594843,0.5107639796840474,0.4978303102719794,0.5190343935360991,0.5243107940909013,0.41073661239900516,0.5225350108668012,0.531422683121336,0.5653017756947337,0.5236437088062028
0.5639653563000516,0.5580482309301715,0.4976223971373637,0.5507540489622715,0.5743029702957917,0.5427958154420457,0.5825062860453494,0.5298478701476226,0.4952942189456024,0.5531862693718658,0.5613535343972567,0.4855022976578729,0.5142675673920492,0.5273016910863423,0.46713201170083624,0.5287644772826191,0.3867610090829934,0.5189751519131589,0.5412374682039658,0.5487039085049088,0.5290830091900374,0.5351826047336733,0.5336637737994386,0.5823781059419008,0.5613890539273679,0.5351506905207565,0.5788752246357882,0.5588477294027864,0.5725787765016436,0.55348376236835,0.5424659421097549,0.5491633663051875
0.5674748039636457,0.5683380517399325,0.5337521246748009,0.559433246916587,0.5549581444866964,0.5594879786629384,0.55620775725778,0.5282152703790965,0.4909206434390481,0.5399256927400837,0.5744291058738652,0.4813818215714691,0.5185492843492756,0.5140133422856944,0.4526315843390067,0.5021957490550328,0.34791940207367145,0.5244206193308647,0.569586147903628,0.5718069474534141,0.5853408412972154,0.5730944105908415,0.5652280532017352,0.6140518430832572,0.5882659961529917,0.5590483184867472,0.5945906039615831,0.6074062158162787,0.5669781264650464,0.5475169279063025,0.5336193139843636,0.5546235338565246
0.5736487785839497,0.5749094861172396,0.5436164765769986,0.570280946352092,0.5800556165255,0.5655749178479954,0.5895601433605236,0.5207928178198673,0.5197474201333497,0.5786536204122664,0.5985633408619635,0.5051280268639801,0.5232303175508392,0.5264748409906853,0.43174242753288994,0.49224713291103855,0.3767959949164459,0.50976394485639,0.55310746161597,0.584916398094616,0.5987816018109434,0.5810170436537425,0.5541817928016722,0.6129313350838156,0.5968911282516826,0.5740990308746635,0.6056497730870423,0.585280701801948,0.5830259591246079,0.5605587338328156,0.5610154685929023,0.5348658341860248
