Fp1,AF3,F7,F3,FC1,FC5,T7,C3,CP1,CP5,P7,P3,Pz,PO3,O1,Oz,O2,PO4,P4,P8,CP6,CP2,C4,T8,FC6,FC2,F4,F8,AF4,Fp2,Fz,Cz
0.5697100989637662,0.5523673377365297,0.44123174997470116,0.5635160618707582,0.576983772904549,0.5977594365413452,0.6266763161674818,0.591423094785402,0.5160082868144995,0.5750479606872019,0.5925560638125615,0.5214735318416817,0.5068835430881569,0.5055533224347712,0.48135760728549704,0.46057777076541484,0.4078253412919115,0.5233454817625947,0.5327917312880519,0.5163736141380464,0.5449464942876734,0.5549037428217667,0.5382663604304447,0.5731528267250812,0.5476393386657468,0.5711000753416671,0.5623221223273926,0.5057489541854028,0.5732099179677164,0.5694915145772126,0.5658278522939679,0.5834805259695841
0.5651067413293718,0.5409473646327467,0.4587234357300072,0.5577185180389175,0.5751345578511393,0.6041570970979482,0.6213251086395002,0.5862024979491567,0.5143665590707429,0.580943801620585,0.590924358588993,0.5340711068990851,0.5086321604067447,0.517811206757997,0.4700782610508192,0.4650463654381922,0.42590143704010996,0.5366616181235697,0.5466967947579087,0.533879707416296,0.5431101775135629,0.5370638748891712,0.5346512572835831,0.566875214420143,0.5492988254457014,0.5773441478784846,0.5606889081619202,0.514968394618593,0.5718507084996278,0.5785342970523799,0.567886584697948,0.5880086378771785
0.562738660452375,0.5463036562818702,0.4494939027840217,0.5583837268259382,0.5822713726119986,0.6075528790442051,0.6141701953414329,0.5979423594591791,0.5172614863651717,0.5698707712750926,0.599907027812232,0.5317875839207136,0.5194228456662535,0.5192943741959466,0.4733109434610796,0.5041112948463811,0.5313111322189656,0.5487485574502404,0.552475285607029,0.5573905540775872,0.5472364531640928,0.5517082183061657,0.541529622171038,0.5880677616972991,0.5366874437816684,0.585907658613622,0.5678701134599611,0.5247930239798357,0.5963066314772005,0.5981409528849451,0.5796152543786763,0.5919428282318457
0.5601529118108561,0.5321085351172297,0.43527568534565564,0.564670724569468,0.5795732682982275,0.6061868899613656,0.6102623049664353,0.5789553759534498,0.5122111062628103,0.5746154887451165,0.585985449599062,0.5387407494424248,0.5161828066370404,0.526823587585036,0.4901843225706801,0.5327439034665788,0.5621480679968309,0.5550324503988686,0.5619850274508664,0.5482071738641698,0.5583348168994817,0.5618393748810693,0.5264496734738486,0.5966823579934077,0.5207661084235307,0.5879099923504922,0.5629656540953736,0.5188135698536729,0.5838197524006015,0.6057694002765031,0.5886209852633266,0.5939537788945679
0.548812045218884,0.5357085998583089,0.45384329941115586,0.5546410744457204,0.5693081045185591,0.5859166070761885,0.6243587838456106,0.5815003844496407,0.5202818030452061,0.5724586936957352,0.5884837119848343,0.5418287636685162,0.5151472778340094,0.5183456630488723,0.48606694022452324,0.5384907199551323,0.5474836092191286,0.5566836062453597,0.5541288297304843,0.5519751549441749,0.5515737085039225,0.5620112666386472,0.5422668026833555,0.5891682531714424,0.5540731441646325,0.584141765385878,0.559794047010024,0.5164737362600964,0.5564309544088277,0.6004452096690529,0.5795462181188547,0.5879431773495307
0.5307912561528987,0.5110100014825685,0.47248779778032945,0.5463194380797738,0.5325983732145727,0.5553148557241503,0.6114073342208388,0.5745911897516955,0.5201547911733502,0.5701212707732504,0.5854144791540827,0.5397475045474174,0.5091762104374071,0.5232591054649482,0.4834852432595844,0.5397391077794711,0.5417249604275045,0.5573364796137721,0.5505622673810584,0.5456473229086334,0.5561320122222737,0.5607554648587643,0.5503649055620747,0.5968908748502777,0.5554466560297473,0.5809588747836774,0.5862583695768717,0.5362744621494127,0.5712995141804633,0.5895936306193632,0.5634117170892874,0.5851701385888908
0.5387600715737646,0.5012567133310499,0.5033790196019154,0.5219390216211077,0.5255939227788331,0.5550221443568861,0.5988032261897516,0.5833695389496887,0.5344213439736163,0.5621722867253207,0.5785927536955193,0.5313936331861924,0.5042161198280257,0.5314712665735271,0.490856621568887,0.5331358212874968,0.5444298753268773,0.5473211280088308,0.5549303511677941,0.5390119241111786,0.5621528552339652,0.5655277101744791,0.5512811681057674,0.5955273257484661,0.5476794752220706,0.5621345365012487,0.5761774409550071,0.5522991701080944,0.560914061225839,0.5827453719922442,0.5688216303120344,0.5847441734188203
0.5253005393090624,0.5079922529196828,0.5040102776608992,0.5268989223609779,0.5094217428573762,0.5565902148179664,0.5858669700214385,0.5696575067669678,0.5473013202814339,0.5622314719382189,0.585238795144694,0.5313193823073235,0.5095315320603109,0.5153456181416045,0.4979752964474824,0.5427254905220669,0.5521672027163755,0.5589782327595589,0.5653432958911617,0.5323334461400471,0.5767339864917504,0.5777103164336084,0.5490667114911907,0.5965259828211416,0.5371538641881775,0.5582522838427373,0.5916684205987264,0.5670517265523376,0.5551972543607837,0.5742488676360322,0.5696818614410546,0.5963794880788722
0.5280424444868301,0.5132198534842525,0.5193090743672943,0.5158784614661713,0.5245071814016331,0.5435695564986114,0.6064305000174053,0.5741731147307214,0.5415587166588747,0.5583123699498134,0.5862622421960424,0.5249044082243985,0.5324324704027368,0.4992623490034358,0.5127204618198302,0.5431777448032857,0.5558148252102533,0.5534241983051,0.5513200480628178,0.5324165534632037,0.5680391575618784,0.5654934845708608,0.5570250976460529,0.588685653302333,0.5520941003666584,0.5620829904198708,0.5875858941477126,0.5735140892131794,0.5677227724507357,0.5747481662065974,0.5597059052529141,0.594360347069065
0.5348431541460887,0.526835451044636,0.5648159097467693,0.5227564024232625,0.5173406052292999,0.5685486036431873,0.6191215259302401,0.5726285407402205,0.5499965766937231,0.5815584911325327,0.5912458532786231,0.5524344237843963,0.5828426240017435,0.5284918849315279,0.5290998239079396,0.5662486721934221,0.5369290021945288,0.5769116060234216,0.5662947098146565,0.5564991746907388,0.5927555716374497,0.56526625856177,0.5404841925977455,0.5916080804571253,0.5754103436873814,0.5420129403350575,0.5640871888802383,0.5649032023183773,0.5663633953674543,0.5872852166569382,0.5565500930386031,0.5743589753774723
0.5257382741144934,0.5227028190421912,0.5504956776788696,0.5105492213166789,0.5168113105188237,0.5638770046118764,0.6008638229493788,0.5887780616360914,0.5430929545252328,0.5709825390837984,0.5972399343097776,0.5434495818627787,0.5756006159187108,0.5186275962129225,0.5161130082841301,0.558245632804725,0.5212590940733799,0.5553634879281502,0.5628343579423274,0.5569232762597807,0.5758220420408717,0.5558236639039045,0.5462222638169507,0.5738552525944911,0.555373936729946,0.54981973242064,0.5409566178041878,0.5573918109914673,0.5396135070336094,0.5615572966848252,0.5562552495122692,0.5958893403168868
0.5272230649512712,0.5302903431086126,0.5373647267513495,0.5026973985124052,0.5126020359802599,0.5670410290112025,0.6103884625015543,0.5742753230449091,0.5388032689878868,0.5879555398075302,0.5979403505216632,0.5254075095354063,0.5765314266174171,0.5206937064873336,0.5451044496363737,0.5754186404231048,0.528197018115772,0.5638063150855337,0.5600947695918941,0.5481307719123998,0.5785444272473428,0.5573535963117355,0.5477933179311378,0.5623934033719689,0.5626329638829581,0.5497065828083012,0.5511974760130935,0.5576799749053718,0.5431510461023801,0.5565668502792316,0.5552664526933353,0.5870952971102845
0.5528496015306765,0.5535167514792971,0.5611994178125919,0.5310299865853563,0.524282920661844,0.5799290020764429,0.6187171762934702,0.5818515912189457,0.5414830313846362,0.5930438441790287,0.5713483314199386,0.5500592109267686,0.5943718712608446,0.5459078497520031,0.5360106239361193,0.5671159016686009,0.5212904649361758,0.5562944322095285,0.5630228876995118,0.5532134676976757,0.5713936223055218,0.5496538204139965,0.5430972459442325,0.5697148426481604,0.5797350236136563,0.5340398823548513,0.541069325703956,0.5491805804243306,0.5468525357556366,0.5560026034943557,0.5480052753255911,0.5709152255752903
0.5750435199464516,0.5729309884457097,0.5917840329882753,0.5540634765805215,0.5290161880855444,0.5884387851555597,0.614384026745534,0.6007439552740954,0.5830043393555169,0.582329012757206,0.5730591346828722,0.5714501009176662,0.5929003667165524,0.5642531457366884,0.5327624553349808,0.5732728649445451,0.4944632566138081,0.562342177904676,0.5632772855857113,0.5530149515678984,0.5727923931687342,0.5811458103738887,0.5350331921838216,0.5765134000588876,0.5887496263470622,0.5218714769821249,0.5363495184907925,0.5573423779827,0.5475995897971679,0.553783913473552,0.5427970849138921,0.553784743585239
0.5727312954697243,0.578070795423729,0.5963832108190124,0.539631083559585,0.5411301180655017,0.598003805935142,0.6106638483451232,0.5682624654499122,0.5738983252237175,0.5814844147777798,0.5864495796688383,0.5762559011145925,0.600592923186976,0.5668322475320018,0.542211478596085,0.5813485090839765,0.4799945703330999,0.5511435256886639,0.5620550488265366,0.5578701810644109,0.5611796639279762,0.5771308854365436,0.5179391018640338,0.5800674978725073,0.5816076582748138,0.5490772193250382,0.5337048592015425,0.5438585812143706,0.548153038677091,0.5703280705211538,0.5620150093702727,0.5545843964607942
0.5667566389222762,0.581226326198065,0.5879563206166019,0.5416193604768487,0.5624967373041532,0.6008380700908296,0.6131494319483823,0.5640294263133541,0.5593585334046214,0.5858420572368397,0.585011976985701,0.5797269288324807,0.5895033289462153,0.5681183547836981,0.5381918264220071,0.5667493279948879,0.47131928284083635,0.5650882698988271,0.5605197713783201,0.5658885304078694,0.5674462061078742,0.5783603729605802,0.5378312670479017,0.5802196121006409,0.5711918981638346,0.5527229562734761,0.531212384272278,0.5385129709498626,0.5463391966623385,0.5781067829632209,0.5502880283068188,0.5482029343764965
0.5795023655719942,0.5926561903722005,0.584068864929046,0.5828159054720081,0.5581358253632653,0.6019909760536466,0.6089674032311483,0.5737772784113626,0.5543607979376985,0.5796665207496914,0.5954777039987529,0.5813072925206773,0.5743166458866189,0.553012312333899,0.5349628914190854,0.566647492050147,0.45686324147510105,0.5637749865966635,0.5558189865039438,0.5662740603781491,0.5843325149491423,0.5687083532957513,0.5183958645947109,0.604128206213046,0.5648480898700616,0.5437812809812264,0.5446971040256972,0.5427068708870029,0.5452794277253186,0.5716702403772222,0.5535455103599638,0.5436622035542622
0.5523019859706628,0.5092419926870386,0.4985475036818454,0.5364117612957839,0.5701034507132383,0.5739435846206207,0.6075357189927977,0.5704497527239685,0.5641237599999163,0.5876486970128285,0.5817943593219659,0.6100156451912304,0.565191810688018,0.5581277805315148,0.5392075382834856,0.5777802636817544,0.4174711646572562,0.5438014230413097,0.5443607073018502,0.5736990157379829,0.5720562390692652,0.5353598709767451,0.5253739328048401,0.6062333382676619,0.5817076847376348,0.5516899873046652,0.5576838294809301,0.5537517703319903,0.5515490257611422,0.5654877079328471,0.5619161240287753,0.5397362284820271
0.5300591450869878,0.4756076628833399,0.4451327278995487,0.5138924616549789,0.572229960566093,0.5594093067331389,0.6076924617150419,0.566524776985168,0.5530961637306171,0.602688289781296,0.6081494937464536,0.6112218651245378,0.563876159617748,0.5510388356774456,0.5402816320227868,0.573288248976183,0.4056999656896463,0.525743391523223,0.5378644766004217,0.5773925574707723,0.5620960370070138,0.5202928122722179,0.5161547305463232,0.5988567993923626,0.5621299254516208,0.5232416540840097,0.5660376175577313,0.5342134064129658,0.541351715855054,0.557119991223245,0.5512961247578758,0.5611803375284592
0.520444670962708,0.46980427378486356,0.4022780483201336,0.5278257851667014,0.5621488776689332,0.5643131236622896,0.6137743397035336,0.5900335815811482,0.5768770140975903,0.5958557054687961,0.614831318768966,0.6129678759958836,0.5614264700783642,0.5454147707313646,0.5368251769343071,0.5836786877751896,0.2978798128931359,0.5091228163265136,0.5391188550412838,0.5611553612308926,0.5507865850791918,0.520671626058709,0.5093455823611519,0.594526562841232,0.5529683871596407,0.5390189229395324,0.5430946910625898,0.5035737925893944,0.5204539317567232,0.5411392248557023,0.5365101769946414,0.5441228393533972
0.5090057737715714,0.46506515948544713,0.3840355076832451,0.5187449720787312,0.5643905357885513,0.5603492457825516,0.6105572993365915,0.5998198830560804,0.5914554488126864,0.5932080393576307,0.6116558988336696,0.615751422856611,0.5915590759327243,0.5567839718233749,0.5566423851454507,0.5923605889736732,0.27586082320392524,0.5534416134916027,0.562153964325562,0.5804379967928024,0.5906925096223334,0.5588017925491808,0.5484674664255969,0.6001282562434294,0.5603758137618091,0.5750467237519623,0.5609949145660078,0.46824429633572784,0.5455343304739997,0.5483120269289632,0.5521021048456789,0.5509700579966235
0.4978985115342156,0.45480494504474533,0.3712705479175198,0.5261522844597417,0.5679240615430556,0.5605633190231583,0.5793024204099653,0.6146259002290981,0.5836909427738681,0.5960530259395349,0.6251939836314779,0.6051191245400833,0.5879523839001455,0.5631571249480314,0.5636046007439979,0.5800299966611147,0.26767323079845795,0.5592357648989585,0.5442366400644816,0.5923914347981154,0.5788923660969276,0.5434489075057618,0.5457507978096912,0.6006091059650842,0.5544888131976409,0.5664908267469797,0.5535177689264197,0.445380720837544,0.5328853349732756,0.5481577352572184,0.5622470731305129,0.5537876300283195
0.47957388792951194,0.45452177806972793,0.36061440949457646,0.5294271416083447,0.5676066054641451,0.5605829804152664,0.559191702168873,0.6093237412891512,0.5685690893328057,0.5896791174772766,0.6113932139788285,0.6039658974271651,0.5769540189738827,0.5620421798670869,0.5274814892753548,0.5893735428655198,0.28196543959634157,0.5708447899413995,0.5358311236590123,0.5891984200756166,0.5653053106645625,0.5423098121205245,0.518838905590775,0.6066319907116364,0.5500235535448539,0.5536322576819783,0.5537736454391387,0.45458414693878835,0.5262638933240522,0.535523217492381,0.5704538655116282,0.5681149051385206
0.46996693647788845,0.4492538583014354,0.3401417900147532,0.5212057457786696,0.563748132710161,0.53584593382288,0.5482526332550139,0.6009195731772627,0.5631344791779753,0.5878126277905662,0.6033644241763421,0.5940718935068419,0.5743628957204443,0.5636217964786647,0.4549552093894347,0.5730976638884129,0.2919481452143975,0.5658551946006218,0.5350815325486407,0.5715643577044354,0.5645909695766957,0.5385253874896776,0.5205402502383389,0.5881648065783334,0.5466487838063161,0.5663872675075332,0.554581403751147,0.45871163018843797,0.5256830310847369,0.5342174046605233,0.5613501580730045,0.565084954492213
0.4738206403020975,0.438508618195828,0.32751709395258954,0.5037967497851099,0.5316095234439602,0.52000660875914,0.564429166117216,0.5895083717599916,0.5712158053627796,0.586179124174405,0.627084222199016,0.5979899069698806,0.5734697501573747,0.5567301479927291,0.42030451865293594,0.5648795082505185,0.3117999718865767,0.555109371741012,0.5444404281990014,0.5747212416544532,0.5561565091613176,0.5339285114534866,0.5217388431897669,0.5952974524322268,0.5408784544763745,0.5581008632030899,0.5524181528559526,0.45704768646222105,0.5142966531165265,0.5343110481733802,0.5526785518056809,0.5476925312887286
0.47023908522161584,0.4212137061101333,0.29646914992684925,0.501642440160738,0.5313637285890578,0.5235929296766968,0.5782068386836348,0.5796079073285871,0.5649346868688663,0.5807082342908823,0.6345735985737648,0.6106231118577159,0.5744642805360543,0.5523831765761513,0.380057630428869,0.5574783453043035,0.33593173162065426,0.5483997153723372,0.5438460868690713,0.562030009010134,0.560088983360024,0.5218902599913546,0.5135010043272192,0.5913584836578436,0.5508580459126642,0.561795395520635,0.5450766895039361,0.44335418565343465,0.5208021401563965,0.5260417589238515,0.5327837248636826,0.5474560885096134
0.45661426478064016,0.4048277402747127,0.25772092865587526,0.49676113507890207,0.4958336888686645,0.4963567927599679,0.5748117143076965,0.5770911033291162,0.5830164776884219,0.5710909471783716,0.6417698163092265,0.6163818281005615,0.568855161842813,0.5834196559956806,0.26249884557186753,0.5295991044429535,0.32834419891093836,0.5599728610086885,0.5686569733590963,0.5668615371192165,0.561506730420354,0.5295150696828821,0.5233116029702818,0.6069505045272838,0.5417783268438607,0.5625787085773615,0.5437798457745107,0.4536276420139984,0.511945082946307,0.5256593815828885,0.5259496203730603,0.5400087216943583
0.5029207379629268,0.4648340082675233,0.26763787819717466,0.5047744885686698,0.4597444633419876,0.5241045985125656,0.587153948749827,0.5652954907658607,0.5824422927770918,0.581738228634018,0.6427882539744632,0.6063728527709289,0.5743898286318805,0.5589581627177269,0.19845089618220557,0.5089704228359602,0.319307318742982,0.5755893516868449,0.564074259121643,0.5732086800156257,0.5620498047270992,0.5421867060293879,0.5322285737868575,0.607659519927124,0.5024662776889475,0.5278106040320547,0.49540739213366347,0.4140335507001014,0.4395771942444169,0.5121444716442918,0.5045897360814515,0.5481944880927996
0.5435947970078598,0.5193577447233912,0.3349211184833134,0.5516649704806005,0.4377345001095958,0.5911222137682892,0.6254260226106454,0.5684280249311917,0.5801446094794187,0.579440410578898,0.6343523773933222,0.5905240504612825,0.5791412111021406,0.5548102705685869,0.1868016366793266,0.5162733226237695,0.3123236234874551,0.598406691501693,0.5824845827615399,0.5812072184139674,0.5681996231515352,0.574054077124885,0.5426244009106864,0.6082662302804898,0.4982573072284615,0.5423906786088413,0.4578510884228777,0.39559555966495585,0.4011767901137202,0.48131503491934957,0.48985520155987095,0.5415330394652647
0.491836814256994,0.4578661184176891,0.31359375191225736,0.5232230356923986,0.5011354189451263,0.5367089668232574,0.6227560227276605,0.57186306082904,0.5780171808361931,0.5788421560101447,0.6035423061395284,0.5737164027834876,0.5698249743521582,0.5684742811860919,0.15031757849190885,0.5321852467075874,0.43216281784139365,0.5716865415562609,0.5934710009950597,0.5871402247332647,0.5839344032783886,0.5883369570907173,0.5479173869347762,0.6228549506582923,0.5101984018457295,0.5197126532817009,0.4431913222039032,0.4129040610459236,0.3932828121240952,0.4326934754935463,0.48783217630933784,0.5501480746412777
0.41612488500927114,0.35219965953088783,0.2258309133880534,0.4410244418638305,0.5202434347926062,0.43958499718945676,0.5917442815275376,0.5513592922834953,0.5799045386221469,0.588663439999443,0.6454179019563235,0.5795558404020102,0.5558875829220273,0.5677678799637587,0.1721978068142649,0.5349242229238023,0.5207390261379481,0.5549018968820807,0.5685991747439534,0.5649049237308987,0.5587023458702349,0.5391978905914425,0.5115894756344055,0.6155517955251777,0.49733671432363513,0.5078619200474219,0.4438067353173647,0.37984958762379506,0.3960534671683922,0.4474143264721606,0.49901733071772947,0.5133422045460354
0.3423862163561249,0.26951421214258,0.14685908930568137,0.3964949082863769,0.49583722399751107,0.3258209721306393,0.5431365731382054,0.5254219494113888,0.5876280094951594,0.5550853352821834,0.5984341814640222,0.5751951337875587,0.5635902427000894,0.5126971684079682,0.13732727046954496,0.5270527452285947,0.45709729048110903,0.563821083413877,0.5770652894373565,0.5625474116740055,0.5258389352918909,0.5542502669989453,0.493781071937053,0.6114153170875185,0.43890406634885526,0.4695510189718237,0.37211653833081826,0.3049035791544292,0.3233382085737371,0.39481471682661384,0.4818042184041169,0.43764417071744743
0.2930080248643958,0.23322806526542106,0.12176244825816229,0.3466850356666189,0.5178242450468646,0.29024237078379844,0.5354830456199235,0.48872141989454665,0.6040790367904463,0.5451931074690215,0.5954901693556867,0.5874933858338243,0.5639649127036228,0.5030459093586224,0.1065506238334355,0.5143109499504592,0.47377875086335,0.549002034062473,0.5670498811488276,0.5527650679569462,0.5229269723270411,0.5604292801422375,0.492769753544712,0.5969160158209346,0.40348589808637625,0.45071098761884176,0.34107976165226717,0.2357826625832793,0.2797309440574658,0.38210765880007,0.4763372372255721,0.4146444470242501
0.2582375280959117,0.20583254455193556,0.1079990598824867,0.3061377519020714,0.5181295192321098,0.2482845946008312,0.49205179535366383,0.4722334975610565,0.5997237978162575,0.5584361256249126,0.6097483865844775,0.5894883501318335,0.5494818116118707,0.5049053683157134,0.09788798158246204,0.4663652220729704,0.46902108479301274,0.5276931406048657,0.5405934850794201,0.5447942634123581,0.4919522895269397,0.5169721134313523,0.478209173207782,0.5883275656693336,0.3525576287237522,0.39001268741295947,0.30641418603607473,0.20207561573435529,0.23544289613890967,0.33176694770833715,0.467039613789896,0.35758611533084483
0.25702777347929073,0.2012950395779849,0.10071814233216103,0.30886795673463885,0.5251571625154283,0.2255065979338462,0.44018906617297837,0.48194804633783805,0.5711161294121867,0.5089748564131553,0.590344743243834,0.5949227616422172,0.5110392908655594,0.4912636283875407,0.08075689868452995,0.4608518893610789,0.4571723286211,0.5236475151324114,0.5372989121894256,0.5593326696127501,0.4836101304694864,0.4740420107261025,0.44744293662086587,0.5839759461900949,0.3475819903045583,0.34925226307018375,0.29157263574392145,0.21308195775129635,0.23310030295127282,0.29586789953095716,0.4521676450975285,0.32310583191346476
0.21115485606544748,0.18454423205630777,0.1163755057581275,0.2641849067685871,0.5076990695565531,0.21450944446090814,0.4208852330707007,0.4669794259330784,0.5622011101905606,0.5134951187616568,0.5770825875643091,0.6037918450472595,0.49830464527661755,0.486750773024454,0.07813545247110576,0.3943592780258074,0.3866148625324075,0.48246961026370316,0.4999224956500332,0.4909733763517896,0.36135326261977463,0.41683259468576583,0.37792520105345906,0.47519778649525035,0.2143826466224228,0.3022794474301662,0.22597760065340955,0.12457275725806083,0.18059141556988711,0.27297197139419405,0.44455373764284545,0.2983408375552097
0.18839470655975843,0.1655604523623424,0.1115439533504845,0.23797408432554956,0.49213390757707387,0.2121024196516088,0.4346115239092101,0.4332873162159365,0.546791183947831,0.5519057802728184,0.5944342923807602,0.5854730453166463,0.47751925241617865,0.46479045399820196,0.08148863495806036,0.39641191356225525,0.36429301310360884,0.41278018678623507,0.43713262277594866,0.4452911716689334,0.3005071315810466,0.4006232881785623,0.3732257483974899,0.3895033999537043,0.18791404219482422,0.29572581935167186,0.20928081913305308,0.1029773386899111,0.1647986412653526,0.27408357462772415,0.437941728960793,0.32758650871100103
0.165971865758479,0.1549370096335596,0.100889253447219,0.21825655149773038,0.5263860685878488,0.19306593667367178,0.4053936504309359,0.41929885287927027,0.5412835173206032,0.551680175086612,0.6027469029094306,0.5835272039824582,0.47599986771263136,0.512073938424737,0.10173030330682598,0.44403372167183575,0.39114254509216817,0.41484433042363333,0.4385639788781406,0.42517882919661076,0.30249155845722697,0.3980683198849344,0.37733446631261947,0.3882653914318577,0.19530557497916678,0.3156325393422361,0.22355407282951356,0.11281538792708456,0.17270864993523238,0.30036260911322765,0.4786165953148207,0.33582189160129383
0.1567991115686218,0.14973356267372329,0.0991970884408484,0.2099207948146562,0.5490516638963969,0.17760433347784876,0.35630485354555663,0.4021727318010666,0.5345447397885716,0.5091981165144235,0.5870377959454118,0.5534154509631377,0.4887418209304033,0.5129312355991291,0.14829571373697048,0.4861230071615008,0.3876685622574372,0.44451218381889923,0.42833370129665704,0.4134735188624745,0.3036859538149037,0.39592168556735485,0.39082357685364455,0.3627882214979481,0.19796381331753032,0.322580852976988,0.23397689730849347,0.11286263650919115,0.18561672025125775,0.328723560182242,0.5106213357097689,0.34012814266409475
0.1626185094764483,0.15273038038828934,0.09758589621388047,0.2199202310636137,0.5478282662860585,0.1983853353173477,0.39102645746912534,0.39793229186328105,0.5461597098601252,0.5094943899234821,0.5913124820447848,0.5742283381114377,0.5381480374361476,0.5229314571427954,0.19443292349070962,0.5342632535195224,0.40270756281637743,0.483975811599076,0.4586615432589185,0.450224210744536,0.32378277196024774,0.4318060509962902,0.39405268133853966,0.3456724038540382,0.18853100996695105,0.3244976456680324,0.22317922682683822,0.10776956681862582,0.18226282062526034,0.3431100574813155,0.5387961690540561,0.36939379177187437
0.15562580706483553,0.14381848283705345,0.08784764123723021,0.22720319119035626,0.5284883073512536,0.20036741844387906,0.3974737746415795,0.41571428771567875,0.5339031433932049,0.5139728263917016,0.6003644368279111,0.58309568914341,0.507426936044789,0.5367853677840655,0.1627721585296955,0.5717378185094373,0.37705092919183025,0.49897370763021875,0.46984676179567453,0.46105318540496576,0.3325256954494118,0.42334169074870776,0.40522746440768476,0.38531187497685426,0.19775030331417964,0.33695195380307874,0.21948686459486844,0.10377394904471005,0.17880341958606083,0.3345118030828944,0.5111774326015479,0.3566603013153449
0.18328967154987064,0.16960400294885636,0.10860944362938785,0.25022500875066456,0.510064919236703,0.24085462178736172,0.43107972158841834,0.44518011991601414,0.5370922348052871,0.5479328500457239,0.6107834660700373,0.5867517832837779,0.5218491779407297,0.5499271368715628,0.11223799528190037,0.5706472733533094,0.4042829990965515,0.5135183788825315,0.4702331688728867,0.47252435627776457,0.3586704854615439,0.43410350378323903,0.42593778548250016,0.3916349167947111,0.2122333180038276,0.36470902682662665,0.23315986016437984,0.10779063758080731,0.19435806713130965,0.362608382064336,0.5210320198555682,0.36352646786567844
0.20070247067337998,0.18557183252459053,0.11910296691625044,0.27095093962217476,0.5038084624605874,0.257574441975049,0.43219180683819447,0.46685069853525407,0.5415072014495967,0.5431638332024935,0.623204831671575,0.5942127861092241,0.52413527421009,0.5703368888967213,0.1077572232236157,0.5360738472529518,0.3993027366744002,0.5085790665182977,0.4717910693802758,0.4734823897305742,0.35534684728438437,0.41071667456100824,0.4021832257252407,0.38178444816691126,0.19851566089153927,0.3537143659395232,0.23662242966389613,0.10726616096551345,0.19821632587851434,0.3722451910966975,0.4916079935853399,0.3666629002219035
0.22564914513798584,0.22755887322678214,0.15870625638204272,0.32519979702518365,0.5175110857603826,0.33606594175084625,0.5042635906098085,0.49737932594915213,0.5330754764625043,0.5687264592055614,0.6151443964405372,0.5984804890832272,0.5396082011525127,0.550000024917098,0.1193806438285554,0.5029380750623389,0.4086221290836427,0.5103376382295726,0.4619167076066586,0.46882262894229454,0.35974017556754356,0.43265439245707293,0.41267115457515047,0.39634119112517174,0.20394165651130125,0.3760833071934808,0.2374818203527358,0.10932673381749636,0.20636424367982364,0.38892280491455633,0.47763741534442383,0.4330311161065583
0.2487270203500982,0.29470180586562655,0.2697014487190015,0.3819821237638439,0.5148434553910315,0.4721294906279683,0.6080413120379289,0.5224775880773427,0.5502136040061445,0.5870130591814338,0.606470626480105,0.5966419581438869,0.5798709707277698,0.5527262720632784,0.12560652700691888,0.48744598495152536,0.41573414644063966,0.4962625052041143,0.46513073726911314,0.4641542498772391,0.366129936154858,0.5017726989473159,0.47713944654265017,0.3833808443237783,0.20762090416155798,0.44792481984206667,0.25016738148800055,0.10329609021753972,0.22210096002319313,0.4709777923889402,0.47745296103442625,0.5448099624876948
0.2522758319972236,0.31320378708577135,0.2780758970411652,0.4125553918682252,0.5322683364937837,0.5126877809646988,0.6265118225401412,0.5092423868883262,0.5547132855955899,0.6122152191378105,0.6001503680868057,0.5865000807028311,0.5802427969660053,0.5647512915331898,0.1315355315835509,0.4826573221978987,0.4472936654840076,0.4983011298651121,0.49058061129649255,0.5029799301785989,0.4119612851359111,0.5433141608053549,0.4937334429578515,0.47322399815853755,0.2646968854845211,0.4844875167137901,0.3085895069880302,0.10406044448827934,0.25708494760348044,0.4898315935810391,0.4718205561851687,0.5456684322353453
0.30467800301615355,0.39839901653014786,0.314659283570188,0.4895433204835231,0.5530917423784785,0.5143280457534334,0.6029076044690704,0.5107573878217373,0.5619858250063925,0.5982588035634815,0.5948891357964561,0.5887520767463923,0.5811144591335817,0.5743368572762169,0.15429022673809412,0.5239220602644212,0.5266316041047885,0.5456735281996297,0.5501492890502853,0.5673036486675915,0.5244830286037576,0.5772225026501561,0.5644160975697341,0.5624747763653999,0.42138633537820347,0.5423471668433022,0.4489628502309886,0.18998488347712894,0.39392411802625116,0.5417798348905549,0.4715187913096335,0.5316556542034712
0.4527706624460701,0.5209258336265896,0.4267114294573324,0.5592888500521767,0.5549417380910602,0.5700124135067592,0.6025509019257953,0.5241586960443176,0.5724863243884197,0.59539089363115,0.6223248676002044,0.5920221925943632,0.5761180168977895,0.5769403505101351,0.19239333968431582,0.5367627199875051,0.49978997373196243,0.5823391348345073,0.5839979052352424,0.6128184934572314,0.5820791112577224,0.5918725597643575,0.570108552818346,0.6038370597668292,0.5495781818026013,0.5490275989558087,0.5347078242805177,0.42866290645673333,0.5022296521423484,0.547753215878668,0.5072863806915557,0.5190201416859348
0.5230346800317944,0.5565270457379561,0.4873642827295721,0.5739218715492616,0.5485100230255724,0.5889491867486139,0.6133212311796061,0.5226877121340401,0.5786814548910848,0.606152613967124,0.6009237629311563,0.592660172760104,0.5756536488381392,0.5658295010413834,0.19817422453463607,0.5179202974609876,0.4934100552298557,0.5750985651268032,0.5686644217242929,0.6262465558002148,0.5762816752716753,0.6029341581198282,0.5590401397485532,0.6011540954041528,0.5432662737556542,0.5561856610169937,0.5628873151530946,0.42632231473785476,0.5158366159075034,0.5623665411700705,0.5742291949125673,0.5413873933961049
0.558939830564193,0.5675522649399407,0.5756276203577637,0.5803286935732483,0.5449661399405721,0.5834767949891626,0.6184550579512731,0.5342041908142425,0.5883831919356588,0.5972638565679089,0.611450481160146,0.5935549602730439,0.5566756919498519,0.5651634772119052,0.16998786907164343,0.4868461919541911,0.4860390456742367,0.5499970553763567,0.5528094455459791,0.601668616425779,0.5501934455587207,0.587765373433013,0.5266086621664066,0.5985702668963482,0.5416324104614856,0.5435484431489872,0.5532630035337229,0.41134273086971307,0.5371294370872013,0.5601091523897206,0.5792618500497309,0.5359706949237086
0.5709265285991694,0.599959049541686,0.5756022157795693,0.5774615382459842,0.5530377862656404,0.5871443934204126,0.5900180270006277,0.5327594743027841,0.586070714742513,0.6027091090138512,0.6005754984676503,0.5687998268807308,0.5538600073807411,0.5463606906218228,0.1604524661706881,0.4605076842687619,0.4906096114117875,0.5504062202943341,0.5351646075615148,0.5783838392571212,0.5546732719525518,0.5802782388102523,0.5314561390820671,0.5953240816349621,0.53849028820196,0.5425899709701265,0.5472305728451645,0.4104880213718123,0.5396245685145442,0.5612486862758601,0.5680904124153958,0.5462288320414395
0.5692822703292899,0.5874842745439821,0.5829762952579456,0.5784909165618002,0.5502062268752113,0.6039289888804817,0.602598249671221,0.5356828662500219,0.6054190105660511,0.5790684490160727,0.6139385480726349,0.5754419416180081,0.5591588140633621,0.523315880517865,0.24216204784456474,0.4411795388110229,0.47467815266183777,0.5468030894275384,0.5222350618291705,0.5854056044938702,0.5521764699310636,0.6097254092519724,0.5307293094579011,0.6040877515608765,0.5459508802662478,0.5533816032366641,0.5723881721381279,0.44902363905771736,0.56876563359579,0.5373108469684285,0.5710422864995399,0.5504125254826966
0.5525111188754774,0.5487552052788014,0.5677001245303361,0.5460327865961481,0.5376766273849043,0.6009448900326908,0.6118380862545507,0.5497945633400549,0.6080281539475427,0.5767051670439702,0.6096934928089515,0.5690564927968373,0.557527002492038,0.5234534488994762,0.41164951600904187,0.4621387165723232,0.48621168284086913,0.568901564212855,0.546147926935538,0.5931321644530549,0.5946021326530642,0.6109073656577233,0.5493979210201192,0.6207433959250706,0.5839032392320971,0.5989686866520634,0.5919222191744171,0.5285054350713168,0.5882337701682419,0.5261530180665099,0.5687786665836314,0.5537628921109468
0.5665081915662875,0.5786039694736762,0.5669954453172257,0.5735884825364268,0.5335084859718586,0.6068511160291536,0.6071945451638827,0.5819610645211695,0.6055720265236713,0.5866326824432777,0.5922809187359515,0.5820176333787561,0.5562211300478421,0.5267146453662979,0.416659157575352,0.4807325124794488,0.4642619242068111,0.5625118313478374,0.5489826827778943,0.6023786088972201,0.5866210695801364,0.6152084087788454,0.5568709124105342,0.6322714082051193,0.5975290676540732,0.594620717892163,0.5979102953452431,0.5620798408399574,0.5975907509663707,0.5479380346605094,0.5868732894900126,0.5571169040173336
0.5710200643716021,0.5718883063820512,0.5840811492077318,0.5618980154124449,0.5413816710240074,0.6012602182299926,0.617254037651477,0.5864114387918864,0.5975016630390351,0.5779096734642089,0.5979407254337672,0.5984175356469632,0.5376410782077778,0.5238045744955397,0.3891111239491689,0.4788626610446025,0.46000220826654337,0.5712005764515751,0.5322585766032595,0.595020599329839,0.5831461357155314,0.5925064990207662,0.5802340185640906,0.6458165740305164,0.570950006966453,0.5720459546654464,0.5899231816375092,0.5695729604525526,0.5998688280849138,0.5673911577588862,0.5884512741986212,0.5576797129887754
0.5855051397089062,0.5925612275221002,0.5750652071018325,0.5796815747847925,0.5429499183731656,0.5977926300655385,0.6103349415465815,0.5697121530869218,0.5920469794311751,0.5855394700565348,0.5910008830472071,0.597207452864954,0.542721897070749,0.5304666367972852,0.3886081709898592,0.5253497552200201,0.4609564565349822,0.5749659915103265,0.5254837098797887,0.6093208722248025,0.5917337207106388,0.5932638193151294,0.5858237472880115,0.6236973402634023,0.5761220618522778,0.5569429265381185,0.5858254685731574,0.5603959417022915,0.5875684860987493,0.5928698955412086,0.580682033496013,0.5728079423487138
0.60677691384157,0.5907592629741756,0.5750931965952666,0.5952284595352109,0.5580766891664641,0.5990749255608341,0.5933600226065185,0.5773694547358463,0.5895364771324179,0.6020617808756916,0.5795015231493164,0.5884039109666843,0.5447385272849719,0.5143931009620459,0.4322272320482168,0.5321701200890381,0.46260198890846294,0.5830568280643624,0.5496934198683983,0.5964383848421306,0.5886185555299845,0.5923665910188514,0.5935247682504152,0.6059617334175091,0.5894695219384034,0.5558006434850742,0.5787602000790724,0.5689577996139579,0.5774062840823548,0.6091283876063271,0.5722200904749148,0.5935398631747293
0.6054643614290693,0.5731095307099014,0.5707628781604095,0.5975235852120262,0.5503526335628064,0.6051322277714384,0.5926286962359204,0.6020678976420508,0.567775451448453,0.6140309194092679,0.5721699967685887,0.5987228902731512,0.5530128435827857,0.5236973822319504,0.4519397740657243,0.5218540175085105,0.5045648088602799,0.5824924891373113,0.5667113848234355,0.5926508733231506,0.5923519331391707,0.5977136809589996,0.5871228482209889,0.6162689750772739,0.5735581221761992,0.5795048927604687,0.5812656908292344,0.5768998549178797,0.5642311307574128,0.5941101870242633,0.5709611588108792,0.59486527247561
0.6111555660841779,0.5839191829309645,0.5643003069818624,0.5889868058849519,0.5523790690814279,0.5938821092787072,0.5835403918030719,0.5948008184572005,0.5496406520308006,0.6079776763617266,0.5852299609399889,0.5833634027579429,0.5759135723089921,0.5348453511772315,0.4509344956568859,0.5069838407466012,0.5097956556608478,0.5852458370263838,0.5675694010263697,0.5862308443045148,0.5755510724489721,0.592033049664479,0.5858475003755665,0.6113220869525611,0.5899171773331031,0.5878853393346928,0.5901919260928961,0.5642441339933608,0.5865273450634967,0.5896662188459105,0.5794506018502679,0.5948735734190382
0.6019381574660856,0.574586041164014,0.5614727464953231,0.5719779277713575,0.5371967795775525,0.6009894373093942,0.6055183617749371,0.6073272605723283,0.5547910827680784,0.6231363416711417,0.5917869091794481,0.5814969603917923,0.5926922010154558,0.5458019720933516,0.4439446720898408,0.5093186502316667,0.5053124448031365,0.5742073081902483,0.5791268417077928,0.6258171496929053,0.5781022571736041,0.5817563655283453,0.5931641957914322,0.6126929465952915,0.594803729337082,0.5813858323514673,0.6029759596553244,0.5686340709966502,0.5917275611768607,0.5804659313871796,0.5691534530831803,0.5806755724940604
0.5914006466479469,0.5648953749220311,0.5659290509362944,0.5699600551261312,0.5221634394688723,0.587815456149738,0.6135063041303179,0.6021079033003742,0.5517116253141507,0.6074285251850369,0.6044418370588001,0.5708003891181068,0.5881047275558302,0.5523878326181753,0.40907953123932606,0.5662187816732209,0.4953715093908273,0.5999132199623429,0.5889364121786014,0.6166603997090219,0.5816254292363894,0.5884508825270935,0.5931968622123098,0.6136060356858577,0.5943155262726099,0.5639578757588883,0.6050401801033876,0.5610259896388392,0.5665139908034691,0.5598430257686493,0.5618111827590115,0.5871879845040788
0.5939811797348011,0.5557518223152353,0.5648634877628482,0.5909343439681831,0.5278279241086112,0.5904736613237902,0.615419265791898,0.6094636981668091,0.568510557989339,0.5988624596919672,0.6134008168246412,0.5739459708265153,0.5802791729300747,0.5627629498357538,0.4493265061979126,0.5427961746525094,0.5294489208134041,0.593688781840302,0.586143248156624,0.6093214757864018,0.5821759114394318,0.5964617066310476,0.5686975701463064,0.6162031022246737,0.5932743361515898,0.5621038686998072,0.6012756490953044,0.572567031761495,0.5586141944980705,0.5640859480168481,0.5674223731548289,0.5804240775778022
0.5820651732347897,0.5588218895502339,0.5676635697732952,0.601473707236837,0.5268285782079305,0.5922550440417096,0.6072919344094325,0.5982002541523608,0.5759512305338257,0.6012235140408997,0.6219424208569526,0.5748066264843654,0.585269668277141,0.5701539717451625,0.4500085029795726,0.5155854994957738,0.5291489803887575,0.5864169077256656,0.5935476663942412,0.6076850273228924,0.5789681289813546,0.5955527995920162,0.5634324800288839,0.6298481767928923,0.5934958940063182,0.5568812754507282,0.6049662172809014,0.5701778013466918,0.545564260180825,0.5532865574719188,0.5525212025266835,0.5792986426591327
0.5914830047451396,0.5723776639058298,0.5622591461538082,0.5948004130011948,0.5321527745628485,0.5935117198853943,0.6205769642868031,0.584333984327583,0.5781193267707838,0.5936299874844169,0.628059564830437,0.586053978153144,0.5888282384857235,0.570322492235753,0.3531627282884928,0.509657296529558,0.5032007900517397,0.6019810554535181,0.5936072909053176,0.5967035637837341,0.6067044440211395,0.5788354476721929,0.558474125583881,0.625149383054,0.5858792935476074,0.5617682466202569,0.6071985896725813,0.5860026723650957,0.5668703670990323,0.5545675104848478,0.5711305316343216,0.5749548842398053
0.565232420157415,0.5493581653365496,0.5736840186689238,0.575019379018352,0.5219434493994553,0.5791185347560628,0.6197143530340901,0.5870872956615232,0.5804394866954188,0.5952209497429637,0.6232246994457715,0.5763300475372577,0.5982140033401318,0.5661533596204613,0.3146708562473215,0.5324114447606281,0.5309382941814373,0.5831130095949906,0.5882604793848345,0.6063365974551989,0.6200033894618358,0.5873779474412064,0.5536377695654693,0.610006852565105,0.5744158953826282,0.5732311144667919,0.6131386760666087,0.5830388501247712,0.5567998961339762,0.5564402178540022,0.5539156278465258,0.5874141822177719
0.5394862532683993,0.5310818496447198,0.5737610533368311,0.578202485853736,0.4971663656667711,0.5686946180635704,0.5972775863649886,0.5717203091600367,0.5692150940906093,0.5978647209131505,0.6392305942023824,0.5727495439539987,0.5875775963724541,0.5664125148627135,0.3154884734355847,0.5245977832127169,0.49656933293670535,0.5885899995418438,0.5779112172149468,0.5917305677662581,0.6127569847749847,0.5607004320047464,0.5771250107907075,0.6109654864562954,0.5685688516133065,0.5573908940247954,0.6008264442357154,0.6004640704595587,0.5573555449829355,0.5455764767799098,0.5441630167558116,0.5534023151543019
0.5048487921198022,0.4998360898484453,0.5489511244141272,0.5393003943852941,0.4652959998224726,0.5798814960798824,0.6190630753256543,0.5875689831800486,0.57736220692885,0.597632696981043,0.6140364389672772,0.5798730044358185,0.5846734641427229,0.5863910942834809,0.3130248159986011,0.5675285134316521,0.466141764133265,0.563440514775948,0.5648507928812867,0.5876732286356607,0.5956918383925989,0.5351400499462633,0.5756952451155488,0.6189392206790711,0.5618719367649394,0.5619533343955592,0.6022273339452533,0.588375489211928,0.556546713231,0.5411461170926577,0.5300554848120145,0.5640627976390062
0.5029210598192058,0.5099738698381131,0.5621634493941707,0.53654545365402,0.4738685673836516,0.574778359775221,0.6108440892449001,0.5867665777575475,0.5932459138057262,0.6029679452058123,0.6162768716703098,0.5636138937227488,0.5745440499471259,0.5931948835470426,0.2926472712909636,0.5617296068789064,0.44783938189540073,0.5631626716352098,0.5622511484605393,0.5816260930282895,0.5904220546092236,0.5258252026498433,0.5776140291224774,0.6331114705163374,0.5528775632873462,0.5470122467541461,0.6170931042400336,0.5825566843839463,0.5597471475903837,0.5438303631479928,0.5233289750748207,0.559332414635834
0.5050700979750644,0.48761996958296683,0.5404749068166494,0.5334869308671966,0.5106123212720104,0.5825345043464232,0.6047869878266217,0.5930662664394917,0.5820608070648601,0.6122135191388574,0.607322355105659,0.596325035181569,0.5733689474059211,0.5994006392846747,0.29925908238173804,0.5527824886610149,0.43578495428862096,0.5756001640457162,0.5761180017702472,0.5792100384767536,0.5995960351248257,0.5457509093331829,0.5752325706564672,0.6328489955125298,0.552722067158324,0.5327628357451486,0.6093390956072353,0.5867239247540668,0.5571929140999381,0.5529735233257602,0.5223084330837553,0.5528346809689433
0.48454476184275963,0.47638922505742176,0.5402261187619581,0.5201447465700082,0.5258638595079193,0.5695036527037689,0.6006434325781109,0.5717164018500691,0.5781999797158539,0.6048231548545293,0.6125388054522216,0.5947243719808961,0.5836965104985712,0.5840432646666578,0.3292622237362277,0.5727417677430524,0.44974728476814496,0.581139725443677,0.5757301065645617,0.5774008027020341,0.6019730020954093,0.5559122690906926,0.5657850113068599,0.6236084208466828,0.5497867018010654,0.5275875592635972,0.600134241802857,0.594133321300276,0.5465827023382408,0.5647061132868361,0.5266539509004624,0.5653955061627398
0.49482416500583826,0.48589236394863144,0.5399217475435769,0.5193924405005101,0.5406745615669379,0.5853643008385467,0.6062763682593437,0.5640161852670262,0.5937442000403435,0.5969396202527566,0.6206025919872715,0.5843794270397802,0.58204105354364,0.592540201465729,0.39044523159082,0.5825127840705537,0.42814228991625747,0.5892659062615442,0.5689285090604335,0.6033263505073521,0.5962325746447266,0.5564639187604823,0.5699660046061776,0.6419640704222185,0.5577154052706441,0.5424355459885741,0.5847038710535557,0.5950180215062795,0.5693682109874829,0.567481095640646,0.5437001838353721,0.563350927750859
0.47304100462579735,0.4793646461454575,0.5388624665842876,0.4889758604686314,0.534555188412345,0.5865661924492205,0.6086206959008718,0.5749715444718966,0.6109342209000768,0.608956151257964,0.6247175588585399,0.5769897573244274,0.5887529587187115,0.6026131895361386,0.46936458054973285,0.5731831475601572,0.40636527456809546,0.5903684280032064,0.5760889916028056,0.610662495900391,0.5989624921864807,0.5480284784842868,0.5715187057150519,0.6150041641461157,0.5664954391585235,0.5309659639344257,0.5769778514550596,0.5953148381495827,0.5568151763825151,0.5710497941885802,0.5293090258665853,0.5476917967050134
0.51063008176757,0.5039035642158818,0.5538267490940063,0.49688073045348835,0.5449332170536141,0.5804403911750966,0.6179925121147614,0.5653664705478945,0.604197340953951,0.5968057964936002,0.6275571719234962,0.57759950228757,0.5781951363277513,0.5970402359208586,0.5260451631047918,0.5936665643081804,0.4077060579609122,0.5869511201655113,0.558375614246899,0.5998292661013487,0.6037119199169236,0.5536327892350714,0.5706070676425328,0.6176572137813046,0.5891835028800427,0.5385416179530904,0.5973200605648552,0.5809009371297957,0.5723397664588763,0.5831618072775955,0.57809031963198,0.5269528473520788
0.5074369260882556,0.5147108261101851,0.5410448275447126,0.49187544052985244,0.5557867471717457,0.5503054310002633,0.612097282848286,0.5589491069585364,0.6104860062483817,0.6070040433463273,0.6314278017515411,0.567102567076117,0.5900409474837125,0.5944786481745217,0.5636997787844851,0.6093751220989412,0.45934511168402903,0.6041297077946113,0.5573957887825478,0.621324474888318,0.5920519096234695,0.5541259389011275,0.5510227109820067,0.6198839646861258,0.5981691080802194,0.5158029314095187,0.6103906063619418,0.5933727406413256,0.5758302265200035,0.5793442290164594,0.5689692592906708,0.5230705271763245
0.5366693357778831,0.5508799575859435,0.5538164695934604,0.5659828083835268,0.5730853147588837,0.5390513781918504,0.5915637869887038,0.5814198407242186,0.6233121171254097,0.6027437843235304,0.6241185174808868,0.5859635071748577,0.5922494766849438,0.5985861433720152,0.6087792787741328,0.6017974487772166,0.4376433924462746,0.5918905381780588,0.5771529763465848,0.6115447481794809,0.5907405225566578,0.565850779019788,0.5507906536023235,0.6200158386471828,0.6185857604047991,0.4855305437527475,0.6180255467978109,0.6072578415213625,0.5674092917278482,0.5456091030153161,0.5465983045356198,0.5160033704783595
0.5599674531897181,0.573753528481848,0.5491884214816221,0.5883246134136892,0.5937635025237458,0.5400952197786326,0.5890626387360678,0.5830815186260585,0.6188086462982865,0.6021637836431095,0.622756677433908,0.5942382720241399,0.5973588358481394,0.6027875585170572,0.605939085094886,0.6059889734961881,0.4438938189963446,0.6098540860747885,0.5814501900830082,0.6187758040771167,0.588595033865349,0.5864764259482831,0.5501003436135696,0.6291135867214082,0.6207449026555141,0.5436800973752085,0.5993650958796528,0.5884931627469103,0.5630758218666294,0.578414013122758,0.5604226074192451,0.5886990805425492
0.538570794279821,0.5618167954719877,0.5424344566073658,0.5382190373028455,0.5654691796262203,0.5331703045453682,0.5998517990511276,0.5967843744315697,0.6108619643904949,0.6075567062736296,0.6205609003689183,0.5776724063641292,0.5867862940610284,0.5675793412617294,0.6015248251364569,0.5672663648791518,0.4720445435202403,0.5957522214504656,0.5850501680367026,0.59903494020495,0.5945730732266874,0.5785332651900563,0.561868589438729,0.6443406939043919,0.6168143292130166,0.5667205386256136,0.5903917392735871,0.616430217247582,0.5558892812715439,0.5530499400502986,0.5428553231408566,0.5305261192555033
0.5647368436109361,0.5745152043067945,0.5388333309317739,0.5454283004078126,0.5592138739830546,0.5381559285368307,0.6076907930306836,0.5837418440512199,0.5927671351023358,0.5886468480367855,0.6048227844400125,0.5729900947718036,0.5688739221543888,0.5498692492194501,0.5979033669254412,0.556729382687311,0.4738266179994488,0.5704160481928171,0.568648654949202,0.5979498662982965,0.5787503574793553,0.5649872841135863,0.5657779949449906,0.6412787669787168,0.6245992931311513,0.5415777815846794,0.590235436422776,0.6120550097983339,0.5698322675774166,0.5385925524309609,0.5444824339046401,0.5216587133985362
0.5678859325197334,0.5661478006931535,0.5530505307461908,0.561048779673456,0.5664536427387725,0.5494369221346376,0.5996209586203367,0.5810446012609045,0.5758808814233793,0.5670434909250215,0.6083904269590201,0.5420383665498991,0.5574560844506915,0.5263188212758831,0.5628209265012156,0.5350331841083156,0.4533815379904653,0.5413212999416221,0.5270855759355859,0.5769063301177129,0.5527403799595203,0.5496905948536455,0.5303981991850639,0.6280869235129902,0.5953193088899886,0.5245998172149386,0.6017299940129757,0.582769253720516,0.5556494839444812,0.5123142518482511,0.5454398543313519,0.503169033391599
0.5607887897793593,0.5549483271306328,0.5491454239106259,0.5737278369995433,0.5695523219764373,0.5554136270027614,0.6053220565877622,0.5821967718086145,0.5800127340470977,0.573873836180196,0.5837044339203712,0.5332528843982423,0.5381150816894547,0.5348477548996367,0.535009684370165,0.538997435806579,0.43569129369055704,0.5307209179514931,0.5211238459677761,0.5857264164919784,0.5499529511666728,0.5443897801467963,0.5146272006402159,0.628405265894564,0.5937830412163501,0.5182151316255714,0.5946969249856413,0.5664766639542393,0.5651822533613498,0.5191045834948431,0.5276782608706956,0.4981502437896914
0.5668738948688299,0.5562080134572644,0.5297877710855037,0.5629217806266178,0.5614503470689889,0.5450178156421996,0.619922751333883,0.5687525105359481,0.5752293511517816,0.5676796878949659,0.5908662410599321,0.5263960670711976,0.5404039856270129,0.5214625604799346,0.5246092365835442,0.5429933503060611,0.4189305778325618,0.5256599916296376,0.5317233808004236,0.5773445386550136,0.5625832306026943,0.5457990543852649,0.5272813673534822,0.6110006687780061,0.6031468604389647,0.5157678041672815,0.5966879928218898,0.5646311497299341,0.5533855729733927,0.5279341198481227,0.5378555908660578,0.5097093393922347
0.5676589608424591,0.5460712112930186,0.5091336161277877,0.5364406376529178,0.5478360053563143,0.5463221446954023,0.6057535048512004,0.5744173700798676,0.5761169956348686,0.5730159657846841,0.5970148800445658,0.5216131165746574,0.5413248093274787,0.5239713184912893,0.5223818698722176,0.5246918192235097,0.4582972662490681,0.5238448473001514,0.5321788907436571,0.5745863800065503,0.5632601182389649,0.5656623639478799,0.5369293769594736,0.6047478816385996,0.6064932045181366,0.5242504413643223,0.5818964194698943,0.5679710813824044,0.5417995509799165,0.5031499896231688,0.5404548882614448,0.5362333429808332
0.5619713616844342,0.514482184210558,0.4513123491394073,0.5272550250302239,0.5705619431233764,0.5128948194915988,0.6189553346490335,0.5736412427884701,0.5719754085609359,0.5898119639563864,0.5991660924546345,0.5193067272395879,0.5396596737714212,0.5219353859878209,0.5051533764755565,0.5126738118190213,0.4955440368358537,0.5395643035625528,0.5451866900593232,0.5838349546260204,0.561477748193759,0.5440424836148616,0.545755033029121,0.6052999651357718,0.5867646327707123,0.5155856934674188,0.5730294220515475,0.5398637403270556,0.5539506327450541,0.5004192569829162,0.5353290982465775,0.5431640009727468
0.557908978398864,0.5188493811223971,0.43710175646105043,0.5314475266452559,0.5386389372618603,0.5131161052926463,0.6317705560871891,0.5904886467909929,0.5882190087677532,0.5934226553653295,0.6005856321412129,0.5325904211379968,0.5321504347406107,0.5101878138040501,0.5019916271588167,0.5062208512276798,0.5075997640488792,0.5363782450524002,0.5437298662054824,0.5908830573559798,0.5611844246787703,0.5423267334521649,0.5338010928303691,0.6144730587581093,0.5808461834853365,0.5219431455062207,0.5887679051499615,0.5287995396831651,0.5580093182265737,0.48788523483664914,0.5328557649410386,0.5419667591095196
0.5763795104931146,0.5412836552935358,0.45468192532141494,0.5562194046073805,0.5246952324864722,0.5386805841252955,0.6219766540748837,0.5912615284188156,0.5826908770464851,0.5896894604978602,0.5964422423125426,0.5254891778679971,0.5118827000703705,0.5064600015223939,0.5008477089263645,0.508733981029633,0.5262103329083998,0.5350488218774601,0.5447810996051863,0.5874120978235906,0.5524003124244024,0.5444017461954078,0.5354677193138584,0.6320814501688603,0.5828250720417949,0.5465653204078897,0.5835071448207567,0.5203823625679629,0.5590152386804097,0.5102912185515582,0.5398989724873009,0.5410604182882075
0.5600327989061391,0.5356883691594803,0.44318841134545695,0.5550698022938696,0.5106645767030957,0.5268823659061468,0.6161019570834121,0.5856283743927087,0.5515622289046007,0.5959414334104407,0.6115211753556662,0.5261839891025772,0.5215288737405315,0.5111931865038781,0.4954599144180798,0.47819097012992673,0.5382177908100196,0.5183587246611863,0.539284830783421,0.5612198649920317,0.5433510453166694,0.5441820476093433,0.5071762615800588,0.6295832228666254,0.5424392787299599,0.5333204842203445,0.5460427476464877,0.47022209319208796,0.5278014978129413,0.4976359764242866,0.5326440318877554,0.5297427264753507
0.5663800505860315,0.5403991675562798,0.4317377238304081,0.5986616186176641,0.5545583714696414,0.5251738428958501,0.6094213024080863,0.5725082104278254,0.5060588667032677,0.6065004332143435,0.6119939292333534,0.5291185135957952,0.4893132673930154,0.4993634115043988,0.48622638181150224,0.49007463422943953,0.5197320638854706,0.5365720338229316,0.549232449590237,0.5601750935230192,0.5603427318638068,0.5520328090005631,0.49720088684451147,0.6206981830589284,0.5567898871497912,0.5444555702522846,0.5817963948951839,0.48352362377299274,0.5706410424258292,0.5518567212050165,0.5656929886549769,0.5260928351744303
0.5590027064369871,0.5030240254500971,0.4195333738328584,0.5747511173321898,0.5618566637394489,0.5115223681048673,0.5982153410200093,0.5886652560175087,0.5228172944611242,0.604503669405096,0.6014967965271341,0.5360804408724036,0.4819156018332511,0.5535235840890684,0.5142987786601796,0.537261237353237,0.5205907279305633,0.5786301223262247,0.5448224321012183,0.5742181387893845,0.5301728043945748,0.5701115244525523,0.4608543750550078,0.6233123222807238,0.5507102372708896,0.5643673344344831,0.5769915132391654,0.4844527623891999,0.5750537133383564,0.5617585464828116,0.5690412141728522,0.5290256950833285
0.5465309976189832,0.5017843644005291,0.41232500201047584,0.5813332840716434,0.5667702590373289,0.509660402376551,0.6256636323176261,0.5620577920590093,0.5294559145787314,0.6221423157395529,0.6177571537940558,0.5258328319842454,0.48809508455508244,0.5527966222051885,0.5204228746894359,0.5597319668012326,0.5534890277830966,0.5956676071444043,0.5960856813123718,0.5746530745895373,0.5743434008570896,0.5747268649975821,0.5037378334765332,0.6211141978831467,0.5872921821853896,0.5662453239697203,0.5847150175377167,0.5007845940598541,0.5915999840216126,0.6048937517209261,0.5695511120766295,0.5339799491155763
0.5548958448436405,0.512615353819283,0.42046884848559696,0.584777788994709,0.5674029836930492,0.5079138719712377,0.6293944595870111,0.5335313774905472,0.48743253404662035,0.5647710545055298,0.6164737507978559,0.516871011757579,0.46790754273921653,0.49222369070957894,0.5090324206279986,0.5493632130635491,0.5461982600817055,0.5641955443726392,0.6031180853033549,0.5571720070023529,0.5215276439415026,0.5621967850715803,0.48050059698197867,0.607489644183989,0.553715478261326,0.5770857772350242,0.5797525504167176,0.4744754933409445,0.5706045174068022,0.5865577361868684,0.5732930836638457,0.5464259259449915
0.5597816429970366,0.5283937843231099,0.44700718253490423,0.5950131294358432,0.5628040122209836,0.5205969699416939,0.635446859643328,0.5309439673676781,0.48220419443659823,0.5710408362028749,0.6312895239792549,0.5241169194340114,0.46212384109964955,0.5108567194094542,0.4911122359824103,0.5589762156049876,0.537575013259711,0.5690730763826615,0.5802655103307925,0.5451086986531055,0.5218290933049832,0.5676705293448499,0.46941598831745157,0.6090092646111835,0.5072544516088211,0.5618208454036164,0.5032162398682276,0.4458368150808494,0.5242451299675124,0.5614231971758379,0.5321061858087668,0.5513741157818925
0.5300123181270155,0.52139660239119,0.4530748004864873,0.5635811381018874,0.5474370228319025,0.5204183648825449,0.6174538259303768,0.5363070552148579,0.49181492798340765,0.5831041459300947,0.6367365102089511,0.547887637555228,0.46130165865644823,0.5255000599513973,0.4951797429453211,0.5624907228958271,0.5318117055017333,0.5734412920997571,0.5938450310070036,0.559131760330462,0.5248088455605449,0.5731822422584645,0.48786105042574146,0.6128415852590128,0.5113168040692195,0.5703577255869692,0.5228134655272183,0.46705646127979783,0.5311203503138042,0.578771300103246,0.5535336362844956,0.5399977353132566
0.515128869388739,0.525970223208883,0.48570491848919994,0.5542724102862024,0.544778603792754,0.5402532807660729,0.612329312400385,0.5400663945984747,0.48693285319506385,0.6008370419801246,0.6305522959778078,0.5487295010683422,0.4900636354371586,0.5412109225453925,0.5395296225189083,0.5788945633000218,0.5364304816421344,0.592496012575586,0.594073298458961,0.5672989904949515,0.5360763903425383,0.5701161128654957,0.5021595666382619,0.6139086382391334,0.5322471666349138,0.5695022816438549,0.5129780801201309,0.4800839158876582,0.5413973637670408,0.5728819871994553,0.5270547063395847,0.5415383924087274
0.5303641456485,0.5372377872095964,0.5023797526100346,0.5608059341582341,0.537558958993869,0.5581107325640797,0.613777860150067,0.5393771360283335,0.4818641195139808,0.6082080121137237,0.6282783535237555,0.562435482399605,0.4791563433225745,0.5319860451955929,0.5370432663087761,0.5851712026188003,0.5105229263007245,0.5769016434683412,0.589888891558537,0.548873331847965,0.5236800639667996,0.5649953307872382,0.4857457376894829,0.6160173955845702,0.5438726492012624,0.5653492871414207,0.548006288126718,0.4933665867555761,0.5441126314857034,0.5543603831796982,0.525975499117715,0.5598469838591726
0.5300880552236071,0.5591402218300203,0.5039081404110197,0.5645526679997097,0.5290234319252214,0.5623081197437134,0.6084475521310351,0.5594372731075503,0.4768740859102305,0.5995467755433412,0.6184598134747641,0.5810715657205265,0.47028458354658254,0.5325143196742936,0.5447491085626042,0.5858350866270632,0.47956531660147483,0.566647357057779,0.581489800814349,0.545907256969071,0.5197607343486061,0.5695894985594467,0.48270944476667355,0.6196369134200292,0.5612763345816378,0.566471018037606,0.5573443113795333,0.4830257055442182,0.5369474736763125,0.5473920309463849,0.5293809296897929,0.5613811977038199
0.5810571664611688,0.5968943700247258,0.5631599543150778,0.5875757102642432,0.5363070675070385,0.549552281357248,0.6039376986999843,0.5592062110837612,0.4973320592094157,0.5894548342873724,0.6271129497924064,0.569055904620666,0.4714401665817398,0.5384361501290451,0.5514558700701957,0.5897464636112231,0.457279351543439,0.5815130585685488,0.5761646467838029,0.5522429666954851,0.5289948546858576,0.562539650360169,0.4524733504410703,0.6138592121634603,0.582147909499823,0.563162009079762,0.5680927297764358,0.5530163018590928,0.5406088257320398,0.5381688687034321,0.535082390518336,0.5577086192370202
0.5985375813401541,0.6113436462306341,0.5558042649711608,0.6005221166333614,0.5629812546607007,0.5626208298558293,0.6165061016122078,0.5781776470254707,0.555965456128225,0.5918917894861973,0.6345074893987976,0.5600034361181874,0.5227995138832298,0.539247574578503,0.5548932823130586,0.5986110672211571,0.4450878362206283,0.583508593245512,0.5673226670539462,0.5718031927881144,0.5522674828949978,0.5732297946314988,0.46535179323216225,0.6097612139973201,0.5971397992281386,0.5636868111194455,0.5689018475416314,0.5396611671430582,0.5362422834405516,0.5216907099595351,0.5457138141049942,0.53114026906107
0.605607163274128,0.6046698995332505,0.5663796043794744,0.6059339703797568,0.5584467348606559,0.5855492810585856,0.6216379167873267,0.5715141610871499,0.5569053061791593,0.6085924616310461,0.6349510010451613,0.563419570585046,0.5272283419995034,0.553872231599009,0.5558326710709265,0.5978063200609163,0.5142737708610632,0.5788754188770233,0.5577068149626436,0.564661007149597,0.5507385466740771,0.5700838951140317,0.4725981217743751,0.5912498728002045,0.6071195906661271,0.5553485697577991,0.5854125181153957,0.5325637467369373,0.532428020891552,0.5271387230692497,0.5592062576356884,0.5298496049176542
0.5904425611619963,0.5870070693953733,0.5666556220516403,0.59344076376478,0.5518281917418122,0.5964846151133076,0.6303248680565319,0.6000464525607256,0.5630648154788198,0.5898615203470645,0.6321738796241316,0.588257267962498,0.5597892961221214,0.5709766563923457,0.567809598012015,0.6006826427306144,0.4884047851956961,0.5701186532570541,0.566934504082294,0.5612864158581585,0.5590342001485262,0.5617162359130301,0.4853820263358801,0.610679710856648,0.6105659106544978,0.5488695501831868,0.5709341996881276,0.5304945034118433,0.5536225982275891,0.5403149358060375,0.5498112827974841,0.5289057667465009
0.5933135996333254,0.5900302525151306,0.5797807546630298,0.5864989100623093,0.5468703127323211,0.6119016783066011,0.6272165215814764,0.6143830897137401,0.573679074529442,0.5927029173313447,0.6602343426200394,0.6135462809143326,0.5696213049524674,0.6055621068005359,0.5749031747146254,0.5843488231507918,0.4972971384823035,0.5800969338852355,0.5248121704988189,0.5872437344549111,0.5780689171811111,0.5798738691700538,0.48068747344284324,0.5979513023214422,0.6149584431444017,0.5287100962810705,0.5233863895215447,0.5244785609066906,0.5471142895052998,0.551870703004814,0.5652376758778725,0.5397603644574778
0.5946475364525416,0.5943373973962789,0.5731114711044176,0.593884380538038,0.5317900927321841,0.6112480389573771,0.6303392541537924,0.6140990843133376,0.5713932557727648,0.5862072083797072,0.6408527979018284,0.5797496641686899,0.5881255158161545,0.5891852769044887,0.539608304077722,0.5539711602954469,0.5073697162055821,0.5678074547936798,0.49642900964283365,0.5714143616862888,0.5823100845188862,0.5837148427561143,0.48412286305591,0.5864346326892487,0.6040043788174558,0.5229795116904477,0.5231256051552227,0.5399775259132089,0.561456640426437,0.5399067815289866,0.5540186932458258,0.5361616741649158
0.6010526078957521,0.5835161870980565,0.5726011480783826,0.5868926329544473,0.5234525776675993,0.6049676220297173,0.636974073983025,0.5970231581002525,0.5863551957018247,0.5863321855038981,0.6359414317214238,0.5801785871858409,0.5865921234226503,0.5679319883123704,0.49288792830508044,0.5433935557325609,0.5229724393747204,0.5818826116829703,0.4945273739969531,0.580403661806749,0.578683885366309,0.5927693060258163,0.48786010719383865,0.6144111033407325,0.6176943540935023,0.5203970664595587,0.5297738336234765,0.529006463749869,0.5786867377216716,0.5524817849137791,0.5526423077636684,0.5527869375313781
0.6096696783388826,0.5952632394052686,0.5812756381873694,0.5848566926176844,0.5534654423779557,0.5981663565402635,0.6313191481731724,0.6169627109614444,0.5823555597467753,0.5946235561276754,0.6524984483398839,0.5647311201089398,0.603972443619071,0.5415842215850137,0.45354381843855407,0.5374468018995557,0.5137207005727049,0.5715954832327936,0.4929293940160342,0.566065256630155,0.5750439144927362,0.5940280489048866,0.47970266787823546,0.619117565114935,0.6086678030720529,0.5220153125596947,0.5316035085795932,0.5324559970574043,0.5665616653358962,0.5507094413046096,0.5734324776714588,0.5557928274286308
0.5984912227027213,0.5833936076676887,0.579396414770216,0.5769554008324866,0.561595573584496,0.5984708395267204,0.6270021983417688,0.5905800162795036,0.5649840406313205,0.5773934317762968,0.6341235911501286,0.5561641451748973,0.594823241607684,0.5327143078421464,0.47840535006106943,0.5531080387141691,0.5256251295066572,0.5660976826007427,0.5010229595275004,0.5693474365464337,0.5785255138666887,0.5896411252661675,0.5035199091692077,0.6356991849367342,0.5996836961197127,0.5322170354846034,0.5146753889972695,0.5518436720639097,0.5803568995400892,0.5751681266494337,0.5665929288694014,0.5275701174475911
0.5938050125322136,0.5698869983407069,0.5831431455535667,0.5622929336454239,0.5524112391621632,0.5988424892916266,0.6190215721873784,0.5723114072467625,0.5845505801835715,0.5624415210289464,0.6131643985411586,0.5258256690284098,0.5716507566234532,0.5399845069586076,0.5140349154707957,0.5611910206688635,0.49623945174253503,0.569433756378471,0.5104922251414994,0.586356993433983,0.5936357499314577,0.5979383086408889,0.504520915682408,0.6415103098764723,0.5958061697944377,0.5385950482734692,0.5480495227821311,0.5656921446708125,0.5769986725466625,0.5854466847633257,0.5772769598208227,0.5298919704115934
0.5991253456718582,0.574825492003447,0.5917669647383046,0.5616656689643693,0.5521560342775107,0.6145630170801968,0.6203862156014295,0.5883654903052302,0.5857860294280539,0.5636862280369614,0.5953276515041952,0.5426493640141685,0.5839683886381333,0.5501525551557673,0.5244606845984796,0.5678147445316979,0.3984862206335751,0.5787676186256281,0.5310135445125019,0.591002296754565,0.5970472147721657,0.5790897265509733,0.5634925780298072,0.657987134007469,0.6011703318349317,0.5363759294044965,0.5595966790344593,0.5855858204021693,0.5807064925868315,0.6206309481278831,0.5782958870639927,0.5462301561003495
0.5844987193380917,0.5469111447672064,0.5905236135758418,0.5582360214076711,0.5644238615658277,0.6190833857382314,0.6174419192954104,0.5642351783872499,0.579408342610503,0.572295740014432,0.6081335397786782,0.5520471678323391,0.5935168261798145,0.5658489164774085,0.5235070862301772,0.5610856323923259,0.4078623590810646,0.5750009391917912,0.532966208131112,0.5866713800010919,0.6008928407937333,0.5953216611545717,0.5662139818936538,0.656914927146437,0.5973727066014947,0.5396478269477298,0.5842401786139217,0.5912796269621179,0.5721841398908802,0.6095820871660256,0.5641828975436565,0.5614008117729594
0.5618988089308141,0.5441097030250237,0.571213139928084,0.558193041857515,0.543033677451279,0.6213529164069964,0.6066094769138775,0.5549183487192062,0.5905687779229489,0.5719616045359635,0.6020561899456611,0.5585926030684765,0.5895038640373271,0.5730203533330132,0.49422744784387573,0.5559818343472771,0.38416364949399684,0.5675465163777971,0.5488138524214556,0.5968787379197016,0.5993981451728625,0.5986343011988757,0.5872813441177747,0.6625105754946445,0.6092774285855245,0.5216796133842014,0.5971525035337417,0.598550055564878,0.5805574001364704,0.5925871671557394,0.5465160783413854,0.5756667194927494
0.5848046246357561,0.5366001228056376,0.5468696993666224,0.5687261533277415,0.5559278673710146,0.6164449519411579,0.6205771443414085,0.5707028403431655,0.5798363410865637,0.5678065245044457,0.5962877769234556,0.5683389784933683,0.5866713784434903,0.5735149248002274,0.5134252588447707,0.5645473265055445,0.39980090812583846,0.5800643389339939,0.5788334414172343,0.6100098217921741,0.5923616609446216,0.5911307092665101,0.6017062374775564,0.6439292913604713,0.6197400396107948,0.5340454516388862,0.5814024922413514,0.60485839154213,0.5919595829910804,0.592220820133817,0.5521064705089631,0.5898445609227241
0.5663944823161571,0.5327526449494782,0.5395047908261144,0.5389919532107008,0.5443818214268159,0.6053578886065631,0.6236226618952996,0.575419811286384,0.5838112852096642,0.5634763689715547,0.5814310185959446,0.5812228461687132,0.5903138649625883,0.5808491797520614,0.5212974744152081,0.5492551097887963,0.3712624407565799,0.5839114799051561,0.5737708538746813,0.6090615181688466,0.5827715925899697,0.5921507105661901,0.5924622859266488,0.6449771547668859,0.6180659245371944,0.5490247585236743,0.5969402548332612,0.6012585528126784,0.5856693857910473,0.6039587432907907,0.5638190704541013,0.5862601577450346
0.57017779496026,0.5457962131863119,0.5460722366873481,0.5518905134248486,0.5322222242531223,0.5894583212218345,0.6097257969937977,0.5886419738431403,0.6013598029422975,0.5573782543264425,0.5780409027674622,0.5878361308358149,0.5857293378872668,0.577170775506231,0.5261887299299319,0.5439935961553344,0.3541385195014146,0.59734724493716,0.5619507465677271,0.6095782232944282,0.5609498447682228,0.6067289698550633,0.5625689223967858,0.6545469317525048,0.629602368834616,0.5535552148858645,0.587016195114952,0.6170800147239954,0.582037704228425,0.5760398160093758,0.5558770993133262,0.5920926812766671
0.571928818693975,0.5533996552263791,0.5418639642330829,0.5562863476287925,0.5488455797614034,0.5831914499816988,0.6037565489077492,0.5994427994864377,0.5912184000158089,0.5717947430546788,0.5714014178246583,0.5831448590485131,0.5852229001168525,0.5821134399741337,0.5181432900777927,0.5411587330254108,0.35320788934595493,0.5841965153950808,0.574223410204485,0.5919823054648394,0.5585519418043305,0.5776022061892792,0.5511223335797344,0.6377153222692802,0.6298452273871762,0.5596568171132854,0.5917856058203053,0.6265909428310188,0.5825440039114849,0.5670305283318382,0.5575197310072402,0.5699170028978138
0.5626375367925887,0.5472158489234138,0.5365849336172617,0.5500986239561501,0.5590202228737091,0.5999703355133628,0.6022371941134361,0.5967617860346217,0.6035858052060208,0.5867662083226692,0.5776714919329966,0.5837782859652139,0.589436572516993,0.5818945651675982,0.5551299572330701,0.5627208170137883,0.38221248221999016,0.5957487508799226,0.5720242701771054,0.5861844936380334,0.5698052598087364,0.5845559045064528,0.5712268729135688,0.6324123955427785,0.6283144796505562,0.5444144248989886,0.6005521419528406,0.6350711207191182,0.5907992278526324,0.572585832559998,0.5465358907508224,0.5731483358724407
0.5708640574250525,0.5497909801128751,0.5523287548922244,0.5537515752154376,0.5491629236638591,0.5924962028807252,0.6139615468611974,0.6039793828642264,0.594462774426602,0.6006688645803897,0.579133802474217,0.5754144560119929,0.59745092505826,0.5572073752739257,0.5529518238505378,0.554398867979915,0.3873110709991132,0.5942512570680587,0.5535289499906861,0.5865269698649573,0.5701671349668112,0.5931519852251053,0.5838018810951189,0.6275145924320782,0.6131613935587334,0.5488275531622158,0.5973721387316977,0.6287669649893552,0.5912546575252651,0.574938652109998,0.5441281593621974,0.5662272437675768
0.5864039236555518,0.5664322145401757,0.5560202147768276,0.5614170269091443,0.5543390041790728,0.6033125834609283,0.6006550304559277,0.6008014633207677,0.590466857850894,0.6041962292442311,0.6023966096928031,0.5871612731176219,0.5944873099059063,0.562564577897954,0.5410090013594089,0.5513890887469937,0.33357375599581385,0.5802933290010066,0.5486815685179338,0.6033410461168862,0.5806539668953121,0.5934811644419344,0.5801597619513759,0.6292927931544594,0.6208605750750649,0.5651851671795614,0.6002457607378733,0.5770975087373977,0.5806475665065469,0.5810096737384409,0.5491709618232936,0.5647645198826785
0.5889129750080264,0.5720322355653051,0.5544729088656246,0.5631494444975651,0.541065335843987,0.5910304301756959,0.5898300276792523,0.6038576538731601,0.5744619897369692,0.5933308973339679,0.5822978927025662,0.5763864224752613,0.5765310105717081,0.5366606515468964,0.5253092314178498,0.5403495396309732,0.3460638391258626,0.5802298467344826,0.5329401057825338,0.5948401406312764,0.605355353626635,0.6023032758322966,0.5659616580762208,0.6367534355571114,0.6199106983294516,0.5719743829019839,0.6035118059129085,0.5968803060996533,0.6074285531266117,0.5822838576447866,0.5512751391570037,0.584961390748604
0.5939674146293012,0.5708799664254629,0.553311749238842,0.5786537784055246,0.5509445715283805,0.5992998871977062,0.5922384799235436,0.6027075556475792,0.5719504669880302,0.5764520386072847,0.5872269435228441,0.5547276275910096,0.5439866930092498,0.5121552510264578,0.5170193772809677,0.5397146469914853,0.4250461901780347,0.5660053197722879,0.5429720083733498,0.5783829203838255,0.6030465094989816,0.5978026747655854,0.5682245969119699,0.6372343130112892,0.5759681760127151,0.5720888776423356,0.5938964777330353,0.5902672443894543,0.602412002184999,0.5505241740280913,0.5461781058658306,0.583958998096231
0.5888999941010677,0.5721175900070858,0.5521712307435003,0.5763122153910216,0.5710101061538237,0.5925740744014996,0.5901197353271237,0.6106630557096175,0.5744218411972843,0.5888767644303563,0.592244788506123,0.5700237200060245,0.5484655217718131,0.5157021408264599,0.5201566238251263,0.5399889754612825,0.4563447212393412,0.5696593069952405,0.5515277625405313,0.5733489828577074,0.5928011447105037,0.592167200003503,0.5553455222529213,0.6301589039148934,0.5682904574430254,0.5816201145531847,0.5850376863185174,0.5747413822195107,0.595032637371264,0.563110447563187,0.5592067731061365,0.5677281179329094
0.5974265787723181,0.5845859482581499,0.5760144889531182,0.5811464579884706,0.5687344932266112,0.5889912458270468,0.580950121925301,0.6026470435611868,0.5770241100371312,0.57406984439534,0.5762219576473475,0.5706206054321576,0.5430415222336564,0.5159438767488904,0.4783262806365687,0.5275342067842104,0.4477504120699214,0.5776031845763621,0.5436012965324677,0.5886568153474405,0.5868746959892017,0.5863883652013939,0.5488899639549594,0.6235719180115016,0.5522915705457168,0.5693904465613322,0.5721942100733375,0.5928641142755482,0.5764353183677473,0.5598319599232586,0.5607463047827377,0.5606821425817237
0.5936268940656415,0.5893651637599446,0.5783770970268094,0.5959223849389206,0.5621768072603675,0.5945648739825384,0.58582163620936,0.5988364646255553,0.5801174862599381,0.5504451137862256,0.5754220421172684,0.576857124459238,0.541609825023222,0.505367643706276,0.4557577315136636,0.5368602710607817,0.45857556678263967,0.5872690848217168,0.5626908484953348,0.5810360670262966,0.5705244077331684,0.5937092865065261,0.564920570615695,0.6089965322150452,0.5530256055525342,0.556598975291263,0.5827811772252072,0.5794906912341191,0.5660846114443818,0.5647246277306452,0.5677464331625472,0.5687830507867297
0.585291765753321,0.600008708528128,0.5578864187575632,0.5919072695580629,0.5798052728575933,0.5868744686229217,0.5946167754378839,0.6071030222880016,0.5518257777035673,0.5589311292178327,0.5875530458614482,0.5673792017257382,0.5336327897249409,0.5065552039672294,0.44622837857786113,0.547998517446219,0.4718821143779919,0.5830732734789081,0.5680243479585361,0.5878526858260469,0.5687131470129443,0.5835808440653305,0.5555579312080403,0.6119544573288462,0.5680484917510826,0.5642401102182477,0.5858150489296268,0.5758285582533058,0.5603228840657732,0.5688943567322622,0.5702515893967832,0.5798635317710241
0.5913956548399057,0.5888798685980174,0.5558954045402555,0.5959804119509724,0.584452968301254,0.5841633750972113,0.5932227324197323,0.5795518811633906,0.5454218320566508,0.5651555781050996,0.596188837170843,0.5493680734908342,0.5366562171610774,0.5046517346141774,0.44818020493289046,0.5370927202821552,0.4656809610871595,0.5609633794062705,0.5705665548345684,0.585427685054603,0.5715720255389063,0.5895420806024463,0.5617934879347426,0.619089360514963,0.5702927818446342,0.5499005469528253,0.5786572703176907,0.5784623023632007,0.5804206368890243,0.5686638867747527,0.5613469994134217,0.5824985738274187
0.5979564798950618,0.5945106570243843,0.5469701484405518,0.6060401594452713,0.6068021762792748,0.5942377647337964,0.5947629338633038,0.5892052596588324,0.5408884056818342,0.5642847158326623,0.5867834461372348,0.5420113245495624,0.5438474629764007,0.49507832462283075,0.3993110043548147,0.5263371620190607,0.4579342983854753,0.5441667463421305,0.575653453847722,0.5709528756067406,0.5859078446213468,0.5897270447974661,0.5733382843903283,0.6033701876089657,0.5838182154096496,0.5491529374186643,0.5965002410320506,0.578225362662895,0.5797643611552532,0.5712054998029958,0.5505849936442528,0.575346576744519
0.6062373274198438,0.6003694535169699,0.5654621779859248,0.591737115383363,0.6199757954347151,0.5866873433799284,0.5969682932886244,0.5902715360923825,0.5382867660043171,0.5616507453704966,0.5807681440895549,0.5411527893377017,0.5490273287786271,0.49390495494500364,0.40445750937957703,0.5414881447047324,0.4632504082384359,0.5621481660426331,0.5790292628903799,0.573891201057084,0.5924023697520306,0.5871986844945729,0.5782463157677111,0.622487300059523,0.5787194735125292,0.5642146989646424,0.6013401544172083,0.5657390844285577,0.5946803051730738,0.5780028375453652,0.56443480068855,0.5821953989742723
0.5791692731280573,0.5876149386525453,0.5577863871792736,0.5867770612179637,0.5950275942030934,0.5906731947938937,0.5807928148652945,0.5784125705859169,0.5365780657577326,0.5561610355144424,0.5585103662194149,0.5263475052185131,0.5097217144812527,0.4880895980330413,0.4108936769379272,0.5292204238200324,0.4949996338360796,0.5554638092110036,0.5590002003525654,0.5721988333373274,0.584237151541465,0.579251667172342,0.5658682212604971,0.6171546695267023,0.5820758780856599,0.5608812361798061,0.6115380996113471,0.5868383206836016,0.5698066116842089,0.5734668217307735,0.5507118289434394,0.5801045741141944
0.5845828499042938,0.5750508575962301,0.537939183525395,0.582329227454788,0.5641388613190226,0.5865981356202505,0.6062531004185661,0.5648340488763743,0.5338165322985828,0.5546254062872706,0.5613650863812762,0.5284702218146609,0.5073750973288691,0.4948730354759179,0.3929838869432678,0.5182387089193896,0.5353428701460681,0.5542806366634632,0.5558547795684117,0.5661981457552359,0.5715714393439937,0.5828785165020576,0.5435245895976504,0.617841839031426,0.5905101174848109,0.5586018122616117,0.6021154658827288,0.5826689896875257,0.5547494660134484,0.5430307674278905,0.529009244972976,0.5794732207123867
0.570260878328225,0.5865494997692697,0.545846902986189,0.5772691981905695,0.5347528893103912,0.5944851316702215,0.6183467792160422,0.5631066927824313,0.5573899653309353,0.5671826286827275,0.5818634559529423,0.5642779165038978,0.5112572185156945,0.5383793687436316,0.42817360467104626,0.5354588786509984,0.5219692559066913,0.5794242465145798,0.5774615952362732,0.5843624082430607,0.5887451837969113,0.56723543371485,0.5347685817056047,0.613093670172276,0.6099059695048421,0.5728103453950135,0.5927671809942012,0.5873388626528837,0.5443885497776635,0.5424854606238774,0.5286772042666192,0.6014220451003025
0.5854070124289583,0.6051268085865202,0.5627147475248999,0.6032000987419801,0.5448391006877551,0.6053895325893182,0.6231071887387922,0.562385611282318,0.5489917829206701,0.5747291707976068,0.593758484526556,0.5810846379573298,0.5332169635110331,0.5477318642218463,0.4508320752748709,0.5409373690384074,0.5183401836248893,0.5758896904413726,0.5740775619894514,0.5836831498421811,0.5900211091163818,0.5777146132429705,0.5364747702990722,0.6161999090713421,0.6059348556594082,0.5722745354989032,0.5944677365534181,0.6079493337053345,0.5575961168830657,0.5364372606325833,0.5458902056112889,0.5918302910382729
0.5908674621598258,0.6039612435435182,0.5865543836143354,0.6018709039023165,0.5336553158885775,0.600205553082398,0.6116143032863932,0.5556755435399552,0.5705367219773247,0.5824573123621928,0.5965279246936537,0.5622682312355254,0.5404734222296956,0.5613411234995249,0.4939245432567456,0.5467008936456561,0.511191267259631,0.5620381215615047,0.5764389941785684,0.5901252274844819,0.6061919579898936,0.5751089180682429,0.5372527917403702,0.6148561778531052,0.6054331204371697,0.5885774014658494,0.5901671377819522,0.6090229023251417,0.5744978796096705,0.541431033039089,0.5484310385307687,0.5786966763390953
0.5890052755023865,0.5953420106454468,0.5831873833557588,0.5957112544610594,0.5289033619918286,0.6060228767759122,0.6348558767165504,0.561590249991831,0.5340497970454354,0.5846912621640357,0.6078031115404907,0.5610628604110564,0.524918730370576,0.5481599393642305,0.5260677886316212,0.5415820434293113,0.4735058636424876,0.565578324995077,0.5699141252172928,0.584575995294045,0.596147857882078,0.5774575001290483,0.5391736604558273,0.6077627291521925,0.6103106177780324,0.5915377218576152,0.5849808088560287,0.608554257023874,0.5708521529667743,0.5358353425465947,0.5615202431998529,0.5720652654189133
0.5910773325648355,0.5955261722692535,0.5508718366385059,0.5834089723225637,0.5168197999898103,0.617937726731796,0.638543529785061,0.5745279743412262,0.5837958752062411,0.5864388517893464,0.6150892659520775,0.5484867950435288,0.5395356923265884,0.5517814926366627,0.542836831030153,0.5577085844557859,0.44938555715691475,0.5653986759151666,0.5774578372364609,0.5971457561031404,0.5997309382958464,0.5831896595598054,0.5216450979521476,0.6101319395412261,0.5951516892682669,0.5946747968477961,0.5916085641890674,0.6034016120319583,0.5714021999095893,0.5395280787165664,0.5670042317539936,0.5648049899247134
0.5908916075856432,0.608194679761977,0.5641781770476664,0.595417510568871,0.5235879450669749,0.601405717186593,0.6240002679332521,0.5531165939338716,0.5753397452650932,0.5906929639815366,0.5945309134187733,0.5669739446794391,0.5614896519438624,0.5732563668295518,0.5700401793966354,0.5998267162152273,0.5297117586208149,0.5778259617134158,0.5647385413861121,0.5870724587146459,0.5937791713375935,0.5804086488778033,0.5364183058523952,0.6120800042401799,0.6005662751550624,0.617957914270109,0.5939790314438524,0.612667633480644,0.5704644295365173,0.5507049509755748,0.5795823990710964,0.5668164816948025
0.5874179436722211,0.5979769247090583,0.5671648417135611,0.5868582296182949,0.5198303649334717,0.5960438221022164,0.6144206486199923,0.5577682649144577,0.5665928102930082,0.5893894598141225,0.606534157866848,0.5759518451607639,0.5387079712072662,0.5587843853383396,0.5655680920974033,0.5951095887766651,0.5252855134035141,0.5850742310041692,0.5492688127997782,0.5958585008392356,0.5888431687722893,0.561044819658369,0.5518217826601539,0.6101276262012343,0.5812901325703574,0.617395634300395,0.5965066521156412,0.6117342370147321,0.5543943940040643,0.5470825149940359,0.5712089119131352,0.576385450989338
0.5876654340742826,0.582903387733865,0.5440553160709647,0.5783122042781077,0.506084518901643,0.5870277803762574,0.6052627776764283,0.5321221269592757,0.5708156280900347,0.5932015583241412,0.6007975213498513,0.5715402458656529,0.5378992064342403,0.5675385650581926,0.5633415309858156,0.5917680860687358,0.503386831883526,0.584165356335081,0.5595568139892788,0.5824323754433807,0.5737803126186094,0.5694270027690278,0.5512885478060223,0.5921827219335416,0.5671012488418548,0.5732961887918342,0.5759937924189695,0.6055334583628702,0.5496243366189133,0.5526055652545834,0.5518045388352308,0.5623223187633339
0.5793946330659221,0.5844696917534118,0.5232595169366339,0.5771950332877389,0.527728276116127,0.5807842616456806,0.5992337152222547,0.5498722216572367,0.5834658685827527,0.5982476127527434,0.5990813308630325,0.5712006462797845,0.5264474548763465,0.577728069474094,0.5448301399806987,0.5939363833227533,0.4814708851654479,0.5771807540739875,0.5656746894339553,0.5900806864808037,0.5847042948952033,0.5583519917380864,0.545679284014434,0.604431545940435,0.5843833145380608,0.561763998061541,0.5882050295528658,0.6015918236358142,0.5586985315917778,0.5453391373316023,0.5523918378871486,0.5513497650966706
0.5802242724856272,0.5926829669959033,0.49646483614239045,0.5813795947408038,0.5729118099314041,0.5778123534535182,0.5901501449976432,0.5489025938806349,0.5711169314947679,0.5894143049099281,0.6010727670021794,0.5731944103266708,0.5135533566196409,0.5875900202135234,0.5576725260317814,0.5874564759703413,0.4954862052825719,0.5780261022417461,0.557448539641463,0.5970350601227183,0.5762498059905643,0.5496667934477455,0.5240013472175695,0.5985322654394172,0.565075227723641,0.5766937270242587,0.5906210981832367,0.5837568122397769,0.5597247435966266,0.5550722501314747,0.5725444823302803,0.525181479493209
0.5765254617323303,0.5828719565022276,0.5039270554440698,0.5811529018062118,0.5932488028725031,0.5639622648162472,0.5949582986396491,0.544770349567413,0.5671162385001307,0.5829304425216018,0.6001783236690006,0.5790881576624725,0.504954466916693,0.5919717006379401,0.5667066855120098,0.5825717004718358,0.49095041938804096,0.5627630570910913,0.5323568225962019,0.5901561342014356,0.557164691338095,0.5405407963936373,0.5126104119952042,0.5871883653210279,0.5621472046939577,0.5811599985050409,0.6034558839257729,0.5694391729696795,0.5726629467233546,0.5669211882501561,0.5737458064000873,0.5119825235732036
0.5318238836695395,0.5353716512177584,0.4512418789401158,0.5713202183649839,0.5896218061295744,0.5488342856760111,0.5960523630486909,0.5329439101133384,0.5551070447559883,0.592600430403138,0.6077180243013887,0.556306559182107,0.49102391246976795,0.5654747179032511,0.5796457860088311,0.5779624584616836,0.4846478893524595,0.575050048456542,0.5489576076139664,0.5982660665909356,0.5501290108967529,0.5296665662353606,0.49448461694840784,0.5888855590332178,0.5429737043515286,0.5667589843925369,0.6143952996967643,0.5423775128688528,0.5617526907896013,0.5619833812207351,0.574369370859626,0.5265219255055942
0.5405202714901849,0.5149750231572763,0.3966432483061073,0.5668588435360671,0.5815546801554379,0.5188202434813216,0.6197159878846699,0.5240370422036253,0.5267883946038316,0.5976456392217062,0.6098098501608833,0.5144599793328233,0.4952738036319828,0.5444820092075777,0.5559523519542102,0.5754125780569463,0.4661602054496097,0.568635492955702,0.5554961062631394,0.5870699458662982,0.5550424207365241,0.5186664978474314,0.5123614939662393,0.594429601762299,0.5276905790992847,0.566039471293859,0.5987306105056196,0.5129789192048446,0.5423151835147593,0.5447080611347395,0.5926068159898836,0.5064390135267853
0.4946038886088693,0.46389865510564476,0.29589219054222937,0.5275735743272052,0.5789582895725349,0.4725518117932461,0.6078048230430833,0.5044624581366346,0.5240870735819598,0.5962225069018761,0.6286359274180486,0.5332104586378961,0.5161991827957859,0.5461210855659795,0.570709248300056,0.580191420411444,0.4868311129413212,0.565882372235397,0.5750810491093379,0.578157508556413,0.5565348135278381,0.5434081498353232,0.4978335422039808,0.6087313618803378,0.5081124301082931,0.5581337454300539,0.5759908021925826,0.4415800318242127,0.5246270682002261,0.5518310940728939,0.5798153387785878,0.5084979070344584
0.429905309158622,0.4046116187331177,0.252680080469462,0.5043830209471678,0.519607711658713,0.42169814756290513,0.5866047895860884,0.48131368754071246,0.5148438572286937,0.5776527818061865,0.6152704171946333,0.5229479191353295,0.5352755021136097,0.535675218078286,0.5807328113104475,0.5734783704215642,0.5270315070271376,0.5737822306067883,0.570319473148647,0.5874239834564183,0.5648981023470059,0.5484006229478888,0.48478564205512686,0.6041146101485135,0.49792424250959577,0.5454964317123059,0.5746149182635198,0.4138331252991687,0.5127666152466728,0.5602989237964895,0.5808685731249414,0.5161238351099335
0.40945287619508086,0.36408132750409283,0.2096774980883751,0.47797149104827685,0.5264215731538591,0.37811743530973585,0.5748802043338301,0.4883403863112945,0.5242115859729468,0.5738913277764213,0.6192284836056654,0.49493284346793764,0.534873379087335,0.5274071821173023,0.5713419702810687,0.583636405082057,0.5037063835630065,0.5735164670661548,0.5645279949485724,0.5630755509147298,0.5347434749928817,0.5480741948807362,0.4394350220590053,0.589286145078808,0.4536321484368937,0.5441287614179329,0.5734831786503891,0.3535256725297371,0.5088006290575335,0.5540233392615961,0.5915844704029722,0.5344964148536056
0.3944441574714861,0.36271121344609014,0.18798758855732145,0.461713693712809,0.5424612995924312,0.3529163422300923,0.5734551707861262,0.49782788219831264,0.5268763737897881,0.5810227487608626,0.6216024675621328,0.5018045157429714,0.4790957659448374,0.548248196737791,0.547080375129986,0.5953817329275095,0.4664582632981862,0.5669110973460629,0.5875876830488713,0.5659928282172846,0.5144316610161743,0.5104284823656067,0.41418319306538764,0.5758935732165638,0.457607060347895,0.5327455962622945,0.5736854539966543,0.3308656550184925,0.4904013973547281,0.5689862298166779,0.606080268564765,0.5217757724185965
0.3948185180720256,0.3542499842751816,0.1738877173984903,0.4750666552206493,0.5543582789956405,0.3756297404436606,0.5751885235247016,0.508297105923261,0.5416181834276155,0.5850836227839906,0.6133655605300872,0.5307520272560398,0.488646149819008,0.55885398027268,0.5364073878971527,0.5949819815768653,0.44691076217120473,0.5629918008596007,0.5786443946759108,0.559770545780399,0.5083852022367923,0.5114045548167887,0.4079091618118591,0.55944966218608,0.4624832931151315,0.5308844200048703,0.5792623299961983,0.33813774328143165,0.47991087503785357,0.5516095271497772,0.5962521764858622,0.4848883339845318
0.39962022483591353,0.358817985837411,0.1917653600099971,0.48170424228559483,0.559096443771105,0.40453899090530143,0.588410044963704,0.5252591741524992,0.5420023840727342,0.5810557644356549,0.6158700820918495,0.5456072920870456,0.5264053245661828,0.5600591540701232,0.5527146352671379,0.5970383034071323,0.47068764838665,0.5709171843005834,0.5885579472595692,0.5510348249757646,0.5012102556275386,0.5548263088151009,0.4251729225704324,0.5475581408542345,0.44368756835242484,0.5367959595332601,0.5712221273764526,0.33401937471823384,0.47768822975811576,0.5395918252218066,0.5909595823060729,0.4975955610277909
0.39798505499601067,0.34873233409514803,0.19902176169139474,0.4735468246869745,0.5481964048389818,0.41096436341572185,0.5668077673717735,0.47392300006147847,0.5394832153752271,0.5510298545944203,0.6180440551461737,0.5496717153254056,0.5262028425242842,0.5591038380573501,0.5562215132851573,0.592560750200962,0.45265245650112185,0.5473794171636892,0.5925679765839726,0.549240073200441,0.5184954231463461,0.5198490573503078,0.44272703773902755,0.5552988681833333,0.4696853209669496,0.5384672951750997,0.5599135518278411,0.34319248501115274,0.47903275440118076,0.5481968259179202,0.6000219604840176,0.4886748215952883
0.39126810095296305,0.3505976016338668,0.19072395355820193,0.47169964755824756,0.5474580756879011,0.4010418559712492,0.5416952255603906,0.4611942314656572,0.5314986762848446,0.5574457465461133,0.6228718088857765,0.5483343635616329,0.5340274045703635,0.5652112644688074,0.5585138226327508,0.5840225761848519,0.46485101580334076,0.554966428757806,0.6025394000579967,0.54913215136011,0.5265192657136946,0.5364836294542603,0.44101846266809286,0.5606006272576192,0.4819981823803645,0.5207830010093648,0.5389831107370884,0.33093117055875343,0.4733455520958807,0.5502847646769546,0.5933223776940961,0.46830044369758417
0.408248997185249,0.3771617453866223,0.20315166501195825,0.47639384707894905,0.5516572392055146,0.41633926038379476,0.5584269606863383,0.46575598387896644,0.5443936862445926,0.5586965561007782,0.61394685592599,0.559060719348567,0.5295737429888332,0.5710216343069057,0.5529389686754707,0.5722028315314693,0.4570130890886359,0.5544052536941693,0.6065192589293762,0.5525648000332453,0.5399348751990649,0.5455609638590713,0.4722756541030444,0.5795081803760591,0.5097092682361541,0.5344319418704764,0.5449494903566534,0.3605732378232136,0.504573439781395,0.5660342880458931,0.5845163635259905,0.4694736140733542
0.4003012422009786,0.36299928118370683,0.18544565311450767,0.4711203139698745,0.549614364987598,0.41437869438698716,0.555756418197261,0.46758282762782066,0.5396670050145631,0.548505072829018,0.6144341756910547,0.5565785546567059,0.5029546925274588,0.5675844689925533,0.5526432391784071,0.538700886028967,0.4629530937923465,0.5372566967884764,0.6013542115932191,0.557842134657434,0.5311941821892612,0.5419078798114043,0.48251774417401583,0.5749469434995538,0.4910489173203634,0.5408286278894927,0.5475429112450971,0.34566418727941217,0.5033498896005364,0.5650182127002292,0.5885331591771301,0.4728080344535557
0.40129779852947456,0.35306440620292445,0.19431321867390872,0.4612365456764538,0.5524093983439742,0.44749798679855113,0.5560821745344562,0.4697775041679564,0.5513186761888145,0.5555433088877733,0.6102058280874592,0.5555218260704211,0.492238881132395,0.5647687074610115,0.570716851324748,0.5386388443914241,0.4695295955788992,0.5342248368462608,0.6021132293134261,0.5451479433853832,0.5140221453324525,0.5149293528185872,0.47270571668947126,0.5655667418106805,0.48934102622759346,0.5577966774951917,0.566314421844142,0.3514623390646059,0.5227945404344849,0.5677893044616056,0.5785520606680681,0.4765946962499994
0.42772914437483367,0.387175618365478,0.21636439056492796,0.4806539844742286,0.5761140667005478,0.457845402900781,0.5754312846729994,0.499684736002743,0.5556582626100561,0.5606388699890523,0.6094372959035153,0.5491923197370085,0.4841261819805469,0.5669588730513793,0.5670609930179347,0.5462220579479649,0.4708826916120179,0.5433216020171105,0.5944651634372726,0.5539579339480323,0.5084215312137372,0.5070712685790917,0.46328992639011046,0.5552703723957757,0.49174704765770283,0.55191036373615,0.5589294209588624,0.35001409216903934,0.5022383062174809,0.5630672389952367,0.5753961548482152,0.4652125381332115
0.45953191018123896,0.4354190303822949,0.24538469312174493,0.5122034057036116,0.5810906503517459,0.4951948236847601,0.5823665306904844,0.5126520572728213,0.5439221217728178,0.5512685494955019,0.6200598761507949,0.5596816843818937,0.46965296737392714,0.5703054526933005,0.5641140587525859,0.5374840139808641,0.4737183049113858,0.5287942033820063,0.5986717992607131,0.5439285814838466,0.5103305239877951,0.5047764348906703,0.47874227623367815,0.5577754502937942,0.5028631949355153,0.5603547429553184,0.5692594002742823,0.38788086678293965,0.5140712779217451,0.5650110301598552,0.5671078736020885,0.43918561782791876
0.49599499502933453,0.4553136343594253,0.2975150548959622,0.545919399802639,0.5845166385988656,0.5298120974591072,0.6003693729850026,0.5108373105282835,0.5562347105960908,0.5564666777305516,0.6199217834743784,0.5550157687467046,0.478192265426149,0.5801060271599634,0.5629649219958641,0.5515634789614721,0.44461500266511234,0.5460085366731207,0.6079609785759854,0.5681012012964706,0.5232221850350536,0.5253488995592788,0.5236190495658124,0.5718616717825573,0.5235601920578326,0.5852187687614441,0.5805803017982121,0.44053969030388407,0.5513278499745127,0.5498197166739072,0.5556620914590567,0.4406598164662592
0.525330752170241,0.5076093310521004,0.3644030889161831,0.5657874120989641,0.5734211634912092,0.5646862217925865,0.5720344899060357,0.5144930828984071,0.5753139391443867,0.5500606382158932,0.6152812372898158,0.5590363496156638,0.5188350891029501,0.595990113313142,0.5541298000215154,0.5732498067541054,0.39352372484803366,0.5772954633892007,0.6130524925870837,0.5865291009903211,0.5768841765219292,0.5739346384672195,0.5604123008368322,0.6170913657883896,0.5705241671200167,0.5870123706579284,0.6131283171379018,0.6047251792489767,0.5871968448601574,0.5798283489612355,0.5667487016122394,0.5290708999817819
0.5108474483856309,0.5156994095675058,0.37419002454005,0.5665173291393044,0.5695401757252392,0.5726174872381122,0.5652177653876054,0.49797036566992636,0.5585904202268508,0.5608096714593902,0.5997380052954755,0.5519410685184098,0.5433811499044512,0.6064554827641966,0.555950520302372,0.566291743471619,0.38551010329209756,0.5876403940522854,0.6041118307604507,0.5929104891972514,0.5827843611966683,0.5780481470163878,0.5646420968878623,0.6042090260710054,0.5806647403329666,0.5773805616621877,0.6040489845972026,0.5897308586142724,0.5968468067633168,0.5683337419706138,0.5461524474405777,0.5464781018431184
0.5307860228462271,0.5286953967023282,0.39843200640257415,0.581694501526993,0.5282156432658187,0.5740681483345353,0.5841161134286224,0.5142958680921712,0.5785740941677262,0.5754531644467269,0.5964709620556881,0.5433245202063661,0.5443177399230783,0.6092473820568811,0.5550598527738719,0.573092920860848,0.41864066821940904,0.5782383648450948,0.6009428623484245,0.5973307136496753,0.5906782704503488,0.5866854559762502,0.5516337461804803,0.6293599091621371,0.5838098676662695,0.5734093832547589,0.5777809428975371,0.5644527423269521,0.5889307265445938,0.5437821005698757,0.5383162504637484,0.5555014205357747
0.5406855980581882,0.5388936018841921,0.4968529058260187,0.5729751242113612,0.5267071622965678,0.6036485139227605,0.5744883167652497,0.5834147926918551,0.5914563396755574,0.5902369769830029,0.5870443154071636,0.5540104364229093,0.5569766350881022,0.6090530032607502,0.5584902529450737,0.5643148891343612,0.3999739074619919,0.5651050566601628,0.5861843621195426,0.5892835145244937,0.5945095903984066,0.6003576423939734,0.5820527698966647,0.6278347328199319,0.5885161889844728,0.5716524068728548,0.5718260719488564,0.5977256875753443,0.590935857990309,0.5324150730500286,0.5213123174128076,0.5955093778187823
0.5604952423844196,0.5693707152225325,0.5583345232668697,0.5670154605534194,0.5256864184878913,0.5986613997666854,0.5920047911846096,0.5915825259356753,0.5853608930906042,0.5679335859895893,0.5869448527793044,0.5541652009359561,0.562925928443962,0.6068294709125941,0.5804367184494028,0.5692857172905921,0.38329355585016067,0.5938779412749398,0.5894783767269507,0.5882679123386918,0.6107794599341236,0.6046353162422742,0.6060812314878938,0.6282588388600119,0.6028591969724908,0.5868091867105809,0.5815232706889399,0.5951340593751615,0.5839268554561077,0.5227827684081885,0.5240703006243179,0.6015896861224315
0.561495642916968,0.5456530732203522,0.5156954105439207,0.5848618607646272,0.5308741521302065,0.5890247524663406,0.5926003176053118,0.5809922426533198,0.5869957411616515,0.6032262389845702,0.599253214880096,0.5666395191505411,0.5707576175830131,0.6078951753490021,0.5872491194937477,0.5825380349303071,0.3794493909874861,0.6026175724348786,0.5917421433936658,0.6016979924122032,0.6172730076757524,0.6044135142326659,0.6059810865395185,0.6119417456816811,0.6177275064395835,0.5866636452140499,0.5734151438909545,0.6156832279175979,0.5789444499977723,0.53272123824107,0.5213499897172498,0.5827655631996418
0.5223000443330248,0.5027102422783263,0.4874414767243458,0.5277871685734219,0.5061973686397709,0.5553316252831877,0.5888866809252735,0.5781822815912285,0.5896596581022524,0.5998145340482806,0.6029044435969273,0.5762616428956999,0.5715465252867902,0.595461682436019,0.5747881644659758,0.6004014629082994,0.42163379196996154,0.5940061604303111,0.5885546705304594,0.590818515651129,0.6182758953155116,0.6053906065524237,0.5972870669397876,0.6082024910403785,0.6172169520616677,0.5738098838580039,0.551571849936694,0.6047985630022445,0.5659797127287183,0.4999140344209225,0.491124132963233,0.5986761304186499
0.5216308932459146,0.47582461136729126,0.4701854752520678,0.5251025998431293,0.4573477579094827,0.5578086782741782,0.5776612525369509,0.5523988988197313,0.5966734882404112,0.5998866913721503,0.6025409052990542,0.5628428172437911,0.5598146526180074,0.5860176588021191,0.569142982112743,0.6072731316688942,0.446472269371732,0.585510953584877,0.5703286930326832,0.5690675673559134,0.6016086304429913,0.6013635978008343,0.5806488778876151,0.6028688546254108,0.6175570809985507,0.562566104504636,0.5417867264845597,0.6033780137495732,0.576656022798816,0.5048889059034067,0.49586515829202105,0.599429633256797
0.5276945309245056,0.4677536004139431,0.48665409099275436,0.5462616577671113,0.48672795784994305,0.5646066811767931,0.5927257977581619,0.551750543971008,0.597550803672755,0.604763128571689,0.6062518679572539,0.582905560077271,0.5719150842038325,0.5906747388053377,0.5545050107987972,0.6111218759427128,0.4332252595003476,0.5829121352981472,0.5669716557248616,0.5797756831137253,0.5981815477958108,0.6125067231033086,0.6001521087672561,0.5978178926414599,0.6303622912515667,0.5790860662996753,0.5536093418852515,0.6150084923490358,0.5825690781098634,0.5196776904394147,0.5077047750753767,0.5940898011148263
0.520730747013717,0.47672198291792567,0.4619915853596037,0.5529132494448263,0.49338510178544626,0.539868529949342,0.5830599477107512,0.5170772294971147,0.5786703239788089,0.594205670580668,0.6033092646909846,0.5687649048783969,0.5508112114524049,0.5948040662589413,0.5465158809966533,0.6113084443886958,0.43260324871966693,0.5923673392528217,0.5548954527210692,0.597078263695006,0.6196668029579215,0.6118457364501055,0.5939479950148874,0.6262697132707244,0.6332112661377489,0.5535208728863057,0.5617398742802786,0.5956453319372654,0.57923454378491,0.5281060214910229,0.5233689935397057,0.5879958362342212
0.5485059577222771,0.5006678747647846,0.49560428566541104,0.5667360860569857,0.5088620950442788,0.5257737892646466,0.5938014269279748,0.5180945924019946,0.5774895970058518,0.5937013038760592,0.6158087057059958,0.5910317704481005,0.5598412315615802,0.6077664260355746,0.5407572289378821,0.6135501810408392,0.5182432058896169,0.5877439063042251,0.5672754494498276,0.6021086867485934,0.6105348698296225,0.5982129428252474,0.5972193928076162,0.6392981973428289,0.6293743921814556,0.5710075551494129,0.5698931000381546,0.5982434680582447,0.5618921761679423,0.5286636831292415,0.5363797974644959,0.5903985995057224
0.553378412471746,0.5082208753509394,0.48392326303236555,0.5594774953241433,0.5138912286275188,0.512124596580958,0.5913119601617929,0.512595993923409,0.5658717009802072,0.603435285999435,0.6173685948697045,0.6121605241894224,0.5667357476888628,0.6045167592337304,0.5377016314608141,0.5969112137694523,0.5255992048669431,0.5843845109227468,0.5506416995583647,0.60090021396128,0.588856588012634,0.5951779646284932,0.5849064804681978,0.6312759836179209,0.6320940229097243,0.5745749351328753,0.5814651028071971,0.6107408655653717,0.5622260547086744,0.5228681055965141,0.5445946235825545,0.5950713456099841
0.5409840886052075,0.49605577034113013,0.4909759662720865,0.558508328492211,0.49027527715015173,0.5207587692298645,0.5992220335955651,0.5094204654397334,0.5636816507706568,0.5942051297560749,0.6229828077197155,0.6097886315691712,0.5731350512145434,0.5975293093329292,0.5296162178736892,0.5961056215888272,0.5157421522409704,0.5758886303085706,0.553610735693733,0.6041925445355902,0.5779987383628242,0.5873384619151567,0.5762089553703955,0.6070954256963175,0.6330063846648004,0.5893076149457306,0.5998000982419116,0.6129430326576899,0.5600224423407121,0.5207725610498746,0.5421087032162419,0.5980370970966096
0.5454235981681053,0.5073541749948363,0.5012823840869758,0.558676779943398,0.5081340158168026,0.5213588352507994,0.6002655514200574,0.4802389494624575,0.5504331685419372,0.5974638679976167,0.6190189380141335,0.6007234153304482,0.5679794437153682,0.5936946614275391,0.5358913943776091,0.6017019328274116,0.5187016717292425,0.5657724323506192,0.5545058339088564,0.593606571089559,0.5825350798741717,0.5559942049724316,0.5651683544750021,0.6137158950557358,0.6302040377972586,0.57383791022073,0.601971482783199,0.6114512798939282,0.5738265512810852,0.5395305181428784,0.5532531852570233,0.5783393964758097
0.5431750989830482,0.5248767405658272,0.4998175399184577,0.5499892132923314,0.5207288437848052,0.5331938541568668,0.6038935989419945,0.4862031606935,0.5493540240184007,0.5885996917538137,0.609585197537236,0.5976314791563246,0.569504313163379,0.5862542540127276,0.5250647344790127,0.6005865066164304,0.5304637890897514,0.580383530347278,0.5563337292661021,0.5917163792682882,0.5658197882954088,0.5596084498032687,0.5566444092348171,0.6247184358079481,0.6178259485294948,0.5809892341803402,0.6021317044220287,0.6167023740771076,0.5885761603671109,0.5546836885957873,0.5779600902557136,0.5877962693398158
0.5303274535991584,0.5127890520584701,0.5102315276293288,0.5492056156516996,0.5049039211302815,0.5530781778668419,0.5897982688266623,0.49263085600324663,0.5528606346451617,0.5933667766799138,0.6187409187627102,0.6023965397492166,0.5720464671958396,0.5827030540894156,0.5271138863310392,0.5968846267522556,0.5369112921067276,0.5823233223800166,0.5650762669352134,0.5892628911499007,0.5836490418647582,0.5655682135206588,0.5586863075607535,0.6153353601802873,0.6310943229725683,0.5823565716599419,0.6147611341499868,0.6211706685248726,0.588010035208526,0.5647070043832447,0.5755749119478386,0.5876887717639518
0.5252253443719965,0.5317073250603386,0.4714668089478673,0.5581212965896643,0.4978085366428986,0.572373888241831,0.577890888579621,0.5078186153243491,0.5485320714185473,0.6072746704217398,0.5991145603065382,0.5894670164081952,0.5646236887875378,0.5848059024506651,0.5148610461680283,0.5947739845493722,0.5450385318938982,0.580791429411009,0.5573287781191909,0.5859812777702946,0.5848814847004036,0.5619582757382453,0.552180120704767,0.6048283746592804,0.6043825489707033,0.571619359494727,0.6047449298475174,0.6139100633607075,0.5980801272971341,0.5659592389125332,0.59719838076819,0.5855163929189415
0.5605372745635426,0.5519519357357039,0.5256013024457977,0.5617353500795637,0.5472503241023645,0.584462155696126,0.5797522575868737,0.5788721814627285,0.5646748613341224,0.6067528831942948,0.5912516146293667,0.5937603982706618,0.5617909746746359,0.5738150119066696,0.5329604335401661,0.6063735982672389,0.5448000979530367,0.5793681848530285,0.5612627074751266,0.5867085608231504,0.5891234943685126,0.5489869683026063,0.5254984731833545,0.6064234459864641,0.5891157287625752,0.5544546190159623,0.6164847825554176,0.60795177689895,0.5982399278072705,0.5769319914346536,0.5991607533820473,0.5688599542108221
0.583968692669572,0.5651415000782887,0.5419470285499592,0.5615575357239129,0.5587638597043769,0.5876055954930721,0.5842418719305051,0.5991657450605947,0.5528938933381013,0.5998617770268604,0.5897476308397889,0.5912038571405156,0.5564462541065756,0.5639228365232358,0.5485054399454827,0.5838467797958073,0.5446005027747209,0.5745277567574987,0.5383432847556158,0.5880944472570597,0.5845633108490973,0.5336061051945005,0.5224080589151261,0.6280988869418089,0.5994393586886293,0.5337373028258501,0.629972988937145,0.5856353850335285,0.5955919803363816,0.5757946148269268,0.5814299785805179,0.5629173815732673
0.5179319514400014,0.4997943644346292,0.3936479216811839,0.5133086072809308,0.5314614564820936,0.5295016137272728,0.5512738907342691,0.5066668284962748,0.5616894438404736,0.6071099595216292,0.592417795460443,0.5781216603193027,0.5789415261239008,0.5577013730856248,0.5503108067013955,0.5821067420707084,0.5258338313549484,0.5718385570253344,0.5448545070283819,0.5872740189693983,0.5645061425598983,0.5406618269201711,0.5142323174401078,0.6216240294699675,0.5358932331035651,0.5054545426385162,0.5974420526781405,0.5215121395655884,0.5907104655272524,0.5614811614487007,0.5826225661443107,0.54634622067837
0.4928840493107316,0.47435975884355885,0.3072827859496092,0.5054840342413014,0.5509842376031884,0.5331161242427016,0.5391852763614526,0.4933259648962003,0.5647880165602484,0.6085439938437545,0.5868066851089742,0.5863244083542174,0.5715433132281738,0.5544113106397619,0.5365017678453077,0.5584958432818272,0.48018074439423897,0.5464135319822203,0.5447938244921349,0.5511593072872625,0.524910396045287,0.5380072354225969,0.5133532184536103,0.5991526499933255,0.4885241598299972,0.48017475551965827,0.5346505804526327,0.42145248495612675,0.5426569073950542,0.5526160433377907,0.5338497090621477,0.5206483458802196
0.4565694976003063,0.4271412705757922,0.22873007137641332,0.4926412780250775,0.5641916902298583,0.45056618882161725,0.5277798494973274,0.4609915120527752,0.5625091263307702,0.5918498463849886,0.5870116722773506,0.5861586009811686,0.567147413397207,0.555142128117295,0.5499466094773258,0.5531806459243551,0.5377734425774028,0.531682996872143,0.5466928589543825,0.5439736812855771,0.5299887173739415,0.5353097696623124,0.5259926113133826,0.5728552778547455,0.4849854232635793,0.5097630526112789,0.5232830002006765,0.4332244568291346,0.5312812482488734,0.5611081530797515,0.5560147209388324,0.5109675390361104
0.4696905370652624,0.42901484915861454,0.22101030198148974,0.5017812648699032,0.5736563952210463,0.444222605461023,0.514294881382861,0.46675724938454977,0.5540620030488714,0.5978005339384707,0.6001656556261361,0.5704708338477875,0.5532669279261304,0.5432542456717724,0.5421158372618886,0.5328413076563052,0.5112756952052386,0.5318097177501921,0.5745714474822603,0.575232467301285,0.539429520370398,0.5229339970498761,0.5439588799904027,0.584253308321455,0.4922975534302543,0.5017794649161407,0.5213321589557101,0.41891388033262533,0.5042791528110087,0.5504541260281162,0.5625219674233444,0.49391823241226396
0.42157465236191216,0.3718712194122067,0.18015486341425602,0.43826250011094414,0.5677688548787647,0.4061981233638505,0.4983241979907267,0.4825440131192642,0.5649261043529621,0.5930852325241691,0.5892980525516549,0.5473866953982265,0.5381431043792966,0.5392317516135221,0.5376319648897696,0.5227960889884877,0.46035255930417707,0.5100774855675687,0.5409120266400529,0.5451566406138997,0.48566688797131485,0.4424866094594546,0.5057919833476112,0.5722262493052988,0.46023305753068433,0.4592814851308389,0.4825986235714521,0.3369136752331596,0.4754542935268069,0.526714945294211,0.5526752058039772,0.44849740198893784
0.37687325667778726,0.3122947469055486,0.15908988622145648,0.39614336279478257,0.5410650440221554,0.37043574681352665,0.4748360533652076,0.46896158684930755,0.5565058626021648,0.5883682676589563,0.5879295718483899,0.5266573923297302,0.5093046202169438,0.5287698792536846,0.5394504333082857,0.5356178740290396,0.38819741346588943,0.4786674610136594,0.5233130623957001,0.5226626737835272,0.45053322108058946,0.4248564286298038,0.5123540759791263,0.5644480156763976,0.4556649841394833,0.4323093406250669,0.46922321191804794,0.31188352371371186,0.45652674993489395,0.5338728518697602,0.5419822174398341,0.4301771054593231
0.35221246962015673,0.2820007124088799,0.1404513697426979,0.36962300324745234,0.5072393359137779,0.30173047364325667,0.4722203590640155,0.4547296801136591,0.5383132059158569,0.5724336548651712,0.5709199558015414,0.5236647675585226,0.5163964958651199,0.5150494078712327,0.5279738356391244,0.5151568038195431,0.37812046841246527,0.4612181723450477,0.5242648729726733,0.4937529250621928,0.4152301947946606,0.4349906361801139,0.5043947036485927,0.5498659255715217,0.4405048346002127,0.42311521602552027,0.4656221750637113,0.283566413945016,0.43714692724128845,0.5363009422398091,0.5238957046538353,0.44345224936211824
0.3240461297708799,0.2689937417661361,0.13356545933618524,0.3304384944231362,0.4880367250788118,0.27551317207197146,0.4791300945623882,0.44259228999269107,0.5417455601891774,0.5635729391047675,0.574391372160413,0.5385147297885671,0.526542409028496,0.5085447256623903,0.5350290211673605,0.5334042197365014,0.3955166902807141,0.465138803961727,0.5295538609091555,0.502365286344761,0.4129615291243103,0.43339718886935774,0.5244054496757076,0.5348447870922386,0.45403376866520606,0.4492580695611714,0.47958329691063684,0.3079646519864858,0.4702648450692637,0.5447726375154374,0.5227935314567214,0.45351559797163343
0.3366819280572235,0.2856953017820065,0.12882926569729802,0.34911748549622823,0.49412046433189794,0.2534548477051053,0.4433667647912958,0.39669508031058864,0.5427772005247129,0.5442695496964567,0.5866622830148214,0.5378380160577327,0.5115817342065405,0.5128197254007278,0.5111468762050646,0.5257815420555718,0.3921506365715164,0.4673045698366498,0.5513371316203366,0.5010213983530711,0.45169428672557466,0.4800360156176442,0.5470210614318414,0.5356788906384482,0.46560607555365907,0.45536593897945066,0.47145061289503953,0.30212937573578547,0.4641546493644295,0.5348931842430034,0.5199369485383531,0.4568112462012923
0.34936848485018723,0.3018800027954822,0.13675194047960915,0.3538335199935134,0.5152583300292894,0.2788015609110017,0.4569196785651273,0.39360268288060274,0.5581491814969559,0.5341518048225931,0.5832033874512215,0.5275616074249339,0.5306167284172814,0.5233316517162412,0.5097773200934901,0.5194388367324474,0.41995909038267687,0.4853919062363028,0.5573545084931442,0.512224006477846,0.46187638383913576,0.49808329359588566,0.5561386336147849,0.5300592992315636,0.46007622600319165,0.4476992635622761,0.4539144142576599,0.2982792263417253,0.4582224544310125,0.5262566788009573,0.5150392013777085,0.4758145311235622
0.38102605317561,0.3345206214155212,0.14825595317720297,0.39220893845232085,0.5099168208739928,0.33544528838333854,0.4705508110112575,0.4471172603179663,0.5669828861969606,0.5388747782296059,0.5728196313538625,0.5218698620294111,0.5578457673447019,0.5169209248654831,0.5072725242328002,0.5283577908522652,0.40846205978106465,0.5107805253462336,0.5600809177829129,0.5288050592121478,0.47694097893109033,0.5186833369945294,0.5358754506792187,0.532227871486822,0.45946149125788205,0.474483395950978,0.4865076427163162,0.30322724260484746,0.46679910779994005,0.5179005313486167,0.5214921615169268,0.49278008829459985
0.4117923881144545,0.4008419174311735,0.18430617431586338,0.4221418018739711,0.5275451888140155,0.3871551580922219,0.5009314409415708,0.46815714709834966,0.5422568498187199,0.5355074944890661,0.5913928202173304,0.5096191402177306,0.5741998773065808,0.5257386677564697,0.5499471685405055,0.5862410794656108,0.44817921862401366,0.5759896432345615,0.5484373293731548,0.5651315449336716,0.5260381018741631,0.5569400145966856,0.5544786166735589,0.543486742450507,0.46642678789668235,0.5008862177502351,0.5185423401731111,0.33718140085045745,0.49346777260101105,0.5212299609439635,0.5156414951027188,0.504359499716744
0.4600408647375178,0.45399388607887614,0.2696295325643181,0.4652548524257516,0.5399589135108656,0.46858319524501146,0.5291945279712134,0.534420776951003,0.5219408335937463,0.5417441554063198,0.5709593273550446,0.5037481758517868,0.5810466990062935,0.5094871044355345,0.5440182494930124,0.5896879878628858,0.4478940367269728,0.566731663171784,0.542760126923417,0.5572257136230041,0.5404896957302738,0.562605073014244,0.5535943319106162,0.5423746174397617,0.49110394638169685,0.5113098180382014,0.5270959299563729,0.3648871369855078,0.5138208946663907,0.5113650605663596,0.5248453544396123,0.525633580903413
0.5056668219618556,0.47636043135439055,0.3799267370994839,0.512153394605992,0.5386654831279061,0.5296670145203373,0.5589404264768323,0.5492718157319381,0.5253500778481155,0.5603596313953281,0.5808569393273291,0.5271617174632568,0.5800132020241064,0.5135886332597321,0.5393138850777239,0.5884496241844568,0.4542037683171345,0.5579077833529151,0.5192293877172629,0.5497721341993089,0.532821221638371,0.5278430262671723,0.5301912336346666,0.5686278586182438,0.5039591086590485,0.49170387365511514,0.546102713411087,0.4546838115157743,0.5336140035912309,0.5100423369102347,0.521951758405875,0.5320613798188658
0.5088102929994567,0.4475254416081915,0.297783608580084,0.4877280224911664,0.5580244687159097,0.4935214634309695,0.5609467672112354,0.5607190052033775,0.5346395316299715,0.5633061373945609,0.5854888964348137,0.5096355823508403,0.5614327179782572,0.5161515357404372,0.5549069033419869,0.567545803027317,0.5001852387185521,0.5621454588848267,0.5182088383601027,0.5483764491770566,0.511425337569889,0.5455266525547615,0.4903519710241091,0.5298185245918865,0.4665390985239526,0.5081920255485359,0.4951574839973274,0.3429834839845842,0.4832809040928714,0.5039071571669536,0.5303115535964835,0.5073891468860747
0.5168247901079921,0.46373443749518506,0.31015592991790175,0.5004473281059569,0.5503824212159221,0.501726893390773,0.5558830349052797,0.546934226694606,0.5297655142207303,0.5584469871653446,0.5746493377700013,0.49272368257049814,0.5591362543052476,0.5292463223886075,0.5597254560590192,0.5722093690036805,0.5446717624137656,0.5650730548296328,0.528864576082603,0.5420873658647585,0.505732959966104,0.5441534669181589,0.4958411098625026,0.5108687184354439,0.42765790750559995,0.5057394916479372,0.4950934470631032,0.3209241957729656,0.47029249604625534,0.49808506792608886,0.5290401656690431,0.5087332815441727
0.5151417579268895,0.47866632516614027,0.322939628436544,0.5198829828307199,0.5496138784793794,0.5112795807787807,0.5580283707026044,0.5348563110420481,0.533815373684964,0.5597709297407052,0.5775450258926598,0.4929523468738499,0.5599211358514018,0.5313121923292443,0.5591159199742726,0.5696698445383435,0.5052781672091573,0.5663864609426912,0.5394699044878428,0.5395416359851892,0.49666837777768214,0.5405835607831762,0.5015660765587677,0.5021368394008348,0.42388303067956645,0.5259066209927834,0.4813245051673536,0.31015960040534996,0.4777280482580628,0.5189854591145187,0.5344272960330172,0.5167858693023639
0.5023436308321987,0.4939558979761265,0.3344757694597158,0.5201057580855806,0.55095278730332,0.520937130268786,0.5596888930107311,0.5499860200281113,0.5253390385683074,0.5657569797338415,0.5712903412780399,0.5073258663333573,0.5681126384686461,0.5356110278354302,0.5557103867187196,0.5742260932537437,0.4921560562698142,0.5711613469054213,0.5436191964914223,0.5457127525176513,0.4780876779907044,0.5323394107735853,0.4889392154444927,0.49286297256201195,0.38370762174965467,0.5263213157480067,0.4623121318754255,0.27452810280885265,0.46196953965100684,0.5134244988076655,0.526757748090088,0.5121558908279344
0.4957285326866385,0.46490309254443263,0.3282225231589022,0.5008950515165105,0.5444604656726408,0.5213124442892343,0.5581559410229384,0.5482288077427144,0.5191093826864637,0.5645693677983394,0.572866427037305,0.5055006045653752,0.5529710763702043,0.522401668288945,0.5535166201621471,0.5652763922129074,0.4910549192073339,0.560002712931917,0.5476816745926354,0.5268752947336623,0.45621727241651566,0.5278843740856263,0.47118327291489637,0.4775383113073697,0.4017474192975019,0.5209831111262413,0.4735868436878632,0.3003644260698959,0.48171599021192524,0.5039750329859518,0.5273519450730952,0.5154025296103542
0.5028782173960304,0.46776830582847095,0.3410982352116956,0.5015465856713717,0.5436707429476604,0.5106137644990363,0.5621766936113866,0.5631894530279413,0.5130799553156091,0.5731898646766185,0.5683871435633434,0.4880866052249657,0.5343042784685541,0.5039216094811203,0.5342943493551644,0.5598927896372126,0.47590753621606385,0.5395057199743762,0.53402172412502,0.5092139103520297,0.4524301802604134,0.5214292787646126,0.4723997319069957,0.4850572162239781,0.4163394712011379,0.5212415614839672,0.49465698860788443,0.2951614930512094,0.48195135172127923,0.49153764439664016,0.5283015919176366,0.5237545178332335
0.4950597889210546,0.46202516873888344,0.32120512705149995,0.4904872722472158,0.5396236553735134,0.5074817099210418,0.5646262280651726,0.5626344011031623,0.4969195898063026,0.5803192498115686,0.5865066499262328,0.4620069694675841,0.5291400719531905,0.5062384600203074,0.5200402593996385,0.5406752870822298,0.4786316151445327,0.5248451964398431,0.5326226701552188,0.5152200576100641,0.44642067301498756,0.532401832494521,0.48190514060069445,0.4818961339495975,0.4435133273301357,0.5275312234721561,0.4821650832754556,0.3165788140410073,0.4943715241132822,0.5097388368588875,0.527972422533693,0.5394127835588507
0.5088388760155267,0.48978104534443423,0.35144168565397926,0.49769244526771095,0.5495320070732244,0.5107778775596512,0.562212053035072,0.5486240758270262,0.4838985249410115,0.5808310243417418,0.5823038148122031,0.47647092961910564,0.5184135449000107,0.5142806762371461,0.4742802903190433,0.5347893759426388,0.4692332493741236,0.5320545346868428,0.5313024047935477,0.5568062020071896,0.4788238217909133,0.5313988684070714,0.47909086723910077,0.5154854938590967,0.4756592001423616,0.5308087365230256,0.5034483342730263,0.36554166927680853,0.5141486019984987,0.5379362036668827,0.5402137112533363,0.5505477905017262
0.5680199489208624,0.557399653151319,0.4621580569999755,0.5809221340802919,0.5687295378167398,0.564621146618363,0.6124383505951001,0.540745435969388,0.521456983037142,0.5834349456263737,0.5912580982241167,0.5086174583764489,0.5035550339442172,0.5287665318430448,0.45958290494735277,0.5265677515271672,0.4560073943051961,0.5140292812132645,0.543002421637047,0.5865292854912405,0.5182117182378057,0.564867368278267,0.5297167177821724,0.6025534035321849,0.5443531061984395,0.5425158613605334,0.5444354303617445,0.4953536822626563,0.5614106560371224,0.5477706975596801,0.5678316945874893,0.574407912686667
0.5507053038988614,0.542823190405977,0.4626539788119137,0.5648832464732467,0.5656356056827097,0.5642473831404549,0.6012667664403408,0.5166981391268703,0.5355479726701065,0.5756153362526115,0.5910606373633671,0.4973242298174605,0.5044333725509831,0.5381175199143833,0.4454156837646108,0.5353497405640621,0.4458825690223307,0.5019524816626166,0.5565230554973497,0.5680401681737304,0.5365619572276428,0.5652658085257767,0.5383386965188643,0.6207683861934745,0.5608443704673132,0.5620631858057825,0.5551521865888285,0.5163286226261201,0.5600953422047121,0.5387356443700018,0.5767817428366322,0.5801669988874623
0.5564239420967856,0.5637987996759048,0.5318024740082152,0.5790483306667729,0.5572839015953543,0.5944793492160101,0.6227979041423488,0.4763547728237927,0.5085036593686905,0.5607887731644214,0.5819997022196808,0.5079316976841768,0.4901145105694069,0.5258913588903655,0.4542048927940603,0.5574753604592595,0.39042757563519936,0.5068611604537572,0.5661693055528008,0.5741466955997221,0.5758001516730604,0.5669430398664304,0.5463417566001851,0.612584458241169,0.5662483173461825,0.5574528130807082,0.5743745501950959,0.5278850598931784,0.5815445809252693,0.5628192784143855,0.59048894472103,0.589435752440751
