Fp1,AF3,F7,F3,FC1,FC5,T7,C3,CP1,CP5,P7,P3,Pz,PO3,O1,Oz,O2,PO4,P4,P8,CP6,CP2,C4,T8,FC6,FC2,F4,F8,AF4,Fp2,Fz,Cz
2.348727551306927,1.9188601290701428,1.8530366337454802,1.6811744453101138,2.034706518309991,1.9194252581239026,2.065242506350365,2.076893510985113,2.3967246138322906,2.252749771323051,2.247176203627886,2.3108767375192585,2.0710696255310097,1.968947271684337,2.2894052818830586,2.3869179028289107,2.3012568805051115,2.2038587209012785,1.93777304436903,2.321727724552293,2.1776590118645225,2.1479118827543573,1.9385004260860574,2.0058608506672773,1.7292280157136002,1.9754804222748024,1.8849020090306123,1.7226368201171174,1.8776185886980081,1.941088774500363,2.206928151890282,2.0648941275879897
2.3653251300727307,1.8654911546363553,1.7974479872321958,1.697775500209342,2.071488520530272,1.899777628598556,1.9519490841309268,2.2611154229140857,2.1828242498018375,2.4002403789561284,2.167412838029666,2.059040044928739,2.020365340991208,1.8984652651643852,2.202448325747927,2.3533923089250752,2.386686129206553,2.1804125840466804,1.9557132918359597,2.331425617653542,2.0746821932893984,2.0917690798342976,1.8357544894665068,1.867245143934957,1.539389601165631,1.754119895413094,1.662525140997642,1.6135297344853774,1.726220546126304,1.7996083348392127,2.0869303765458924,2.0830765906279782
2.2364679941493746,1.828825715276204,1.813745229205969,1.6280410621857606,1.8813717410927564,2.025094626348313,2.020037483735289,2.2201110098483836,2.347434916081894,2.1556415491373344,2.184842463946424,2.117595906352299,2.0739818224526663,1.8628149911356284,2.0746743735194304,2.239797443593201,2.348437542777141,2.329500032977403,1.922408577851097,2.2885892914840538,1.8608900214568644,1.9850449362759386,1.8139637303875145,2.032317773970225,1.5978712865100577,1.9173504360605387,1.697896888125454,1.6474288645666162,1.7828664664222227,1.8570896809875783,2.127977253844062,2.1872904314762804
2.174497832433623,1.7751288875619509,1.7607685099655492,1.6000875013372555,1.940474342205891,1.7761593904986945,1.9579265921862419,2.173501969488416,2.124039306193336,2.32306168633949,2.1356011644279835,2.2955071057368803,1.9271615695236337,1.8136606753779616,2.3917511078415474,2.5095420956782997,2.2103336726231095,2.0535815360963414,2.1163419468756755,2.237728901003193,2.124410189613729,2.0691849043062445,1.8028132764271063,2.056052794600172,1.5721961370175044,1.7834935872831215,1.6635561824880687,1.5812219715414875,1.6646352497015724,1.7595293610989848,2.157062540417249,1.9183495190399087
2.1321802205483786,1.8963718926589712,1.849717162054363,1.696027623102211,2.03102921263876,1.837571413770641,2.106047118884699,2.247100867564293,2.0731772384758056,2.4338535541093007,2.279099249602436,2.384407037260194,2.0105888438767434,2.034097260299574,2.2445570602448948,2.2916361819352185,2.521037151906072,2.3376275272929856,1.838078628731275,2.164928121389289,1.9015833806455547,2.0091463537925582,1.8160478931067037,1.7971932991871962,1.565241323241577,1.796290822647064,1.6507358925380882,1.5242059640208416,1.6454655906666467,1.6902010553088729,1.9775414289551274,2.044536774242741
2.0174990057405404,1.7879334686332815,1.7611039683530383,1.661433108942446,1.8743758736153715,1.8126945987947205,1.8491206269272153,2.2526559412778355,1.957400344655611,2.177229182196118,2.0435078612752444,2.170665420824291,2.1146392150212057,1.7622901471717471,2.3237862232296975,2.5574345840746515,2.1769632071851794,2.330952024559419,1.9861695289483539,2.3232601789645337,2.2516398245531715,2.2520311769151236,2.183059828466222,2.3061628827269387,1.7764616937288038,2.0672926521657637,1.8474323437654285,1.724848887868675,1.8036105794696038,1.855899923197198,2.2099394964013506,2.3856764552858496
2.0642454098347813,1.8407202103401432,1.8784248493036562,1.6697709364191535,1.795151422260356,1.7675768077642529,2.1559145378333424,2.2755025482722697,2.213542875445525,2.5179100215210877,2.319686158424694,2.4004616724445524,1.9161175906499088,1.7725621989023743,2.2738959385488307,2.1724063701675562,2.469598202049983,2.116465464770062,1.8407407392379493,2.2033131733125364,2.1097037544569637,1.9981048953957006,1.973902403419372,2.0909910805288514,1.7806893783825914,2.0344893668943813,1.8146689980467667,1.6308059835638777,1.7706000099344772,1.7805544311441361,2.0156123385688365,2.1739756457530324
1.9937150907791565,1.910018196986036,1.7064755266784808,1.8412770550460715,2.081850551565107,2.0249924696602246,2.0098215287922665,2.1150669460786804,2.045472970289904,2.1617006962301746,2.077310386255375,2.0560033317160626,2.441712114620566,2.3225061870385333,2.2317364848037675,2.626348369472857,2.252531064363371,2.5171268878693955,2.0998926062030243,2.2136441125628994,2.0379570605015345,2.1179955680796,1.9403441937405657,1.8503973827717481,1.665627299579064,1.9320421609474232,1.7488270726882476,1.5692233551933197,1.6673260293267047,1.6791382288666041,2.209302381795574,2.222680413826516
2.0879250083189684,1.9743739789606296,1.7781975858739405,1.8213089593313452,2.1184469421417496,1.7818040694946238,1.8897594185335445,1.827966178136448,2.006037021918884,1.9558677163523068,2.3059381468348197,2.067002478368317,2.116277111456163,2.1049102368918287,2.1916955696082123,2.5302951137807943,2.3204857593788777,2.1524554775410127,1.9498777283289757,2.2133542298177975,1.9660864085575886,2.2971411930830947,1.7934135292680746,1.8787030473431583,1.618787717912678,1.7578247408726704,1.6513348851234428,1.4850739277126108,1.5517445617928673,1.5043587050893379,2.054507395684032,1.878866683543363
2.0285817541343687,1.8422966866940411,1.6990323949998556,1.7101105780048955,1.9886707724490782,1.7709834304970344,1.8589393698145613,2.1620558323917822,2.075616452209766,2.1298376097422755,2.32641445958059,2.2041934198547812,2.188957229895149,2.0380373921843455,2.4199348082585312,2.5695875021109242,2.280040847857798,2.2686219293167174,1.8796149376467077,2.025734637756493,1.874442758748188,2.166847369586804,1.7487150113685306,1.7211309131419539,1.5542370881001664,1.7458189025261832,1.582744880519848,1.4316367821298808,1.5085337306078828,1.4686412389395054,2.0134310368004726,2.019140764679995
2.052709713517849,1.8216633564413895,1.8540043640575643,1.712626098987454,2.072236524198286,1.843870671715806,1.8945515876457493,2.239723777090463,2.0931250320920785,2.4126336959121266,1.8689849296013485,1.9772425786724102,1.9940850900348752,1.6703343523522118,1.8933525462060972,1.894240062460872,1.8106910333354438,2.0297116992978492,1.85939079479854,2.1620433263149073,1.832564509625929,2.0430678834716836,1.6949587791450924,1.8095297393387093,1.5979825587312144,1.6694394443736147,1.624089392322944,1.4786836484885342,1.5631051234980162,1.521392887294905,1.930845113687488,1.8743877896014565
2.0226916571230977,1.794345155000742,1.712210395410335,1.764331549584886,1.9030927223791083,1.7098733025539918,1.767354377561788,2.1084023668561853,2.086801883601381,2.3357128821089916,1.9605844639754775,2.085750862192821,2.1484945883745126,1.8623162297771858,2.184050472042036,2.0937825966064,1.8298831518391518,2.079817395863614,2.0421247289688274,2.2577932335536337,2.0664687117503564,2.2540258126199095,1.8249995410276014,1.8991077745110683,1.65634065105605,1.690991064150041,1.6230568511294186,1.5183007526075252,1.5581011718111326,1.517145893852339,1.7930533767761274,1.8286374818076216
1.9304980232125064,1.971201087593736,1.6761524118552753,1.9136873798767733,1.7994340515440375,1.6770699125935455,1.8420935292993408,2.0648805897969336,2.029960193260071,2.36256976644178,1.9968317099043988,1.9319805937125891,1.9677936470383692,1.772331966728148,2.0787498381038976,2.072123431351838,1.8563564415275595,1.93594315166645,2.0697136579431907,2.076894698323855,1.9218764146818055,2.2374368011489154,1.7352296925192818,1.7116695684445384,1.5717715165684156,1.6513270471417292,1.52947552060705,1.4446009810512435,1.4438587429877041,1.408309232028435,1.7181703064336937,1.9689600225823187
1.9748695486519046,1.913553495953396,1.8054781099048445,1.8894937504323381,1.8241517865693806,1.757822653040718,1.7314034192999814,2.0865205184314686,1.7208363196091707,2.3716500198724506,1.9886268713219333,1.9081188440807002,1.8669074072520147,1.7969847750125794,2.052533807525654,1.9909877658092046,1.8335377719675054,1.8613551611426626,1.9621855659463618,2.1974604518075407,2.175341126931706,1.9745224822115142,1.9592599757816789,2.0545098153440513,1.7216786460914284,1.6989425232957687,1.6803255790948668,1.5342521929876707,1.5499387827037838,1.5076283534380317,1.7443580696223306,1.912447086628366
1.9484987543373338,1.6204177584847297,1.5871818404994533,1.6370101381003932,1.85473691985642,1.598102855275054,1.6785861694054358,1.8949020184816359,2.0901163748939804,2.159922435200445,2.1089290290753198,2.171267254800581,1.9595966724708969,1.9932983696513353,2.2537903972717173,2.1252030613645467,2.146210280368186,2.072143940118927,2.1215247904023733,2.1919714219051913,2.1253731541531877,2.044446161819292,1.9506710845016924,2.059469790163231,1.697946948359623,1.8904403330222197,1.702498203580389,1.4863813232799201,1.552459159989833,1.5118492890107147,2.0116434657261273,1.8485547889827914
1.9344202896417468,1.8762671699195579,1.6354780808532472,1.8629331050969864,2.058969234316721,1.813885599467575,1.7678086859251436,2.2475983782227553,1.8872280201562377,2.405773258057189,1.9581114907870796,2.066108736075458,1.8575126479906645,1.9166440916762126,2.0004092394754083,2.1008411617611995,2.1552562332245815,2.1059354947419284,1.946069548443048,1.994621171101282,1.8175587477800392,1.998782228559323,1.7189375821387094,1.7285285765271348,1.606023746809181,1.7669943083744903,1.6451529831154974,1.4729707928249571,1.5200116552516554,1.5110511894503038,1.8144064104050581,2.021627654918617
1.8817209917249897,1.8743225557358552,1.6871687699510292,1.804342883974253,1.9571145339094473,1.927647977164275,1.9669347253479703,2.006500345486337,2.1629859803822846,2.010380889588688,2.0539490330795194,2.205456361855585,2.076384831118482,2.0156163687072794,2.1228749791827752,2.055508405265611,1.9921880843370081,2.053617912672542,1.8632711738295544,2.1695083928505183,2.009367334331711,1.988881568687731,1.9887620555283445,1.9100184241525635,1.6545885651659475,1.6175993312027377,1.6119129450989813,1.5146570593179738,1.5063445732674723,1.4188210480662224,1.6161546754159013,1.7987254831305335
2.139322041231241,1.7595408756703392,1.6519846812206163,1.6119240841478581,1.9708369945567976,1.6905655450233734,1.9532609406626593,2.2229262875352136,2.0756276601184935,2.4213657205854107,2.1074444773198895,2.1734726720461928,1.9809586658918015,2.0013796950273424,2.134191316081343,2.1636961799547976,2.114451887377366,2.14614455069019,1.870756188448537,2.0897105723636895,1.9669787663657599,1.945116663415514,1.8422801940568772,1.7285604234614143,1.5574001544571754,1.6757129809913003,1.6493162861870452,1.4542827167933554,1.5345345888803377,1.49167544536148,1.8245675879049834,1.7809880898798764
2.2937827904063517,1.8666347332117192,1.669087430405772,1.6928042735059878,2.246144973418878,1.7752047150053036,1.760093802492968,2.184332978976189,2.1902221580261805,2.226402695043697,2.1674071906589347,2.0091178817952233,2.0042650455153077,2.004900476025156,1.9424258261207832,2.0643366751079397,1.9998193109259534,2.127069454250507,2.118811430338678,2.093590859136118,2.1776496017207267,2.2909419740639025,2.243035724041494,1.8712880119181894,1.769141966597046,1.8429982864395265,1.8291331214460331,1.6214900597505544,1.6806517549522186,1.6708269730477951,1.8111016875149162,2.117688465125755
1.9904933114223746,1.8362213677856924,1.7139497297741408,1.6723689985861085,1.9772368460989607,1.7674734938258425,1.954674714602698,2.2887793372257446,2.2863388731103527,2.336168138592869,2.0978175934489247,1.904977441270283,1.98659875543196,1.9449382978738559,2.0777285195638355,2.2279531015431835,2.136725728974559,2.2751478409858614,2.1694256202892417,2.189935803608741,2.196035569695043,2.096707880677655,2.339351349480925,1.9704873817096678,1.782725275520443,2.031893133175419,1.9458083284456387,1.6544607524987625,1.7924275834574486,1.8151393442411092,2.181407850532895,2.206003736871586
2.2227754580644894,2.3638806283342957,1.9641390736271667,2.2143802144745144,2.195036600437186,1.9781028111421957,2.1382418561547882,2.171664258908093,2.3026252572587906,2.476220206960923,2.300090117012888,2.3650237170637904,1.9039933319003906,2.267115171175949,2.2976661155020137,2.213212284785953,2.145822686105639,2.25529222129157,2.0207661916952575,2.0098195953881706,1.9931464930204854,1.9427703942834882,2.1257899799391438,1.8805128638791386,1.9912958171395132,2.25153549511354,1.9094576705882322,1.8228681970252998,1.8140949784142144,1.911876102125777,1.9910110821738554,1.9743093647231718
2.1985843858328216,2.1326422786713586,2.2394267870298807,2.2134368711084105,2.0614353992911223,2.103484418548568,2.28583664200283,2.1491615111725055,2.2158995756549733,2.275385844414194,2.3211254737053837,2.341784083035618,1.892261811410415,2.1955243941916054,2.404898255758168,2.4205806811818835,2.3109482519975435,2.231621560067844,2.0643641879572407,2.1661818269494644,2.071510114653324,1.9520819321110234,2.2762333845772176,2.044889375726228,2.0267435125381352,2.2104906073525146,2.1829526534935937,1.8792925444071298,1.9900875711846777,1.9251709292686376,1.953985553576838,2.108005753001509
2.1918011362428,2.198152037423006,2.1329152727288094,2.2024283652586956,2.0333187737058855,2.15572144409244,2.0803963107421874,1.9953918229891838,1.98086844226182,2.3443777790231928,2.394226413425048,2.148582425460988,2.3531035868355814,1.9776669091056032,2.3450895496268935,2.3319061168650053,2.303995402869185,2.316380258412112,2.4106009190290107,2.314902800481849,2.100294677450127,2.157835367898583,2.449416207726285,2.1303988372734195,2.202668317545707,2.3416164062087303,2.232415596084765,1.9722114100088246,1.9916321320659123,1.9474887482232046,2.299274720154555,2.483395074605072
2.249617462613457,2.2528993282711447,2.1251173294398975,2.1682006083612366,2.000534590469594,2.131629242876062,2.1939818724236724,2.1030208334670673,2.3821738422326875,1.954661206481448,2.28189671984935,2.110410474016721,2.3123842156855288,2.0411406099097196,2.300995643007247,2.222850140548107,1.9413961988771988,2.0339309183705816,2.019243581105458,1.903125907731191,2.1294199854794176,2.4430812519141796,2.370556082252682,1.997797930519992,1.9552726201574624,2.0370025990364384,1.9610795106255214,1.8937989376191289,1.8874887347792357,1.836513008486128,2.1632703526490973,2.3339753662063067
2.364234726870092,2.131616546747379,1.9461638417972331,2.3207627399987505,2.211750238051759,1.9249617086284352,2.201474618654909,2.200882808428942,2.259527606678751,2.120391628278359,2.205290281171572,2.3013859863258928,2.4732898316169294,2.3241033550061654,2.2118306565465637,2.3985370705035836,2.1591590433363317,2.283603121960082,2.394359458512165,2.042774287998802,2.3047119916699166,2.387598916683336,2.4516138239675707,2.04134548094836,2.0396139759603535,2.162758353236438,2.0784101699148163,1.9738093886807835,1.929972560950443,1.8644431717994323,2.0852187355421457,2.2849614160510163
2.398323698140637,2.3806935639573905,1.874272951105332,2.114283315537029,2.0568190851310897,1.8914387048572414,2.081744311759053,1.970455144344453,2.1132396968661316,2.0474497731369947,2.213118098531987,2.2098983694584318,2.151350886585789,2.31595309134245,2.2906322037232942,2.534759870281935,2.1100978105391133,2.338532041115198,2.2245304376000488,2.0076344666670796,2.1655358034830567,2.4199035936424274,2.4134154094049354,2.16206095862446,1.966875596985603,2.2450354341435363,2.0636896100698614,2.0170554770752536,1.9630831223093137,1.8103224649322303,2.024505493430992,2.3605195932329233
2.385921827422273,2.343691058349153,2.062277499109286,2.131219743688658,1.8393489486388555,2.306568612669359,2.428764066823415,2.1407436815852505,2.271801730134359,2.165353567613746,2.2271365371109546,2.1664765249875635,2.293360390897534,2.245810711377818,2.3370848915742646,2.5854316689354047,2.2799134358267223,2.395841233155827,2.413011463282258,2.198648902374858,2.103495296249556,2.524994004400581,2.4541928142271336,2.1885191719916075,2.092900644209513,1.9993711687418039,2.1490486155614468,1.9237588098305065,1.984679545076734,1.8482931069097321,2.211845058642555,2.1722994026844282
2.177124661013417,2.280388239793421,2.144587603785971,2.3302210475283767,2.0484440129097745,2.226207287995678,2.645374592546426,2.0081722345020165,2.154477086626938,2.0627559639974464,2.2968588346296532,2.125770103503527,2.4998241915541928,2.3074400911364794,2.347738680539032,2.385738972178773,2.391605463395385,2.374081084700213,2.4214046293707443,2.3113759243780176,2.066748935793957,2.2538387000688394,2.325409873617191,2.1041728357198637,2.0203247858179587,2.1999732305567927,2.1082616621900985,1.8521518866570301,2.0070398014680713,1.8121379334985668,2.1421452698585783,2.11394169561714
2.2967321628825035,2.2065741888130734,2.187539065330785,2.1221119940918487,2.0779264401427797,2.034327938078921,2.4417752740440997,1.8571706591716062,2.0912070810137147,2.0125668406642974,2.1644175718760206,2.20018510234553,2.4467982412513076,2.292445361949593,2.271810605922447,2.1827043575588347,2.2556941534266204,2.3210725609665475,2.2180404206792925,1.9839877688277456,2.042753323999087,2.215996823931328,2.198023360755451,2.0890161668434004,2.0319978119842323,2.229401582688005,2.1616268236168095,1.8779870462979877,2.123412954254247,1.8007092326606342,2.2457394413532343,2.1074016169637226
2.2130220049829954,2.051562957193148,2.336054360520799,2.260795958257114,2.033682418143208,2.10595681841191,2.2025454421551296,1.9230562775802367,2.0448073006549916,1.9983102289286319,2.2698436504796438,2.0371235671950667,2.2405850277320143,2.207329690988418,2.2276452241296507,2.2657765186456866,2.269606754969939,2.1719625690927926,2.151776069855266,2.010626860435936,2.0981350965484022,2.22820543936539,2.1835155875578547,2.1535282188557416,2.074600790251892,2.379073669633832,2.1130780893364807,1.8918264744093534,2.0158494949522847,1.768741244984512,2.252288861716143,2.1902077939683435
1.9980897237122097,1.946782366797438,2.381611529094826,1.9816358510871293,1.6082074856011945,1.9943406326723585,2.4203971231186556,1.8149435493634862,2.0679382268278252,1.7992269186595677,2.0042552028152274,2.155047161525765,2.2365214650537464,2.2446951944554083,2.112169174014746,2.239605927005221,2.2329941832199807,2.1873426987984024,2.235260815834124,2.2528436752356904,2.324513351104716,2.1325937174933407,2.2793960072935437,2.329608358254997,2.074484336550087,1.9436250485842943,1.8329818816844798,1.8859302312148405,1.8215847789489574,1.7031277921439256,1.8607599547366391,1.9476166940081223
2.061538652641173,2.057144441360203,2.3222538430418553,2.0723809896441514,1.7373862803007551,2.124480780398178,2.422647048667599,1.912979308558338,2.3027075963095105,2.008595877715525,2.2399522631702022,2.1774623471995915,2.24253581236765,2.1591713948972524,2.1657735901672486,2.3256139844633306,2.212559642809401,2.1452412495150406,2.186943798691666,2.3089665010301292,2.333318685470811,2.182378051783767,2.307248444027667,2.051170809713985,1.922052082294292,2.1578414422456422,1.8241056131696958,1.7473100632660747,1.7287112542856293,1.6497584349796097,1.9318553834729808,2.208035725965524
2.2060785698392515,1.9289868676578357,2.0939959680855216,1.9276438256212167,1.7558599401129946,2.007708619803512,2.4444582511902153,2.034418452633109,2.4203066718616064,2.056826481148621,2.0170753552864515,2.1010172439464276,2.270262726731667,2.075085271871555,1.9968991451955793,2.0779823019913612,2.114371000131158,2.1784465605207735,2.1729921670338785,2.1917838302065755,2.2945224759030074,2.0620120922753062,1.9584846010933452,2.4278986933634585,2.1554642412346463,2.148725948105826,2.048962515320159,1.9563849996852847,2.0602636813372768,1.9033438744991749,2.372213579814677,2.203108029962985
2.2533125775323435,2.1071237027073146,2.1672425491380243,2.262876759447847,1.8931478725791213,2.130503913711751,2.319004273109107,1.8864766546132476,2.3722353038191217,1.8761001142939415,2.1772083204633037,2.2356359240798356,2.2815098946597634,2.091636071736228,2.1743445101366534,2.221120525762573,2.3127621108303917,2.4322714608531006,2.289604945402088,2.277428462800061,2.133966786956662,2.3380748145615367,1.9825715138975388,2.126442303061767,2.027581177583471,1.953709308813312,1.8399085876871313,1.849960397592637,1.8749360309871024,1.7664309500687263,1.9495526267862526,2.2823741490851206
2.045201249732869,2.2038026035813534,2.335468792953163,2.26044757656945,1.8550046602348065,2.0523333534421395,2.163882477333315,2.015077066625264,2.0771101734147708,2.0858693886352473,2.110871140046069,2.0517136476192346,2.1275916667454093,1.9328312221634751,1.9936719238114182,2.0533258349918673,2.082258448556876,2.010275651878375,1.9095931768014813,1.9429702662459907,1.9836501137359335,2.1355021840259534,2.0106097681169675,1.9719663672904952,2.092820920126784,2.259823189230196,1.9159198000323672,1.9179146302492869,1.9886390122755306,1.7626867373068127,2.163528529721075,2.072828949715033
1.9116366489908838,2.1801774170052193,2.2553189464637873,2.021298357260252,1.905578933011598,2.0947694490753834,2.150745476301743,2.109066183746522,2.0382138040805393,2.109365239967154,2.1360617114591376,1.9638551651750018,1.9546632618862085,2.045943315976253,2.228315098490637,2.2724735470853084,2.055776418645966,1.9542167770436176,1.8302566393760895,1.8744298632149532,1.9963575180760527,1.938214245218449,1.9978278525852682,2.161784341542353,1.9394596501163495,2.168820227614216,2.217153851127588,1.9117159213968409,2.128337755892997,1.9816532555833575,2.118331544725697,1.8936632835382172
2.005525012622661,2.0092064037937356,2.1352377269481617,1.7267752556303901,1.822990938003725,2.1157735761310126,2.1191319809401086,2.1810373733202155,2.061716785969772,2.2495883027474566,2.1013996489604256,2.0184575319168374,2.2694789316446364,2.0229351993215205,2.3024978554690354,2.1729571309429008,2.1276167756876796,1.9678894283049875,1.8304634439201364,1.8821150206089694,1.9419043335913353,1.9457505866869322,2.037202072184539,2.1145743449311345,1.913290857724295,2.100406634226424,1.981324968642474,1.7917308744681535,1.9457556413271346,1.830195846057491,2.1769076189476295,1.9453268943369417
2.1954149833461445,2.0678997726619466,2.3682410216762926,1.671932004414724,1.897570497053929,2.098926618531999,2.1479814075613812,2.153517315448471,2.177668247796761,2.3909731403808614,2.1175543878596566,2.2209349759482135,2.1265569709667425,2.1722164133250255,2.263260140909936,2.173102009289857,2.1583933194161267,2.1689196301839346,2.043249013132633,2.1770416568589837,1.9878176094830537,1.9993563728976937,2.135900835581455,2.176039999433489,1.987449293214741,2.1415734242104456,2.359548287530128,1.9281156981851104,2.268055187900716,2.0327228299505156,2.1816158560911765,1.88600909931173
2.030546765777275,1.8866152068662465,2.2215447784191276,1.783273632373908,1.798202974297252,1.9484535043168787,2.001879734723961,2.064849477836777,1.9583229216442726,2.290381041561885,2.0336633829419184,2.066525065768751,2.2009059898380734,1.9740986916867973,2.1830840213584417,2.206392671459529,2.0775601532794497,2.037682171251651,2.0673884547880577,1.9667224487391615,1.9315973401746902,2.0366350812788783,2.2054167593242906,2.0195915276090863,1.9803644763711783,2.3948386448114096,2.335414930373767,1.8529295276976743,1.9719277423730626,1.840503046495216,2.08504230911765,2.15045203675333
2.1931367493978153,2.1221915802269073,2.1673847400850788,1.7354253727842808,1.8213457829472937,2.014876032763386,2.206239623109146,2.2445130387621215,1.9419555786087206,2.399014162326615,2.1097242785512007,2.2996973572385953,2.090082557133022,2.1238250467395394,2.2732771693592833,2.3767622805132618,2.2746150811344705,2.1397391732757973,2.3098138422774483,2.224344822836935,2.171109359939559,2.104961298810563,2.3194915712421174,2.1941049948785554,2.0723230950913045,2.2771295889109573,2.1461902720342745,2.1430786447883006,2.3166569251161593,2.1906795508711534,2.106522710822789,2.1415345478713133
2.006029795037307,1.973142168360914,2.141763802656164,1.8864404820205607,1.8692261854646945,1.90231100815848,1.9221667449028,2.25749014921985,2.129508548206062,2.397485171905803,2.062968499327704,2.326893017263077,2.083009351555783,2.1125356939095323,2.2789393586519076,2.1838203854637133,2.101559494181236,2.225054969452473,2.3063016019639657,2.1411575278780943,2.1070293723550826,1.9857995281183798,2.142248794228122,2.018595353740525,1.9148534654077334,2.333078928293747,2.1816838612425538,1.9751434546155744,2.1268570869067447,2.1343289454655205,2.1609223989373767,2.1006965000517273
1.8377015633972285,1.8122132244548717,2.1570003549434476,1.93138347831066,1.7438786576393872,1.8877433915655633,1.9751803824548502,2.2385467056231514,2.114781807474326,2.334039439149709,1.8834045259173409,2.1393316190150666,2.0439761216567596,1.8800853240436526,1.9715295726751176,2.1103427549015175,1.9833688985956874,2.0023178248081344,1.9627296022803755,1.8863854395217103,1.8744931045339466,1.9494140088798788,1.9649266229681146,1.880768844072347,1.8442955616578725,2.3081594596078183,2.00710206885845,1.866358116348161,1.9878696044511397,1.8601142845962624,1.9435807096636641,1.868801641427803
1.9661139888416657,2.0196843086146505,2.46078887071888,1.817088070862683,2.0015686212003097,2.025845659864124,1.9757099005110106,2.027982294102712,2.0079270380271352,2.3149927991023542,1.8641975554406838,1.9239340587159353,2.088058852581336,1.8860059180246487,1.9808892339303243,2.1917566079517727,1.9903339870213939,2.033055060652872,2.12548235022036,1.951384800059328,2.0479277682961503,2.0712382679448726,2.0927754440146216,1.9189125892523482,1.9078664137057346,2.448111894625958,2.0030479030962147,1.8523283009102376,2.028935231793016,1.8639972775238653,2.0044484558646825,2.141761209938216
2.1886484011691625,2.346870671686653,2.2930768016737004,1.7672253204846553,2.005714124242089,1.9642529771542303,2.1219568395541573,2.3165360745885324,2.0711259496396535,2.303308172109932,2.016008003819262,2.0802947682164166,2.0804152194042476,1.8336387324236785,2.025695548399108,2.041779391263266,2.0844621670772328,2.140741053982004,2.042062588466588,2.107918607476723,1.9924733534537917,2.0030117962857643,2.1322884894612635,2.207486266082537,2.092281161825028,2.29450855700656,2.183374952880955,2.0104169263426668,2.0875025144480945,2.073966636354557,2.133295405712489,2.1242264122624297
2.058467492079469,2.247625492923602,2.147837738224767,1.761315028898391,1.9284454597247997,1.8516055228372228,1.8636534981050696,2.1319448442349094,1.8708110799774758,2.1981904080208894,2.0285699240342208,2.1131052891668647,1.9385417298144045,2.147751844604773,2.041728653861038,2.03050759240363,1.8815381680597332,1.780849771583894,1.8043506612263365,1.9319861191146581,1.90631776672592,1.9812726103544838,2.0898501070999536,1.8811362569848715,2.0628646833040003,2.283124787820138,2.4105778149902477,1.974005395299134,2.3428370067893156,2.1555019782666065,2.1263126688809835,2.3009359235483173
2.2666537935473956,2.1041897819673827,2.2293436996080906,1.7062843182779912,2.0580714909188393,1.8535943273023707,1.9617626613236612,2.2156284368838497,2.2615885827316244,2.3141951006647146,2.020920975595859,2.1284798763693584,2.0206181521588724,1.8934376261381975,1.9000191534207524,1.935992067874772,2.2398220287318167,2.1260095840740973,1.955195528010216,1.9471332528502079,2.0956550791477793,2.12814329748689,1.817958583448189,1.90858066243514,1.9131656138021644,2.206204528238198,2.079000828014241,1.9482895747282492,2.0677695627088757,2.011639906483029,2.10393532074012,2.155309417363067
2.310980638998401,2.395348883355758,2.3866668454183917,2.198984120950304,2.1131915615727785,2.0083621620297967,2.1471884192974917,2.1667759301680882,2.3569086371736256,2.245552573151103,2.1370563754241543,2.3328542481657912,2.1258565201038744,2.2700962370219107,1.972786596018977,2.019583031463058,2.024364290007478,1.9298434129883266,2.1362101303308707,1.9638217336523582,2.0318721400214286,2.1885861106437208,1.929638914479003,1.7350560114372402,1.8560324174527247,2.307588586643122,2.2030508387625165,1.877746755595434,2.119314763470472,1.9212540704566887,2.0976213242791553,2.037693211367608
2.1395810520795897,2.2754655235819703,2.1933402258841483,2.1961713701894365,2.2935601136102557,2.0215803632363243,2.250219146052655,2.413062232992777,2.2301225183024442,2.0495142734706033,1.9897745547841894,1.9484196889210499,2.1724881440083847,1.9951234012813983,1.845415943495247,1.921733628014223,2.059075121076252,2.015442720817754,2.310251792198073,2.2556904130134146,2.077818336401573,2.2530309908658293,1.9875376576617223,1.9697708595943184,1.86535908033399,2.104998186813975,1.8911392985031545,1.811263673843144,1.8360003111370973,2.057706106551753,1.9330734489998458,1.8451073791512045
2.315239321630463,2.3370851453630452,2.306594708291964,2.1922047046764934,2.0940714229870783,1.986819217072846,2.2285189977323614,2.07770621944556,2.4470521344545566,2.1231530746507805,2.147553149135473,2.234936391056381,2.249887837712238,2.1589245949208995,1.9830270192401482,2.0401061703712133,2.076757649361525,1.9675215357687135,2.07977173291075,2.0572312700000537,2.095833018508019,2.1785520228913873,2.195131455755286,2.0192035015699683,2.0254980083496585,2.2518555224089467,1.9096712699946785,1.9602892695014127,1.91142559110269,2.0170126090637606,1.9921056993454258,1.9379895401669038
1.91299365321349,2.2648608945638347,2.2309030361566,2.231414735748137,2.2470902335807916,2.089425285221583,2.0609529018670334,2.358684982116172,2.275092493404386,2.418777997023663,2.1220697183889246,2.063452302333145,2.0639502003003445,2.0198222086591278,2.091177099232487,1.968700852207491,1.9604872553502262,1.852592212594536,2.027537693335663,1.9028947025004963,1.906863433368783,1.8472172617565115,1.904207353839214,1.7708423894942216,1.750991329242568,1.9679602349230259,1.809368505843352,1.7525301642341042,1.7326228781132864,1.8626089403177049,1.9114183320707099,1.7932799422434844
2.2806033487873023,2.166942311809406,2.2101035717705133,2.0910365429714313,2.096787949589343,1.9714251265045688,2.248726856039594,2.1387071476750217,2.257188477443484,2.187391329089838,2.3078678760553863,2.208891014869231,2.458984751547955,2.1635702808267165,2.109223734384177,2.178563460590918,2.1476336193963625,2.0314765947796127,2.092571442265934,1.9829521043665321,2.0800117413882035,1.9919250491772589,1.971256260301856,1.9685503170768546,1.987051781510089,1.932261346154598,1.8985770038048981,2.1287513087174506,1.916757350776445,2.1634127694976475,2.0594859464841733,1.9621278189072309
2.1596027973624468,2.2701742925787176,2.0145440399871353,2.352078572331992,1.9239146516428924,2.1468450283455596,2.039318388767759,2.4063816974394183,2.224285399339478,2.3879568551670953,2.2410759202806796,2.106890601885036,2.0996679104361555,2.0859506450330842,1.924916501993481,1.8906114134287615,1.9873283054609474,1.8399650800013063,1.9771973975495212,2.0423040935656798,2.006253718786628,1.9840562276442395,2.2091191584225656,1.9794266840023433,2.0845671195276845,2.1481970317470163,2.109978902928173,1.9862520376870474,2.091297912569271,2.0471409417957673,1.8893045968952058,2.0801029860285336
1.9609424371127042,2.0324191807182137,2.4349953810960656,2.1319229574035017,2.0055458678281437,2.053004193487227,2.4458537568089027,2.270682221432667,2.2735995268127196,2.1016316150743495,2.0294946205486726,2.3931382045346887,2.327054893544261,2.070647146074206,2.118329812890193,2.133167637134591,2.301918753215502,2.285686183823117,2.399195804318067,2.3193553270569156,2.210658256764978,2.2703632486887977,2.4079045546337365,2.3028260538875025,2.1265132378784495,2.382839358015238,2.0292873307676014,2.14628234131185,1.8685141561234366,2.0079739033036716,1.841015445189374,2.2373372927080766
2.025672798638673,2.325554415052263,2.4591039929878886,2.3072865634526027,2.1722387105933967,1.9311724066231462,2.228064440133452,1.8679228967248616,2.200206465096152,2.2933787237411454,2.3067165829583014,2.459214931473883,2.3222089579046656,2.148246273608076,2.0814094284206615,1.972952613283007,2.0131821244969084,2.1418209623395463,2.1593856656867114,2.00857461906234,2.061292225701217,2.0675240225149545,2.0626795802219338,1.9259916371868273,1.8433000962507458,2.0598294481684514,1.877815938652968,1.8390660779436463,1.8022802476828257,1.8673390951093418,1.942253706717719,2.1138983518159913
2.1829723827065064,2.112034769588497,2.234659405672193,2.081574780082626,2.2143950745141945,1.8437902924319098,2.155090210109252,1.9287875580424123,2.1986715874419303,2.3927627864824847,2.3913308739768278,2.1455819167918584,2.348590491245711,2.2718648372086307,2.3403966657657693,2.2537595683913905,2.3712517777031303,2.262014541303417,2.3621302690493904,2.317521130110292,2.120853660814604,2.2640042017082536,2.2663954609531394,2.0254042192957202,1.8864706970164775,2.0255209320743846,1.9593313889484736,1.9128885790488845,1.9680910821363982,1.9868464124508538,1.999018941356345,2.171431846654264
1.7487076356169702,1.701589532623795,1.7234906117969266,1.6720029299591168,1.8388710920349796,1.6416720551332735,1.8978989963144342,2.1212783515554974,2.157102181675916,2.399899789248964,1.9862607866637176,2.456704167271978,2.207740967344484,2.291938994922628,2.041309108423782,2.0990115660450877,2.3254506912775623,2.1863952208482296,2.5150144721677767,2.305722119695157,2.2582384676638148,2.1403756419582973,2.452005683059674,2.2316255369737967,2.047410071689762,1.9511232662073235,1.860436954814596,2.057903796120373,1.9416264008714668,1.8787236838015056,1.8131941142556358,2.1555819888360332
1.8496699127170644,2.063554839283508,1.9862031037636234,1.996501535209456,2.1345471730856653,1.8118016341743657,2.0157110600077277,2.0946073016571014,2.1320625916320655,2.1044181735256133,2.134401766749649,2.0996851623496546,1.9600872573996777,2.1900677273802276,2.0757645904287148,2.043930309897672,1.9030109663929833,1.8488203744472587,2.0647511749058585,2.0373519886828495,1.9689547091291202,1.9290862512777274,1.9989424578102422,1.8929444777911042,1.9026385256519833,1.9721856352214355,1.8948054233493343,1.787889764472637,1.8356033733191395,2.1718420367830835,1.8950463076850104,2.198035838960828
1.844574315649467,1.808030707101547,1.6404893199678385,1.7478115342636829,2.1447985786015935,1.6236364227249171,1.791666240651109,2.033041136585331,2.1135915968252235,2.299390188574564,2.145340278247952,2.195892345937309,2.1144560455224934,1.907213800050179,1.944064625742025,1.9498025765048763,2.175064013099157,2.134300267408106,2.1827410063690347,2.412962272080171,2.2887105258105844,2.225057748950626,2.467156081158024,2.1262968224020358,2.139448178058165,2.0002473484914645,1.8978715791315728,1.7428521913711432,1.9143911495613655,1.8738319238195358,2.0293939452160945,2.0714845812756715
2.041400682468028,1.8142044840989986,1.7404493764588589,1.7841923294881321,2.184560705500994,1.6810610166724418,1.9210664889422389,1.9949500937949256,2.1952662910511904,2.361627687968903,2.210191005984716,2.2503147499318947,2.240797831232558,1.9069025538848252,2.1085038248657693,2.135365826039803,2.2440618075903895,2.051218726831652,2.236308382126424,2.1543618908770794,2.2585305636556217,1.9651071785104641,2.139899599492212,1.961504883446434,2.051736035173422,2.027887282677248,1.939105646254117,1.7308412841971226,1.8622452946442398,1.8542325900365648,1.9918309094911126,1.866004428449492
1.8917926901327868,1.800240945268253,1.6731921714323708,1.7910100835703973,2.144014464224864,1.6538006975435633,1.8879312826285655,1.9966408665612405,2.088530618287299,2.159529707695333,1.931509576469518,1.9479702779781598,2.143147785567342,2.185659409201937,2.179727259631164,2.1843657661230096,2.2614876889066102,2.199849199445885,1.9577522073149765,2.0410638027614736,1.9579466829404901,2.149324733323721,1.9229520604934562,2.1951142657150324,1.9836859339932247,2.1075061054119852,2.152272690511482,1.8829192149846468,2.031026020407114,1.9343132425144447,1.9366325965492046,2.0277597477304363
1.820001380715029,1.8393902688239359,1.7537528820361905,1.7558947684806276,2.209704128099558,1.7304588957504807,2.0159694411508773,2.0009729434458308,2.033889458691171,2.41161964233278,2.1270632332312704,1.920106140190449,2.1899758315503877,2.1155585926102702,2.2758110421365925,2.1864332527146653,2.231558201397785,1.8640291947984982,2.130987162550156,2.1558117169700095,2.0024207252038373,1.8794864183970266,2.046778925554533,2.281940586513201,2.1323891880046038,1.982225592672161,2.017214168411041,1.9421463208216854,2.0284540755684377,2.111121868877987,1.9829467741712463,1.9747853571175291
1.8359930484892568,1.786797659241145,1.6974102760038015,1.7432864503591408,2.143236688941479,1.7755235936875269,2.0613749018784517,2.095965708823434,2.092663781513382,2.152502862296009,2.0389269655145457,2.163002315091504,2.297738421250584,1.9729991642029414,2.059408792675551,2.205624794530727,2.1605706281982795,2.072550509800539,2.1242850360167225,2.151497535093999,2.073372634611439,1.9875838983647163,2.103413391397377,2.19025281124139,2.086268237077189,1.9486754630190146,1.9615667206659637,1.9768560965214665,2.070723476593441,1.9576800706615984,1.8092601413757319,2.1369001938142556
1.9808462965714955,2.036928505037103,1.880791465009507,1.8724714994100329,2.015946478541245,1.8851507077233711,2.0005734829105744,2.141371189582352,2.086095863048647,2.110896468290195,2.0958723855490775,2.1040014413231622,2.061488142848264,2.029303457019065,2.1419615387735074,2.246484668840428,2.1384061456646606,2.1272030373371726,1.8845584570255862,1.9867726094938603,1.8365427816112663,1.8331452422941013,1.824247277528749,1.895259767317489,1.8751053784063374,1.8825982317524117,1.9946832808760733,1.835177855903197,1.9808257477861126,1.8750021577128995,1.8971160158208897,2.0249533445245826
1.9060755802252565,2.0068380681124043,1.91647866170651,1.9529632621785442,2.0111960706184773,1.8850842435583,1.9858702236702854,2.148630323711563,1.8716587533132505,2.0616342185186274,1.9433247635241495,1.8551606333801407,1.8265778078071435,1.8368837334323864,1.9782696989948656,2.081018160381707,2.183026790824042,2.0303838381930017,1.7310715501492404,2.0101155660499885,1.8078001586343762,1.679740625096846,1.6997829630977783,1.9705968475996243,1.89500090907112,1.851808622743078,2.047616979670421,1.8283847544350698,1.874319059755471,1.830317428898875,1.9142084886585495,1.8077149095095688
1.8231084461695855,2.054570582399724,1.9251016956258318,2.005163322301422,1.8661743052438582,1.9608524297090717,1.9460862244624366,2.0146486540569577,1.9336523391055997,2.255736132101786,2.0310121549829345,1.976197752982021,1.8716274866199685,1.9418355891270287,2.1779869455142764,2.068859662570105,1.9839552076115519,1.9788167469471947,1.8356559833247748,1.8407369520620742,1.7297636975927686,1.7386921277291798,1.686379254299982,1.9295141071965685,1.7646146375064318,1.6668179368877296,1.805128927424397,1.6694443575165285,1.70787620935648,1.6761900623939987,1.7760704731873553,1.88473471136926
1.9395581373118178,1.9994633802907935,1.7425353089289142,1.9919442907274256,1.8631321155546128,1.7766114251585998,1.7131317979957377,2.000640056729828,1.8807635052941272,2.2015102698607305,1.7841098694769024,1.7923480104260516,1.9574657582077157,1.7737134620534343,1.8949838521279856,1.8804276486104192,1.8315588608350628,1.8791522903214333,1.8192687676050052,1.8126687668362755,1.8505779608602124,1.85633653551508,1.949378774428038,2.0983327995852497,2.064974240409406,1.823413524845763,1.8291563196412461,1.9734945291317911,1.8238629883577269,1.8266355028263064,1.9607976727185836,1.8196394102853584
1.9496301870653021,2.0569085506478415,1.7817873045230763,2.215911882951918,1.981482675720058,1.8047077143398407,1.7483417339937366,2.218477465520587,1.8803992844297994,2.22568648742112,1.7980919587524022,1.8414428342917657,1.8982569718880964,1.8304082036534088,1.9771535130173565,1.8626832411599283,1.794017565838099,1.8155835246722483,1.7648868991885303,1.7546006574576496,1.7015924966087395,1.8256587161114692,1.7865355229807822,1.9624666077805641,1.9417393883587537,1.934510619726053,2.1287689163081764,2.02040986533989,1.9896053258237576,1.9461492632849604,1.9703673896809262,1.9075603830216687
2.0252163395204454,2.0647458972857207,1.9391280914509739,2.0436892502355657,1.9698750413672168,2.1144571356362825,2.0551276762131727,2.0325037656179483,1.8949552946408372,2.188873698522451,1.9842992887572442,1.8726019441083561,1.8662716541243554,1.927536625807556,2.04232586365486,1.9835995383596083,2.0253914634915544,2.0252175652528237,2.045645186258784,2.195708908024786,2.0254200450823068,2.1080423830749537,1.9422915141238548,2.117319899241933,2.013785910165745,1.9470313721626866,1.9444005034733678,2.090261826627847,2.0538409869776153,1.9736669127575768,1.9266326483999552,1.9885307898348752
2.0074726614970637,2.105905246803052,2.0378498056080865,2.21724123286606,1.8613747971512224,1.999302243545779,1.8940732542877818,2.1643039156219834,1.9879448349533686,2.3943983678069674,2.2033230198917253,2.08110559545942,2.012653255054086,2.073906857557258,2.1748340645200996,2.1256080241959006,2.1078927058953427,1.9138813464406201,1.910277039972879,2.0151404230260175,1.9480673490829286,1.9329810454097858,1.9127667179614234,2.0282156763872914,1.9833342504103189,1.8607004688799067,2.001263688387575,1.949681870980803,1.957763481998443,1.8252345407669828,1.9774147115978404,2.125675169520415
1.7130746477431589,1.8260768156696217,1.8786417382169864,1.8119100404962503,1.6997698614326717,1.727226674486549,1.7836415066618712,1.9279468697226494,1.935696274581667,2.1312418594835303,1.9126291646203741,1.880918500349972,1.6770543726807525,1.802169153162629,1.8185707841215797,1.7785430405222593,1.7885377483563065,1.7696828881454267,1.667674660029655,1.787840768901482,1.7074602310068736,1.7569130078543922,1.6492338025916071,1.7686678679624885,1.736383594457188,1.8154936778131336,1.693232355187824,1.7451710665070004,1.7645843280056805,1.6516505997874973,1.9191347662474356,1.9730269213593845
1.9100422050422494,1.7711510192304734,2.1418525524899863,1.803315189108725,1.7198089371058563,1.932465337370935,2.0372140286890685,2.0976278359957523,1.7877476358404918,2.1833572058291946,1.9379165165011532,1.7645683703805328,1.9210296931795812,1.7469094173243873,1.8546231533047466,1.8001517412553703,1.929005884245443,1.903661010640764,2.1408062104887726,2.1558735369671655,2.2008416144736875,2.1986894639033387,2.0197609534296586,2.3609531621363438,2.2444588031807697,1.9589959914180155,1.818953289546354,2.299815537593873,1.978364854536142,1.8979398605319215,1.8330339064740442,1.9163133058616653
1.9756546230306917,1.8906964397652284,1.9014122859120233,1.8832421012794236,1.8289452635381627,1.9425215294336522,2.10570053943509,2.0122008812848886,2.192434664871554,2.449285086749803,2.1623272358307752,1.8276406243495367,1.625560539051658,1.6465861660129588,1.9920474772773442,1.9016871952158498,2.0454659686613357,1.8850876339003657,1.8801880178884987,2.0434137525089326,2.089697571040017,1.7632308503991305,2.1317444010314954,2.4509974247413555,2.099045133966715,2.119296678132859,2.2081949350061025,2.230903769067504,2.160080103942279,1.916130550309201,2.209270356004626,2.075607660817911
1.959795792134397,1.8691334203128982,1.9344270264701702,1.8443510279732513,1.9523878228484728,1.6930054311516172,2.0443003134909032,1.831964531877681,2.276678331400341,2.0995204057334385,1.8564631813032915,1.9095135099313518,1.673072175997411,1.7035670798048068,2.014047392129818,1.9312748570267837,1.8048393333610624,1.9469701477336978,1.783123027410968,1.9394974409416545,2.1875423352989296,1.937532895991719,2.0958157079916875,2.4454339627193815,1.8909782571419698,1.9033729762995366,2.0191097974108954,2.006461241924353,1.9783686399344262,1.8555880888081333,2.159434819312752,2.01273986497426
1.7840813284686767,1.7767084886773965,2.037481514030477,1.7383405962678964,1.65139128219016,1.791589028684289,2.2189053510479235,1.9884582873237342,2.133920389761768,2.292242382603775,2.060724958362429,1.946454294643455,1.7068574839640567,1.631598312017832,1.7547602584885327,1.7671342643196133,1.8507224688242068,2.0461740500186902,1.920539223840994,2.128009620172812,2.0788582792320085,1.9752072536878313,2.0372963647353832,2.019840922297599,1.7944613774321139,2.142200552609912,1.980469571036398,1.8400852121359874,1.9224652475049624,1.8461775641603195,1.8978707759166278,2.0063945193929356
2.0642951654139354,2.0935579271511955,2.106819395519728,2.0347232490237106,1.9495903057118098,1.955193993086313,2.1146382444914797,2.086293715632831,1.9812880625101985,2.340132747112538,2.2860332692040046,2.070012076887984,1.8207379886213924,1.698034678519213,1.9910073789793934,1.8738888418852977,2.05807386901356,2.1193612028016626,2.1463427818167204,2.3479925971612663,2.2259100682123143,2.2274404107512757,2.175668516068977,2.217014912930199,1.9954659155234615,2.1164441737993624,2.051118652800028,1.9663879026709081,2.050692228923952,1.92408044514756,2.069522476013476,1.8373735515156349
2.0441892813971703,2.0441677910549405,2.0133092466263034,1.8761683462217247,2.0031399119240847,1.66965769553702,2.3714234814480717,1.8396659975513394,2.091729044089768,2.2038139066520404,2.3208962116473257,1.8172740704965074,1.6238816013622006,1.78177957063311,1.7799242762467862,1.754726798334603,1.8541823256177934,1.961298521553604,2.0455211321083846,2.3385151104354303,2.2711635083965405,1.902603771182369,2.0125291643003123,2.2384954040661444,1.9614862367458183,2.140868924561409,2.097578221143303,1.8510042383827556,1.9761468254270644,1.831965886304848,2.192737978609158,1.8196793820345973
1.7165860863607334,1.8379766982467958,1.9335290638358336,1.8927768945681351,1.7705592124068543,1.8416057130911718,1.8736684108722195,2.019318781189524,2.151824207500683,2.234863052740219,2.0328657842454154,1.7524548177509744,1.6770712461917634,1.7659210711740636,1.697096969012447,1.7698442726753474,1.7818605101578957,1.8596830283137107,2.031664095095296,2.2216949858400588,2.1647842449270605,2.2428628486770057,2.099927870864968,2.2126737257811966,2.058890041265675,2.1029192861845405,2.0341455219920714,1.9959708859923069,1.9097118680238792,1.7163305792207935,2.099752854243341,1.9173549879078107
1.9930950041980688,2.104827258629379,2.237074371724843,2.02428877882464,2.0105062051317812,1.915233827227687,2.317651398190372,1.9728203079363487,2.049279835381607,2.318616716026418,2.2607464416716616,1.9829640972599427,1.6877991349587835,1.6269059955656302,1.988110305922879,1.9335946452153858,1.9268075490845273,1.9727228010431197,2.136835642618591,2.087308166997458,1.973812721330556,1.951336181493829,1.9092586861369059,2.104724691694284,1.7811827081246465,1.9752550262274604,1.841019580522668,1.8204784702749124,1.8000526181063812,1.637765740756148,1.9598881598425948,2.143935048102534
2.0799908924105694,2.1087869365492904,1.9144463655599304,2.152949381767588,1.7993877397251898,1.7335477798087742,1.955471228656261,1.8823877531288273,2.0719891727818114,2.1616074279381805,2.316936428068207,2.1879521133476167,1.667714307933742,1.6165797005465783,2.01110118334045,2.0244325954211484,2.1782629929150956,2.2191899122395133,2.376884560752198,2.4156856149158017,2.1891753227617254,1.9318004335570262,2.041192747799557,2.2932953174560557,2.0964792401756576,2.0174854126392963,2.0751546698721706,1.9682623088847213,1.8953884661537221,1.7012007844794197,2.0645350428190583,1.7726075639200067
2.085624131310081,1.9864359153730475,2.2013784409257147,2.1185340200793847,1.9353670845636184,2.149320402019865,2.3840114847628473,1.928356708619451,1.9868594418616772,2.162842592046043,2.175049633947678,2.2552064193438492,1.5793939451503347,1.6695315213141166,1.8398942276875931,2.151341074145583,2.367224150179345,2.3916428125146387,2.232433439010944,2.1711861185195707,2.0255265998030927,2.0628044320817414,1.9133457992110263,2.03042818735246,1.9613795241556795,2.061563482478477,2.028560648953832,1.9560442793855668,1.9862245866656845,1.676716175080446,2.0332797361334936,2.161260899746991
1.7693771306083408,1.7693788987004173,1.9019675001508687,1.7977029792614743,1.758539403696147,1.7439430159943266,1.8273556188701712,1.8643291450885355,1.9202998034142762,1.9597185362745637,1.94766070721437,2.211985135725325,1.5527752863763964,1.5527057103618205,1.8285818177393431,2.307524201634247,2.042862119158382,2.056586244609472,2.200164225541035,2.3354385384356062,2.3278083860789227,1.9155975304607071,1.9395356769241625,2.271441396996613,2.0664054724896928,2.186458881705704,2.0392625027025484,2.0562526729783754,1.8616356691525084,1.7412729924507566,1.8173380763141593,2.10337348166747
1.9706517607889238,1.8539698562515723,2.0431738039776572,1.9272615022462654,2.0073666728951367,1.999314536388736,1.9681507032402665,1.9601035079456381,1.901515568723762,2.0527305192137555,1.8952940733366643,1.990232906866505,1.5726658566606955,1.576869061220438,2.235277104389879,1.9969504499354498,1.971419903387322,2.0881560711637452,2.054106462975797,2.2192852674418946,2.2770851956726457,1.7890818945730196,2.022613811071649,2.1166238057763387,2.012476087284029,2.030755836046796,2.0298093447339114,2.013173939896325,1.9003219356493186,1.8049141190031999,1.9118645902388873,1.821792282513705
2.055647559412011,2.2310499835753363,2.2151841961719887,2.1787119906323125,1.8823827812459022,2.0203178889739712,1.9683467012838303,1.9828485940875882,2.0675056637618683,2.02367069348173,1.9752334600006098,2.3475974233187777,1.9515071686684495,1.8086183812284216,2.1190516691314047,2.062235758114206,2.0189578146312366,2.101545763644287,2.2454924434698915,2.148703509808552,2.2656767448619326,1.997103210555065,1.9119353824666923,2.046809847909668,1.7812541460910458,1.975657375551161,1.6959635306343022,1.7030539462613319,1.7779355893810376,1.6151336052144603,1.8778045144224715,1.9753302973594198
2.040974378721779,1.9909658523635891,2.013485313843369,2.233552328000992,1.98991396034105,1.9235464043482131,1.8698117607753781,2.068748954636564,1.7612917786641298,2.3920063000664356,2.0080914162278516,1.9774444188152436,1.9738508816489433,2.052914710458532,2.2782411824221236,2.325789814790988,2.0756922845768844,2.026004230902665,2.1052042586453217,2.1862133086290276,2.021471434995043,2.3405957519853957,2.2814752777859906,2.0612842261355815,2.2040021414710527,2.011602564752113,1.8912760144735572,1.8791107578884991,1.8842461180508776,1.690413212295291,2.1183082235098865,2.1104823878072008
2.231080238576866,1.9992643060307183,1.9776745176770507,2.1168743648616384,2.065764439979718,1.8359662885631873,1.8811644694934053,1.885087036437741,1.8042615239304058,2.122210373968468,2.033858701492054,2.162109488795164,1.9493687828086843,2.050079920476732,1.9594327669014557,2.190744083966893,2.0991204513870354,2.175466643738997,2.0500896563342397,2.1471872359750526,2.159033355800145,2.128285950653035,2.2032680412433034,2.2330106321730825,2.1195616890530644,2.031387608412621,1.972214329536614,2.052673055342806,1.9711820128180888,1.7533136282826673,2.112166638846907,1.7812757869602933
2.2682316153094093,2.2181076145973475,2.265122134209229,2.1068537146394215,2.1448222466023377,2.239961990266909,2.0393238574070054,2.107862018563989,1.8154526420044947,2.330614730144056,1.922315157819391,2.269611715466939,1.787734138459076,1.9587204838257417,2.140397298014872,2.190076295210308,2.166905974215695,2.120728647557009,2.080366345856577,2.1168538891534547,2.021117212592962,2.055006344370948,2.2601068374064814,2.1932201426251248,2.180510402110251,2.1565421655938053,2.0468305834721074,2.138197665620557,2.101106771012137,1.7967417161019088,2.1506781082405517,2.0023098015796696
2.0247855570797793,2.0560830103393046,2.241116796707669,2.154221347543685,1.930451120699158,2.1524102599891024,2.1118205782542225,2.1251468001048393,2.0230026912128722,2.2657813104511764,1.951751198324877,2.215324040910274,1.9541192424485172,2.0522652246724187,1.9805484889883984,2.060597454328402,1.9638578603578367,2.134731756816182,2.1975374705347663,2.183391439000592,2.3258187280780174,2.1394411932931394,2.1061358553050327,2.143002733223289,1.9906055505424378,2.127029870339127,1.920551463155104,1.8215152245537893,1.9073618094425084,1.6668650276930717,2.104757749382909,2.230031036213376
2.2822847788356837,2.1886923454813285,2.164366279033564,2.3793995121283475,2.0027372951954656,1.964805749794753,2.001842850756959,1.9491754084824702,1.7915560012819938,2.110356512547358,2.089899184476572,2.1033579552747463,1.9222739241625053,2.0314701554239076,2.1543515855091875,2.2490831214357554,2.1138672969936536,2.2720626870081535,2.356815446231667,2.3151592003588672,2.249117452171854,2.286273829013837,2.054920203883165,2.1158668548661224,2.044902673905964,1.7895184673765556,1.8129535789308295,1.8945746628868172,1.9048287471928136,1.6464460921331978,2.0259854239099995,2.3176243579777407
2.3460405777621567,2.05930286556295,2.101604955906708,2.391056988309206,2.073363150363809,2.224015671593083,2.0825240908150526,2.043565082986922,2.109738207374418,2.226296131869092,2.1143494582768274,2.3202090287778927,2.2360764223724257,1.8524270853621887,2.0867198105978124,2.1488958397535414,2.024492394954395,2.0639166021770055,2.139410470625444,2.150264399517719,2.1078249471653483,2.2418046125324955,1.962165042106295,2.02491287573213,1.9947788907654698,2.041737557726254,1.8994989071069022,1.9287057433954358,2.139260829697818,1.7572946382955443,2.169864116561084,2.043296527843566
2.165371079640485,2.138135975851312,2.0449587359527377,2.22226557490423,2.1220446716249217,2.0166542820103786,2.1043069677335686,1.8605613604889242,1.8155814862348112,1.925855174205349,1.8164685643663152,1.998577540443768,2.263409199220376,1.8804333950147907,2.0746122743176514,2.1074110672775404,1.9941276738744484,2.1489150950633236,2.3887852530836344,2.2664161541273926,2.398201976155898,2.351010444736437,2.2390076409611623,2.074121776133978,2.2744208384080125,2.1566068746588885,2.086594912121137,2.0391060067957576,2.3878909366477377,1.774469464638902,1.9664696972892077,1.9082909174602742
2.012706638464212,1.9362660462314183,2.151676738838311,2.032922569871204,2.1057121024036984,2.0369332337717574,2.016477335182666,2.0963383415848162,2.170641599876634,2.156801617154259,2.0800572771564063,2.2640729415826435,2.2317768292351885,2.0944863167640526,2.3732553430410905,2.208992428920368,2.0514284169020254,2.1897854436894044,2.4330148035867736,2.3242941875684306,2.372182354502609,2.496992364776852,2.1963025832562426,2.2159681182716637,1.9701137840048428,1.9878369429857476,1.9022624608488126,1.995218429601426,1.9211554848857877,1.6788786128388418,1.9351829943025531,2.072270284800616
2.2639171777643163,2.3689281284670107,2.4034917144903645,2.138989001347426,2.379111981520477,2.2296897906746755,2.0564062230467064,2.052029832431914,2.0208181861605587,2.0813161017747364,1.9656718915912554,2.027244131389339,2.0840545251548432,2.0809369383411225,2.1845458581025134,2.1722924824804486,2.0823791977588946,2.2966603148732556,2.35097757385349,2.387455902312835,2.4482625169860928,2.406132693638337,1.9852879374182464,2.3889638038993404,2.079523149241731,1.9596439551608487,1.9071734975146772,2.1032522327325482,2.128287897887774,2.000850012100466,1.9934173710885825,2.0477548822704703
1.9613752476885424,2.2028791173205806,2.2762484455423966,1.9892534295859647,2.309338524081688,2.2887724776693714,2.238860888080571,2.1374673896837915,2.079803710919118,2.054164268509416,2.1642467350602295,2.171687130017275,2.1816806358577376,2.2045753979155975,2.132734399070878,2.246746665762557,2.0214096571184683,2.1030906384903525,2.219460937553076,2.072868247440272,2.057754250401469,2.119373054135945,1.879572519892824,2.1342778158485127,1.8048713274341932,2.0468103537446907,1.8055667643958024,1.7569083092695053,1.8987713046446695,1.6968139675181768,1.9576257230533063,1.9283651466624214
2.2959864800800878,2.380836398199768,2.129412528166242,2.2086305363639243,2.0019725696226054,1.8402041619336884,1.86972112493459,2.2848959656701493,1.9441567964921587,1.972736680695017,1.7734036192178344,1.834033194340798,2.0577840711443054,1.858094133936771,1.9677278175500283,2.0216024182352252,1.9167489837028062,1.9050138800528598,2.049731877117002,1.9707389555107675,1.9930153596026317,2.1975426669422014,2.136530707959183,2.1486422535793612,2.0806552648830205,1.909625954694464,2.2166110590761066,1.9958326508649866,2.505424610219729,1.80108793108277,1.8665690462146898,2.208860905727724
2.1107556389690636,2.368385129864112,2.214042002533262,2.085672413652208,2.0133252402785065,1.9862887396818685,2.1987864994888744,2.1635845416721127,1.973493492297635,2.315221547368729,2.0058850935874326,1.8477036178402275,1.9806353646454526,2.008622405018419,1.9719754722107445,2.1159132339486155,1.994644010833272,2.05953146873289,2.2188037032462233,2.2328179533850374,2.379966696611912,2.273717220550267,2.2091239961026874,2.1824060829600946,2.2601266771992883,2.049110328321765,2.3470874095842698,2.293340943647243,2.214391276574443,1.8353617750601259,1.9785179928631977,2.1256425310899822
1.8497897072884752,1.985645566771527,2.1792102882937727,2.119005663189185,1.9766723925675829,1.9280592354872712,2.034607756969351,2.2514392321254864,1.8720309189852604,2.3857271689789914,2.173381265269873,2.161600791946522,2.108020844761079,1.9071731222860024,2.197018059941639,2.1954784011539075,1.8736304209795662,2.021273792780248,2.1020988069956377,1.9482577693493204,2.2925049319398125,2.039866981483174,2.050400083415139,1.9565846373406448,2.0878900888765455,1.848564513324506,1.973384117818484,2.145746465130077,1.9685898444676235,1.8771216064014338,1.8675484563591402,2.0824058201842273
1.9195061101881257,2.0518262966075183,2.396459682086114,2.0284316067660924,2.1577866922766904,2.195370345142902,2.046422230614192,2.269902371426487,1.9716599295250963,2.3174534317539006,2.0576900599765655,2.183784597907586,1.8696790985613339,1.9166591446251358,2.1685860611939676,2.2443648964643947,2.1803392397043,2.1729412633606273,2.306245728339831,2.2326954921666413,2.303672962372797,1.999499712741017,2.069115782723272,2.2072480941754877,2.174929664117349,2.0919836229667403,2.053831193313635,2.117662501467471,1.742765435807855,1.7540731839136474,2.0615914648833367,2.041185581213216
1.9320282102705013,2.105389449148981,2.0063921507008224,1.9468533767663994,2.1893327229758355,1.9709788487925841,2.079355743350132,2.036944276405176,2.06325678750406,2.029632047023043,1.953293864603751,1.8731293516351608,1.8781095773543621,1.8688233732206159,2.099552597117955,2.4114972916447606,2.1881900496380795,1.9950112331823904,1.9549696872673732,2.0035166063380343,2.153409031768577,2.0630575069947197,1.84347522915913,1.988312529133091,1.820652686916372,1.8401603534155917,1.8049739388026735,1.7326212570672257,1.661205785153386,1.6802110949535,1.825866968665738,1.9552067511311286
1.8939750057167732,2.0179383177613506,1.8883844584304617,1.7916636397718337,2.019930465149195,1.9138030251768203,1.9095492128420926,2.265111963954796,1.9374270541033973,2.1561248551657446,2.0544648412676416,2.06145027597246,1.873872527810124,1.92910539497403,2.05054465923664,2.272007938643389,2.2729834677936847,2.1844995031453776,2.0013512096329897,2.1234987007923163,2.197040837936363,1.9996835126677373,1.9122052981039133,2.049170442883526,2.0804921273441543,2.148229881731622,2.131145936928548,1.8999005444487604,1.8039207358156646,1.810448713860903,2.0566479707119973,1.8896785457970007
1.9778711192401788,2.2234702538912474,1.8917163921733693,1.9116905106907076,1.895616508854423,1.8394437620121196,1.9711776064427533,2.0807987225751874,1.800257341477424,2.1991608220581513,2.131877273071312,1.9260393814422203,1.839668021003999,1.7169721101725512,2.142941717547452,2.2112672743625845,2.160845271470793,2.0116741285735653,1.7539829525649293,1.991075800007176,1.8948453329117494,1.8653542383158181,1.708570140949468,1.987135391083868,1.7598808982273695,2.0541551452722486,2.0190442959140937,1.9088988120831858,1.8324773837679487,1.8183906152492633,2.060705566719158,1.9917825191143557
1.8506000679471317,2.15437606443335,2.1616173386800503,2.1998865388906124,1.874150640274595,1.8584907592567792,2.0860736872781875,1.8994555996024038,1.9375053459551486,2.2249400698356854,1.997885443576171,1.9259443326267363,1.7789395801961254,1.6618566921902347,2.051888390729995,2.2326252526699544,2.2434585653313195,2.1391335285129687,1.8294479267800712,2.014827927509702,1.9222236907704053,1.8261478677325271,1.728789503051411,1.9079117816007758,1.7924314346388084,2.065427872945401,2.042364513729816,1.9102238065380024,1.8384049035937604,1.8280399996970615,2.023540406328695,1.9580060083218964
2.0024601478914925,1.9911617139645006,2.11429002173212,2.0949478723579964,2.104615062280659,1.9634469778637174,2.185423513076016,1.9512252504463783,1.8294637900905386,2.1385947950342645,1.9788770585451192,1.9332258273873102,1.7381903693286842,1.910121987484166,1.940563007643933,2.075419154882288,2.023316568804816,1.988684168543946,1.8637801262672509,1.9343583803537798,1.992693288518701,1.740828272930115,1.88854129555319,2.0496307748841422,1.971129439004094,2.1477927547886075,2.213338548983509,1.8626892487059366,1.8896350059051785,1.8282932678109411,1.9984720374524247,1.9454276025535753
1.9457958139181093,1.9865030285264964,1.9592536563941565,2.0134117291789155,2.08962122484711,1.951256296850278,2.074989815585066,2.06023601202347,1.8519500744778987,2.260090599400012,2.110640333276991,1.979790612382353,1.7935731381491133,1.7932177738625155,2.143779457596186,2.3536997416750167,2.262987863133196,2.064345887462183,1.9325225647948356,1.8954513149814463,2.0592016436333838,1.9142600776287768,1.751536775022933,1.9650471790797328,1.8762867162704548,1.9155716464789942,2.0132360818624178,1.8768289223384422,1.746392779315383,1.7948763177781117,1.9448223491068393,1.7700345430423712
1.938310897153196,1.9505890098748566,2.2263008678079577,2.193555471550079,2.021364512535653,2.047914006113998,2.108125976319653,2.197411949094939,1.7841769874033762,2.197797998976675,2.327727547811687,1.8246551384526868,1.7630321969476783,2.0432021086512937,2.249357329345863,2.1437919769770764,2.043714721222539,2.153370465544868,2.1042095090722746,2.170392455991507,2.030913452350268,2.0795186295975645,1.931958531234849,2.000839812966218,2.0462430483767964,2.076512560970138,2.0174182539019583,1.9410827689450747,1.8876876012614876,1.8805812703967026,2.0344970089457646,1.9793135712278265
2.008451443635358,2.113260056633185,2.134566946034434,2.303489053871813,2.2047900800981575,1.889657924330314,2.0100692462982344,2.0937128671632728,1.8512929751300728,2.198810675397051,2.1800302715447506,1.8429223356719397,1.906507993352023,1.921491559963721,2.148835556097017,2.27262073820747,2.1361495988571213,2.1298417785307056,2.1207588056219326,2.106907859244575,2.049127567821771,2.1340945731560828,2.0085146889989276,2.108410455141752,1.972423754745128,2.249739991524992,2.1347302852574193,1.9348178409268686,1.9287923270922744,1.7422172125661528,2.0562400250604957,1.994843032176524
2.105246925836718,2.176607778264753,2.2489355640942392,2.2800872396032945,2.2292022857421565,1.9744874872841358,2.3201203060699886,2.078671490329411,1.8478325500548922,2.3664886056879615,2.179731987514683,1.9994900766690817,1.7989775929757765,1.8667412959748577,2.331013108845347,2.4076531330400717,2.4031633832959165,2.267365793790258,2.155164046657093,2.286627232476877,2.148994156180158,2.020248710113663,1.8639798936913816,2.097396715216447,1.9809861167290588,2.138309707817644,2.1039952291323316,1.974678800550403,2.038737856848785,1.902479608156356,2.248164207712366,1.9399319246646602
1.8712796511443028,2.066313600915938,2.2003109573364394,2.2252383900483763,2.0107186583027756,2.087002749347275,2.227461868785422,2.2627450784722476,1.8314589251975444,2.288524142038532,2.226534114363167,2.0052109030118905,1.7896243741890663,1.768501516651161,2.422719767614248,2.3456566397672827,2.2016092319092895,2.186888019240207,2.03744639987246,2.1212762089370747,2.0710894635018957,2.1353318644075157,1.772490231750345,1.809377971652453,1.743081619141214,1.9041363016164092,1.8688416821193201,1.764669962784704,1.8830814146160317,1.715891956004762,1.9433164593229961,1.746862471512797
2.281578803393053,2.1002800899480816,1.9945657662139176,2.03516204171758,2.1347214462374637,1.8425851113972167,2.3116152910113357,2.0877003615231504,1.9233944062964834,2.4665614983357704,2.204310391246583,2.2465121277364624,1.841104225422445,2.1670925747350873,2.4153365812979684,2.414102169540767,2.3356977724015575,2.4620217132152664,2.2339440115269946,2.1990885168037284,2.3065231262221944,2.365748270788883,2.242494121940756,2.1365550506280764,2.1954484872879405,2.2471089131720627,2.4840604675574367,2.0634949365156494,2.3633211655302815,2.165595536462651,2.4604714814178834,1.8909595755043587
2.039384417593114,1.9535369208711229,1.927122897783459,1.9778675852959784,1.9179986204907722,2.038353201436603,2.274339395772868,2.1887635624702964,1.9266640124474836,2.016095394281706,2.244918438783216,1.9716521308370965,2.0630806569307656,2.07766767375023,2.0026509080784556,1.8911631206326798,2.1068224937520057,2.0601238968604085,2.2373052904917676,2.0246822744787467,2.264338292577431,1.9713792721663521,2.1882562898602758,2.2557071782578437,2.355070753121305,2.2559085284066085,2.2066076640517087,2.2280231916172863,2.0950657386472376,2.140350294529207,2.0647988092829204,2.07382033849533
2.1188133368094793,2.2314693299167243,2.20276554061661,2.3344643621486916,1.96115287630121,2.18213714709802,2.418353315167396,2.232786770505548,2.1793632608560527,2.2502473189815313,2.4606434617114354,2.3059581608239283,1.842368319146285,2.358352614745094,2.3537604293927203,2.13023010858191,2.262520959750916,2.230296455489453,2.2003251917269577,1.9308794646440117,2.160883106693298,1.9105262580575373,1.986905600634123,2.0396375481059654,2.0997103228148983,2.3824017127566703,2.058575398804273,1.9692724936964459,2.3370840817183782,2.0485863541629996,2.0128414509027865,1.9477458567191532
2.3615919363809366,2.3015886823811735,2.4269326088934284,2.1352437111401095,2.0530012821015515,2.33955088254669,2.1777347839995054,2.0347542248690673,1.969793652594251,2.433628263449786,2.260594183747099,2.1828093415442575,1.8965013788527914,2.259494442020995,2.2957346046170133,2.119270632608423,2.2529677321297137,2.3138907378915405,2.536680488259995,2.038501089292091,2.4129211878864885,2.104591721275101,2.209951052960196,2.4073183384471837,2.2554763496033967,2.104792089385654,2.0516551728686663,2.092576525742864,2.4680428344598635,2.165087673199659,2.181718419807972,1.7549102435986137
2.1211727610748925,1.9800454479616634,2.1492160288193634,1.9879072670218878,2.0010591902319264,2.225635544804912,2.4236990169829054,2.2456894914463983,2.2236263157398435,2.4016743976203236,2.404903741513177,2.113250995079716,1.7860100253268747,2.4627616812621844,2.1646662001763515,2.3896506996029223,2.5178321591499744,2.271537402357253,2.4259753269436364,2.118043702256989,2.4189520699221454,1.9323208707358908,2.0082182895984118,2.509540392381186,2.3548898464330827,2.2411407167965747,2.009392850328947,2.19383215406474,2.3192779476896828,2.127534685260533,1.9637664868923173,1.7613801088572774
2.1889500672038094,1.9600115830142157,2.228533029561584,1.8537551823420086,1.7903098477935617,2.2756547126346067,2.1358579334580576,2.385498804620012,2.0774471766499656,2.1371981744872786,2.296674296527352,1.9563712503735349,1.8592725333079132,2.0349115895688317,2.404797130701069,2.3208747847787445,2.2926874490699327,2.0717722803622647,2.182829170000514,1.9753358491076087,2.1370629151835057,1.9813394273786704,1.9881023496289942,2.133587919123526,2.2551804569427145,2.18256588599652,1.9265481357050511,2.0857338687433122,2.4502906616909557,2.2145090717549687,1.8364417018328816,1.8445589405439518
2.0930747616624075,2.032761280793441,2.2145101429864007,2.042503654244033,1.969138861791009,2.1460194108303474,2.3952343123957798,2.19188715361416,1.8225693514629984,2.3367146815857636,2.224454871364234,2.1174298362453454,2.2094073744751848,2.2834827357890988,2.362947304219009,2.4021847929914477,2.518744041162646,2.446099533061973,2.1367858741265113,2.3388170099735395,2.287344359326895,1.9604091996140134,2.0921110466153476,2.0739654427643823,1.9090637563152768,2.0677763626198455,1.8441544393323568,1.869638167633529,2.004004320421924,1.9608313138996407,1.8463328501999006,1.905745203887776
2.047751229488032,2.056628141034951,2.111470576233289,2.058324396033127,1.8042740724247524,2.164709573679423,2.0290661455913943,2.4626692208810677,1.88286661162265,2.006927251301727,2.2121143222435413,2.4205665693322795,2.2346033665317204,2.2970754000225786,2.13555079307377,2.1913178030858087,2.4150908857687576,2.3240454478348824,2.0983576731537585,2.402729307136304,2.3962426346671166,1.866885547515447,2.0881932262553673,2.4253052735805234,2.1950869010100167,2.0012098139171117,2.036520728534354,2.223594520061701,2.1162786424979063,2.3773968981952054,1.8647101988434625,1.6855374078569398
2.193684686415571,2.1999212874353327,2.0423699260801356,2.054993110810618,1.9366808642283615,2.3694089125184385,2.2623715653615584,2.294840033788911,1.8713357591277278,2.2991056957086906,2.0878740410275682,2.0568559953622825,1.9538864655315527,2.0050358726323974,2.068351376844517,2.302225798002213,2.4168986773973367,2.121804854068835,2.116144945953743,2.2065268863905794,2.3093058219550473,1.9869609960115333,2.102044369236535,2.2355248170550177,2.2144479622036433,2.067624292917971,2.0388735882400573,2.2677113681257794,2.4129326193201854,2.385814186848608,2.0141519016122147,1.9300858133601846
2.0666911240551666,2.2651958577155793,2.044502660487597,1.945236770174806,1.929747401697452,2.171283279207818,2.1392171011802894,2.547777809442679,1.8134250077819043,2.2300227203033387,2.3734023502277957,2.13569029046273,2.0254752118626587,1.9481730574913831,1.9057911126246794,1.9517644034028772,2.1887228065073074,2.128278112486636,2.0741689574226374,2.024387344576187,1.9773459797575648,2.0412461008188294,2.0412059598119576,2.0883196571259437,2.1572268562852606,2.1805662737581595,2.216496995338199,2.1489000715978857,2.1947265846759754,2.4030730965632956,2.043110071896503,2.2409853454949613
2.297841161936071,2.0414756579086735,2.0535448765880355,1.9673241100274121,2.0981616427112244,1.9583114121015779,2.202291163581543,1.9235274048053772,1.836444046407474,1.8934995586599774,2.0171128985120808,2.058772953762749,1.9927613698943756,1.8111488737805639,1.882431891777942,1.9617087805813003,1.9856896026839108,2.146752461503728,2.160186534711398,2.031776212489428,2.1153120356943633,2.193688654538141,2.1468569510363724,2.1752054815002304,2.19955152396054,2.0892486067768856,2.1950862512810994,2.2314160621439423,2.336212559673012,2.3973070670147973,2.082079121398722,2.24281211075399
2.0684361679616043,1.7646636499541544,1.972803243127773,1.9363671227346306,1.8720402825626077,1.9216632362137012,2.1177099283619083,2.087727710549955,2.1784881447705815,2.214450391822094,2.1888489700519465,2.048726084105261,2.341085525595485,2.243560643138192,2.011302258098015,2.1024875319188974,2.374546136510545,2.173681155275675,2.4714607272205504,2.445817472269099,2.1876157368483824,2.3790692370690887,2.2484871274807445,2.111653171466834,2.2957784025307113,2.093820679607133,2.152134317779285,2.0967839151440675,2.4178980091536477,2.238332854414008,1.8560798018171647,2.0952948476357736
2.1192189399262755,1.8953987319270256,2.143673429074409,1.9530820510501234,1.8785844587764795,2.1098349194319392,2.151775550247058,2.139685899652838,1.9750957682610615,2.396588958441909,2.196329713235677,2.2125897864506645,2.2574764251414043,2.009854374893117,2.163304554346382,2.4599098354918096,2.33494257104719,2.4157600774893058,2.2486027356096963,2.3454977295464787,2.139075125360968,2.306345757920219,2.144348960311882,2.186787166938107,2.2519322151266636,2.0969232499362853,2.259906189475339,2.055877946447124,2.4877301137769066,2.0019722101802206,1.9858452694035906,2.1052209368790114
2.0882031589398724,1.9388833021006473,2.05047106012677,1.9673479242459266,2.0254374819039795,2.153379222644653,2.0559676047847613,2.213620171772478,2.2429018888518857,2.287791959787865,2.127477807028156,2.0801258118365253,2.1572157390911713,1.9996532126461535,2.237935670167025,2.1547151925719104,2.1270586838109504,2.1764373298040542,2.2962649456016275,2.100428771197744,2.0817715106719996,2.274955800681876,2.2708991237838902,2.136004429850475,2.061074843270836,1.9871316425430705,2.2007314584330104,2.099548387060774,2.413817369595745,2.1018659549045564,1.9200357118936464,2.0934299437653916
1.9524442527581731,1.818575205803763,1.9020138907717175,1.8948753591492369,1.9389835771171047,1.8797297256836718,1.8465980441739105,1.965925059826198,2.033433292948169,1.9600238562271075,1.8909579352032564,2.0422337601390153,2.0986289017894824,2.184278378468215,2.334706425773082,2.019805890374612,1.9072696611639122,2.0485788529035687,2.2329330005582957,2.0652903940473517,2.074067656682478,2.188334573389159,2.18855689161081,2.0388386063531354,2.0153956441902623,2.0666240892907335,2.2535410242224674,1.8968294374319012,2.2574543622317815,1.8403575053080805,1.9436554960852508,1.911475972310658
1.8528518007536157,1.7486181494691626,1.8533295236222094,1.8469583982547684,1.7927437815901919,1.8677577188058914,1.808653994878302,2.1602020520165754,2.137786753429516,2.065814705603263,2.015342307170667,2.1790784484278483,2.2799711423495075,2.1869181956063564,2.0810212451631327,2.2207432309174844,2.062190044334137,2.1232473494352804,2.3851923119116223,2.0713371160947034,2.0973788419053196,2.0420317192590547,2.30599795907279,2.141295491750513,2.2518911349346222,2.2145672761620094,2.257746822176922,2.109219264263594,2.105058238066234,2.264033922812994,1.8752454031144143,2.2013439051531107
2.1431006192590165,1.969675591213331,1.8770569538646238,2.171004851764629,2.079330319911203,1.8783319310588458,2.0448246463474047,2.0359052723891735,1.9491319296696807,2.182617592162322,2.113669182207287,1.8695595243061032,2.0192038809209856,2.095910077222623,2.036987960464486,2.085514040226429,1.9129718333151218,1.9371348825932049,1.9634527600796359,2.1295240508093656,2.061759527665493,1.8904785556198924,2.2447790447719798,2.071071489465532,2.165732325170813,2.1777085212607865,2.179576366685324,2.086671687801866,2.1283323295760264,2.151107775925033,2.1776349285702827,1.9551806041537294
2.4339175096710512,2.1262958864621853,1.9001015426802155,2.224009145281466,2.3874077670232556,1.9100708757670992,1.9930522478507342,1.9484209075735899,2.030049868161249,2.0873483252360265,2.084862506897867,1.9969254558594314,1.7369998726765068,2.0705778075316825,2.257582614934124,2.2471654680404862,2.0433705705905396,2.0640101458661526,2.173624839148985,2.037328676846594,2.0559536011848474,2.2628282561924378,2.1014313153383095,2.020298841248588,1.9954135748717001,2.0884066585592027,1.9946734771738033,1.943006547519623,1.9457021307785083,2.0381435774350933,2.211026303585035,2.051608262561748
2.3629816415704585,2.139555822331531,2.1587702790146075,2.28309981280477,2.091066516033284,2.0883404226337974,2.040399816841409,1.826002751043488,2.0236126009481374,2.2994809672492553,2.0350122920239215,2.095193357306592,1.6403824730619117,2.2236438678688484,2.086177261975275,2.183317768959877,2.062793933801953,2.0537071774965208,2.2081070339977886,2.018098493505861,2.1148184628183366,2.206476866933947,2.2825789939081558,2.204361158929705,2.313422131542548,2.10429983020919,2.1451244902552142,2.1935621028857866,2.1127148733949106,1.9846673045253762,2.243572296703138,1.938342494768434
1.9866311560322205,1.9038046338913035,2.025553899586044,1.9966065646267328,1.9660775252823466,2.095209993459368,2.0292145045171273,2.268712218885338,1.9462895313846704,1.890968774863906,1.9890670425930057,2.1470662450723195,1.6573517248482135,2.1040681040039457,2.0487124014080598,2.248590009099051,1.939848699931893,2.0175788886223005,1.9567779331459572,1.9645362913643127,2.0079876851692324,2.0942169958255983,2.0304922979404036,1.9765443779800058,1.9630799879726513,1.9159273430292005,1.9957237255127018,1.900750169944936,1.9999132163664526,1.8682346042695925,1.9305925621838336,1.8932980299324769
2.262719746191882,2.1822359724587366,1.9248467930742885,2.0459353958149062,1.9311053824636035,1.8933506893272878,1.8936992799381354,1.9454735099045044,1.9070844221506422,1.9128468918921115,2.062856181612397,2.0844704808338856,1.700346583884367,2.1848635552339752,2.216054743077868,2.3832873428527463,2.105914858685059,2.0175211295323505,2.0263429514977616,2.0897208613167093,1.8911596597747025,2.2717246410160286,2.010415930225893,2.0404390036664406,1.9152522356818649,2.134237430280462,2.0370124119514545,1.856412142944457,2.242859644269461,1.9667721291568796,2.033455178153231,1.9484908614540177
1.9295053655521641,1.9392971009534559,1.7771401924387,1.9988337766207616,1.906470657559308,1.8755737330602857,1.8633804524018474,2.2744310116726543,1.9784583233954713,2.179255236163271,2.1925068267390326,2.073573526239629,1.670725355883602,1.9914325058970237,2.316222505912512,2.0767966813079255,1.9473715169748527,2.0603812255527036,2.2363774919983626,2.167245613837332,2.0386274517559078,2.1357305819335783,2.266790029035028,2.1090150736349633,2.086525001433227,1.9994781460948539,1.9467776035810835,2.0127384416486285,2.193629899583144,1.9040528626251292,1.8382213890239352,1.9186578394994123
2.069064130908717,2.0677470023411466,2.015283787860188,2.1741776221564026,2.057574189817965,2.0338309427198578,2.169191863821299,2.3379312289297736,1.95518152888779,1.9995041748159323,2.011196343130142,2.1811094625413343,1.8605856476282483,1.8653695306409694,1.9832154381048939,1.8645392910150502,1.8215468206130205,1.9980701411301633,1.9642786735055489,1.775458443273586,1.8732294832759149,2.0386440881983607,2.1397530802356592,1.8906622505686415,2.057344152043491,2.1466279468618397,1.9553350556368565,1.8232103143521265,2.1288068362292147,1.94158009333213,2.0105250724383636,1.9810787056806136
2.0104985681187095,1.9622924123208154,1.7659546989237145,2.156732587002687,1.9129495364660156,1.7599592581870203,1.8085780148437993,2.3046970836303218,2.0310202420753787,2.3025155607115133,2.2408177072732536,1.94182916595708,1.668683840783581,2.280951123122499,2.3814041268834525,2.222729016569628,2.168775781611843,1.9918457182557106,2.1548440860313884,2.060189802332493,2.0235665742278894,2.304476276913018,1.9989229030991549,1.8881669567600718,1.8260683550948353,1.9097195645664262,1.8652135010155644,1.7665335123027397,1.9082211069593846,2.0197892593000164,2.087635851861105,1.9392784465240216
2.1083184152952783,2.170801190369769,1.9522553193093093,2.133465677370375,1.9663281853352024,1.8908687770204238,1.9273264254480689,2.0076210915314183,2.1138614100216473,2.1453055270869585,2.266630417213556,1.9611630377278324,1.728078567888991,2.1479795578538607,2.2311167702426165,2.116198321624069,2.0847656316260963,2.0586775416431666,2.052757991980808,1.9959049833236808,2.012401124904014,2.147718924900686,2.0032832427421465,2.001971278460076,1.9443794022872625,2.0284825767742247,2.2422135634454836,1.898532191696428,1.9742007040139862,1.9871782145366335,2.1099323299382533,1.9173337045525893
2.144793724258049,2.1416775433684507,1.7068819033146518,2.030797183496542,2.0103749153241535,1.8256154154760753,1.8564882903841542,2.025987855494772,1.901101623275595,1.9148963432365598,2.2489562162064156,2.206806113710533,1.425663324513238,2.188954078984767,2.2382185474569662,2.284719755954612,2.16369175360855,1.9660128999009898,1.8760710016512596,1.8553326186986472,1.8047117787916909,1.8601366880930799,1.8284048229621304,1.8345619615384232,1.8795812680887742,2.199198292963011,2.076143909707932,1.9013671736469024,2.2109801895467793,2.0024154940647088,2.076163692501956,1.9953612264806122
1.9307204451878186,2.105561360280556,1.8564582659502378,2.1399303947982418,1.8560099408719148,1.8861741440664879,1.9353368734412424,2.0801409555906982,2.1731870854601683,1.8500920762196693,2.070791000188767,1.9955247677362282,1.409176526184297,2.171030330858126,2.2939954336578303,2.228644697977317,2.036229238963348,1.9740889219267441,2.135475617886586,1.9794329330415128,2.0111664289678965,2.114170041460073,2.043757818686052,1.9878596903795418,2.1491568615485743,2.2530084861511908,2.2439813707953684,1.9734035770828047,2.103188189269215,2.0047546693051634,1.895017436382699,2.02021846265208
1.9019466323425298,2.0993452968359416,1.6975107108842191,2.1473273658258045,1.8756082519994446,1.716642132692062,1.7057304985784003,1.8976160563158226,1.9705691896154989,1.795240970032199,1.9040173503012017,1.917928788927412,1.369344083950912,1.9674738905550673,2.039551402521623,1.9576993080582712,2.0465405792641085,1.9411632823679152,2.0521770405210558,2.0220763479961756,2.0204172568071748,1.954567679452172,1.9028745206704274,1.8028237459775658,2.042635604875583,1.8576588248659904,2.129332749422284,1.9918703758266507,1.9849085769836827,1.9057270987265742,1.9554154160361157,1.8260082579162162
1.8852424559838543,2.0087496808530574,1.8153450791865087,2.0656844789247275,2.1271391018623516,1.9347987520902306,2.0360885733574947,2.2863676668760267,2.097413633519646,1.968160603083387,2.0960362680855296,1.9662603908387808,1.407356746924397,1.969706190239937,2.1982011309563907,1.9887254322510275,2.211629125347843,2.0939895176779566,2.3576804128654527,2.308546758870107,2.1063852828729503,2.0507666837281198,2.0830942542456143,1.9712572078553812,1.8915072229802532,1.819973769917859,1.8528629906228724,1.9635871179603965,2.161155733589583,2.03266470682835,1.8750696479306321,1.9204366984887669
1.9826272539407612,1.9512641715242782,1.8210017367200042,2.111230675689318,1.9644851033687176,2.0117891228600966,2.104582125927748,2.210761565707246,2.491352808157757,2.2384908399849714,2.315167260526081,2.3580858103396216,1.4983867738418042,2.3141357271479053,2.3320874473519626,2.3689753731103895,2.2163379745220104,2.215185624358693,2.2146515959334248,2.097117456809698,2.184133119590397,1.9676072440324996,2.0522910265436325,2.0145079966714983,2.011546888691544,2.0953609051858004,2.25485974858073,2.1377811116972874,2.0677502800959116,2.1735274461718426,2.1309837372807268,2.040520202021926
2.0928944733229495,2.044242999342749,1.7993408940707485,2.1413621839903523,1.9770030726659058,1.963400276445917,1.9945227220528656,2.057611314890311,2.5564655020515135,2.18271883691134,2.3528219463229543,2.4909274380717403,1.4722110786988987,2.3948053919296655,2.388560531120054,2.4294401780783303,2.208469451022261,2.5321504124070473,2.4385855128912612,2.2596366603882565,1.9962246891780162,2.1892293050002243,1.928255543784002,1.7992531684972994,2.010657333946558,2.2993755958605706,2.347952678544155,1.8542008093792217,2.410769706815949,2.0899061671818027,2.1494365126068384,1.8729900095780336
2.1046261480476867,2.173222913106289,2.05469758188957,2.1522586333272007,2.176198962469236,1.9966171906792705,2.229420474657162,1.9662297778115005,2.385727619488896,2.2427640114347276,2.326578938555558,2.4930758199575216,1.4732104524871044,2.235477056835169,2.226318357850089,2.1624429933230536,2.1049802882312187,2.4631031997527995,2.4093425957720553,2.031149996217804,2.239348776298313,2.1874868211433096,2.0924864368067633,2.1472273984834565,2.27807836812765,2.096807232271285,2.0649506705369083,2.1626214432432045,2.1139621429450672,2.4880306796493286,2.1941847047499876,1.978583718840563
2.1058209066220748,2.0255439457595585,2.0235088928943035,2.075484587106771,2.1682938598610546,1.9212714283570382,2.07130729028839,2.121539329000761,2.472426606254032,2.1269920535195745,2.1058869901617783,2.2320865936777614,1.4984826666414104,2.034758990363093,2.1216912069431784,2.0969532659755536,2.077406467849345,2.2309660912223745,2.381599325384288,1.97264889212862,2.230522441498395,2.1489715823658835,2.2492246054016767,2.032006809367144,2.3111295755933225,2.157563878575102,2.028283111098005,2.0766599000908257,2.187797356554167,2.4494706333083305,2.224626504849084,1.8404141382489254
2.213973658324247,2.117563510627239,1.9836706932931305,2.123606567959582,2.1882998191249396,2.147742143079773,2.072327063504643,2.146371494357665,2.204744259125861,2.1683045007169386,2.3408264776741285,2.193119760205392,1.5785407399869045,2.099610426390623,2.38998395289482,2.262586970113987,2.3531328349891023,2.3673943554014674,2.449198452946886,2.308395641083662,2.1255043076594324,2.190487203173582,2.3255099773024237,2.0534946942735766,2.122996495882867,2.252278333158476,2.2742620963715963,2.095376035265497,2.438271923360265,2.485283626411968,2.192924219999883,2.0202891989733494
2.0402759643272423,1.9851903870095766,1.9505547618657535,2.13330906906013,2.0574744714704187,1.950940081093174,2.1988345590322376,1.9957181201598808,2.115009697601286,2.1284859286573057,2.2788311171757814,2.310173887523443,1.7060305723867821,2.393814335931675,2.372630577166018,2.3174574169481623,2.4253618318533374,2.491882782155484,2.3170557633510915,2.0647350962661895,2.224158835352625,1.9623894202297067,1.9442144689329168,1.9774247157076286,2.07162206643981,2.0805215806948136,2.065809816220329,1.9263081702684672,2.174897536063876,2.162350335423759,2.127875086027015,1.7218124090814426
2.3019168661855955,2.0629031219207947,1.8948084136449435,2.1257971083875344,2.2819258342866386,1.8731912080885118,2.0331189259563707,1.8832842846245175,2.415262681121323,2.054815771108323,2.3374995466254593,2.4165710522228396,1.6552402637437378,2.2277915823724226,2.3065392434045573,2.4247118035728046,2.144966877184726,2.088533522301763,2.540936149815785,2.2429012931703767,2.29651546201729,2.3496670703987688,2.071258859792456,2.0635726302596678,2.1401680242305043,2.231140626337861,2.2626113149016027,2.024758892946497,2.3737413553019007,2.730622932390453,2.368329725436309,2.123934247561436
2.1988223586348883,1.9394526381939983,1.866913458623286,1.9533609286087181,2.188056816883651,1.93310771574866,2.026259992696533,1.8732376455604358,2.5999972340367736,2.135949962792603,2.147173799593883,2.4803821991271136,1.7313228790361868,2.3454696316166297,2.346148059625284,2.3003874193107046,2.3462650542327963,2.232198871544364,2.574055729127244,2.2937415701744026,2.435168378830303,2.3976403014296315,2.184873861061663,2.017271906209238,2.19754127615418,2.589497160780195,2.40613668707798,2.032178812678601,2.348614778516322,2.2907953421576415,2.4855071814934404,2.2046769912709157
1.8153034388248546,1.9267127447512793,2.1911686703889677,1.905001551589579,1.9289584766724959,2.1737576350414174,2.1148143527257552,1.9435598919184205,2.4217240846066805,1.9943113229019673,2.012002191260488,2.415248991785897,1.8479261223198014,1.9905214799946955,2.287168129467057,2.1877207273342862,2.0240122040581947,2.0970116125401526,2.2955364487015157,2.0609885763601685,2.1774552881340017,2.6656422766911727,2.0225927262843073,1.891253113752326,2.0576869269464497,2.0430687230436213,1.9920344836711097,2.221600525561346,2.0393633586644886,2.2846956296453023,2.007406779268788,1.8574882674068292
2.25206246314574,2.0593323545269064,2.285687848871653,2.076336830417919,2.4065353646632355,2.0156531734682512,2.356511380357339,1.9978131378050041,2.3998203315804396,2.180164616807297,2.21080521050418,2.381624495133818,2.0336738167778647,2.048612058935824,2.0067236462304283,2.0731059322452148,2.252833359259667,2.309573339840192,2.1819427362192934,2.1806418810029213,2.1972206710375564,2.255045754832314,2.057259398917611,1.9241232974753748,2.0421429598528493,2.4771434307427986,2.4461516280718003,2.027388800728945,2.475833444847776,2.6375169380368493,2.5695883316034043,2.0107971827895215
2.149770524946357,2.111076449833118,1.9850880214126614,2.09078830781638,2.3436512873428086,1.966716028619715,2.042063230275019,1.908394083515589,2.292416505136496,2.116246777577949,2.0019477256524776,2.240940755896129,2.248591467578748,2.051148752346596,2.0982872902427867,2.1899088938382154,2.223373026967959,2.3373569534276397,2.3106845915572327,2.2450648772388266,2.322729752423453,2.503084059731701,2.17212009417016,2.096648713377108,2.141290873058098,2.756036182197004,2.6305389170508024,2.311515100593804,2.4860654963374276,2.179120291735394,2.553301301897619,2.135447945347072
1.9870811707906357,1.8876695858243198,2.0024498666683326,1.8846500692287997,2.175275723636566,1.9848211970501424,2.0452338223157773,2.0472398792861295,2.219771871299056,2.230197169976417,2.183482722058781,2.230177096987066,2.186842662530703,1.8518267193591946,1.9200962659648275,2.490962953588188,2.4312526535377597,2.196819236230314,2.245664438532177,2.021343660285222,2.2717753425817886,2.354874636254312,1.9749043354280573,2.0563465525285993,2.196539943171469,2.2359397927948974,2.2588995391471482,2.1896436334074387,2.246562217155837,2.3202041212391933,2.196880999274175,2.081982683439669
1.885684243258909,1.7281919338483356,1.918414341960517,1.7229929115567375,1.964306780675039,1.8665954991293174,2.2515758971081183,2.044579398856869,2.2277768613893167,2.540933167927598,2.0420463727696436,2.2880334767324033,2.329088601859816,1.9179704564245483,1.8662909485487347,2.300536248295604,2.1058992473939755,2.3030896938160237,2.484353293898191,2.135535766857216,2.2368846381559764,2.5672873263906393,2.4296329805851413,2.1831446320642423,2.3634827677080743,2.3910152552500037,2.2149221855559906,2.368457993208106,2.139071074154724,2.345592132727591,2.066488020250338,1.9716971631054634
2.291478657316133,2.0598136069755397,2.2644350434683655,2.1154831570603445,2.156159977366873,2.3017847102257134,2.1403512439615664,2.238495162870138,1.922175863308317,2.166520055441317,1.8630930125483183,2.0246878775766026,2.0473463059951498,1.7927031566110747,1.8223120563797526,2.082113405261619,2.034214572302159,2.004822062798054,2.183797973591422,2.003725451517258,2.30211065347985,2.3038790628069865,2.267293259830582,2.0493105237783578,2.2201194892927196,2.3802633498027896,2.3254488075085025,2.2656969975206858,2.3284998299140915,2.4698530288017446,2.2955818072315033,1.9923772481798652
2.2321394536595083,2.1037951389965035,2.2349430019341434,1.7594183803672339,2.1800756870748526,2.197202829072247,2.3197369328772486,2.0697365439690096,2.532213272011788,2.5248800477493245,2.145609723687325,2.3333703808003783,2.110970410170237,2.1252826757112175,2.2228763710777812,2.138071415812622,2.1293927418324827,2.164284824918735,2.2222196666843463,2.223837572701325,2.1515743713809274,2.4089314548028553,2.356672430668255,2.03680711441731,2.304638183185434,2.5013740859651703,2.426116716629193,2.2885121095872405,2.428475198046822,2.532556650518661,2.4431841454552266,1.9820212721255108
2.0588020713240875,2.158690936603518,2.177621116607718,1.6210265500780845,2.089383967363399,2.1457096296520084,2.3091294585446653,2.118897269828524,1.9680640890080692,2.3146460844277663,2.100139759549758,1.9024376892006203,1.8910090087422506,1.8156780553115044,1.915860659283734,1.9200141834077569,2.0246579241554983,1.9667059235504596,2.062437841638319,2.132297091588828,2.0952132065558913,2.0366819641894676,2.3246618238763093,2.06265319414065,2.1042408500682934,2.1772591426219017,2.126888018787343,2.09766775915291,2.1202188595263705,2.1442359526436015,2.048639296078199,2.0542236568899748
2.123541916253222,1.9161383774783112,2.141833730549622,1.5556268324010414,2.213472531184648,2.00655661074545,2.238672831350685,2.0202953377881694,2.306313780609846,2.2765239125025363,2.061510431036173,2.248598885690111,2.1797964104201486,2.0072205569545782,1.8723921344813403,1.9335841466992005,2.005924385528133,2.080988641602427,2.2256524666107107,2.0995812532990747,2.1770028625138393,2.4073651483529606,2.320189345183103,1.9785149459890063,2.28797317934867,2.437462201911864,2.2794462523072014,2.3404159998575444,2.0469189653206152,2.2019418057514346,2.1611959224354718,2.141090791947186
2.3984572646262863,2.221134631710445,2.2914622301137815,1.6743387432427532,2.0333048238070095,2.262006636898167,2.2933938926116784,1.9995276223494425,2.146832586191239,2.3829503275672166,2.157137097529787,2.2278381658864364,2.0725426246293264,1.9653662801491052,2.002669046615204,2.1995944243708148,2.227586281723901,2.1907202330620534,2.2083125693239842,2.536271353941593,2.3048499401919873,2.2385002287062497,2.2399819283772455,2.2236382770073733,2.2155813320624325,2.2431071485339418,2.1960882239214556,2.4084410336337307,2.3514997955691737,2.460251124365664,1.9821742654922445,2.002481497305803
2.2364584100934293,2.047974689575558,2.1137408106189137,1.6002777992643715,2.243026789661552,2.197718361805168,2.2515968278533367,2.0462136520653886,2.256475007381843,2.4964033323837165,2.1913985640133493,2.1579351384006134,2.0763843132575204,1.9045246184968057,1.9578766400845198,2.1808414606303357,2.1614792895823873,2.0598682742537937,2.087208062095285,2.320315645912773,2.434564215727785,2.0909666856299176,2.254797365617845,2.17888518651337,2.0329635013587097,2.2663383128496726,2.0513006841242705,2.0692331014607146,2.01487882719817,2.044992217094056,2.21674735291814,2.052490496423867
2.098720735236537,1.9805712934394362,2.045616321360238,1.7409533124551417,2.2129267573742446,1.9617807995468257,2.0712394211295946,2.1215601596998575,2.1484847371268936,2.4495410439831113,2.096443901392378,2.0743138529316374,2.138740618101107,1.849312823178287,1.939343944349339,1.9606706026872922,2.0461798762904095,2.1236521085793623,2.086490853854849,2.0605360948471088,1.9973583174079865,2.1627443883781896,2.1044768099080295,2.025295648892659,2.096630304050816,2.336218832495889,2.132862624013883,2.1579792325957774,2.080970081070008,2.3065024700339376,2.1010405427235805,2.065972742938948
2.1806264189463884,2.0536960830925484,2.0748798760539944,1.7024837303911542,2.343480839455535,1.9314629078487293,2.0627698929973155,2.0624263237087774,2.0909346650845775,2.1109400015004405,2.106210505579391,2.171602390107582,1.9419155039167038,2.21168135515426,2.1571596677976723,2.1679028606789483,2.1689790560101505,2.0419458983550802,1.9568366733212026,2.3649040965142394,2.315747327196833,1.9525390561789855,2.2168149262317756,2.0477403681177244,2.2385684127002268,2.434671556848159,2.0974795959436014,2.283026816578474,1.9375554267259316,1.9939007420834578,2.0884941566860085,1.8200936226024476
1.875433538588834,1.8855188718011617,1.9936335012408204,1.8232634569249315,2.0634222468462244,1.8668215657637377,2.0281060526616064,1.8614653419519993,2.3530779138758753,2.283160957698584,2.1654694971498314,2.249419474714773,1.943408590484484,2.0728049951293293,2.1716712993779232,2.2057426751535565,2.2736628299122086,2.2520578509390723,2.2439509900106454,2.1778462441767896,1.981816970686699,2.172431210682569,1.9998514458188301,1.859910296153109,1.862331700469017,1.907950187496222,1.965974512765595,1.8336171373746222,1.7053523858888857,1.9744439051786733,1.7578193618358742,2.032027160555118
2.128012125068754,1.9713289564963723,2.3078925287211267,1.6291478612956098,2.099413298357711,2.068219129710596,2.3147817816855984,1.9723337705840798,2.378229302043497,2.1303409903477597,2.1848704126583547,2.125410626954325,1.9858356894897446,2.063910841109418,2.061119147326735,2.1972252967388375,2.1264241543813722,2.0855322953317073,2.17808041982467,2.2844297297800003,2.3752600622437803,2.223232503648689,2.4496391720745945,2.168411874330274,2.2071824812739353,2.2777326219199114,2.005736157176,2.257763324584479,2.1082526312597123,2.1906252932333943,2.098490013931441,2.2474028927974548
2.188806573973749,2.1542445046206145,2.3716698582617433,1.698683493200269,1.9857428417177794,2.1505617325423994,2.2588143761501467,2.0875899259015496,2.086320542094643,2.1326708721298338,2.1476244226992476,1.9763130598082927,1.828823889804282,2.0236009745070196,2.1606687290783113,1.9171959521904216,1.9191233407652082,1.8792715081527203,1.8684607994212235,1.9175783037894147,1.9374376308552372,1.8806773566684685,1.9157752170886537,1.8723290980184983,1.9562822636246247,2.0897002992675002,1.8988046387380277,2.0074470535121702,2.0717622698821003,1.9367158188038394,1.9686004160287789,2.008391380383308
2.0083645496631157,2.0582131608350247,2.4283029784833503,2.4143680567896646,2.123974396656257,2.150022989881364,2.1212437478147894,2.080774531884021,2.1830236893500867,2.224227458422139,2.0706090707103093,2.0366803649348344,1.8981907196529115,2.011417707708717,2.054892886285693,2.0068150197174424,2.001675254694598,1.9446400721401575,1.880114611524133,1.9879547146400653,1.9159507962576006,1.9850313042668777,2.040664217109886,1.9461974683919652,2.1217588159068943,2.0852165036276245,1.8611580574260735,2.1288259285507567,2.0570714279170312,2.2054337403331203,2.0333480416499854,2.279943423231183
2.186295039037101,2.2351517935178187,2.1358841968776296,2.4526784698775295,2.2806070223658663,2.093123470669981,2.0721124521178576,2.1140005988715607,1.983888091460198,2.020168718680768,2.0243939517718688,1.9541742619815203,1.8420654455825105,2.1503143172272554,2.149018891268585,2.1131336770555484,2.0901399615045837,1.887586857318633,1.9033939826916577,2.159552989934155,2.166381784635433,1.9664147794713016,2.177292486366038,2.2965790996192474,2.0304029283088982,2.153741586393767,2.039927177615146,2.0293220338494113,1.9370624893591497,2.3024586986007147,1.9627233428148991,2.1071566448879286
2.3988074193807263,2.164017694150445,2.30227231668446,2.1755593529262054,2.2176005633664615,2.1077309542018816,2.213669325299492,2.106680081611532,2.1469228805780807,2.156878928578256,2.0638459632926622,2.0708462556990366,1.9077158290665954,2.1745925706341307,2.026574268662377,1.975727439853323,2.00060620688528,1.859925687850699,1.9054043465327446,2.0237399498873683,2.2170820590277036,2.0690426080077335,2.3826935395306705,2.359010370429731,2.066205927321047,2.264887557488185,2.17961813819334,2.093660837351755,2.085734210158854,2.3845928737132014,2.017207504807439,2.247210777455387
2.2683252263592157,2.1188179233249675,2.096638989620435,2.1379474258111753,1.9701814322895919,2.0156397228221237,2.0246957830396277,1.9429938309629131,1.8065992352726512,1.9237847665081629,2.0425399767323755,2.059997165008529,1.8647604855143878,1.9259320254113486,2.141023735439795,2.045429448098595,2.1093316408309244,2.0403605684208728,2.267189874356027,2.323688125789003,2.0906953945704814,1.8955037302268583,2.196670427388451,2.356154056463295,2.1283261077534528,2.0729757441909853,2.346314829351969,2.1651173411978224,2.2705850730182533,2.1985657110953984,1.9934575711764764,2.038388486813229
2.2246361878319925,2.1288263292876417,2.173710099108502,2.1322101129962983,2.1292553234679272,2.032525602281563,2.33979826163558,1.8757505896727087,1.8439412965069228,1.9960885749757888,2.260893707163317,2.111875413943115,1.9138131033793375,2.003623169769343,2.162261995698469,2.2248198946169793,2.2601342256386436,2.124664085091588,2.3450516428603385,2.270501311582126,2.170999512259184,2.2187214542909004,2.1716545262140987,2.2334706307841357,2.1759357659607086,2.178415473217474,2.139115771042272,2.1936932661466817,2.213463141325488,2.406452542952394,2.0568027615025937,2.037399182386535
2.0890707698680977,1.8713282150832047,2.2745782947193036,1.9896289155630653,2.175647799049388,2.026665953283002,2.2465557962039107,2.108828171378765,1.883471472183582,2.081386453179057,2.199310138328996,2.3228697242234992,2.21418969301609,2.1677966845957095,2.3926218201319527,2.23565335971806,2.4432126075557656,1.9626565554112392,2.0812742031821285,2.0241089078304957,2.223895003376497,2.5222201835340368,2.1432754259826465,2.136519266563361,2.091624233809987,2.074005990811192,1.9484445417901488,2.042711382086929,1.9035930324302552,1.9313265517661904,1.9150853546118898,1.9144292983205742
2.3303249019940453,2.2841308261014683,2.3847301011684605,2.0563096797726845,1.8951508437457958,2.2481964851917904,2.2177284058666085,2.052675796188539,1.8889109108477684,2.074777824424425,2.2526087628159233,2.0522381819968656,2.1975014874457783,2.0290972025041514,2.114084137498448,2.1932085425273704,2.2415442033831074,2.140653793406916,2.4116543538590745,2.2194369827864877,2.2560763652984046,2.1870164501707827,2.2235705487834077,2.1847912985873057,2.2794183496492004,2.118175870491717,2.188167763318901,2.158450481319983,2.1376023022762762,2.1706555375360046,2.0533935872178195,1.9440042666970474
2.2903278035487653,2.1736480669188394,2.137774336940426,2.1713027897909845,2.0633768525338705,2.174875037868869,2.18213335539599,2.218113780323578,1.89324807544603,2.1432351434467836,2.3494645853190446,2.178981281352411,2.1962862444364633,2.1257299004654273,2.210854224758334,2.2255805160712554,2.2363693914889873,2.2623880735622173,2.3199276991953526,2.3817683852802807,2.2682116950135027,2.17567701792851,2.19405543329095,2.194320446427492,2.1109318596132045,2.2230070372118713,2.084425618833506,1.9195281136270907,2.01214423322875,2.0489071887081343,2.094011366252915,2.01184894311221
2.126504802683771,2.0987083130475,2.19050884167932,2.0511143755285013,2.0117491808614623,2.3244465136747006,2.188455314359536,2.1913629614114187,1.8698238288765217,2.2111128897658543,2.3733312255558436,2.2954583928921015,2.1557620927339465,2.327336309533773,2.261333680645205,2.2482181300111295,2.276652978982504,2.130360140841977,2.384702662099637,2.2580607285519543,2.3399393532050525,2.316854997930987,1.9762874872974605,2.1529378587214403,1.8828135557449732,2.370165386821454,2.058288516522912,1.9371219490970915,1.9324440469688149,2.135477033953309,2.267362977288976,1.8102374349664294
2.236443657744714,2.1800062765247934,2.3849486686821533,1.8465450901686278,2.1556413350551495,2.2769276889957255,2.2433834398844503,1.9302202408900266,2.067241853026443,2.178644466153649,2.3034912027411205,2.188243697203535,2.067025954750331,2.327772162105,2.2367581402129986,2.1515092687758846,2.1784720810376133,2.1852094079377484,2.232725689569177,2.03610047300199,2.4276886926304035,2.2473854291086215,1.9283350175414846,2.0740271157117163,1.8608631820941532,2.1441937831934696,2.05167047381838,2.014606595277137,1.9502166954582065,2.398081706024699,2.145653457113428,1.7807865913059266
2.2298108163403296,2.23723282648304,2.231633253854004,1.876709649575529,2.2367391293285293,2.2914603759448173,2.2717131865201257,2.0512388059373015,2.137186381631967,2.0114158395724715,2.1779318994733696,2.108022137663925,2.2450396259095227,2.305558775753629,2.369746647219008,2.10880558002104,2.1942880522638757,2.2040364736824767,2.2497086004556794,1.9833675403377158,2.1690235173650465,2.1697098022251824,1.8644081129015482,1.998249329392822,1.8132109392086007,1.9977701012894151,1.987192638644493,1.9330050066821294,1.8398124976211858,2.0130935517868824,2.0926001920374313,1.83320308566216
2.2083933554585125,2.467197626288502,2.2811537215359907,1.8968613762362672,2.1986780005848883,2.193650677491522,2.251260231611062,2.1049651467548105,2.143433216590455,2.2645140729004027,2.185543814297142,2.2379462732696385,2.335824773770447,2.0201992301084033,2.2847070414986503,2.153728651659933,2.2174419966587036,2.2418820914203326,2.243126955925158,2.184531631629504,2.1461643510898347,2.326740780938954,2.0934776211435624,2.221819668979235,1.992953922438256,2.2964872985524427,2.2521089093335283,1.8828973312619999,2.0782806559331983,2.491731401109307,2.0336682492944345,1.8887163807831127
2.323544863563931,2.2607185605633635,1.963464689809873,1.8634196608705311,1.902242863657035,1.9824818592962103,1.866408465459727,1.8681809994107403,1.9365629224521026,1.8374017370191713,1.9324131492922567,1.914401456774031,2.026776238518308,1.9323100392211487,2.0664560508095273,1.9948848216062978,2.047581156835996,1.9335238006800337,2.0925821244553595,1.913761109518893,1.86646662383357,2.0892475248846196,1.9572872130081624,1.9507651781138091,1.929515359630596,2.0674939134337227,1.9950901313211635,1.8519722851208653,1.9289914055529516,2.1578928087045135,1.8526328208812162,1.9340115950675019
2.054046975321525,2.244870870559799,2.2323803176060655,1.9432753768161213,2.247356821080072,2.25385350876529,2.281907624888816,2.1739509155612655,1.9545252481791502,2.128087887895687,2.306075502063986,2.045794925401169,2.1761216089318984,2.0138031895024633,2.1699585981638627,2.1578384653854266,2.330870666217211,2.289011068696842,2.168390873071694,2.2908118610422763,2.037774409138637,1.8838020224685288,1.8634089498613884,2.031622059311027,1.8958621291992852,2.0550538543886723,2.0194364583472506,1.833400211280968,2.070720543463234,2.5193319302369566,2.3562707119516437,1.6435545691813886
2.4121969491812614,2.2944523881010594,1.9987850889667984,1.8955026979144476,2.175503590209186,1.9914050231464533,2.0416737790250616,2.1991587190839272,2.4038112719602416,2.1767446987264556,2.300607941300509,2.2333536763170674,2.405833326417443,2.1263951483938355,2.256128276938161,1.9772181338219001,2.37032093178935,2.2889169060066856,2.4281854510749934,2.259444875490817,2.2189961137178846,2.31898737818304,2.1232369912512055,2.2682669376777214,2.105468968907329,2.176941518324515,2.283707644624202,2.0807267819436093,2.311976434190992,2.161594474900567,2.419938642798587,1.8858254388911573
2.352428594597813,2.5205658068388557,2.24848691502571,1.9476410791326364,2.1121866221621146,2.0600215581311914,2.104280592371264,2.037791029786592,2.3313537978968952,2.0383890345299154,2.1469061654144244,2.398971535240703,2.2753231664690223,2.096083748616479,2.1863708514793787,1.8902681184507448,2.077814602138221,2.085611813140786,2.472805408263509,2.085603979021234,2.2636306335754623,2.437789333446573,2.167255752878408,2.2592699506199203,2.1091393874242113,2.338189746298364,2.3657670299450166,2.1822931544369233,2.3087811396065248,2.42327649418565,2.299076130855928,2.0690307891416664
2.1049812922127926,2.1216551892427646,1.9405730628637219,1.8508915233325165,2.4008823036356275,1.867666615298021,1.858632356367298,1.9416141936222753,2.077395428943585,1.9808689628565406,1.8965205023268537,1.9180582794802352,1.8905623782751988,1.7910726885393813,1.9023579953503102,1.822876636326832,1.869462968102626,1.8317790303435317,1.9437663602300697,1.8793165385646968,1.9622686542127548,2.0327929226855397,1.9448051731349416,1.8993745031625835,1.9003707558348737,2.1699832190639454,2.133323545427842,1.9270557668916772,2.209748156294565,2.0901786237325592,2.5485040874893787,2.007572966210205
1.97359733376504,1.9755591453379024,1.885589957288331,2.0433214417691086,2.1761057448305454,1.8945099091537103,1.902674327105166,2.0576473648710647,2.2492057487974746,2.0972129944661635,1.9929012414911589,2.1534978059094936,2.2632417878011517,2.248993247969781,2.2420344064489104,2.024493025976558,2.163341549974739,2.1281175198095714,2.0863433500122595,1.9668422822051106,2.0685875343322446,2.156725428456112,2.0234602382827194,2.005752349035009,1.8905271370872208,2.3165224864932856,2.1435449607378505,1.9272209365296513,1.9956790290012976,2.259712287030204,2.169548596645694,2.024190163051147
2.0030536394931406,2.0619977113110775,2.4067507266719566,1.7838789879200336,2.1150570354069607,2.0792470518250665,2.227078876981095,2.0891040416629476,2.053481145560806,2.0144911232663496,1.9200265745432612,2.0348025197310076,2.0588567403759592,1.9590662906049106,1.9773637703172107,1.8934471836446845,1.9933811395478744,1.9981838299943793,2.2222260268773457,1.9756634983372976,2.2154937677254685,2.1754786762985443,2.2277470387236766,2.313411658337515,2.1598538196840567,1.9759802018937886,1.9791451878105015,1.9859404795169273,1.9975881490365681,1.965559976532718,2.0338837632264672,2.034788363604135
2.1137141861653324,2.269524521814754,2.0908084133192895,2.179280074681624,2.144126084201368,2.168286117648913,2.181720601696304,2.1513827403419703,2.1865867999058315,2.4195323183576707,2.1921145116643372,2.235043673405138,2.287726464243062,2.484476920755908,2.2481817501941426,2.437401390785113,2.3285475640923496,2.211895907751276,2.2204886127861756,2.313824828030918,2.1378586077972495,2.0114619297934304,1.9322083491910778,2.16120574883276,2.077722266066267,1.9676513831484466,2.0999583917196207,1.9818424152925829,2.1008891723557865,2.155038238493474,2.1968269160818292,1.7702086861009083
2.383911124785498,2.3725222840906675,2.29924865103489,2.2714866714759725,2.4874763582712265,2.171801278378624,2.194578319275511,2.105372904803105,2.471846673828917,2.2335998602948908,2.1692047858745194,2.4401584136101406,2.358555914823461,2.232591639923433,2.292750642220086,2.4109215493885,2.418114422399062,2.4124188937163025,2.354466695538549,2.240711139377905,2.2560858853832904,2.0807510854727536,2.0738009801123396,2.0790455647389305,2.0565429624370646,2.286165184027886,2.31433238607349,1.9148562640286155,2.3312351213293026,2.137754433486572,2.5291116900557995,1.9737049222715541
2.0128547621062007,2.046785611187777,2.094948706517011,2.102113679300085,2.515447306075718,2.0474153944871234,2.0113585952276574,2.0078416466868374,2.473088310845004,1.9199623906246943,1.8869937332512,2.2486651522165975,2.3070600342441745,2.0621960575356986,2.252356322393117,2.1441107214356108,2.305342155508366,2.2209299093595902,2.2540314363580154,2.193572003126356,2.2158260551547793,2.4360387459462896,2.177051802347841,2.0776858242568097,2.0717294376365083,2.267987648603029,2.16900458271893,2.0099604057285663,2.209886149484833,2.225165302928655,2.4070732540258737,2.128751492603439
2.179267100883711,2.1578700555823564,1.9975191899963711,2.349570301545053,2.401752449571096,2.1241947997854576,2.1365421044112836,1.9935131876072296,2.5171088838272673,2.17123324023486,2.0894027350435276,2.2930132151307183,2.104161509783665,1.9644748763144901,2.365042499257943,2.251811954614971,2.4076186843610015,2.3454545921724024,2.2192152235248135,2.285859023269917,2.326690154344958,2.3105006705293234,2.3744543926088815,2.3600605520224613,2.3586854296914526,2.2853425763177047,2.2531382807827818,2.1767960842247596,2.2592714809866927,2.33786442528767,2.5375279727137916,2.1680510460269664
2.2288116447086206,2.3692664513015735,2.2271040848030412,2.306578353036166,2.2152777543469147,2.0453982350348463,2.0166088624467853,2.11951889593326,2.352050634539282,2.119499120504672,2.0515404491092175,2.2872957505713076,2.281315667898021,2.151217716912686,2.2443081566421084,2.429214364191655,2.3815494248520146,2.3148890441919887,2.40881994189843,2.366723516501217,2.422246564001227,2.5095075277168872,2.473469182938089,2.384757743210608,2.3764266999279764,2.1302389033604805,2.2355179423505507,2.3089504633995683,2.114786775292341,2.2988854158248184,2.208320333370645,1.8117796527423784
1.9961387389665957,2.0804327195865326,2.0804735970832406,2.191578544812608,2.4917223971024516,1.9560085102437668,1.981243779547112,1.8855591251586006,2.357363833273793,2.1153222202414272,1.990163027910127,2.339588506819026,2.3811845755064396,2.154786086369801,2.149392008486595,2.160527495844872,2.1853918446509337,2.154768712189423,2.3862520622948993,2.1681117691492813,2.314551067311318,2.5295967049306127,2.3005054916088503,1.9710042640728889,1.9833605064969977,2.533866407287521,2.0922158265834456,1.9507761818242721,1.9838024090984894,2.181243067667863,2.597652891486491,2.0802848992777263
2.1718179282574663,2.211444199432089,2.0439835738437924,2.0834306247364953,2.226093413838232,2.0457093780162188,2.084755857592011,1.9703751297469403,2.0154263171126563,2.1651389410242987,2.0811646441200087,2.262859467193215,2.1388728502124694,2.225998425577796,2.1204606336686247,2.0828036155994782,2.0244520050598203,1.9822590232794144,2.246877365666855,2.071666984073555,2.5503100371130443,2.3220337050242015,2.3969258586067217,2.1739969327959865,2.242893082942854,1.972506653610979,2.1777232749830078,2.11458885373013,2.2062612465549996,2.2720026767036514,2.0871676725482016,2.0505139152173006
2.125482014934796,2.2378208803221438,2.1389477818811757,2.3718722855565915,2.547082677495341,2.090686414423586,2.155995899205145,1.8698181695282325,2.2676479169515393,2.229102675220281,2.022127084772326,2.340063832796741,2.133718308350513,2.1768728561264696,2.3270542658060323,2.313131275763816,2.2486345609032465,2.127356341140018,2.175985186388394,2.006196862575297,2.4170670200291062,2.2997346300193855,2.473561515591767,2.0372061533452106,2.2364650546126823,2.385166342820125,2.5892832887456825,2.1169743517970576,2.434506073892575,2.2775255715466254,2.54023322210707,1.9840834128638876
2.2591806982048706,2.4067433042967754,2.1049285752645885,2.3786618393039007,2.3131757720498056,2.166256312712082,2.1626051604184138,2.101498727723039,2.291003782646142,2.2485580596529497,2.117625514281611,2.52443729652396,2.420237501003907,2.1905882756317148,2.207375871376097,2.286307842347719,2.3002115309851923,2.251185170821266,2.2988311992080317,2.039490739857167,2.3019378896442837,2.386783489040245,2.3114213292915307,2.1439461540136295,2.3038913479106022,2.327748631402555,2.237928727497842,2.115414812834717,2.2213004976474435,2.1247500839369753,2.1716584693045227,1.9037323920592846
2.192459781825548,2.3178844193017345,2.0970189539366326,2.3429858995869495,2.473663544084713,2.188120983427674,2.068269289958902,2.054550445913612,2.0731540038373746,2.0015489054204685,1.965853619941573,2.1827756328188483,2.1104781182333143,2.181310582666091,1.9770708276750077,2.0624254592894724,2.1125209844117485,2.2171986179796677,2.344429253080246,1.93072571958548,2.3041284244434816,2.399119786157076,2.289488147953958,1.885678143831808,2.0466203612139338,2.0049695145109747,2.2280841792771486,1.9059910451622446,2.3072958843688416,2.309016642538491,2.0988908667106068,2.154005617528206
2.132650639561275,2.175134444434361,2.086586756008179,2.224953484658435,2.337342656878935,2.0374008761351,1.8938003646351658,2.0530130536662887,2.2737423507892953,2.221448594711903,1.9785058745251005,2.385340083005757,2.33367230636442,2.2631373940115256,2.150317739558716,2.1283055592200455,2.1991887627849795,2.1826893583271096,2.1783506293222996,1.940929640851392,2.0502867839931023,2.3097469478695256,2.136963054191027,1.8772634156698171,2.0099344056998465,2.0430883264567012,2.267216161356404,1.976625345333139,2.33381980044394,2.1884320624146874,2.3193833909176056,2.0866973257716013
2.0802137911682586,2.016748169116535,1.9761737209557662,2.0163604974588902,2.3387128727122595,2.0395478271291143,1.6800601973866442,1.8835300112092046,2.0714771031920387,1.8925695217129186,1.700151865726563,1.9680519203026796,2.0994748126252003,1.992559652389662,1.8902979739240071,1.9187274872973847,1.8651875285929231,1.980282624814165,1.9956499157704377,1.9221033065723427,1.959893669585223,2.117296854894593,2.456373053228459,1.9808886717576457,2.1300806196152995,1.8696870366530585,1.9997498887595402,2.142376004895696,2.1973882996726584,2.102680183349747,2.030880896703729,1.9366109915141996
1.9837959310340594,2.060466865610726,1.738749270415806,1.9604887314351447,1.9098554786724722,1.8450834293919613,1.9541874318223442,1.920466620897261,2.0388450289654014,1.929025522289523,2.1077820696287954,1.9410009813361955,1.8749459645180404,1.9132637358557354,1.911322732034059,2.023341522803796,2.071223954727683,1.9290000374333165,1.9951649797438238,1.7753487099872245,2.1727715326079755,2.059880962553296,2.209870659479307,2.0946447493532556,1.9776445496611197,2.070618644093756,2.1847847683874058,2.014966496518485,2.111027183702049,1.8852690328479835,2.0412341376649152,1.9441899912029026
1.8575309497345132,1.9849789082931768,1.765998227107026,1.8507515804240362,2.0564636406061036,1.752424347461248,1.8787272333122524,1.8953050699701293,2.032268537857349,2.0024626519030764,2.14349143125173,2.1882842604475576,2.146322516099865,2.102767070986686,2.019504525631532,2.0601331067729842,2.0017070727355173,1.8711711217824247,2.0256886367328724,1.857817712896423,1.894016096915466,2.09604187492312,2.170355718588854,1.792801539271328,1.8333327804814654,2.07324044718634,1.9551428163322095,1.7273650823465199,2.0074446968652033,1.8047739098290052,1.8823932173825886,1.9236473169776933
1.993713299494361,2.1677402535987933,1.7075819285518776,1.806501714128068,2.159966502271669,1.7086415370746297,1.7282818066137717,1.8552769424698203,2.209334781902799,2.0643835775403168,1.982790832225869,2.2838435072407433,2.279232059373639,2.0707161768124167,2.1087430079732203,2.192431664837031,2.155712959636304,2.1273809291966628,2.0362983562331722,1.7074398707909024,2.074368472130444,2.25029077291564,2.1159476281891996,2.0805501399740476,2.069550215681922,1.992280339489687,2.296399906405253,2.1052624922322165,2.183888366486825,2.1211857676527504,2.116589305886552,1.9894467123899708
2.091840509694237,2.135881028928078,1.8840711838105082,1.9701658277322993,2.2473551655114337,1.9120824169889308,1.9358077314136692,2.0503175409384156,2.1464761043915757,1.8582204798541806,1.7853429140533577,2.3263644235011016,2.0940390050185393,2.1407977185684177,2.0487171708704537,2.04732640943404,2.0642948475478837,1.9237911631264133,2.148698649817829,1.6811184534446544,1.9223973150493063,2.030542426267048,2.118076445003825,1.9749340743905834,2.0221256337713536,2.147502779905569,2.1995914082492978,1.933548059021994,2.148648683331976,1.823534574248515,2.1345450471708585,1.997037369837468
1.7561223022876726,1.776463228157539,1.973524388920882,1.8462560913329347,1.9052320281673758,1.792931909528876,1.7220437742250763,1.893738257724502,1.977393673580805,1.7301790196211768,1.690662946652411,2.3412713670815046,1.9264756551041224,1.9673759428361093,1.8365175986566684,1.9403493567618644,1.8983296323973307,1.9300521226816694,1.8575204315547065,1.573768473818568,1.8047502213458244,1.7794936568731554,1.7756323857687184,1.7863518353272219,1.7678663381324906,1.8817154400852008,1.8166917088360954,1.7679969294273252,1.8384202420138887,1.7775066324519722,1.7663814793682089,2.0427241280158843
1.9371767849946477,2.006024784919144,2.1104166973828797,1.99008541820725,1.895562443246382,1.8779723805973538,1.8991440222925235,2.0679096950649414,2.26269924230619,1.978288585332784,1.998987243791702,2.483628753280917,2.1464860172303966,2.354440886626137,2.009911242155214,2.2669661489976756,2.3068836457930835,2.276343823622614,2.2546114274918647,1.9673434718116898,2.1878088043981965,2.0440227442694545,1.9805659630657195,2.1962680532764085,2.0911628744154265,1.999645425832785,2.124616785325745,2.0247072408567646,2.1045113728891076,2.024169034160143,1.9307451659193349,1.837753713391908
1.770157854218428,1.816209625368739,1.8867612092853763,1.7050026666476663,1.6505897923707085,1.69768949768365,1.9224043375207343,1.725202337360086,2.2013359430080968,1.8330289890864855,2.018030634845894,2.4012205523108765,2.1934976477303656,2.302767596734697,2.015992039525376,2.3027948239731724,2.348205273452862,2.2355361636953655,2.2160965953426373,1.7058196101362446,2.03527411067613,1.9363592191025976,1.9295031106197817,2.1199787376838475,1.9124527419273383,2.1038082160696665,1.9761613332773953,2.086485671264466,2.1301837535663237,2.1002496126104786,1.8480706872755546,1.9179837236042123
1.878405178849689,2.081319995429029,1.9220528429948853,2.0171950854765943,1.8122699048667708,2.012733012590487,2.1303336677164855,1.8595608947030322,1.9300244806987312,1.9639342017685293,2.0098710069105095,2.1979617019769466,2.0768456937113102,2.2789004516542013,1.966986372731374,2.2476658257877,2.2806805637532213,2.11835302233709,1.97568968715201,1.75260366712758,2.1838426712380596,1.7425260197332482,1.7324515706986476,2.1374089449752303,2.0138435865316606,1.9565683550468491,2.09170324954615,2.015648951458542,1.865864755269865,2.033631519808967,1.9242946457688013,1.7510088341643268
1.9475793394535095,1.9149999799132702,2.1884343826706627,1.9047968449570696,1.9474860722697085,1.9726908321429113,2.0870238060777186,1.731339422523679,1.8777689589686437,1.7747013944079228,1.8589692647782066,2.1555513798165142,1.951300444731369,2.0944299373507813,1.8833287263930598,2.0124696475224773,1.970904284464624,1.9149380500006152,1.8638844740677294,2.1470891351394,1.8749508869335365,1.8249533026645848,1.769139469419521,1.9709490587983123,1.857418420616669,2.139268037518514,1.9421325563801444,1.8760536884037473,1.999482595778707,1.9933144844707604,1.8334833933867607,2.158456076070932
1.9002929219608897,1.9597480947324035,1.951431546377264,1.9267399985032638,1.8820252753762632,2.025276740358156,2.1058404656380314,1.833444944861166,1.948939751415696,1.8603341139011365,1.998730977155741,2.3751894815037224,2.1589529156740035,2.1775056918637175,2.1218752304180355,2.1819722402327595,2.064829799422325,2.2056471769231374,2.0348196013818964,2.147748642764696,2.034113091373489,1.892790244437914,1.7485548651128282,2.207051045444545,2.001578291130557,1.934241248557311,1.9281743270718419,1.985769179932946,2.0673180503545394,2.0522204806097633,2.0099029215948985,2.0611436472592857
