Fp1,AF3,F7,F3,FC1,FC5,T7,C3,CP1,CP5,P7,P3,Pz,PO3,O1,Oz,O2,PO4,P4,P8,CP6,CP2,C4,T8,FC6,FC2,F4,F8,AF4,Fp2,Fz,Cz
1.424936668693284,1.3712535956335656,1.34995982566168,1.322119764633039,1.4689024146568206,1.2744140071442887,1.3097575006084556,1.3448362383497257,1.3684329839633527,1.3029668150096085,1.3206916438648708,1.3329262427283628,1.3488475673899387,1.317071816603348,1.3236594542642481,1.3642844994264456,1.4064039640570232,1.4077619463238775,1.3464427631894498,1.3298200640323339,1.3052495417007866,1.3511098952630056,1.3757782528579343,1.3314258403249593,1.3900043229673467,1.5352127652595307,1.4725462913484422,1.383442191470376,1.4624413310434672,1.420648529839083,1.4981782983313705,1.3680492210920374
1.4020575512204423,1.3671169404926546,1.2993425498997278,1.3684819778829211,1.4741119031173644,1.3022098506490554,1.3194511198910475,1.4048252057588193,1.3249060149940508,1.3508488939516665,1.3446597586051097,1.3665573218554847,1.3185274560028182,1.342461765538204,1.352365638081537,1.3833659748723592,1.4158438974544838,1.4954310781491567,1.3295525239496493,1.349408294329594,1.3328183670975675,1.2847130289020312,1.35680148413603,1.3455337073667932,1.3795329586561247,1.507023693289937,1.432656307983412,1.3793214357786747,1.448815398665913,1.4232646763767713,1.4890470637202229,1.3915855196172195
1.4094278129268358,1.3965238492591927,1.3349301878734057,1.3769778190160216,1.4801633335389037,1.3201333668603121,1.3433029719990013,1.3455676670815717,1.3655673900615637,1.3348392468510895,1.3555944257776602,1.417636979404014,1.373452826884959,1.3829320691474754,1.3544123638546053,1.3510968668019119,1.400119302205986,1.4987536734347895,1.3741060399794995,1.3660943672602666,1.382508188819252,1.342030731601321,1.4262407933720067,1.37262559739902,1.3920393874812602,1.486676385752184,1.436484328857906,1.3747874892740635,1.4216056995143138,1.383621591028653,1.496347715790339,1.3782011408943207
1.4116810040039822,1.4096450637372149,1.3357110008348916,1.3994504264424659,1.524468232571093,1.3253826155650976,1.3124757205475532,1.4122512477166158,1.3477218010947354,1.3262083556067437,1.3563936343599996,1.416314554540014,1.3566372885117068,1.378621404706779,1.3695567190533346,1.361274398704708,1.4058566771487624,1.5068357264177006,1.3595617260872477,1.3509480969602634,1.3697790778691594,1.3321441773383547,1.4196991387312163,1.3784606951071423,1.396747482345957,1.5058581635927448,1.4577041978482943,1.4036383334300273,1.4399953693259713,1.418130396955686,1.5366319464719167,1.4276671679379378
1.4669764311177471,1.4305482295666436,1.3716887065541432,1.4064387040278068,1.5190523191103855,1.3343173587196056,1.3253726351509125,1.4452878635351858,1.4033588595113577,1.3207884880686074,1.3424228619422425,1.4137040466475226,1.3677221916071796,1.3453114661527934,1.3658734745323335,1.387730658240217,1.4172318815297846,1.5367934036346678,1.3994464224714604,1.4078835629732032,1.4014981830164064,1.3688846536543748,1.4459271829258191,1.4411601753826024,1.4357663956704214,1.475226796690486,1.48034425060784,1.4414889561229756,1.4633509375328269,1.4216708040137158,1.5578179997732582,1.4058234005670802
1.3662351699453374,1.3265901558029678,1.313222117499093,1.3477954158093959,1.4351310359501743,1.3101986388708713,1.3445159070273416,1.3603652022035926,1.4219068686672456,1.3085700863942709,1.3566853981713614,1.457298568271122,1.3959801193902581,1.3710319373325712,1.3900902593333893,1.3732853650250965,1.4178039314995536,1.530229764911561,1.3713384360840826,1.3643810037117472,1.3549723324677814,1.3993551428795588,1.4248306723163278,1.354922645291777,1.3212982124082113,1.4724364398240748,1.3620642485705035,1.3444470861450661,1.3314858603463617,1.3563704471074818,1.419420264533717,1.4454603569823117
1.3860538235373268,1.3502657631252706,1.3082705556581835,1.3435048227363715,1.4680476842921204,1.3119990251720333,1.349693552096239,1.3747531004624358,1.4017884532970142,1.3260644115076738,1.35518885914828,1.413496312889,1.3594604617384354,1.356066258033956,1.3687575478234615,1.3639875245885822,1.3739167587683647,1.462328725575528,1.3739076977176417,1.3425359927143412,1.3427830632849445,1.3495846957925166,1.406267694709055,1.3499915454583535,1.3393878602055087,1.3860693110924747,1.372206211950501,1.3490333616062353,1.3523206144277866,1.3733356865558088,1.4262682823553003,1.381763038844484
1.4112728678123696,1.3593762004337577,1.3557993913490318,1.3497580921527923,1.4154595225900959,1.3506816469159943,1.3940980089268078,1.4041127997781817,1.4489204241929123,1.370698914686509,1.405151458344554,1.4880120235091487,1.4041146810682743,1.4114569836639215,1.4184343841413707,1.4139789831167817,1.4138864756085967,1.4719220760971419,1.3939139384708144,1.3990745236255966,1.4004293470856537,1.38078432515446,1.441783469374576,1.3943270553209814,1.3704461238762993,1.4618426340677149,1.3926745759222574,1.3662703206619835,1.3652444721119517,1.3844308676032362,1.4354832276351497,1.4404758696984752
1.4098039549681285,1.3529889477714283,1.3439698682148604,1.342785868416167,1.4047855466098702,1.3347071664140102,1.395604782588119,1.398401773481606,1.4234567838284002,1.3336689723969963,1.3680800707274003,1.4561027194974332,1.386851592666102,1.3638468865121625,1.3733054181982667,1.3804319392417332,1.3821782452836653,1.4687508430089424,1.3709382370399328,1.3697995033580248,1.3685862721332875,1.3800512580089928,1.4388702929576438,1.4219978350934017,1.3908532174434176,1.472514691016377,1.4109948547139113,1.3880105210418203,1.3786354343313258,1.405069773405861,1.4351059319525792,1.4034953979230012
1.3912051922442343,1.346313427503974,1.371177025217332,1.3432286073560384,1.459683222795045,1.3471515502298326,1.3957495944554137,1.3887745021232634,1.4535172751704604,1.3728821832932752,1.4218502369763253,1.469904860586474,1.4132594576232418,1.4201251415204228,1.418111104632729,1.3922167574087838,1.4113075777618322,1.483418363828971,1.4129109963216204,1.3875015122552263,1.3859490126469722,1.384262123529263,1.4347102403750467,1.3969377983891746,1.3602825697424759,1.4566317004947396,1.3494455100997556,1.3635689976558958,1.3370079876681353,1.345143823648576,1.4324684109497892,1.4672884648692384
1.3997978148051027,1.3551396066086914,1.3571096700335765,1.3588011909042708,1.4583425848243825,1.34281972443356,1.3805118821252251,1.3902597231562626,1.4468595322777573,1.3653653813147943,1.4006863201477735,1.4627142799255093,1.402164793699585,1.4111801738214496,1.4173799133545124,1.396318201428613,1.3933599760826574,1.4706695245866004,1.407172284349113,1.3605137656196213,1.364941635234994,1.3631535347046881,1.4158336596876981,1.390256020573563,1.37065653441783,1.4597547613869586,1.3918761774644675,1.363765206388085,1.3667570991997373,1.387319059555638,1.4345031550233758,1.4395211737669182
1.4160658726770021,1.3515773717644335,1.3623686142125022,1.3512448039814298,1.458563468239419,1.3550106451252268,1.4133570056848481,1.3807658319053828,1.4560312549083865,1.3617408496352656,1.4225966946279414,1.4588771297649543,1.416336369286769,1.4314452834591238,1.4293534938988601,1.4181980460892605,1.4085041910193148,1.412635340935619,1.4115379194760254,1.3796282699000009,1.3632852443758456,1.3882624178546688,1.4368330919563186,1.4193100080324006,1.3914774941972252,1.5167392660214984,1.3882239690558253,1.387111874388896,1.3756963694977722,1.3842380639225749,1.4537938744544727,1.4638189761519285
1.4265102604863027,1.3624939021156328,1.3726655534154615,1.3483898948152289,1.4376067695168424,1.355438766081545,1.396034049521917,1.3930676220562657,1.4870498041267126,1.381209781891817,1.4166610480339978,1.4890875629881548,1.4167494749313072,1.4188629407185032,1.4311740220893763,1.404354295515942,1.3972939387698915,1.4020071911920555,1.3696428341480327,1.343073518529615,1.3486661621523806,1.3687224935145437,1.3945887753595474,1.3845704581700444,1.3561237536336932,1.468976897645273,1.3698468100469854,1.3615960786766867,1.354583973329183,1.369495375464993,1.4452401815190627,1.4318627560284907
1.3900098289848157,1.3375088886398914,1.3765517403568401,1.3217094944635526,1.4470788329978224,1.35045001111323,1.4036895226732293,1.3340656723220694,1.4312804570241662,1.3583578958984377,1.4148942436946081,1.4461082072274642,1.404227008056558,1.413021543481697,1.429911551202128,1.4011928125948272,1.4076029547134277,1.4693881454740163,1.3861833758970448,1.36672594217022,1.346940635203168,1.3715669352362345,1.3955468723067534,1.3909262087220071,1.3663311626498302,1.4821069447802642,1.3699311623399042,1.3616039999441727,1.3474769192742087,1.3684866718052549,1.429187853651364,1.40023893998203
1.3856586466801923,1.3478247855800543,1.3585469017798129,1.3500674201699665,1.4448871662238194,1.3614670421544448,1.3908822921695159,1.3467853386545752,1.4384708012174359,1.3642085289584054,1.3926574132991463,1.4465419800940105,1.4033747268157326,1.3920034638855567,1.3957831265544272,1.3914178052503916,1.3870214440317998,1.424773557375394,1.403739665258964,1.3613745570716227,1.3703286710612796,1.3766199374524464,1.4232857775044743,1.3986967801830492,1.3793794961401618,1.45609046039817,1.3723706711334998,1.3627460863536214,1.3551154937953873,1.3680842261675614,1.4290863819017081,1.4037408935665756
1.4090299342823056,1.3594290244079472,1.3887980213208435,1.3694135884024128,1.4534304694591889,1.3626541185452243,1.3989959716460614,1.3346327889538274,1.4450153946074562,1.3706917606127391,1.4239291442393618,1.4402923873038669,1.427511089380713,1.4266818105425207,1.4440467328111746,1.4242573748568133,1.4127855112277412,1.5115029945859524,1.4576571295234892,1.3950839053114703,1.394337588405365,1.4420763119364153,1.441252912529398,1.417081948134698,1.392988069792208,1.4633081629419125,1.3707424996831141,1.385854306982249,1.3658303058052534,1.3739628685558658,1.41429888393758,1.402506169752187
1.4003783622640504,1.354885289237698,1.3654856608181092,1.3529565507001868,1.4058562827526342,1.372406560068465,1.3884938281648074,1.3527342243066904,1.436326931038688,1.3559898468672291,1.4026279153473244,1.4321259666407042,1.4290198441169664,1.4112472555424889,1.4313590701294505,1.4435980952732217,1.447350662890009,1.4869199098236123,1.476700829524649,1.4327603925911705,1.4391463217897156,1.4750749338802405,1.4818828348665203,1.428248483620187,1.3947968790981522,1.4711663478273804,1.3809535684242524,1.389543924896979,1.3810918424056187,1.4018488265668836,1.4040548202121896,1.4054187639936855
1.4013965269937794,1.3771966803676374,1.4273144750834654,1.362608577071762,1.3993059567160513,1.3752122824655486,1.3976766284904567,1.3211781414189683,1.3969613900776487,1.3338162983399686,1.3795272086235237,1.3758113889642536,1.4061101539132521,1.3887819635335326,1.4038153911039888,1.4068565793885182,1.4107683359846828,1.494438975066606,1.4450976720340343,1.4083615078021938,1.4225263533672927,1.4557465801927711,1.4596146214704482,1.413098743774344,1.3843851030471384,1.4492089940026467,1.350860600373072,1.3664438772903775,1.3457997376497226,1.359704274580398,1.3731723383552616,1.3707652625540123
1.407236378143769,1.3668113792723,1.4027850285960008,1.360758466670955,1.4235666997727017,1.3857013773294018,1.3762731696777386,1.3386636871575177,1.4041378195893686,1.3610657092678147,1.404641359723964,1.4014274814674115,1.4058116847654032,1.3981455354445618,1.415318226903721,1.439940674055492,1.4326051619521138,1.4712439399537827,1.483140792785728,1.438110512803263,1.4513612038206807,1.4789982052492658,1.4849251103236811,1.435972960292602,1.4133583434208374,1.4555159606554984,1.388521881600054,1.3938002440564388,1.3832313932230995,1.399813951331012,1.3942469421305739,1.3623210191416784
1.4096945586591154,1.3888611289757262,1.4015512826964163,1.384209249197458,1.404281494893668,1.387068126937153,1.381387098371576,1.3485913734971093,1.3655493849178457,1.3562715835591317,1.3979615700228705,1.4064407929115428,1.4002533362010505,1.3986867789638022,1.4344188388557895,1.4299226716566835,1.430570994057176,1.4585013174706303,1.4538262491786191,1.435646835397506,1.442340391605118,1.4643113630593245,1.4782410502174934,1.431945819901881,1.4245597849673612,1.474241237274003,1.39680651160572,1.4093819963426035,1.3989960821649123,1.4073557718618488,1.4175191660146464,1.4016040098677194
1.4245609322582347,1.3917504463713608,1.4009607816300107,1.382755735581438,1.4131341909315063,1.386536928727852,1.3931376004983973,1.339503583582806,1.420477890564707,1.3535059775023126,1.3937219053392258,1.4186765296193429,1.4374877176037462,1.419895781065831,1.4500325456681047,1.4807004294567367,1.4543521929832084,1.5069846833640124,1.4847532721368728,1.465134563170196,1.4629935896007062,1.4951132433698189,1.5031211905989146,1.4418519193497323,1.423556011244222,1.454482186500903,1.399718165899766,1.4203681073188532,1.3911703203534664,1.417523008754566,1.412690633117452,1.3995417723526822
1.4169341098905326,1.4085648392549777,1.4024291536259417,1.3872612443093253,1.4018003139183663,1.4026616637649403,1.378086724767845,1.3853764984626702,1.4117661584518868,1.3447433112805385,1.3620854935868838,1.4155479752727318,1.4173067239533785,1.4033614977767659,1.426376150486583,1.4594090782881974,1.454907267271285,1.492954995001529,1.461754071212087,1.4552024346364894,1.4689973476599976,1.4664255884325679,1.502916484815324,1.4442539308798912,1.4489319447666664,1.4978824828280577,1.436460815112915,1.4405509692724126,1.4301605353447233,1.4502599569989005,1.4320587040080117,1.433957016217594
1.3986422957810891,1.3901503490272806,1.3934931860698612,1.3972256976360338,1.3744943545982367,1.4068217246647587,1.3803385429612782,1.3621106018568991,1.3974266992298605,1.3436796278052927,1.3828145372599212,1.4157115069312396,1.413393204032569,1.404172653638967,1.4431509228132486,1.471046411025642,1.4667565651577275,1.5568706960711554,1.4816292807851035,1.4713792072349758,1.4790673523123985,1.4740094673353774,1.5073087532546159,1.4476468758337766,1.4370457982348486,1.4710123044828025,1.3858899072027993,1.3921662845091196,1.369508098924493,1.387613348976382,1.379172029791336,1.4366524013507456
1.4101188114558103,1.4137718056843653,1.3980549367747193,1.4373380930681658,1.4744929647954554,1.4020519794990791,1.3623024530435106,1.4133346144240633,1.422459983236034,1.3434260597019236,1.4176295163098374,1.44277552020592,1.3963657432247687,1.4201486372121497,1.4399670506707551,1.4617133601528227,1.4433268087668112,1.4950306955383041,1.4715557699534065,1.4684433350403368,1.4795027727156533,1.4827567621964246,1.5048754978162682,1.436603085918888,1.429968029354871,1.493496980759599,1.4116328974876255,1.3906445909022893,1.4064985211931462,1.4191343908756797,1.4295270101588948,1.4459522044563493
1.4690994653119087,1.4442680954640603,1.4561446046458613,1.4792123870185423,1.4475429605152417,1.4480008962259956,1.3502388932282192,1.4184741297501893,1.437934177335278,1.374214768348262,1.4171637062650464,1.4560904698068446,1.4496903503846488,1.46213736451609,1.4953753980006956,1.5148493488147772,1.5195972150032229,1.5373669810305406,1.512351762342567,1.5409930388359854,1.5305249128056897,1.5068997926078667,1.5050445098193383,1.4678029440794942,1.4429260667797856,1.451012004383757,1.3971041309675047,1.3838807336639594,1.3817339737034608,1.3979551572857298,1.4177429443314304,1.3913667278670496
1.4594448652296406,1.4323910829390603,1.428414501539734,1.4277306448578335,1.4807001628332634,1.4164384405121624,1.3894399165937097,1.4107156974447181,1.4523018675957318,1.3826159357025725,1.454845309811446,1.4691826223535167,1.4597287739881715,1.4901792526255229,1.5088634775506828,1.5370160058493247,1.534342797762146,1.524974596752292,1.4591306793069458,1.555614044306395,1.487507374106696,1.4311639242501302,1.4303808924053625,1.4339665285474004,1.3847185536910789,1.4378798482044286,1.3976125160269237,1.3876471470163252,1.3783735052844475,1.4296799271302834,1.4557475495639576,1.4497608578007108
1.4079934372488974,1.35390360305095,1.36509271599515,1.3867193136886666,1.4338184786067012,1.3547129856128806,1.351593559698095,1.3574898118088095,1.4000412693795734,1.3531494570360787,1.3738432808545171,1.4238971163192076,1.3987035215365915,1.413665801496018,1.4521003571005073,1.459787409366427,1.4975671675379845,1.5035137541021801,1.392731966705298,1.4576096353792976,1.4264102738431754,1.3953758031608943,1.4062313371285098,1.403076535223372,1.37755682551107,1.4329115803706536,1.3826953172953245,1.3850716407037644,1.3690971031852166,1.3756704531126545,1.428201765566524,1.4034418125267571
1.4141185870516342,1.388108062710241,1.3770927827938932,1.4053443004261712,1.4223128810684458,1.3863484902816252,1.3440361690664235,1.4394251426737863,1.4036800192610401,1.3537481162520717,1.404774896664133,1.4487077550605596,1.3944761781318955,1.4313311904244375,1.4796895046358394,1.4903561796270344,1.5031935028479855,1.529606498864369,1.37799091947466,1.4351437341523667,1.4060915488807946,1.4031880481284136,1.4072932054774836,1.4075736042835099,1.3978629151235349,1.4290577424725828,1.3742594748556884,1.378806655862677,1.3684959873995906,1.3996099992652606,1.4316271448195919,1.4298449461589495
1.4068865206774113,1.361969202797213,1.3783388882263556,1.406015390506438,1.4684489061082364,1.3502207929779302,1.375090284522639,1.4588038299018262,1.4388525139619044,1.3462394108170217,1.3646573284367338,1.4271920252107977,1.412990969219138,1.433544120640013,1.4410905193740473,1.4428375711435213,1.4766380734463096,1.5517430461677806,1.362957561243201,1.3800442170849538,1.378803571196539,1.3994345379959505,1.400029257112948,1.398645510619526,1.3923041089942412,1.4514624314259508,1.3945129695455063,1.3831655409833539,1.384517154149381,1.3851131391385652,1.4478136917521693,1.4258377694311908
1.4600635184216977,1.4138663830465754,1.3804124954010493,1.4486232700127102,1.4452679763382599,1.3877624348988487,1.3633255663171304,1.4253866927697436,1.4076972371452863,1.3424397135273154,1.3862553990151014,1.4268848316433365,1.3750017883734613,1.4284175858472412,1.435013167409977,1.4857835320119805,1.478070777022546,1.540186102447664,1.3943488720843775,1.4638290567442411,1.4482683025028447,1.420792400527285,1.4459830692488997,1.4810226074362822,1.446628653264683,1.4573833880929774,1.4264438710237508,1.4276959702431449,1.421373611104401,1.409197422526456,1.4678557674511457,1.3876495514475657
1.4835812612014998,1.405147930767732,1.401457075466115,1.4078157808803797,1.4333647037617998,1.3609309049370797,1.3992548431945948,1.4542194223937257,1.4589736341621407,1.3690831362079507,1.4223861761085517,1.4991089517163547,1.422327682348574,1.4447556451744112,1.4738234301597746,1.4783397687741633,1.5339578615183127,1.5922147183017918,1.4156772283367391,1.489328034170171,1.4702177835880157,1.4023844573927622,1.431246836588576,1.5001422405569569,1.4774188973655462,1.4356776830124387,1.4249357596578744,1.4878345742316175,1.425201602933071,1.4620688758892297,1.4331886457620933,1.4305950128715093
1.4310858186170752,1.3897385832727607,1.3657296149450902,1.3868292828978153,1.4235111204547508,1.376090854622488,1.3571775366740462,1.4656475261230757,1.4022997113631805,1.3883162268211295,1.3952641172992226,1.5118695714379953,1.4068171928448931,1.4157979359015689,1.4295760264226485,1.4756800618798873,1.5111723284932153,1.5624125548628394,1.394418084521611,1.438900697281012,1.4100182787333602,1.4138955513402425,1.4290322936882935,1.4592860515906623,1.471726539414601,1.425119438521918,1.4207669874786975,1.4722665502800787,1.4157033186355736,1.4228163178952662,1.4051200273945301,1.4096534775678937
1.458320575604999,1.4028778397868689,1.3956234307806454,1.4196152974576521,1.4213799527252333,1.3923052270002436,1.3845522346166652,1.46106166385657,1.477337128538309,1.3533391236986554,1.3740448949465192,1.462047671964149,1.4562475975652571,1.4583788867958996,1.4660670204381951,1.490857520960853,1.5468700386850331,1.6506517208375837,1.4085185640256979,1.4093935790672865,1.3964456608313,1.4289795661974225,1.4388195539136006,1.4520443931434275,1.4630546004591563,1.4205747142360656,1.4257239125496934,1.4873489176769283,1.4178099433928475,1.429268509676097,1.4521280922869526,1.367242797002898
1.4760033240064006,1.4281154982045539,1.3900532939695447,1.4581905050893187,1.491973553108862,1.3848244151853264,1.378074199568823,1.5170778335405064,1.4489472070638507,1.3592890274306864,1.3889889122362478,1.4490339362670217,1.4274303426811028,1.448484644295426,1.4237356868357178,1.4438028119373258,1.45612503772718,1.5692537691018456,1.3767273747315756,1.3917137052968946,1.39587679351416,1.3856976547441013,1.4340623047843237,1.4493375280045009,1.4848507240163082,1.4867776202219032,1.5142803509823592,1.5267102333212819,1.4901020589166585,1.5127973322920685,1.518292747756563,1.3661383018367297
1.5020385393399178,1.4606424362713726,1.4530582183289775,1.4774360367500416,1.5272280394057194,1.418921535654588,1.3943732806576445,1.4802248692737388,1.5338543597214256,1.3481201199063766,1.368117084317303,1.5095239813648367,1.454949952242269,1.4249979828936505,1.3976813375008141,1.4240782452504384,1.4128849220927024,1.5682031118154647,1.4143983589418496,1.3804810562408958,1.4052218703456223,1.4446454521099032,1.4808756942667767,1.4659486393113998,1.4733454790385703,1.4897108669194188,1.5032885573014323,1.5200953716703884,1.4934682059813416,1.4970039965127377,1.5485209514453038,1.4106256567101583
1.4756169257041984,1.4351409979106224,1.4431043402441652,1.5220390198471307,1.5081835310181468,1.398585899326375,1.3589706985587025,1.4514777954453777,1.5048837343056485,1.366322978748341,1.3938712963559323,1.5448973678605353,1.4579900545442177,1.428394610836959,1.4301545498937258,1.4679772382174328,1.4465841791610936,1.60277036245007,1.426400030572481,1.3859204476072429,1.4121256504208874,1.465651588041804,1.4500219332553161,1.4745459171941468,1.4837423976531599,1.454681529133473,1.46791052457569,1.5406272404776107,1.4554232748035196,1.4789557029700755,1.4681930224998687,1.378407355566736
1.5332876904567498,1.4723489401958711,1.4704925754563067,1.5677505665734317,1.520666078828539,1.456998941616858,1.3950572294474912,1.493435322145588,1.5320871872317263,1.395195560235919,1.4098792463992336,1.5094357311061344,1.491099984970344,1.4626071820401507,1.4463300880107284,1.4899499104368599,1.4569246648773218,1.5294187183398749,1.4497596396999206,1.4533037069051282,1.464659670921659,1.483098916989896,1.51057991227558,1.5402086956140026,1.540424805276967,1.5010974220822437,1.5098785131933228,1.5648907131171175,1.4909892561177254,1.517100181027317,1.5651200681513833,1.4091548521385953
1.542763917431532,1.4855606153653511,1.5325795622050968,1.5965791645041132,1.5597008465882225,1.4788428558830813,1.3791345847699208,1.4947489535882692,1.5173033757962349,1.4086869847433015,1.44459011754988,1.5290927626370012,1.506624152300128,1.5010488139303102,1.4981747625203239,1.5214424524301182,1.514423582026054,1.5284367844634041,1.509878510634648,1.4931264907526753,1.4970652512033922,1.491813758274657,1.4961915637774743,1.5154579714387968,1.5161922957266116,1.5130250190275873,1.4996763900520194,1.5430373731918643,1.4945659423704725,1.5221080123232524,1.5465824579954381,1.458142345366245
1.634425579894385,1.5891280654453102,1.6241446339309933,1.7133664486247362,1.6474480076075797,1.5160760421958819,1.4251631320327975,1.4756572437289053,1.5516590823857463,1.417316412452812,1.4690168288162873,1.5299447552324237,1.5289123220013014,1.5255057237298633,1.5413083993096395,1.5364594197608974,1.541802142625085,1.5575531092037251,1.5409142965710223,1.5129276315469076,1.5022130759453776,1.49222586638355,1.496660170120262,1.5452770580272757,1.5651048563523242,1.5512184018349757,1.6006464863008982,1.6130196514946484,1.6001127728468447,1.626911692681086,1.6833296331433822,1.4187649482222666
1.6048488025400625,1.557087967351074,1.5987244779625496,1.6364637765792924,1.5951483843104208,1.5337985503775873,1.415888168411391,1.459234441533205,1.5867927028014173,1.4257715046353616,1.454898092476912,1.5537063040101298,1.5741537106524175,1.535025672099782,1.5350096534067825,1.5699504833577267,1.5768485153911347,1.6123750157786914,1.573015322121796,1.5111056751625243,1.5177821246271208,1.5439221463082227,1.5009790870289126,1.4938693604501743,1.4988314938211047,1.4824764975941904,1.521870554974915,1.5428801478122,1.5267993717870314,1.5641220408453544,1.6055096646092697,1.445772187210292
1.5956559576491083,1.5420453918110486,1.5860825611645903,1.6754186690834338,1.6127632941922418,1.5232760241230299,1.4025757515263557,1.4675446560164134,1.5249812960231135,1.4519786883862673,1.4855967379941153,1.4807069162383844,1.532392013272228,1.5307906108203413,1.5299234559710817,1.5320147999016724,1.537213604940133,1.601434013118562,1.5265319206264965,1.5159582192269159,1.524115874896576,1.523071371713756,1.500750465467201,1.5513699998531476,1.5602784676352275,1.4973125872093174,1.556252920935716,1.6010214062864465,1.5570333978492794,1.583972823663293,1.6154080412334046,1.4346141740178704
1.5780025823557964,1.5570364278802291,1.5211681258200813,1.6797037087629227,1.6044021569323146,1.4149744150326011,1.4407549863574534,1.432663070811101,1.555202319656755,1.4296885926566048,1.5134465780627409,1.496520495020479,1.5432811773918442,1.5596921017122771,1.5622436385335738,1.5765313462458987,1.5695940487757625,1.5665397222085236,1.5876792035511678,1.575893859623962,1.5830009899717754,1.5222925072677282,1.5235036964053563,1.5508310747052658,1.5266779944608782,1.4936147779287992,1.5374521569837232,1.5516042562265957,1.5296452859629934,1.5570427774459097,1.5914049834493906,1.428211758380016
1.5146511778068277,1.5314528760253745,1.4850535620443788,1.6842511960579205,1.6040895180561,1.3545436256587209,1.352462250710108,1.43989817278779,1.5201111726598333,1.4226037286646653,1.5065791819084562,1.5113711653804467,1.5010986713100556,1.5329169796391573,1.5465357571914262,1.5294274680133695,1.5122360524351752,1.5585938624239695,1.5547754420527857,1.525895665625029,1.520793332793703,1.4991938905366782,1.4979512133312685,1.4751830423036754,1.5013482397868525,1.5071044216258493,1.513146245632867,1.5010678394371761,1.4752345391316084,1.4670415841892688,1.5710144542137854,1.466420025629044
1.5507356904876528,1.5515608948909032,1.5120946451835309,1.6412149101699065,1.569389315119959,1.401115207204273,1.406319623471885,1.4621688978238243,1.548732602705434,1.4690742125058354,1.5283319305658385,1.5850335359430736,1.5319188665563583,1.5783854015778882,1.5770441211416764,1.5877221235925165,1.5901273754488783,1.5490267967390923,1.580024927482808,1.5368647241915967,1.5171512375564802,1.4931585635349027,1.4615430204452755,1.4868755888970635,1.500177434287928,1.4654760502769735,1.5073706758146495,1.532711566244192,1.5049965096316815,1.4705250957751257,1.5902503932325247,1.4193142693647267
1.6005382530013195,1.570815783047261,1.5402837540184333,1.5925539888220492,1.543230172036792,1.4269227121965677,1.4283648099232047,1.4543498038142397,1.5243519257236409,1.471476180418151,1.5448865695750469,1.5656024999824534,1.5431387053822812,1.5615793909553917,1.582093296490286,1.5921149889089796,1.5921175648743402,1.621538175429033,1.5856946575917523,1.5844889126076762,1.578597569308204,1.5400979429477244,1.5158812972037152,1.5497838758028477,1.5369494717923726,1.4493890836454464,1.482499633463863,1.5375365202327456,1.4747972506233973,1.5182589699394635,1.5463074504253704,1.4948253744055366
1.5261052684829806,1.4945507940955736,1.4746412900125332,1.542388794903537,1.5117826374730348,1.3543407344088372,1.388744257855844,1.4636686332828543,1.4675479003930354,1.4261775928926637,1.4960757500729274,1.5141559089643262,1.5042733036447775,1.4944390325485017,1.5088415672288624,1.5306285771777433,1.5294729246931975,1.5323914680580935,1.5395353988806357,1.5194108566799032,1.5195838806931907,1.5174558518007997,1.4885115143728376,1.5027041958733203,1.5139369888491785,1.4628971154711528,1.4895784532002798,1.5158133057491925,1.4582849849473756,1.460301875465297,1.5049267759833476,1.4704319918701168
1.5262234155889218,1.5143774791850995,1.4773366657094154,1.5165693117688486,1.4612797416790835,1.4109452430086216,1.373822212984938,1.473761170848571,1.4816336594604034,1.4400449856419415,1.5107174569019342,1.5146602171786916,1.4472472335891085,1.4500839067540314,1.482018229430473,1.4860946546976894,1.483622504853055,1.499384999449813,1.5102599996965098,1.4934675633613583,1.5160208701110836,1.475780671531281,1.4837578742226696,1.491622258635569,1.50046578846415,1.44808200409265,1.4713600192721539,1.5186513849488474,1.444892125792917,1.4724710496383528,1.493613076176411,1.4730130731697821
1.5098704262136775,1.537486436822585,1.5040161246441346,1.5472175367023528,1.4487024355472469,1.3387549017410325,1.3940595853909408,1.4520337209505765,1.4747682321325197,1.4197168161915412,1.443769688604081,1.4684981504387902,1.4536836730235259,1.4684447404582328,1.4564000519935212,1.4960286593540422,1.4728052200782893,1.4568970550288463,1.5285266291717732,1.4871297271554897,1.4933586743884601,1.47789273191213,1.4748943900168825,1.474660983484375,1.507847214631148,1.4359335208250281,1.49561653627581,1.5351132797275482,1.4964816238215852,1.4952080165665518,1.510725761750541,1.4613586220004064
1.4863335383722707,1.4883583428693348,1.425579430181722,1.4868529004811581,1.4469873786017649,1.3490599973596658,1.368261785363851,1.4100880864767829,1.4945178889379347,1.4538258924732277,1.4541293029373306,1.4836782707919371,1.425446565565007,1.4491773787929996,1.4401669483165331,1.483467383720775,1.4855453355567645,1.4716189191291924,1.448172567836012,1.4406927998239636,1.4451507810128146,1.4456412542664345,1.4460380140786246,1.4553851429112459,1.4833242009334209,1.43902175774169,1.4725806690014562,1.4747989008465898,1.4602362447376491,1.4642235355661135,1.504334347111212,1.4791058219678357
1.4604578189360908,1.4542770333103583,1.4148817537188294,1.4427958087618287,1.4451455972110945,1.36577614724782,1.3856355867065238,1.3889972775405994,1.4542013298762775,1.413962861768511,1.4378801641027028,1.5013905617591907,1.4207670865337152,1.4447547765993805,1.4415059559639947,1.4850186502727425,1.5171958612576917,1.5058808179566439,1.4500691549631777,1.4756166905133705,1.4827341770325588,1.4680119824263322,1.464709003867253,1.460198952914999,1.4539201777190756,1.4546661718776241,1.480731730364423,1.46281671091896,1.4616724123785918,1.4594209070421176,1.4775619878697461,1.5011274335866496
1.4662945432927321,1.474305412056812,1.3741367868455343,1.4779820363761513,1.4568303301688346,1.3393573642304932,1.358543137232366,1.4095889317726489,1.439056380700667,1.3565068338817032,1.3918775035597382,1.4713443472109695,1.416067950919888,1.4082858544060293,1.431474464780139,1.4691509605290791,1.4528921439892515,1.4705075113697599,1.4472986231607288,1.435738073052754,1.4809381098765035,1.4862715021542714,1.4988028887328568,1.455815018018398,1.491580665057549,1.451043667329173,1.5156448452651818,1.4959042635542574,1.499515978498003,1.433265068141057,1.5029777840601337,1.4786910727795246
1.4788009289914257,1.4822521073531438,1.4452935260551227,1.462982220574911,1.3980921297580275,1.4589538977809877,1.3958902578695407,1.4486871975608122,1.4519271178583328,1.4333953835148388,1.412822162267648,1.4607269450384066,1.4674837904232167,1.4507626544623757,1.4583418216114568,1.4657850654960767,1.5037751477416264,1.467090903032036,1.4750135107008737,1.4591204336037082,1.4995605610556757,1.474168390405047,1.4902859358494918,1.4845019265272443,1.4911656259400972,1.4179117741136567,1.4797222518442097,1.495296090506084,1.4727288729290535,1.4623633329703782,1.4674723111594692,1.4376531731149598
1.4999808501890888,1.5119423725526608,1.47527563706344,1.4756666899298316,1.4106202693159453,1.4663375410254018,1.4215790419435046,1.446152525454404,1.4825210893686376,1.4497748873491827,1.4273498040452877,1.4650066047989954,1.4547582063530848,1.4545405897327783,1.4310861962249943,1.4709927960450464,1.4671310667354338,1.4936459825842112,1.464512152305821,1.463254980529863,1.5044616266455826,1.5025594961962447,1.5168121895707718,1.4607752994324052,1.4793969339762993,1.4237198982054562,1.4532151791500776,1.4946065577942171,1.4739467165833438,1.51196724066095,1.4536435059477157,1.4518470450621512
1.507400488063357,1.4896449198055612,1.4991081282481427,1.440098220851768,1.367314680411061,1.4934071561542874,1.457969459123659,1.4481279577117303,1.4593052227906773,1.4801703495564653,1.43993385358047,1.4921767236955061,1.4593096296073982,1.4811469274842817,1.4874063823194565,1.512847733151863,1.5576938012278485,1.533086076436933,1.4909035925973269,1.5278115652402593,1.5482846634496208,1.4859871458962113,1.5335626986219593,1.5207485735910882,1.534289191109947,1.444119983323841,1.4809321538664577,1.522416262266956,1.521727567090965,1.5346956589232013,1.3991091171330228,1.462565659649018
1.4915856976240476,1.4915630333324175,1.4485729009230943,1.431645961114322,1.4123173440660086,1.4224846980474661,1.4113939591279911,1.4493326038626113,1.4544866350868597,1.4580027415937882,1.4214088582087392,1.4987032389533195,1.4663351680666175,1.4382892110321432,1.4533781530813799,1.4742197305829898,1.513951125301738,1.4935691265910909,1.508245637761335,1.4910456877087757,1.537029993202221,1.5122806049213997,1.5426238924781965,1.5142440421904884,1.5057623606649901,1.4350056547844623,1.505315969689298,1.49643608391961,1.5030374861525355,1.490661515597862,1.414519062106016,1.443017848317233
1.530978793812914,1.501883548968652,1.4570581019806852,1.4752048453877853,1.4829765729707647,1.4417785285288984,1.4039836658848597,1.4373471679472432,1.4098236835494997,1.4159581442853197,1.416676204537736,1.4598461445483257,1.4747705679073368,1.4524964317666884,1.4531202227821838,1.4592449324310564,1.4870194308314852,1.4773297249681927,1.507911522350704,1.491221577230036,1.558660270326668,1.5159775987085238,1.5475162766479018,1.5069594344529038,1.5419207131376944,1.4551441735044308,1.5560326677919174,1.527425325649471,1.5625105140228868,1.4926605154087675,1.5174968040348746,1.4123199469184053
1.5320317224650397,1.5275615095806334,1.450024999619342,1.488654941971682,1.5117671804688333,1.446234505709745,1.4191633642037813,1.4695347527976048,1.4360799908643547,1.4201681114191143,1.4219533030374414,1.4765567956324717,1.48289054745557,1.4785129376700759,1.4759629169538533,1.4874635642847716,1.4917749554752855,1.5013142600943399,1.5047028338108122,1.503942613318932,1.5554247157055023,1.5097834165846264,1.5285211032790376,1.5074394653418197,1.51652709423751,1.3920819487518539,1.4682059702870016,1.509473954503816,1.5031959529612708,1.493303054214639,1.4767897284851876,1.4198287835326753
1.5483635000062654,1.536121781022089,1.4521462153591769,1.4998447857257882,1.5288495755432503,1.4740712877686943,1.41440178670259,1.448281420856937,1.4625165275111485,1.4343392885003075,1.4176576777235892,1.4740841433869425,1.4978211619246073,1.4840238261328762,1.4568913515723363,1.5010196699443616,1.4964048306023323,1.6029118716134525,1.4927781921970331,1.523757910318577,1.5605506274880072,1.517767487593315,1.5235681090604956,1.503552851120229,1.5136175727144128,1.4543548353751916,1.5120914834736243,1.4911539324127443,1.5057968249745033,1.4951102642684875,1.5320134232918772,1.425966254558272
1.5284016641141907,1.5155046571826425,1.4482042770697896,1.4568101313548047,1.4749952707175322,1.4402331272415008,1.4072648156193652,1.4676779555220905,1.4718141378811462,1.4734578738313353,1.4522526394608424,1.5395843721886593,1.5082286984622804,1.4910327664823309,1.523053588752918,1.558179090043664,1.5723100695441055,1.6033996293497783,1.5586215269330157,1.5515876613508452,1.5774303246676367,1.536456950959486,1.5381266799600757,1.5042514614091962,1.4853965303889,1.4244805227852104,1.44675767663198,1.489711086800808,1.4600056905690613,1.4775271452832697,1.445064445115339,1.4333804611698175
1.5445747204951403,1.5175142525237435,1.4632395477124012,1.483516950852822,1.5264107048292423,1.4632016995374237,1.42564181532457,1.4755052949772707,1.471358973562649,1.5058750467880153,1.4746531273027552,1.5191145727582955,1.5216594521661362,1.515097333033805,1.4991822102127002,1.5057802483500202,1.5213329103914999,1.6050834806070904,1.5686960350321195,1.5482665980483836,1.592523520289138,1.5405934320199701,1.557768270410469,1.548965557945814,1.5199612215678298,1.4223752415219875,1.4617873013233789,1.5099373823753826,1.4799971451759224,1.4685845279209675,1.4615257728680437,1.456318221033927
1.5189988771251295,1.5157197814225296,1.46344905030068,1.482441075327763,1.54007729115674,1.4597179284302455,1.345385668432305,1.4767769878526775,1.4770114453525796,1.5126338335826048,1.443226718748938,1.4861120917365678,1.5225673205504495,1.4941159622953029,1.479255369729159,1.4794553901611835,1.5058203077795231,1.5968261246871402,1.5385066772918559,1.501057705024443,1.565576785839089,1.5191145845914198,1.5181901886386469,1.4806759465026318,1.4168731691553331,1.4490238583930009,1.4023042740811247,1.445676221445337,1.4028147725702063,1.4069156680078136,1.4695238808295847,1.489727351098756
1.4872804633436272,1.4849449518870526,1.4237799947230259,1.4904276667170138,1.5348261150158995,1.4307523702446259,1.3937493582809515,1.4993646672998064,1.4159369069498744,1.42751239401568,1.429987997570687,1.4750441101408662,1.4367315058137022,1.4611612515283643,1.3381879958541878,1.3519307669295686,1.354634744643819,1.5799672114584862,1.4207098312255844,1.4118026454659165,1.4866594858045847,1.42754160375758,1.48110505830206,1.4239007215204904,1.420191901621441,1.45392763267617,1.4237303148553713,1.3867675617091935,1.392209114878289,1.3848847479245117,1.4772100672402815,1.4672241913685407
1.5116071196288188,1.480992681517605,1.4985037115114637,1.5111982104966646,1.5203982286286792,1.4502182411416764,1.4252551581386261,1.475834631822669,1.418110543452146,1.4312347305098683,1.4437548881831797,1.4311055889259516,1.4270405865515317,1.4151191624854684,1.4021945984893283,1.4499441924568532,1.4464024757853398,1.5804183023073632,1.517974802700796,1.492896102235419,1.4847600954814273,1.4797494330209633,1.4937569077871757,1.4634925452957266,1.487405928380363,1.4762178474462941,1.4298935022813744,1.4875419582519371,1.4451900393184323,1.4476804100526566,1.4885346173010945,1.5013644455914772
1.4905722795448213,1.4800128294975912,1.4850532924288482,1.5147887585922826,1.5569608411240488,1.4573077419057365,1.410323512197904,1.4610500594573022,1.4938539038159506,1.4020728391994148,1.4383438496945646,1.4656175494110972,1.483467452523872,1.473050005545762,1.4708056507977703,1.4912548935811063,1.4482915180283107,1.5335799035110422,1.5171905441863291,1.4485464235858003,1.4327471923302042,1.503522641581004,1.4260091035077846,1.4553565030743119,1.428993865180245,1.4567527028301623,1.4113706729165674,1.4389597177020421,1.4158622714787772,1.3838874305266093,1.524635847515239,1.4526402842486779
1.5571657287102674,1.5322194741262132,1.5379948481828607,1.5517984761317134,1.5105504486031238,1.4997630471021632,1.4379827347586784,1.44043944066914,1.4485781246937317,1.4816725903934354,1.5032808059632956,1.4657206255641997,1.4575081279458557,1.5072282148516436,1.5000268869849784,1.531247873050389,1.4961612345464563,1.6005767613631852,1.543871058708056,1.5073087565294714,1.4708806389369042,1.525091511017794,1.4870814062941076,1.5183889294317563,1.5234884105816555,1.5061568164311547,1.4966976215975496,1.5235916013225996,1.4769921460119726,1.4883259593713551,1.49141355446226,1.5698895249060283
1.5345252513680574,1.4928021208110567,1.477089412094864,1.5121358639320843,1.5573537113242943,1.4424280862600583,1.3958225341204469,1.4407044182785382,1.4114468840356937,1.4369226313539334,1.4579351280937511,1.4221275743471598,1.4608257094726593,1.5043185540804382,1.445563898229605,1.4673389601014577,1.468364048340107,1.571980394131375,1.5215767534736622,1.4740373913844478,1.4717493025153008,1.466008356722223,1.5017246487393883,1.487112025028755,1.5032986311325518,1.5104104091048591,1.5045899427811325,1.4949871220768278,1.464657916597385,1.4939502305715193,1.5186885804673682,1.5044578971422098
1.5005089761382173,1.4639360510675712,1.4875159114667402,1.4868059467323225,1.5146228404405795,1.4588593638713248,1.4185030545582487,1.4628807148308733,1.4699007367423544,1.469800609439855,1.4885355327166048,1.4963630468065932,1.4953318674592107,1.4968016785125169,1.4657798522564056,1.4624088605638939,1.5008933151948805,1.579504191374241,1.4942297466848047,1.4679066007867694,1.445094091100962,1.499673949054991,1.4729734530572067,1.4742381675893894,1.473224746335249,1.4933520511062783,1.4558599794630798,1.4557601730467078,1.4151083632757118,1.4504041694269036,1.4607209048673446,1.521738698151107
1.504667854847387,1.47157155035685,1.4826271609393809,1.4952613047370766,1.5547345910751462,1.4627145227780538,1.4298012086486493,1.4728932687726994,1.4481538488554344,1.4248915414687953,1.4115304850961112,1.4116142039899942,1.4435188983974327,1.4465451481953748,1.4365195129830073,1.4838187847316637,1.4856563988080558,1.4937825081525054,1.5513050655373182,1.4912401523165404,1.431999087978604,1.4840005372043834,1.4501662940220599,1.4821732442770366,1.4659416575883977,1.4874829579017117,1.4230445507332266,1.4364459508763354,1.3875733178355496,1.4200059094937187,1.4619314643956962,1.4712604776918599
1.5577219365666246,1.5075924291279017,1.512103978412915,1.5249988371056105,1.5902064372992961,1.4840905668600424,1.4544536653612894,1.4567781605711316,1.416553956194056,1.4292187163332228,1.4752433443599016,1.4782992733995695,1.4717127460058799,1.4878885554241288,1.4696604124063142,1.4771235651593932,1.480635917672778,1.480125434132645,1.5119064067277648,1.4797301698974659,1.4637322807742663,1.5325911685580766,1.5123019267432594,1.5168777789229473,1.5390015681079092,1.5318689528293867,1.5068323721315355,1.5037650475229252,1.4683134526925823,1.4943918857611167,1.5271361804583856,1.5384038921335312
1.513707168881976,1.4828529722107893,1.4646813773349352,1.497587899524098,1.5288708788736436,1.4520783198566296,1.4105908136931085,1.455460637351241,1.4724693399763498,1.448172069438895,1.4559227309326381,1.5029649924784434,1.5040324019350155,1.4945750671876459,1.4791159824578888,1.4918692040246064,1.50170985481026,1.4938938227021392,1.5083667049216911,1.4700724777792653,1.4661866384657811,1.4783106327778857,1.4870412199741638,1.4842129105734487,1.4991244150510954,1.5206034407484859,1.4870715559318792,1.4593331877742493,1.444218961050628,1.4755228274723078,1.5139349919722345,1.4844683357804132
1.5144552892999767,1.4619449619577294,1.4501316740575547,1.4781129506972173,1.506233191598519,1.4460451949594249,1.4114700615086393,1.4386365752774666,1.3788179741266053,1.4498958862340972,1.4894501746757542,1.490597584916526,1.4583533204263766,1.5147673238358323,1.4568269539986631,1.480440169934708,1.4847072236194605,1.4697810267896692,1.4893788247753394,1.482371969583943,1.47944344719521,1.4548614970126488,1.5122147573117453,1.4988223349597356,1.502001484408756,1.5160192689240595,1.5175866232246495,1.4645537579557697,1.4699073092640838,1.4768268543256826,1.509559608914222,1.5100075935493258
1.4429454690735075,1.4208257424381041,1.4013082073530352,1.418818524615078,1.4555422021233109,1.411153623006468,1.350236978252501,1.4342920729192628,1.464290614142794,1.4524777071584956,1.45375103362922,1.48984488038641,1.4974796008101834,1.4745833763759426,1.4555824752757698,1.454690302245496,1.488762791693666,1.4527055724675997,1.4751482830749456,1.4620124722457801,1.44569676920986,1.4647191862316125,1.4722440450091843,1.478544752432032,1.4837497264380757,1.48585471539147,1.4868673714116383,1.4388771621552783,1.4097018435524231,1.457780441488488,1.459253349487403,1.4465278020959742
1.4230970698008831,1.3760546144781183,1.357582539178084,1.3845592916317082,1.5057785687217562,1.3828427933664034,1.3379633033743286,1.4386137508674635,1.454935878947913,1.4517280253716727,1.400632124955156,1.473260430231527,1.4774054255875162,1.5025757087570715,1.4574096926489,1.469276524465459,1.4678140651070024,1.4346097348111546,1.4395915636490357,1.3837895671837461,1.4031821959343573,1.4756597329087762,1.4660712148377453,1.3886940133035757,1.430708406750481,1.5083605612648474,1.4084461781506694,1.3472515431233925,1.360568630055112,1.3858880133052616,1.4813754226791052,1.548313521433697
1.4860410056149904,1.4604229677456442,1.434997562654649,1.4619696903077657,1.5080934542687043,1.4436187508320792,1.400529575064937,1.460230980291513,1.412890943754939,1.4588861004819105,1.4312348825384673,1.4331200319185144,1.4193473511312256,1.4395711332915075,1.4557048514586917,1.4461059449175628,1.4892668548611825,1.3610841448474706,1.4066013762016536,1.4167233031211708,1.407966786063716,1.4237510157919433,1.4511540021803764,1.4415754063988617,1.4538720171270243,1.5205112440353314,1.4579542325471413,1.4285111194821727,1.4334177358320779,1.4568528452378122,1.5127649190390762,1.5467447558859244
1.4855982721344985,1.4690411428507932,1.4625288791699178,1.4710661118911945,1.4935155000496712,1.479236419929165,1.431242420517604,1.4754404938458845,1.4778549258895222,1.4607787506221257,1.4412315390507562,1.4861237520167196,1.4626950564174412,1.4734893808567036,1.434148543519413,1.4706124160547969,1.4737620779867113,1.465798801031988,1.435370567876396,1.4660626222775623,1.4726621407852554,1.4531079084016951,1.4614812992421236,1.4627303500074167,1.473457015048972,1.4800548163128096,1.445021576060657,1.452383793447363,1.4338862022636543,1.4630168310931637,1.5021120711742384,1.4576754270855052
1.4439018304606204,1.4108621103100463,1.4198917084933291,1.4065782761763543,1.4665973951263782,1.4155743497771316,1.4021853062951246,1.458613577515488,1.4307119703314448,1.4522339994554143,1.445272653892207,1.4780140978695615,1.4625177250274433,1.456831714947005,1.4283781682317238,1.4604946242800587,1.46081065446693,1.48537849565689,1.44345790249557,1.453417714178423,1.4611197922825925,1.493026472660554,1.4819908206853831,1.4484138745608364,1.4604269731556394,1.4698425358593479,1.4644733705630777,1.445834937128107,1.4310993516871202,1.4646467054620411,1.4619558754234327,1.5000336569398376
1.4301388648472877,1.4180473611292013,1.4103342592891437,1.4072409657217209,1.4394989007464276,1.4166124522205032,1.4043827618165436,1.4346909326785293,1.4628210619972069,1.4758291451753036,1.4656156122385748,1.4536131903523029,1.4443430722077772,1.456790413964896,1.4373873535897461,1.4559893622818265,1.4548348476151256,1.4333996464735284,1.3984966812442585,1.4113684733306888,1.3774537573594705,1.4489262967190293,1.4348068896273336,1.3972799727593115,1.4123192009929613,1.5050138840943628,1.4290375341266266,1.4022397677530392,1.4136660231332165,1.4165262097619489,1.4805385888634184,1.5004847087284445
1.4359909214847835,1.4115933761255754,1.4276728575466022,1.4068258565852136,1.4258404711045194,1.4286052890449465,1.4317319409393279,1.4344751076684261,1.5125234922065671,1.4779702960089252,1.477036389738895,1.5284426928634594,1.510737577780251,1.4984142904568023,1.4726232908614136,1.4619934541950188,1.487113644898681,1.4951233923767397,1.4670257418437822,1.456699280142289,1.4769478745046958,1.5120473977499982,1.4877600064366878,1.4696750308698001,1.4583214674737337,1.4534985325914944,1.4247621725870843,1.4383782027265473,1.4169289556186513,1.451831220390968,1.4474034633012964,1.5386228389083183
1.4851335947163606,1.4832528270999643,1.481607159240306,1.4669140701753303,1.4796929295278756,1.487689395267394,1.4453049073236492,1.4819109125144847,1.5344944691241338,1.4914618602336178,1.4580585759424587,1.523199458519482,1.5281219632057657,1.4986719429327466,1.4573230725402009,1.483857470107712,1.4976122872120956,1.4867305911076794,1.477205503900116,1.4750731553531509,1.4940492017876683,1.5271718651248416,1.4834253344748405,1.5018003610670683,1.4658118441897368,1.485990400298798,1.4674071529278265,1.4790366016665069,1.465052810475633,1.4873826363794231,1.4961788215229859,1.517031264644293
1.467963764082773,1.4538926204451028,1.4736614468160858,1.439795585977598,1.4954473700126425,1.460066927702723,1.4451208886406472,1.4588968263477704,1.5282402592632818,1.470906276930405,1.4686733782780328,1.5402605961510916,1.5355967569291449,1.5015722455593,1.4476135123209413,1.4658211546708861,1.4767306987413895,1.5065245437527037,1.4965962056560167,1.490054144186265,1.5263200856904564,1.5536882080584513,1.5078837840442914,1.5148029942288508,1.4725852326756386,1.4832413748642177,1.4661263804638418,1.4866806711949223,1.45901887898996,1.487525204548877,1.487903360613671,1.522336857216831
1.4640882894624156,1.4429534805233988,1.4835531506036124,1.4226514419713878,1.471175911897208,1.474905310666613,1.469785254628331,1.466655077683418,1.5278875434609849,1.5043992042824323,1.4956047675785868,1.5171716217802016,1.547774336883967,1.5138916503667923,1.4937786776159,1.5254383316695872,1.5489483821818837,1.5512915878252103,1.525363196180375,1.5054699899922936,1.4941932857234912,1.563038312763331,1.490861789888349,1.4928219087591545,1.4415443035754147,1.476522069152267,1.4134029937592871,1.46311469076858,1.4188383517146472,1.458267814328632,1.425930209307778,1.4888954544258641
1.4678723719894509,1.4280636554564294,1.4662469244902951,1.42700492895706,1.4762867913818924,1.4517814824025854,1.4719003661950825,1.4740208001810446,1.5284992888947633,1.4992544197276765,1.5254684309614328,1.524118483351206,1.5468658752675382,1.5166818902635117,1.5156650760829302,1.5022267353267573,1.5387090193125306,1.5393457012790983,1.5056454088117845,1.4817823636787695,1.506640675673617,1.579417767235977,1.512468289860734,1.4792399044394131,1.4444769499633274,1.487742046485988,1.423144842855506,1.455401543551303,1.436183799199655,1.48014859254974,1.4745848420112946,1.5534885138422854
1.5199730568962364,1.4859539783368159,1.5166938012881506,1.4640021084868369,1.4773151904338704,1.4882562058649116,1.4916757745214269,1.5132417597326242,1.5796460480729628,1.5524461365674707,1.5323221390791852,1.592727021106806,1.5842024116129951,1.5398875982066744,1.5140482217744538,1.5313235075781473,1.5952791796125172,1.5597067365102804,1.5593373518870208,1.5294271064181768,1.5294463133545098,1.5829539203352436,1.516771932814648,1.5248946545683795,1.459658855218855,1.4828719022449661,1.4436300369654296,1.4944749076078345,1.4728421194547339,1.4960582047752005,1.482588217372946,1.508074992158986
1.5237968660239014,1.5159873808275326,1.5220544866950465,1.4850612479245693,1.5091948616327118,1.509853665311828,1.5025622002264658,1.51474171384787,1.5868035635563718,1.5208182685325995,1.4961032989546545,1.5621355814694617,1.5745699956374748,1.5251796809254683,1.497040173504906,1.5046169204669313,1.5701396017907305,1.551503444120885,1.5530085417805177,1.5100963280748247,1.5437644433239033,1.6196574700828668,1.5318058567914774,1.5277924479679217,1.4947554129003693,1.4994504953272274,1.4876312263344929,1.5292145153969776,1.5047886657949552,1.5119400104176748,1.5027470071634295,1.5169688776817563
1.5157503615623908,1.4493976179858992,1.4891629787669503,1.436504489684022,1.5159693297721906,1.442400837204304,1.4844679119074327,1.4808235330540038,1.5660385151517733,1.5392874556214613,1.564296440090063,1.5563605759410437,1.5904352155298729,1.5474101092372095,1.5219236268284442,1.5610269037581976,1.596258789502614,1.6002884850284536,1.5969124849323268,1.5853825464403979,1.5831278421383397,1.6276732885300944,1.5653882841613926,1.5799096224191709,1.4942329410548236,1.4825162412573,1.477603846550031,1.5344047323142038,1.5031294504940755,1.5242201679083405,1.4830581528654756,1.4956508816506835
1.4888128305240773,1.4499846919133208,1.4921495540110292,1.4362498549967708,1.4745442029570806,1.4555313327686905,1.5136894906746121,1.5199681083457677,1.573481231160272,1.5967966349757803,1.6029075261117238,1.5957237032085179,1.5677711320978918,1.559806010213757,1.5534427368900938,1.566783257608883,1.578190712193507,1.617609980821147,1.5817069721287695,1.5546127739860833,1.5790870939813313,1.6139265568457513,1.5655659900837307,1.5592588511850747,1.4702716360099437,1.4592489659203818,1.4410188380940256,1.4973253562730189,1.4407548209768153,1.5146375717837293,1.4483465735769512,1.4725699820470104
1.5403655441536321,1.5084073701391925,1.5243477712047167,1.4988167250714715,1.5546378401163188,1.4854735854599745,1.517302241735785,1.532480314546334,1.6231032394718683,1.6287515695434425,1.660613715022344,1.630919139986191,1.6012776850652735,1.6386110465130097,1.6058044918337855,1.6063680079957583,1.606695548043591,1.6007140858001616,1.6089710070179575,1.5871936291211302,1.5836556420944392,1.6029378611925298,1.5495440052790823,1.6023997272708725,1.5267197117720466,1.5304035116627546,1.5159968035692066,1.5242318378753679,1.5290647224506393,1.5788129995192506,1.5263914996299655,1.5088060012965667
1.5294278035454285,1.5121260683442512,1.5328307428417036,1.495622270009673,1.4890759845454102,1.527177832874143,1.5454101148368626,1.5383012374559077,1.5791930860959311,1.59774503343752,1.592073926056476,1.5857376635798757,1.5634733957018825,1.5322177455470005,1.5223708097633855,1.545065507017064,1.551225577987158,1.5520332995417268,1.5806481589448922,1.525476039969062,1.525523290945082,1.5525897507966635,1.496269525571868,1.4877157959803076,1.4537488885687269,1.4969053790991236,1.4585571952691299,1.4433328800037133,1.4686258957339406,1.510728587352758,1.5016577523937165,1.4963988739655285
1.5137536708900443,1.458893826411438,1.508750343662093,1.4484492444242103,1.5100311753601758,1.4307693322448192,1.5019987410096194,1.4914675820352943,1.5065822222291632,1.5456346945338977,1.6062983626548197,1.5014292602968833,1.500097971515173,1.5577577218873826,1.569771031208467,1.595309106598943,1.574420213767673,1.570675936921027,1.5457561786896903,1.5552504322939467,1.5416943768665579,1.5109461406859104,1.4905122746518598,1.5383396964220646,1.4551484757962971,1.480133171071425,1.445090627348609,1.4527644466117264,1.458849155776808,1.5001373679190022,1.491999832410478,1.483843792254539
1.5030897528954879,1.4711598685575324,1.5167322746689624,1.4563167193788322,1.5163384685476657,1.4727935481708576,1.4750442409371038,1.5208150269751102,1.52926265151556,1.5486062373360387,1.5550832974679543,1.5220411579501045,1.5045716824603852,1.516201936760525,1.5132085977370255,1.540426111361917,1.5323524979932128,1.5719212109391052,1.5394911326066345,1.5206072699786388,1.5084151214181485,1.4961334957502694,1.489007844087336,1.4744373388343919,1.3936798578560727,1.4720189507991617,1.4105496534651496,1.4117921988485764,1.3956780992997284,1.4474262738663035,1.495878002194395,1.4340149441146586
1.5239135158629527,1.4749545264982669,1.50234888430054,1.4550101032559015,1.4390931450154765,1.452600222864958,1.4760347559031541,1.4508384300746435,1.4703432439430477,1.5124603238259329,1.5165246647498143,1.4914160328371768,1.4103173272893048,1.4833869690434438,1.4680236893766965,1.4733736143898655,1.44200243603144,1.4977214174216835,1.4371496276195828,1.4377544659215375,1.4476932318243687,1.4395521814781058,1.4751303058632173,1.4632667480443304,1.4171972521001925,1.4863319252986507,1.4493913196357475,1.389498050164565,1.3943859882265182,1.4709917401923773,1.4691132157552604,1.4318014250026099
1.5195893262399605,1.4647196411592476,1.4709989619151946,1.4464112060633791,1.448477013963537,1.4230934524488583,1.4531927625114816,1.4364998324664906,1.4503671382668926,1.46493484330309,1.4885595986089992,1.4393662301033214,1.3892577080823194,1.432600537180919,1.4327934337914683,1.422385579491313,1.4102086736061754,1.4155322383716797,1.4410474050300037,1.4115613787588837,1.4333807939255963,1.417960736748284,1.460439361094963,1.4518740855055696,1.4495603086719666,1.4544962552935727,1.4676405049790844,1.3984310439275536,1.4076464440042584,1.433405625192352,1.454072941706476,1.4578621585337004
1.5115512752288924,1.4746744296087066,1.4990347693389066,1.444053236617229,1.4723989342500452,1.455331597033157,1.4797728540726576,1.4057884563457834,1.4643019804339688,1.4638536228626564,1.4893709904024592,1.4316446728178434,1.4064723836138922,1.4604501932798934,1.4747949107370102,1.4631025314207409,1.494738620359525,1.4367313784206546,1.4631143639676838,1.4501789568924486,1.459699811974481,1.434379330820457,1.4806167704853255,1.4661386070887699,1.4330829139551189,1.4632811551342249,1.4336771107732607,1.410522851712447,1.3854707651981368,1.4694161620831483,1.4852403882725547,1.494289756022454
1.506724021190816,1.4725516070565967,1.4507926987506612,1.4514689634032032,1.4969835606415502,1.39810348132664,1.3891898870489008,1.43915989210403,1.4178242110975796,1.380051777185921,1.4480697949144066,1.4115089691204836,1.3573694766413982,1.4298515075166394,1.4367920913473695,1.4459389324124245,1.4387565652075436,1.4369982084363635,1.4129504222393239,1.4276563046104556,1.4304342110518802,1.3977622183221297,1.441762012932729,1.431578991794469,1.414466852720606,1.4099216787943312,1.443994503669991,1.3988661968764606,1.407573871189135,1.4026986502693994,1.4703199977811732,1.4828519187947657
1.5130184343319169,1.4818277808768883,1.4516478528827828,1.4689462230735437,1.454730535547177,1.4154552766896318,1.4149494501250026,1.3917734970977906,1.4927251809267346,1.4741055132375138,1.4916979229154805,1.4491655702751296,1.432442039094942,1.465968779407953,1.4772643598032615,1.4562334182403682,1.4849245872000643,1.4651997678139876,1.4611918615173898,1.415172686580361,1.419600129851339,1.4551556222083704,1.493227703597492,1.4583159938361656,1.4464279040302186,1.4303168818380372,1.451355664383935,1.4278217523949215,1.4171976491451055,1.4221432826701044,1.480323981341029,1.4441401747415328
1.4965838281010362,1.4528992755720007,1.4247810929704374,1.452543981187973,1.514391789046445,1.3991039051599932,1.417095967009834,1.3836293411036038,1.3920159785312516,1.4003611640863671,1.4378287544793447,1.390977815631468,1.3900720460206402,1.4118159747533265,1.431084262175147,1.4240277483924415,1.4471311242815075,1.4258357364589038,1.4163336178344663,1.3937055159254201,1.3901239403961232,1.4277503857539795,1.4533533442744124,1.4347507342173782,1.4296639180409103,1.47391988807586,1.4547859034177248,1.375350578240771,1.4089074368268582,1.4295689028645007,1.4785784929238361,1.4630074310120296
1.443490362139048,1.4139535034270072,1.40538794649467,1.4022919739513895,1.4856238497101453,1.3765799891646116,1.4127728463421865,1.360781503661141,1.3966357828355143,1.4008501185106697,1.4367729744485263,1.3680080626608406,1.3488649434883904,1.381518969419745,1.4176696770046373,1.3902104413521732,1.424082238317175,1.3790781378723214,1.3770105952943148,1.3419405425346789,1.379245142318231,1.375848303048599,1.4455801047698005,1.3948741658702104,1.3958484435167724,1.4681592849445686,1.4478828952869018,1.3431527412861555,1.36588012479831,1.3920030645204096,1.4741794978353564,1.438101277270003
1.45998950489035,1.4256367002147188,1.414704455901592,1.417556375549623,1.5095947835370327,1.4236265811041056,1.373092053748954,1.406480983350645,1.513420065404273,1.3968221706237833,1.4204981489112138,1.4153011171275949,1.403399850966068,1.4002843861498575,1.4260714367251373,1.4019514485658633,1.4551184184827952,1.4689131257434334,1.4270991083280415,1.4131417265429187,1.413213953655204,1.447650649882605,1.4851003227547663,1.4584702234375877,1.443349751666785,1.4919768249434922,1.4732773622499375,1.3644212539659835,1.426715864603271,1.3814340118467394,1.4906753425704824,1.5160913165743615
1.4470094595612948,1.4147147617366214,1.4035443393889138,1.3634727275767404,1.4684224829941899,1.39526449971816,1.4057169799985356,1.383994032407472,1.5921736764671157,1.4071618465678182,1.4741557453161378,1.4787573566449561,1.437142092668212,1.4542676125812637,1.4854744493518364,1.4571223500443606,1.4839614758744348,1.4997917758742914,1.4512815802451602,1.4256413479033245,1.4287231241667764,1.4890667515988543,1.5201086248730065,1.4598873070309015,1.462000034794589,1.4774517858806289,1.4841379864797237,1.4207053282896929,1.4198741606082312,1.4151805343499309,1.4708005688177894,1.4725404506031536
1.5056445037159099,1.4502967435290859,1.4191808535640709,1.4185195538121913,1.4287686272861766,1.3755031662258304,1.3940013518646355,1.3906743225223135,1.582504227523455,1.3890226694576864,1.4697952434060855,1.4326026605968973,1.3915527956663496,1.4529100558191288,1.4833984885012923,1.4594760392091364,1.4903372476099344,1.4483201462418547,1.4244493405481289,1.4450700774815588,1.4099505338157232,1.4662187657548222,1.536975816196123,1.5158043465380633,1.5057084434609607,1.4835922521230642,1.5251264500812334,1.4916259687594209,1.4620698839870332,1.4746859588375993,1.4722364168616775,1.4686331405342001
1.4978693926954425,1.4843532894109817,1.4530132800161295,1.419638564504281,1.5170148684559763,1.426544610142094,1.4515710335846839,1.4284066670056705,1.5523516077335173,1.405067169090689,1.510347179218353,1.4984984373742891,1.3977445165389606,1.4726277240268555,1.5016418503521645,1.482948461393066,1.4913049240050553,1.4501948693967328,1.4529011783081502,1.4530883225845068,1.4273856424682747,1.4834950567933844,1.5259207068272045,1.5164399589614599,1.4914069780442827,1.5003576386226938,1.4963198467016026,1.488727937032634,1.4686928043485945,1.4774332137177757,1.5155434487897834,1.4614354799313545
1.4810757234855276,1.4664512579850175,1.4651023842518764,1.4277971261128355,1.5734233288171362,1.437175856790495,1.472520711288488,1.4428994912799238,1.6747538861280111,1.443357916222138,1.5403665290230557,1.561571751893825,1.4533153257542948,1.4992370274135134,1.5392134409142593,1.5167497807443264,1.5015586371177436,1.5282829685916466,1.5032377529263223,1.5074892653098535,1.4742119094801727,1.5383549718947764,1.5308280104511591,1.5588981148319274,1.5244022779745867,1.5774676075349405,1.545172373744776,1.5138668064022593,1.5148201770511414,1.4952245250445841,1.54347190039259,1.5102516744584198
1.5573935982191318,1.5208344002487941,1.5394495088190308,1.544283055938972,1.580691233445544,1.5121974471791715,1.5244359840388388,1.4872841776064116,1.6804921462829887,1.513328317036042,1.628848250298569,1.6172145895036873,1.5059617657468682,1.5619340794901588,1.5876778457202145,1.568964539502533,1.5377728983467625,1.5655790353874655,1.5425307456167903,1.5205862533559722,1.5077760719128497,1.618543528910441,1.5836481021951068,1.5911304045995756,1.5595786163731646,1.6089580256324898,1.5707309146421309,1.5514008032365643,1.5491506486249809,1.505507651625527,1.5774409738069723,1.562860393369027
1.6086862498771997,1.5862304109084793,1.593540102658771,1.591644700976416,1.5696182280067266,1.5492446809179823,1.5324164593279324,1.5075102751256553,1.6939659217982395,1.561427894635768,1.624490439578844,1.6103929079779735,1.485076404671881,1.5901204065389734,1.6325969697619311,1.6211228721493776,1.5927359310104774,1.6235024188842984,1.5196694040366154,1.5633523591476217,1.4787179855726706,1.5516942987986175,1.544157476273735,1.606221928533832,1.596147159866402,1.5929329398317835,1.6338508959584446,1.6071944505203652,1.6376121890495887,1.5806836230483854,1.598978581132574,1.5171002753241314
1.600423390918813,1.602472670583306,1.6135240170718912,1.566183893809291,1.525370059993786,1.5821203416948377,1.5522775311112,1.572325585947347,1.6199383443762585,1.5363821652694554,1.5906202546733368,1.570928976572887,1.484085658528349,1.5327496538886518,1.5639575495584328,1.5759092533529526,1.5387717025028378,1.5621856074472678,1.5160403788125814,1.5201377486134275,1.507903086428063,1.5949302147561941,1.532020579790612,1.545071045599544,1.5239426207150923,1.5296039624628754,1.5496037314837858,1.5509288868312865,1.5630617843250332,1.5409650821168497,1.5360559357260608,1.5591491869585543
1.6070982260418145,1.601728194808234,1.5795370591021767,1.5801527315748949,1.5666609673875485,1.5832736418895463,1.5231256678515874,1.5279491985644884,1.6626119401061206,1.5235289733687862,1.5486326607432002,1.5975025964840188,1.5255016780051118,1.542785222129862,1.559655793446556,1.5715461162639635,1.5808120865980242,1.583028849478478,1.5489399351144013,1.5528639945639888,1.542033099290528,1.5851548505801345,1.5594555541831479,1.547630272915875,1.532648693197747,1.5847293914046972,1.5750075955550964,1.5317718867825163,1.544954486640234,1.5007433520780442,1.5928168061520194,1.5166300155730017
1.610101555019327,1.601585287882296,1.5728388695931304,1.5826010314795886,1.5715892565072596,1.557662505515244,1.540488585689757,1.6047353459456466,1.6699204209608174,1.5708607311411162,1.603768323129866,1.5720023906474139,1.5416636614069985,1.5423359678838287,1.5616800914179993,1.5490490199165379,1.5415830961114532,1.5441367561582324,1.5219684944984697,1.5282943176145076,1.516928595274814,1.6039201802415644,1.5456678525481904,1.5652675241422505,1.5554415813296745,1.62183722055777,1.5609288198852207,1.5739249378577782,1.5654299152581446,1.569815711261502,1.6158125013784321,1.6057094286631497
1.6317049792049665,1.5884426650259071,1.567671784709095,1.5739843599834582,1.5894056685116316,1.5401577727560152,1.5579764077578766,1.537309263555629,1.5832550445918592,1.5486220003527666,1.6057006420446338,1.6211762321299703,1.5434525846825151,1.5997662665470185,1.5939815240308424,1.6350402825012822,1.6147525314767077,1.6318393365404864,1.5749735631471666,1.6036918560712519,1.5921979422774224,1.6282972541816711,1.624428531634338,1.636369746023367,1.6188459238099657,1.6647824955602606,1.6065868579722462,1.601211674260495,1.6106523256260281,1.6016481191855236,1.6428085211859602,1.5678063152695842
1.6873248129019203,1.6417155147710678,1.634637325496627,1.6191356220056607,1.6042903054381763,1.5914019456157191,1.6131716865586099,1.5841705211212402,1.5864020215526768,1.628866544668716,1.661538256372322,1.5822936120912243,1.5329173886462057,1.586010731857009,1.6156960457277962,1.6322165146596381,1.610904825943026,1.6490525169932497,1.5540288519022407,1.6125940993583228,1.5817905224722837,1.594035544847705,1.5770161046307982,1.6638090884215353,1.6646863668931144,1.6283416288649937,1.6319539183329246,1.6634627317926982,1.655643107649819,1.6590820063729848,1.6418162553682725,1.5987346249934988
1.5717496120075485,1.5315261443715775,1.502493914334175,1.5368868097397903,1.559026778495683,1.4946266438030817,1.4906984567791801,1.5118380364266606,1.5567926897892945,1.5553765722485096,1.5715027686323224,1.567720548717985,1.5773396113475888,1.5570145060324947,1.5699929878948278,1.577952739198846,1.6024611627013268,1.596033606340452,1.5576104705363767,1.5452170730003758,1.5592204028477137,1.6326833538224246,1.5703262269312226,1.5602661903443826,1.5695976377719234,1.609040319162379,1.5466743010484372,1.54082548369599,1.5471939510916193,1.525265903535694,1.591100877080643,1.5995976169230002
1.5896452130315057,1.5958833047037435,1.5344037587415797,1.5889674508036409,1.6190312948979364,1.536442799459714,1.4935888042337098,1.517140782505447,1.529791155640771,1.5713319315632148,1.5596919369372892,1.537211128737554,1.549694396675807,1.5257403236079854,1.5275070075899833,1.505176018252329,1.5435898245658537,1.5244641666975218,1.4945846222057828,1.485252486820113,1.5088818698495343,1.61197002095285,1.5209211934664957,1.5152651067137564,1.5588676705812818,1.6240284608408662,1.5773443926910016,1.5562405105518213,1.5758827468373575,1.5111849524960728,1.6807377708178823,1.5963146823736372
1.6245741576693362,1.607536963195396,1.4869550673067973,1.5781171437703914,1.6211832174659069,1.5022478816599067,1.471864441126944,1.5384157600547155,1.531152357212434,1.5461576528210936,1.5307877559929997,1.5337060510472857,1.5805222985031973,1.5387491714561148,1.5448636436186356,1.5619214415128189,1.5609356456141412,1.5885216998027947,1.5395548671647787,1.5586263005778818,1.5831806803454487,1.6384410714293705,1.5743214280660678,1.6012220713295315,1.6142751156431192,1.64703511861655,1.6117647617243358,1.5870551501156878,1.6071239732859386,1.5673171562882149,1.6968358851577459,1.601202088742125
1.5897511063411789,1.5883134503327454,1.4742398561750814,1.5529211976689385,1.6047151570302376,1.4696367868268856,1.4664722739792388,1.5344414822851793,1.525703028867019,1.5599136715358617,1.5457153709917644,1.5397808767381533,1.5198057597717427,1.5518921373195722,1.5669994318609672,1.5769624958738993,1.5759964700126774,1.5773344341715132,1.5080005100537683,1.564050659705003,1.5457530801697046,1.562080739973035,1.5300530258968765,1.5572815437345537,1.5556925656471878,1.5703758412067461,1.5521254311584054,1.515822217600311,1.541556327298499,1.5306981484539763,1.6726848287895462,1.5221409978873113
1.5465425276330285,1.5256744689627257,1.4249626153666877,1.4983646436697395,1.5312400888853586,1.4400017970577723,1.4661394858363581,1.5233996360325956,1.5525317190808512,1.6244868690119978,1.562323606227421,1.5205372831905697,1.5772047792898598,1.5251228230666034,1.533338404432132,1.525057083565567,1.5753953796998428,1.5280350220728438,1.4916052273808296,1.4931035321050306,1.4980091611159672,1.5068440037993063,1.4495680759943863,1.5054130839344904,1.502255302428375,1.6301241392743075,1.5387938386200282,1.4767123829896813,1.5233366377799102,1.4905584986235063,1.628609554655799,1.4985909425844792
1.476461018101393,1.495529999355429,1.4029960634605256,1.4789796678777687,1.4866592847286217,1.4168528348932912,1.3970364576902146,1.4635151547522147,1.5287484942859875,1.5833645829736098,1.5437060194559298,1.4969200089032615,1.5166148500373167,1.5422199173857543,1.5311175573963247,1.487549028365089,1.5068655768222752,1.462576765437898,1.4738674361007984,1.4419414849139183,1.4692423937415282,1.4373741767115729,1.377493743153235,1.4443945025735003,1.4252638011819094,1.500492935989956,1.4001398675353829,1.4242255954332788,1.4154479888587896,1.4099831741781559,1.5768019825860204,1.450767242033669
1.4611073455366221,1.4790750569838391,1.3839014639147957,1.4915190519491928,1.5262999449584356,1.384159393435801,1.3473229255922539,1.4806653882092489,1.491737781261008,1.579901841731132,1.519120829543924,1.4689729582246884,1.4733814479404295,1.5154757313357425,1.47942663477726,1.492505830057253,1.4852924839178208,1.4613061513386336,1.4385825846822724,1.417399318905549,1.478969288018027,1.4371085150586937,1.3596631691618861,1.446523742113174,1.4146764489916326,1.480635218625179,1.3964474420296058,1.4005181760353818,1.4292635417483002,1.4270109024390105,1.6295573451386716,1.4976307966333446
1.3964177848076171,1.391414439114319,1.3428720203314222,1.4002518467372966,1.471256552195196,1.333162850499663,1.3322993791491524,1.4477639625466936,1.4876463936423865,1.5370001683935888,1.5121786908435007,1.5083899565852918,1.4812852304425104,1.5495673371810184,1.52841325174856,1.5408847353925836,1.5028068007738695,1.4606860838103763,1.4502007259311402,1.4617728253098634,1.5156176227064386,1.4843217083671958,1.4051176292190675,1.452182952076812,1.4198699327754807,1.4427623169872814,1.3931649260981525,1.396872326902566,1.395201275241229,1.3978782844769166,1.5375939341217832,1.4639210406250405
1.440720005433981,1.4482287715712496,1.3937416297226557,1.4309804499113454,1.482105354434549,1.3842221995890283,1.407464774107144,1.461790140129668,1.4719884498031712,1.557812201221393,1.5274944801094266,1.5444990602012532,1.4973470928540473,1.522327434093054,1.5266672531674605,1.5192304214007815,1.5147904452965992,1.4743850132595524,1.4005263646417843,1.4274942884189676,1.455727175435769,1.426272483237338,1.3979074995770118,1.4108695813826984,1.3870048864037947,1.4464498509217878,1.3813070190738403,1.3617890087256201,1.3782796605353727,1.3931491280693606,1.5071885485932774,1.5203551600204555
1.3924624794888438,1.4255370441745638,1.3841763189512528,1.4310528424817683,1.4889892719614037,1.377061851420226,1.3473078407248813,1.43694199495319,1.4948678056718354,1.5272968960790676,1.5024019779653852,1.5378302492738822,1.5123665409309028,1.5208024821715855,1.521490850796246,1.473149774859708,1.4573714657634456,1.4002556767722347,1.414348969379326,1.401213720427484,1.4300037071488858,1.415429060920785,1.3494278189574973,1.3735540566294047,1.3195233085929692,1.4485762740381376,1.3499860711131833,1.3252833575888716,1.3456918090357166,1.3433678380663974,1.472634372087372,1.4585442005180733
1.4452638000589755,1.4385692941778612,1.4203172346514978,1.4185690271691176,1.4913289592925163,1.3704148050922542,1.396600014480952,1.4123569274501377,1.470946585741379,1.523185207893669,1.4797933573625357,1.520760973646284,1.469360473205333,1.480190012536996,1.480340107363314,1.4821692118171546,1.4641309519327195,1.4019132253679227,1.4248964802949013,1.3963630031498977,1.4349988256034167,1.4072357459233258,1.3741846436340757,1.3942285895079896,1.4777205180951118,1.4883666881806343,1.403219866140945,1.3796470847273885,1.4074896054826822,1.4062239460056958,1.5239149436285604,1.4672103651844273
1.4205254778720644,1.3933138865046726,1.3833748531088752,1.3890770375143584,1.511623275432125,1.3447193125731831,1.3479852665931775,1.4126364196105468,1.4837058005746484,1.4941065126715136,1.462608996592278,1.5058349877568329,1.4939530777949912,1.509966772895004,1.4938170590229911,1.518204506991876,1.5066942666154195,1.4418295209340615,1.4471861009821911,1.4540654391962475,1.4904878410140743,1.4117257903243743,1.3695216480087904,1.4294719483473026,1.3619716465937617,1.447135255676116,1.3695957509217793,1.364591582855916,1.3748481058398025,1.3817867834344955,1.5202151888580155,1.4587000333562623
1.3919061150707976,1.3771949113917736,1.416186476134041,1.382689641477184,1.472991621377841,1.3746834694581977,1.4046346909403815,1.4410050013129854,1.5511496818592656,1.5169154479160623,1.5128486351920236,1.5696124846659025,1.4970872383815166,1.528835908892503,1.5149957668152991,1.5466902448169084,1.5034646862172214,1.4356214830723155,1.4478529394117532,1.4258162372077405,1.4335195946061987,1.4259537207296753,1.308571635328896,1.3625753171822579,1.4003052457273555,1.365640877543895,1.3165563823276367,1.3087590492429921,1.318209475068758,1.3561190928225266,1.4597788321831187,1.4190537837865675
1.396778828026566,1.376222656851757,1.3968084195151764,1.3550502353742295,1.4096535080313877,1.363828703723806,1.41129179554159,1.3855829586974142,1.4684605153923547,1.50056658048491,1.513311369273012,1.572794812084969,1.4576252978423117,1.4777689588710763,1.4788029519376367,1.4826568038094117,1.4460172114921264,1.4114290838717347,1.397514177269931,1.4224643934969077,1.41315758867142,1.3746150999954652,1.3602757284904516,1.4051840614692646,1.429722626912404,1.422952741848635,1.358884235006226,1.3625399304420602,1.3580740174924861,1.3565256576718134,1.4377456989857311,1.3856126425434654
1.3570122968524034,1.36743801642815,1.3449283611099383,1.324717072146748,1.3811347040914361,1.3123536879664175,1.356015643076135,1.3469746058233572,1.4285525614673504,1.402751243501814,1.4140007436582949,1.482210683656397,1.4553545653746698,1.4184144742022726,1.410561113828804,1.4510287696630202,1.4303097898769617,1.4550573944919831,1.4270481919105682,1.4444455553857463,1.4416167422710457,1.4047080958926983,1.3620838551220542,1.4070140213309341,1.4318517110158024,1.3757578320982125,1.3172861753131673,1.3376943426701715,1.3187334119426921,1.3363785998668596,1.3611233123879396,1.3713427962976026
1.357861831418661,1.3234004305986227,1.2998576783241265,1.3185158189307165,1.3991256962286474,1.2889278939925828,1.3309823928044004,1.337233679307629,1.3988627542123926,1.3702685654468734,1.352238832865437,1.4315594549189337,1.404338104376336,1.367434533211552,1.37093819441049,1.4045742872877918,1.4012642830455346,1.4169693541519626,1.374428534330836,1.38171404691088,1.4263457381000655,1.3824391818177326,1.4232515510003607,1.416773877416174,1.3961375830376024,1.4324757742756873,1.3726063795680175,1.3671645878885474,1.367512435307789,1.3754534896553618,1.3923080839105206,1.3776064960177115
1.3969708965864338,1.365516339958253,1.357962985365205,1.3390195740276623,1.421166790832018,1.343678396441381,1.373771588033223,1.3771252083236984,1.451345904302194,1.3827012708202344,1.3933596781490227,1.4782240291316238,1.4556466429445745,1.4288596418695303,1.4239463237094383,1.4353953061132614,1.4749011378539731,1.4814747359950302,1.4328820314025823,1.4074527743016536,1.4212062303417874,1.3917227265972862,1.4042156017771972,1.4041575350687212,1.403047056095258,1.4085390331101664,1.383022114939628,1.3548271773580591,1.3679479075125496,1.363859135386255,1.3940052222059227,1.376503447672577
1.4237574323616349,1.3735040006878012,1.3855437485348685,1.352374439072088,1.3583673441564625,1.3756797532770886,1.4088765003251205,1.418530848400969,1.394663449262358,1.4133578284191362,1.4245834556737764,1.4732604329525574,1.4004113091112227,1.4122169555009492,1.4177082231945368,1.447144950837155,1.4426624467633045,1.4590603215061477,1.41930868181697,1.4171815013917928,1.4000070684055326,1.3936427569342207,1.4133996505573985,1.4357823417349673,1.4614454426886152,1.3881159353833679,1.3714769677590184,1.4045241814589773,1.385174319831829,1.3791695477458903,1.342968423953146,1.411238739293959
1.415186832351556,1.3586389745983425,1.3506789147917413,1.3057567976069062,1.3942987672121043,1.3368379140567195,1.3796222625510837,1.3749823565750905,1.4376421698416897,1.3984451322157212,1.4031198630485462,1.4803037588900128,1.4405203741531891,1.4147341458088125,1.4143759475527773,1.4416538192952915,1.4360382802131852,1.4726636066377987,1.4513485872679763,1.4282132174859161,1.4304088888030486,1.4409633721927202,1.4687571533923032,1.442223350541609,1.4689723831078574,1.4037369692094008,1.3656118252351572,1.3711808776340937,1.3661846796659296,1.3762036971969442,1.3678450974648442,1.3661933467779044
1.3951845292960379,1.3546549412425979,1.3420918343010955,1.3122789307284737,1.3263427011379467,1.353712985464235,1.389191752821033,1.4290234161400808,1.4001409596249053,1.4181154838766976,1.4053651258321698,1.4454733732311185,1.416167250476107,1.3861224647048098,1.3828601857720302,1.4185089776850595,1.4217577025224692,1.441871547831658,1.4387169929653154,1.4545043916193452,1.4573881387055068,1.4137233750269211,1.4431932097343183,1.439655992564335,1.50352437819565,1.385696406686122,1.3476390056124297,1.3973795920924814,1.3739634881403797,1.3681144502032758,1.3064399358826835,1.41081260502292
1.394101996288379,1.3597318486006875,1.3471543111043092,1.3331389916616772,1.3588590175821338,1.3500607511908564,1.3864697950901181,1.4393899948382118,1.402784033880802,1.4090153229043907,1.4078281421519603,1.4415356385350786,1.396908817934105,1.3997408685473682,1.4104022059155132,1.4057276714262745,1.4220634090831619,1.455212119216374,1.4084425506821858,1.4046336941797848,1.408386688071227,1.3832688824583883,1.3995308075330217,1.4012880436232846,1.379055415302094,1.4153406629781489,1.3698296391004088,1.3959866002865708,1.3768744435907614,1.3903928939909238,1.3567677260151092,1.438517637738628
1.4371144700169958,1.3795441120470637,1.3736629531778404,1.3552398927630134,1.3619048283610016,1.3684124880546056,1.401975084884204,1.4337199903000617,1.43392638224253,1.4064345818886015,1.4176068079879383,1.4573542376656556,1.4201235630488858,1.4039214287157458,1.4200073945233538,1.439712845110545,1.4516308779509588,1.4796920287746458,1.447280291193461,1.445572156056785,1.4370037687903388,1.412745200572606,1.4579751360606354,1.4686650980004516,1.4479813289756716,1.411954525977343,1.3906593509551648,1.4371099633792017,1.3961587816839582,1.3978582116309795,1.3720781919879868,1.4179211865420103
1.4711811526392147,1.4111944325695418,1.395306462940285,1.3998247475391832,1.381516460109212,1.4143573056620333,1.418227656963353,1.4580338451439547,1.4212408851510803,1.4195425170427318,1.4148344143356946,1.4839892467923785,1.4474278492811263,1.4212774792291685,1.427061256304185,1.434875887425012,1.4516209438979066,1.5018897229654649,1.4669509985329114,1.4316098219152473,1.4199201690591494,1.4607606844740513,1.4842678792296657,1.4351377283797766,1.4349673798973754,1.3982290055431428,1.3859160725770896,1.404771432686192,1.387973277208455,1.3935271013928194,1.3711925290092084,1.3938711315618777
1.413597524436367,1.3750313190228594,1.3556735550918033,1.3556753843621987,1.3813288867157472,1.3567294738537348,1.3821428195868875,1.4020068112584865,1.406965825755414,1.3828485456633417,1.389831773105902,1.3847038313420355,1.4114016052064196,1.3880120513744487,1.378602737227297,1.4276587794501703,1.4166289785809063,1.4562244571851182,1.4197664660197475,1.4234244067621542,1.4111749423790318,1.4367597898887816,1.4472010094943817,1.4079401554612418,1.384358002327124,1.4217211778685068,1.3602787610841178,1.3766204357356275,1.358127876825363,1.3648987497397607,1.3736485408166879,1.463446457875762
1.4252323238060047,1.3621584251130867,1.3863904290702438,1.385581689277587,1.3968847150364978,1.3932054694610108,1.3962178991138705,1.4349115544883495,1.4277673007148313,1.448279836721783,1.4340801813130035,1.4549990573236535,1.4492208877959938,1.430145330408042,1.3953342136092957,1.4405519662975796,1.442866112082377,1.479806355211926,1.4640848758739995,1.4520489240933352,1.4237840065865295,1.439530485865479,1.4246161064917775,1.4315198113734071,1.407339692273609,1.4250951166476278,1.3713793582764868,1.4156319495493976,1.387567225145053,1.414558941900783,1.4023753257095029,1.4503610073635207
1.4202312050101222,1.3767395322959597,1.349922000601935,1.3737203354567005,1.452604911627373,1.3577720468749024,1.3817070491472536,1.417640391313666,1.4743170858870567,1.4337466355990593,1.4323465033962097,1.4879549769812972,1.5030401091452945,1.4767106151012999,1.4668977761761346,1.5299748541081246,1.528717796983534,1.5248279966366776,1.4978836650187468,1.49856723523707,1.4458276405072847,1.4822266039129222,1.4970678757381746,1.4427159267428096,1.4425172499444465,1.512421006594802,1.4371988595815364,1.4723283732056955,1.424880255671038,1.465822225157089,1.453650699964192,1.5718248073134709
1.4206984150875148,1.3984072992951646,1.3889218438948523,1.3835627616379174,1.4868629991504094,1.3880347404104734,1.3908245316879282,1.4360744638407588,1.446179197619128,1.4254081776739536,1.429482435228362,1.473767527414502,1.4935743207388188,1.455426412908147,1.4253723154478053,1.4502295320886518,1.495806909635355,1.5279049342596482,1.5190449897885387,1.4871002684211432,1.4417946323844193,1.4814438652463542,1.486149382565483,1.4415585909306843,1.4130348434571771,1.4988996645611596,1.4262502471085583,1.4141383170771789,1.4050283694093044,1.434417703278173,1.4752295928894505,1.4990939685449336
1.399503475970735,1.3861558685976143,1.376231663000478,1.3818344486399778,1.5210965040871978,1.384136196667483,1.383612103155613,1.3881706767184803,1.4832112201633478,1.461863408614431,1.4317919896328986,1.5232034826938903,1.4975648748062893,1.4786733177023677,1.4960435217831696,1.5054332840997442,1.5126806675699485,1.5684176074210567,1.5134260085781535,1.5005721231938336,1.4659186265828412,1.4749664070056163,1.4835637688947236,1.4273636811597163,1.4055208812297957,1.484150231667919,1.4070771494365524,1.388097416144676,1.3760315883312622,1.4237851702687163,1.4889304743630662,1.4786266771461951
1.3741121852556037,1.3418151491631565,1.372151797929137,1.3479957841658854,1.4775306350465778,1.3652368287050423,1.4091568865006845,1.3721248705325881,1.4109296985644058,1.4198571677934104,1.4306196866230962,1.4285324140600426,1.4850342927911444,1.4521662515127702,1.431474269937017,1.4967849838859886,1.5094969394036355,1.5836650764695264,1.5427537189891927,1.5224514487281853,1.4768047587760067,1.4881340029398886,1.4783161971322538,1.4321123691936986,1.405899388945773,1.4509206603639189,1.3932975803801673,1.389017734528788,1.3714940770393176,1.4086688017975504,1.405687900076709,1.5283960055573922
1.4228959101457317,1.4016751819278668,1.4229398015365724,1.4020709114846637,1.5049802232004246,1.3909680654252696,1.4041434601011178,1.3788665199271515,1.4617243741671069,1.4345393647170435,1.4223680646255445,1.467182319600585,1.5097121283753958,1.4509023791947218,1.416933301662343,1.4978481105092913,1.498777008861813,1.5524062924290463,1.5071017846363584,1.4859112647386379,1.4483629826579563,1.5214431766448342,1.4961126488586458,1.4190942231678878,1.391528755694568,1.4998266741970592,1.3879722805168604,1.400245759602958,1.3748999776336095,1.4248493230604056,1.486945146744647,1.5174024543498237
1.4468414683895543,1.4469519256093748,1.421773468399555,1.3989094233271813,1.4978950682602983,1.4080946755644945,1.401714215808638,1.4004256974135858,1.4326098813003956,1.4526938786151316,1.4583206260040622,1.4737851690588164,1.4705122180731502,1.484121864003887,1.4777225630928377,1.5077753183574871,1.525055032963749,1.5672658643460002,1.4864068566440103,1.4974453009846753,1.4578345723001436,1.4632559943862329,1.5207632663727653,1.432772424003524,1.411404854434689,1.4855853877099277,1.4474436441404097,1.424260556896305,1.4387704542768933,1.462990542767947,1.4825174149965732,1.5177888719788022
1.4214660883339498,1.4609561659982448,1.4325746134006958,1.4264789745389423,1.5156114042746502,1.430421277852084,1.4211663543596962,1.4209707772919824,1.3785339325916723,1.4532760930388096,1.4245984767528126,1.5121402598376859,1.4491529686022,1.426675846014199,1.4407616288572953,1.4295780268714933,1.5066542171615016,1.4675809447408041,1.4183404482659494,1.3941486050126357,1.432961808787681,1.469462033782906,1.5028113816968036,1.4332034334902795,1.411145959220665,1.4902046396121387,1.4223898176284921,1.3964395863142984,1.4056616387307501,1.4256741832784894,1.4778888260526457,1.51031912471849
1.4213856702819128,1.3945976882084425,1.406952782331842,1.3579266675687092,1.4628216889756844,1.3754850680721278,1.4318105650899873,1.3853882619766338,1.3754409661965685,1.4582680359519373,1.4818429662605281,1.5038154915260658,1.4176516687485912,1.464753954534808,1.4797691293360464,1.4967592432425414,1.5443592424989958,1.5078807272527506,1.4502370510303682,1.4559747914082137,1.4633310970344258,1.4488518488362467,1.4934732215320423,1.460177471965854,1.4100875161643214,1.456571683573621,1.3929906979369842,1.4076563997368265,1.3687566029947762,1.39194972912708,1.3867077779001407,1.4724197823008918
1.3641830578926684,1.3854402673773636,1.4075984928428982,1.3534175888811617,1.3814028693783689,1.3819142295057762,1.3913198457912983,1.411714111420097,1.3591915946999396,1.4221616378296293,1.4193641209392944,1.4733733064992376,1.3982772683832632,1.4196485558807939,1.4144746267635797,1.4395466715447156,1.4515474467462608,1.4541701329449255,1.409725869260821,1.385403092697471,1.4239283882936415,1.4537218811543382,1.4876655287613458,1.4177008991756754,1.3945512200056445,1.4378865498980729,1.3710739715477125,1.3819998702005816,1.3427075259381944,1.3690480792944042,1.3616626015850084,1.4877949392435108
1.4196678107766343,1.3903389868848317,1.4365348934472901,1.382568944143042,1.37236537390407,1.402614944836621,1.4456923019427088,1.4118049410624458,1.3543352124431576,1.4247681121798286,1.466992778778191,1.4914585423248363,1.424745866333517,1.4374811870050601,1.4770047615878363,1.480903683874937,1.4858984280832912,1.4577816896397704,1.448071323651954,1.4332745965646867,1.4722735704890646,1.495237800468267,1.5255715711297326,1.4314061659312598,1.3945212358905885,1.399957975993037,1.3440917493280529,1.364257485782631,1.3375974681756935,1.3707297800413825,1.308290109557772,1.5147140780106587
1.3841089739680479,1.3799541640122177,1.4218245308914723,1.3618818611071128,1.3667329899364988,1.3859793655775121,1.4321800298904717,1.415460926503506,1.383790017972287,1.4592005839133653,1.4962701639917575,1.4891297602167048,1.4360366820664359,1.4661017839056876,1.4732924573883137,1.4510048729358394,1.5036717983439831,1.486710835070169,1.4634908342631194,1.4869815651694769,1.511332593279867,1.4867530237826359,1.511875393246502,1.440295596050882,1.3858579425133264,1.3971929164958272,1.3386995039978986,1.3584487923850994,1.3289078837506587,1.3497756775672112,1.324762680002809,1.4548522313910464
1.4395408556447635,1.4221089900768613,1.4472247586792102,1.4071436017429435,1.3879357029970283,1.4281068569560422,1.4855141742789764,1.4406711225397706,1.3107068081148605,1.4274186204421146,1.478221353271641,1.4736057132618232,1.3813531453249406,1.4036187984906323,1.4266230948971328,1.3910829882176838,1.4344946390712952,1.3776787595251232,1.3633756072143302,1.377962747532094,1.4163512413067205,1.3933150804742158,1.4561287450159144,1.4122717918494103,1.3774728899018303,1.3621280236049305,1.3190749135649855,1.3377842211600655,1.3222682973776378,1.322637757108192,1.3209709282025217,1.4543355775216686
1.4141686375018077,1.3930513597313892,1.432807551075373,1.3789271847382074,1.35436916764656,1.4151415757751646,1.4473595673814477,1.4648302631156396,1.3544515163618862,1.3819558609952913,1.4634529092991733,1.445383193412271,1.3781847748420084,1.4033372888568003,1.390102565611211,1.3902575734227554,1.421362061232519,1.3926571018378704,1.4013197965729873,1.4031718150106556,1.4203152970262434,1.445296107116523,1.4360368091305187,1.4266080576686593,1.355068541433757,1.336822768031244,1.302753389558496,1.3465509058723013,1.3011977300307316,1.3058095602079434,1.3052030083945811,1.428978590634459
1.3831126387103747,1.3800319598705415,1.4079950488790818,1.387449048059552,1.3608038765425359,1.3811026696951905,1.3938275437113408,1.4041041758998953,1.3183602057630708,1.3825915120017234,1.4248097736705065,1.4762056421350165,1.4102677495853486,1.4064371452531657,1.4120229793634291,1.4110783456955187,1.4552312228518434,1.417307842350093,1.4258424688378915,1.4091443203144467,1.4265373244832562,1.4586931339318767,1.4300303916273436,1.3859119745708695,1.3157637593608307,1.3248943367799462,1.2884101288078884,1.3086168274037107,1.2764830870910948,1.2917444932821758,1.2994481294562537,1.4312979199869615
1.3522989053081818,1.3330206261418611,1.3367120108452737,1.3659751535576918,1.3592110127016026,1.308614836224738,1.299279682060611,1.3635149888747178,1.3301254927408768,1.3866882499712925,1.399251374096273,1.481737824761523,1.401744004537993,1.4101990503158603,1.4185503660196799,1.4330412195658575,1.4536708760108292,1.412118223140286,1.4218861064479142,1.4112348474415637,1.4380518577262118,1.4274596946185478,1.4643468647409223,1.389661495745569,1.3284993776978207,1.3464467181487696,1.3236617468706604,1.3160203465440372,1.313386351992625,1.307953317223057,1.309341868920506,1.4143928590748114
1.3203186364382804,1.2992725674039234,1.323069858957669,1.3230196316218594,1.3316697990605901,1.309194658052836,1.3539523519387044,1.3874830126154292,1.326457527271137,1.381921866995876,1.3716593039178717,1.448058034387923,1.378821942044433,1.3428762429790944,1.352245798200642,1.3521476694611665,1.3811184487077506,1.372500640339606,1.416082989804846,1.3801769329855436,1.4610450407167328,1.4546191284142111,1.4684457558329822,1.373682096421282,1.3266032106961325,1.3463703411515011,1.2882078907247676,1.3024875879336888,1.2805291159554302,1.2934324245443396,1.2897012037136653,1.4434101670887007
1.3135754378045896,1.2997297171908724,1.305472322941316,1.3168361575649836,1.377496832679569,1.2740015924323351,1.309661489708592,1.393096596207916,1.3365239850164332,1.3571655997661904,1.3441537229195963,1.4108208089545138,1.3740748428125764,1.3800918871651213,1.3598248913281834,1.3903796237862798,1.3713935044558438,1.4357273217875708,1.3938668305161008,1.3746188841196885,1.3852418329275136,1.3436898473218617,1.3869898110603462,1.3244183524143527,1.3025451329760387,1.3678866592097458,1.295253063620623,1.2869650546099005,1.2788418476388435,1.267938752271964,1.2979118725883194,1.3631476522264685
1.3443630692273678,1.3309299204673999,1.3184637246957642,1.3554778118779418,1.3552380310625296,1.293904527769805,1.325305583459308,1.442113096944685,1.3318515906768493,1.3476292939961576,1.3649716792110171,1.4221459331875903,1.3584860574805835,1.3742135498638932,1.376887518334599,1.3784355862525646,1.39151515688492,1.3718898906127308,1.3855584169301152,1.3804275245545212,1.3840884998335041,1.3393867308496996,1.345651209233289,1.3370405576852458,1.2796207528142562,1.3536679223013524,1.2937096758399236,1.263713966461373,1.2842970904012465,1.2804618304614963,1.3252603759351105,1.3970411959681546
1.358042381131928,1.3483573830256894,1.3525862150093382,1.3831886850727615,1.4197779810162159,1.3351138273408985,1.3369439524437166,1.3560412540070985,1.3804320356273232,1.3617225716860781,1.3818706474685207,1.42381322706909,1.4034064503699022,1.4165325895106895,1.42928511865909,1.4624817491968314,1.484147400369135,1.4555580768219927,1.4297453905697985,1.4257419132591411,1.4353119435935213,1.3819386723610838,1.3947664754571558,1.3778327737184493,1.326394134000658,1.3621003842948702,1.3053882229198825,1.315970192806843,1.3053955019953418,1.3049309794456494,1.3576305955571288,1.3893049750868083
1.333240095835694,1.3295816346529714,1.305536125399973,1.354473537981961,1.440156522098831,1.284404289663716,1.2715356290011597,1.405328840795091,1.3415873189893075,1.3636863812395386,1.3346347501489761,1.4209827374580155,1.3347141180766182,1.348052952386176,1.356965802441445,1.3624592612515505,1.4030117953690868,1.3822808828539763,1.3862346649465678,1.3292840147691596,1.3581373785999122,1.3462674874130403,1.3771248107424001,1.3114667945958796,1.2844556548454906,1.4051588471763756,1.313292810132209,1.2702757470527444,1.2994350614785,1.2722807868965258,1.4104709948939103,1.4103565995300689
1.369562108182906,1.3954801039235354,1.3621829306832625,1.3979332754043559,1.4421468801189994,1.378905866040872,1.3318450002455184,1.4260594715296617,1.3383057442435145,1.3956559903569803,1.3567618572363032,1.4407928098686176,1.3209599299111836,1.3881698461208851,1.4071014000036437,1.4101360953230841,1.4499403477090125,1.4394031907988198,1.4068103714161897,1.4038245403713308,1.4075205012842262,1.3940751500353161,1.403815551797386,1.3497636718351607,1.3079033277147853,1.4134195303596837,1.3274762559605486,1.283053404943822,1.3011327879938028,1.3307658595845577,1.3852537801601985,1.4249074359032845
1.3862787559385013,1.3542509260312205,1.3137783381306567,1.3439503112992375,1.4346964700544076,1.2806623960665613,1.3235814043914824,1.4821170133546455,1.4599635220667877,1.4298680470994636,1.3761787930490776,1.4722757112662654,1.414109095396484,1.4006424841291978,1.3911682900586604,1.4222112058768104,1.4640083629812104,1.519258234582646,1.4663499047786726,1.4804277553236604,1.484989935053981,1.450406730392764,1.477580648815017,1.4298939295572417,1.378672712830613,1.46446338725609,1.3671631267158688,1.3657717762397636,1.3465774352700435,1.345577276264806,1.418514188033706,1.4069703705171053
1.3682502894825759,1.3409760936682344,1.3183134010183726,1.352129110736178,1.4080174083342825,1.2756609852711323,1.3004209168022867,1.3971111429226737,1.4396647346049203,1.4104965877400641,1.3847526913877162,1.4202660160140461,1.415500360557827,1.3929718918247442,1.4042285311986418,1.4523449942854187,1.471446513442144,1.480694682959166,1.4398707025510755,1.4821819950156931,1.4533298554859047,1.4302312855438832,1.4157900895347348,1.4083499783424085,1.3250314457882844,1.447307484843596,1.3383068017394921,1.285470569026938,1.3081636511840602,1.3191698940529712,1.4178947443354144,1.4444142150532984
1.4408218798741812,1.3868484515313955,1.3841999110590342,1.4008021660937422,1.4789892497296517,1.3629365718690913,1.359636318332477,1.4262150358537669,1.4426019479225516,1.4266227005183334,1.4279751062497144,1.4705375684286945,1.4210855285448507,1.3767665406560377,1.4216989382547434,1.4543920912582056,1.5063264001941232,1.5083029561071049,1.4718440475248606,1.5105302743487221,1.4899215234310565,1.4646046980797265,1.450721909562921,1.433365194224021,1.3798948039693635,1.4730959755004809,1.3892271718828295,1.353959369700486,1.364514390523264,1.3482586667381966,1.4648839826431173,1.4579937242624055
1.520682884837278,1.517855481280851,1.45487103823913,1.4887751760425172,1.531392893015136,1.481777957258025,1.4053690847408356,1.4726810451447065,1.4868009507144142,1.4935514595186459,1.4792579305791032,1.5427165603268564,1.5039971239350844,1.4907238437630277,1.519814028284646,1.5215812282424175,1.5563791041194306,1.5297085617262436,1.5155276151248778,1.529729474475296,1.524838685496739,1.5100269682419023,1.4733550091997003,1.4708386920661405,1.4382624848925045,1.4758477842003745,1.4550106871252055,1.4149484350588177,1.4517262498170176,1.4744340867543126,1.5029400627749303,1.468341463106926
1.5117107360968574,1.5183008255978532,1.4383618611910916,1.5029505068468019,1.53953755220894,1.4681252627148347,1.3911210532166087,1.506577913856212,1.500524816669401,1.5077872740605336,1.4675248154936105,1.5246066375011096,1.4532309868729292,1.4583595360811268,1.4709426852834573,1.4974681993434473,1.520925820669476,1.504906327794172,1.4973825836118753,1.5348371012861033,1.5247232973186862,1.4864929964782732,1.5075491500323424,1.4830537439793894,1.4404239168083386,1.48714415375521,1.4784039947606489,1.4239287846455428,1.4640780661689201,1.485351230468229,1.540937921517923,1.452333074963242
1.5319395919905179,1.480553198751054,1.5010113709650945,1.4811565083057814,1.4954102001401914,1.4581446045780246,1.411616898907798,1.4156273201238008,1.5132825192269235,1.513736597503164,1.533760559466931,1.5573304159318655,1.4893062365095902,1.5005719175533867,1.5480536916852614,1.5599760281425754,1.5771465223497105,1.5099204539679665,1.5153032662621226,1.572616660551146,1.5484765087258188,1.4880188698183416,1.4889553747381388,1.517475480908503,1.430454760802509,1.42471739713018,1.4242569240283605,1.434311740855899,1.4283545052305848,1.4896575052711865,1.4753598936177958,1.4101863927061402
1.559169938615212,1.5236538033033806,1.4984700568226508,1.5020356115027873,1.5391290521987806,1.4738968668170367,1.4155130700795027,1.4630319158516525,1.48169165452438,1.5029340139546914,1.5122771249148887,1.509152570287486,1.4421403842176088,1.4497112782380839,1.5019413660814158,1.4550512238143936,1.5239561928964747,1.4964309784363323,1.4974231222257048,1.544039391528447,1.5330715446446475,1.4999470423116454,1.51338230820525,1.5157047853768197,1.4366590455917763,1.486715726751152,1.46960825597651,1.4457610177322995,1.462040614758307,1.4926254949685143,1.513640079886618,1.44742841199863
1.5415894343938232,1.5249188845595032,1.4859665575311432,1.5570902937372129,1.467302141462358,1.509495144825696,1.4383911099753368,1.4426829005916948,1.4235956768729505,1.5209120173472404,1.467116505452413,1.5081222618810093,1.4880055175402143,1.4105436796405126,1.4661659435237007,1.4453888733567135,1.508157375391964,1.502558343944729,1.5245862377803938,1.533222846441384,1.5416024139354836,1.5081311389998713,1.4998594546285016,1.4993343287028549,1.4560550681218312,1.4560170146885605,1.4640772679737784,1.4501493037120274,1.4496025077682815,1.4945064487931126,1.4874830466629811,1.4649290934212447
1.5602623524320929,1.5648238169428446,1.4734435352057922,1.5558014119139518,1.5391196536510408,1.482445069966866,1.4271918809326916,1.455893470162219,1.4310661550537906,1.4653937009505105,1.4344814545421767,1.4447824109920953,1.4010452830160047,1.3705611269261255,1.418202688468,1.4003995904066284,1.4721164753916536,1.4687210773373263,1.4653510571934214,1.520973624225221,1.535414537887152,1.443175564929549,1.4892859945236798,1.5066874231563088,1.4607476420827115,1.4515161309446842,1.5016853271702402,1.4523490501468275,1.4678697763324586,1.5198215742772694,1.5335469849667471,1.372628316036645
1.535991062072255,1.4929844865291826,1.4778257882941424,1.5525315232695278,1.5065097125831861,1.4743175753635658,1.4252334586776556,1.465503688046314,1.462695755818427,1.5063524185808972,1.4692004126026479,1.488655674216092,1.4556229314747937,1.4113775432650888,1.4322347891020537,1.4309474325352562,1.475335567652033,1.4524731792957968,1.4807159123189348,1.5038085646264343,1.5043683191095127,1.4938773775882457,1.5170642475882832,1.467589377545711,1.4263329669385654,1.4636808979073765,1.4778212115017642,1.433586447988825,1.4588348921367622,1.4773246900066983,1.5559827398335724,1.4334403939476934
1.558852866738619,1.5380187864438075,1.5154726831834056,1.5762652489849869,1.5424615114974338,1.5287221689245987,1.4283647659596643,1.4782309753972667,1.4548420993335889,1.5242054014085247,1.4846132857858616,1.498135192562894,1.4147573006367484,1.3954821918062512,1.4425316463805775,1.3879057245128614,1.4679287359868656,1.43251763598879,1.478536818850893,1.4884317618377634,1.4922062782357808,1.4458701604974065,1.4659829605027064,1.4650254403710112,1.4126683348296403,1.4202564986751174,1.4409939731900945,1.436636324204557,1.4553629120951517,1.4965757411167027,1.5264481214397352,1.4050312833073073
1.5438762612337822,1.523693792723993,1.4921336169209067,1.5700862643846296,1.560521529052849,1.5274366975857514,1.436672189068264,1.5209567390108438,1.4420638589673243,1.56125343442323,1.4754023707858568,1.4925859089530507,1.3909433762048793,1.3971946500919732,1.430096409077268,1.3755138888787337,1.4015614683237991,1.432849117197446,1.4326061359086395,1.4447047456596185,1.4560018715313545,1.445823642317328,1.468259789740728,1.4660966383499139,1.4470207764207696,1.4803988796940273,1.4665214036840497,1.463254978253552,1.4655141612267166,1.4643290259915334,1.542805723450892,1.4517655122176747
1.4577139028425288,1.4647546690297286,1.4421493214966354,1.5056759533498763,1.527674592512586,1.437817551136184,1.356215247088283,1.470337294698227,1.406340690790165,1.4836834271979822,1.4128240677778852,1.4170871335094009,1.4205548751589923,1.3704762910904726,1.4019402565113177,1.3701954862489834,1.3705434018214557,1.4675875500421591,1.4545524316517475,1.4569429397584985,1.4754966076886795,1.4667938524270387,1.4752911822814312,1.4480770974118942,1.4119862074346659,1.4363954988161485,1.4292089452945294,1.4285364813687944,1.417395172070611,1.4148537559230554,1.4993762092460685,1.4140578256800023
1.4633731094796987,1.4571660436660843,1.4283358751883135,1.5047269513565737,1.6051039933619542,1.4634978623103738,1.3949049872952313,1.5008941405881786,1.4193267082232914,1.4776761080700636,1.4322099626973932,1.4045457951257478,1.3781500291702828,1.3958007424652903,1.3705348432401039,1.3574408670955351,1.3821705530025996,1.4010038537481357,1.397163568545215,1.418739310455637,1.4206537549961074,1.3931902284522364,1.4391956939797503,1.4049902272335077,1.3817330963358334,1.4403758310797656,1.412433258442813,1.3867648236898347,1.412279956994671,1.4245120363345036,1.5216856398264316,1.4255088890842582
1.4326145821125098,1.403072867034284,1.3867888292702075,1.4554096889596648,1.5674120826488933,1.4202288257773623,1.3602572272405484,1.5055233599228168,1.3885920301203405,1.4549519457624622,1.4034631267256097,1.4103130614327701,1.35802922801269,1.3581329959713964,1.3674148295144588,1.361271304189167,1.3355951349560111,1.404384194866474,1.4230194486537457,1.4117245596330736,1.4329957024961646,1.3705673123500428,1.4336400183903277,1.402485353723247,1.3755612581931702,1.4404212460601884,1.3891821392977102,1.3827732918175353,1.3825006618329683,1.3942576012456256,1.4877437355556948,1.427667215418038
1.406470376315027,1.3970104549443196,1.3825767314721749,1.421153951387023,1.4699037019269796,1.434343980075762,1.3674405962468055,1.492856487058023,1.3566894712405186,1.4610527205029453,1.382192830314557,1.4181736836848216,1.3492073436484608,1.3438466905516047,1.3701328582756385,1.352595801446207,1.3553718939694566,1.3861287806734692,1.405968227970028,1.4140766953851316,1.4146366786046507,1.3806438725687986,1.4306912155865876,1.4012358617610658,1.3670198076501536,1.427773297403205,1.3586066813918436,1.3811079219928886,1.3648006831600852,1.4026239811656538,1.408971579359485,1.4629486613753682
1.422143060474099,1.4090155570458696,1.3818237367347574,1.4323325474790205,1.4891504468179708,1.4155260033090056,1.3701089066414438,1.5050737934670642,1.3697210922055216,1.4853808056493512,1.411837426973002,1.3831529038877735,1.3539186895646622,1.3393384947718172,1.3622078112287195,1.3644822367481548,1.3517551562892045,1.3909067831694208,1.3923635270723111,1.4159753372987698,1.4073772484495248,1.3963784251757432,1.4010618800113388,1.397281528087951,1.362704279552039,1.401345150817818,1.3452163389954646,1.3659979917385259,1.3377223377370238,1.3465765178559483,1.4253505149888763,1.4347656787365801
1.4252053797356976,1.3490431414417492,1.3622765832596335,1.3678364657741966,1.4516021462502788,1.3524904272631226,1.3417339875851066,1.4781603809868291,1.3334294488434584,1.4584734913371795,1.386234469845888,1.343692898268889,1.3551445638884843,1.3273481531422076,1.3732444677128377,1.3729322194402642,1.3734406579756386,1.4299384000580313,1.3983861618425801,1.4263236340022152,1.3948414530474997,1.4045843945508383,1.4367286684768774,1.3853341268889003,1.3605844485756626,1.3900858169671277,1.344447508870464,1.3538862126354507,1.3334245565604528,1.3348518615603397,1.4005126171896412,1.4259967151751622
1.4500287084047416,1.3737251601802025,1.3438129783734087,1.4085584356521603,1.4783451959757665,1.351421349542906,1.3481490203475874,1.4501938475999703,1.4116644512561993,1.4246173101975657,1.3870274703582293,1.3756155294161885,1.4097971375463247,1.3830044326327684,1.3685191259914047,1.3828828647020743,1.396870579049624,1.4355485787788562,1.4223473058535991,1.451815501341216,1.4523961453851517,1.4566906994155033,1.4730934792188524,1.4309192549010643,1.3917585660773217,1.4064398638930238,1.3633701041670627,1.3877059794568738,1.3458387237339582,1.3788293759582975,1.4232829869457047,1.430478784252117
1.4406616787925257,1.366494204593267,1.3586158764716665,1.3857522470285764,1.4131043705583368,1.3571110097314723,1.350923757893482,1.442172395121844,1.353270344136875,1.4267782296126679,1.3969353379063083,1.4182476906671553,1.363778057692809,1.376313201777224,1.3861311942456516,1.3897893220070676,1.3788332092570976,1.379074168558932,1.3900604896275512,1.4275488871171298,1.4050073482249525,1.396532001405306,1.421175740306104,1.421318924471287,1.3723719027067114,1.4031082984357524,1.3443779462624441,1.3780216915495322,1.3374829039145026,1.374489478163177,1.4084554491237071,1.4147930785907943
1.4138364782975326,1.3942914945842828,1.338915741734999,1.4010489397914878,1.4490730410234989,1.3507578327091947,1.3401358313573477,1.4078726778754789,1.32860224014957,1.3865380032596843,1.3833992402758255,1.3832702888050894,1.3547682706618953,1.3591974883099864,1.3693600076184562,1.3966008031638302,1.3409747285783613,1.3785240904670435,1.3832868440746562,1.4071711628344319,1.4161757998473026,1.4294176643552923,1.447413048297225,1.454487622292492,1.4322690894148502,1.407417171132222,1.3988405372884107,1.4250098867619887,1.3885601258272702,1.4228178118987689,1.4106343964650458,1.4185734237484215
1.40352453864432,1.3661329033678193,1.3400532125557432,1.3691929531003264,1.3619494297610417,1.335974033637423,1.3443189539238563,1.3970623367406498,1.347883075842388,1.394954889989155,1.3847464267124792,1.3753474640966286,1.3679562718898242,1.3401061214473549,1.3618194037210065,1.4109651738190354,1.370125316882369,1.4095322896123073,1.4330975946033728,1.4054713173898823,1.4210349969868301,1.4471851493713965,1.426752280505468,1.4161988747377074,1.3866320296908028,1.353636167757862,1.3652384197930476,1.37557649784681,1.354670890268575,1.3230837597538665,1.3542863838941128,1.3665161670327663
1.458700588343502,1.3804752443361832,1.3643611043335646,1.4006832569005823,1.4285288334861368,1.3563212869426526,1.3221867983223452,1.3970880272447035,1.3676700233493944,1.3772356530039749,1.3753617413134829,1.3866803797266265,1.3808447536686237,1.3695289609723749,1.3900952792642216,1.401605214289638,1.4093525630213828,1.4318844297300621,1.421179522742833,1.4357035249483534,1.4443021855499794,1.4324476086060258,1.4167934974421768,1.4718907638319092,1.402502639155804,1.3695740383074904,1.372521560501426,1.3961802904889167,1.3590404925607484,1.3783966524951359,1.3725898924975346,1.356783759603828
1.467800793506928,1.3594244421946267,1.36637414387039,1.3762612289002696,1.4053728767932252,1.3685920925518402,1.3935810875699506,1.396471698833782,1.373008502083144,1.4002996150280882,1.4051210206539155,1.4062396228023386,1.3582299062088308,1.3786442476441592,1.3791081072697764,1.379636425452558,1.3847715349328824,1.3801069403713404,1.3932246152549326,1.4153915134675445,1.4177957950499938,1.4254159415199172,1.4425990624815663,1.5145023204135935,1.429986802212433,1.3715765549651773,1.3750031327027818,1.4309306423442516,1.3612881642438133,1.3811398705966214,1.380480176011354,1.3851982386978257
1.4547188858894555,1.386584292138271,1.3804775341233215,1.390196417899377,1.3943951880596537,1.3831601711748502,1.3731593929932147,1.410054813256196,1.3549831684622755,1.3772392179387698,1.4099596920414328,1.4033589038400363,1.3555136205900515,1.3844274135028485,1.4092072935692415,1.387241067634849,1.3856374557256639,1.3820418625574682,1.4037813243963062,1.4392662031753871,1.4591083900326405,1.4460417150629596,1.457966936182987,1.5215509995334262,1.4454241216643997,1.3675015388635419,1.3738198720645804,1.4415169048471153,1.3580296417782247,1.3863210158931758,1.3782138705637452,1.3754666784704908
1.4583911332759867,1.3786518701151762,1.3580493369346711,1.3871232133281877,1.3912380214070394,1.3546576743788545,1.343575576987153,1.417854047307843,1.37385897303726,1.4021963217705977,1.3778055867991847,1.3707047660418903,1.3677096650793952,1.3674941141446062,1.3552531200963485,1.4196747004011379,1.3892563380756564,1.4141336402510933,1.4451213495746462,1.4404874447545,1.4666753542496467,1.471128959755275,1.5065539195120434,1.5113908544219588,1.469683037999599,1.3916151239265762,1.4009548957816218,1.4380269499612075,1.3682064241487455,1.3829320100356999,1.3802926544420588,1.4202468114474684
1.5151045139982078,1.4229201412578436,1.3679605395741914,1.4561295311837072,1.4170662192741714,1.3796595608024462,1.3683704914120116,1.4222170806569179,1.4009322295090794,1.3811588181582561,1.381529268431773,1.41426505628758,1.4056355442040454,1.3941245330092475,1.3855225757856533,1.4394714713707566,1.4397680135208637,1.449432144269314,1.4843928534385167,1.4556764320869315,1.5065544054077495,1.4873668728557132,1.4886901202082048,1.5411985684576952,1.4877101052967303,1.3804315067466553,1.4038338488197935,1.4733599514929565,1.3904610953319616,1.4086635763198163,1.3853614916437238,1.4054851290908843
1.454975022308725,1.3914881663666543,1.3666143379090812,1.408552871299318,1.4162562765151672,1.3665740877268582,1.3563616321371537,1.4267930338549748,1.4108772598176564,1.3958127496087662,1.3823087202485387,1.4283824567229415,1.4217367040503912,1.4134597506828404,1.3825627178888384,1.4207064212530933,1.488468487514419,1.3970807005273038,1.4735249367837078,1.4658550233636956,1.4980813733951188,1.5193520921561754,1.4970451312092095,1.5539552027503991,1.4627070022531699,1.3925266393954754,1.3953524372761763,1.4413779106774542,1.3695936239539872,1.4047483624196944,1.3579094390488942,1.4177886221028466
1.5167137381068074,1.4764901297311457,1.4158804285214968,1.4958464998060899,1.4909494343264265,1.4612457921839992,1.4341008018200065,1.4631973594884256,1.421631048082887,1.4015122789761927,1.3983078074686648,1.4951329020490918,1.4707736563829306,1.4266144847056705,1.4229898383809179,1.45294203815043,1.5225697889004928,1.45937038513002,1.5065409155687457,1.5054778358339582,1.5332040921455434,1.5317670687290064,1.477076224804763,1.585058271653315,1.4843041715338285,1.3850130690679414,1.4000976731254804,1.4965799302138738,1.3904460039313986,1.419217386285891,1.4072169195708628,1.414853000648885
1.431396872513065,1.3999639081706392,1.3752610385046933,1.4216813615360315,1.4762365378224427,1.4346994287913748,1.4130606635598897,1.4620940806602156,1.3768488802873293,1.4083847440980035,1.4091010636567192,1.412295707120236,1.420595499219526,1.4161874322560903,1.425714799373178,1.4234389000121246,1.4905267473017232,1.4596423042877398,1.4710112343179762,1.4895309265171968,1.5168788375945974,1.5054475449199702,1.4828072645929473,1.5422798313473114,1.477788883107367,1.4060072032837552,1.4167770265988633,1.4444173780770535,1.4040813352316015,1.4013305476617905,1.380649805149329,1.4854143913582525
1.4676638467024847,1.3963638783990837,1.3436334607575635,1.4507841594875175,1.4800328924223145,1.3900150850168307,1.3017553606039751,1.4749399648268982,1.3618145326314508,1.3738234925562456,1.3629585877308823,1.4027309245176247,1.4057034888789464,1.3959783430655262,1.401722743598319,1.4038877407464885,1.4920771369675419,1.4909467957758757,1.4921352117933968,1.4984216009433344,1.530683262452631,1.5073592553094322,1.519065301914281,1.553089732327872,1.5219769480120742,1.425045676511308,1.4314217589598721,1.474053400399625,1.4150265598072578,1.4013272053126722,1.3999343921454486,1.4586110895022164
1.4586578226429636,1.4029763849803938,1.357389559186821,1.4713130357471975,1.5201860187862695,1.358838116665771,1.3514016936932842,1.4279334088098719,1.385694688677353,1.3940931471272926,1.38587422404296,1.4619769365448125,1.4108279953736782,1.4243209442830969,1.4263737412270256,1.4539354651536198,1.5257373202695645,1.5009001685527634,1.4469228626845019,1.4663895491998051,1.4963903017590496,1.4639525636304782,1.5039756339125754,1.5007513276203903,1.507301861289912,1.5246364006112216,1.4742868766602961,1.4472335553808207,1.4525092608290782,1.4293338223220182,1.4490209805301397,1.5012926521607846
1.4133183796206803,1.3539352481906664,1.3528650105706963,1.4052347729710906,1.4559671461375814,1.374434205654606,1.3314209143606428,1.422889599085425,1.4113533586039366,1.3590680546746479,1.3307033855374852,1.4292700944115155,1.4350511711673881,1.3965317766945897,1.3425862345286645,1.4205976783507286,1.501767755446198,1.4608192636170156,1.4741524583545622,1.4892339601799771,1.5012739096640069,1.4815700357753256,1.5394644855666906,1.5287386685910682,1.5190574254368852,1.4923458762058688,1.4462252703977383,1.4791655570797082,1.4095061806177687,1.43258226822218,1.3676690866720687,1.4874838930073482
1.4563516651010886,1.4148383929864428,1.3923133112562316,1.4456808393202645,1.5250655690117156,1.437131005239018,1.395744813670252,1.4322483590010522,1.3696932286201482,1.3933304663367976,1.3690376173327554,1.4203839827037161,1.3935369788969842,1.3604623936348317,1.3511155075164678,1.395658662666948,1.4410294007390763,1.4245041225501613,1.3882832055983638,1.4511160431372838,1.458742870354663,1.4438981603172447,1.5073343615694417,1.5327402109225277,1.531040618073477,1.4823106576334848,1.4782342852354522,1.5120545003735069,1.436519985949316,1.448618830175629,1.4284436369186002,1.507116211129832
1.4722564851867608,1.4169180547762263,1.4006494697722032,1.4529611988460327,1.5144821923823002,1.4432357305900831,1.4118782405682668,1.4569424299148064,1.4048652737276657,1.3847857519628666,1.4252266100862714,1.4557109236606527,1.423764969028095,1.4180801397286178,1.4101331368516874,1.429077895142095,1.5015761471414433,1.49960549793109,1.4708526987799657,1.4988082877775695,1.5081699296269686,1.510345664223304,1.5267355892148469,1.54047877979696,1.5619069843177844,1.4982447938759769,1.5163996927763923,1.5227262870591873,1.5030727972722426,1.4488893580753386,1.4564990236017565,1.5332908920932062
1.4158538546619626,1.3372734048192305,1.3589680199770025,1.3869205424662205,1.502947506012058,1.3410948300418388,1.3595254486181076,1.4236720848180917,1.4175715954343535,1.3969649630128251,1.3867144773512425,1.4508116792953714,1.3988328931902074,1.3841759300489593,1.4317944491428345,1.4014626862135253,1.4835785790229614,1.4943825200829408,1.419203295974959,1.4552130237495924,1.4581633838329857,1.4622939046399321,1.482831852049728,1.4635893710357433,1.4743158103266303,1.5196460981545465,1.5061093806893073,1.427823901994709,1.4842509891490505,1.402909621199359,1.4622902325278906,1.4972649568572012
1.4468421281653805,1.3918169307429753,1.4103196271360854,1.4226288273036412,1.487040848222055,1.4098091537105018,1.4076954781538484,1.3749039639781047,1.431991004032898,1.3561637146487286,1.4405566892233803,1.43820166349172,1.4075896942414015,1.4123637069793413,1.4284656875190234,1.4322429908690495,1.4264157432084346,1.4886174698060164,1.4034438238934004,1.481190654539842,1.4845559438414608,1.4582950527743541,1.5120852885602285,1.4820882726187552,1.4892504691141266,1.5829455428504737,1.4953242839067815,1.4619412765271544,1.4801515651242971,1.4749369451795946,1.4913112980412642,1.5197789434121718
1.4840603584050764,1.4396507825347713,1.4364210956793975,1.4519631441264038,1.4570200274659908,1.4336670115285204,1.4137576459647367,1.4369149980096778,1.439109512704398,1.4019868775178943,1.4138799311770092,1.483381006509635,1.4195709297480767,1.4218150383529056,1.4183766914674982,1.42513640354241,1.4330932071156715,1.5182578019384476,1.410573605391378,1.4266367790284038,1.418540126738506,1.4034263750984732,1.4636998503576708,1.4833269184082463,1.4927199226374148,1.4998943845574255,1.496429444166665,1.476752124215034,1.4840225362556851,1.4615951179410078,1.4867339609563146,1.4457266592989768
1.4991010618088136,1.4181740277229709,1.4349474688281547,1.4754672584323931,1.5039716104593088,1.4385602926625252,1.4464409298814696,1.4380874443775518,1.4237789707976771,1.3912796997011438,1.4395332646583276,1.4716623720302013,1.4122916492711755,1.4031002092445142,1.3939251866685913,1.407555182246419,1.405880227475789,1.481712729148211,1.3983854450400859,1.4620264990267824,1.4823077339154118,1.4481512654898254,1.4864642111242974,1.5081065095478727,1.5375951626112112,1.5026102099774936,1.5076439903474768,1.5020795084112888,1.5000047634691098,1.455785881091254,1.4706964347888292,1.5121100788954935
1.4738866516962812,1.4273190550876989,1.4241221696882134,1.467526376465739,1.5769233465168782,1.4228670319998822,1.410736151876465,1.4417398777334816,1.4138064039385465,1.3834311730622588,1.4062338155003045,1.4762435125135882,1.3795577604934477,1.3956070740313982,1.4019131623068315,1.4193981386253085,1.4384075494699007,1.45236718057568,1.3702064865494148,1.4111817785963494,1.4325110786353024,1.4498043596494454,1.4409135798409336,1.461192306608515,1.4830508218912164,1.4469228510035783,1.4846851041433715,1.4771211568636018,1.479676502039906,1.476478448902257,1.5029478233457656,1.4627805166591652
1.5347887995446126,1.4816980321185258,1.4737640024708838,1.4934633716380057,1.5209327753140873,1.4438613806629867,1.4487229643103003,1.4088555135751815,1.4641057005082538,1.3608569487203315,1.4092276294871011,1.4277196240125352,1.4312961909982125,1.403017406901205,1.4070712217325363,1.422308158265614,1.4272409053942843,1.4731564533937622,1.359888441453527,1.424651590011571,1.4311520775219513,1.412314658378509,1.4462305864029485,1.4668848458748602,1.5263223573858535,1.5095993684910465,1.5382573218076072,1.4998537807306278,1.5455502229124547,1.4892685362407492,1.575203427752299,1.45430713312317
1.4728160938483963,1.4231318146515255,1.393332221969373,1.4129210398321304,1.4982265654835905,1.3697705522409542,1.3556098695517713,1.383641114194468,1.3696642167030904,1.3304980982350063,1.3734783831487642,1.3727861391745226,1.355274771328189,1.3398135109010554,1.3526589725125466,1.3534871207559034,1.3722342930601084,1.4091200212064985,1.3353557431264345,1.3575045653222195,1.3649239151859769,1.3648884141447777,1.4485287678636065,1.386874647062677,1.4677829283069368,1.5299279078746653,1.53514005609279,1.4763154810285475,1.5261218161686843,1.521820457279414,1.5469451135030874,1.476879360875428
1.4693009065363902,1.421986187627499,1.4551942244019105,1.4053279848227462,1.43333889005394,1.4184947986214065,1.4340881693994914,1.4251965180628032,1.4306312102425207,1.3784420629649101,1.3845020282222038,1.438902666772466,1.4320857818689978,1.4088389075924703,1.3921228661060592,1.3693126863405722,1.4210269414451755,1.4818198859405416,1.4020963135957092,1.4013580950267148,1.4201954988733387,1.40801981989045,1.4583854970973642,1.4653031615716832,1.4806707989860532,1.4956710885012579,1.470589537439249,1.4580233837673537,1.4756803797800808,1.4842748066112206,1.4931265482603573,1.5482945702663726
1.4432389245333987,1.4384581089537978,1.413683404485284,1.4383742670788373,1.5021588265938162,1.4180265370003424,1.3832350572290184,1.458757925057446,1.3619814946338764,1.3855065737604304,1.3730394334214766,1.3869414042497743,1.3201761451964158,1.3567818485350887,1.347844682797438,1.347639075088623,1.3672131403036336,1.3978119740814432,1.3249309530947606,1.3353297939229107,1.3504948120839189,1.3381792786986688,1.3747205254634642,1.3459825965515246,1.377322806552885,1.378279364123017,1.4075350118454333,1.373892641488497,1.3802287975126808,1.3871151953217045,1.480193493782877,1.5042945203702542
