Fp1,AF3,F7,F3,FC1,FC5,T7,C3,CP1,CP5,P7,P3,Pz,PO3,O1,Oz,O2,PO4,P4,P8,CP6,CP2,C4,T8,FC6,FC2,F4,F8,AF4,Fp2,Fz,Cz
0.4788757075141495,0.3821007024911716,0.3280169388914115,0.3786444392450768,0.43462002010936596,0.32726929600743637,0.37023767490103715,0.39774718516562363,0.4683350302833765,0.45994639247179575,0.47539967012236606,0.44954597813488245,0.39477729480155915,0.33171797742867737,0.436487327456049,0.4757021536738658,0.49199058341892865,0.48219811649683814,0.38099462919459703,0.4596849224869813,0.3737666642961403,0.3966798992432189,0.32647007302945685,0.352382680396973,0.2258734791310033,0.32257126849893103,0.2773770784472266,0.2253179529614347,0.27881189962719055,0.2767585234642619,0.45355123990694995,0.3448492981808123
0.476951507845758,0.3653727204326958,0.3263624316859309,0.3676890269461953,0.386086623586443,0.31701737625129495,0.4023894049884057,0.4502838065199864,0.4676202799582639,0.493835297435581,0.4949899329472619,0.46280490570125743,0.40084965899741154,0.3692133164410929,0.48105708527231733,0.4998773104810355,0.49251464269985756,0.48056460526780037,0.3972839524330021,0.4869393831926781,0.4221518541422758,0.44130079808830963,0.34675641238238175,0.4046289950294643,0.2881759840956684,0.3663854593653782,0.29687257996524413,0.22471842780925066,0.26543809016010694,0.28126315683689745,0.4600944194286607,0.4179157456710299
0.4382552013353884,0.31752923581259046,0.2760574564775554,0.319608836147741,0.36224969852230593,0.29421750241695305,0.37578155483812425,0.4811298594617116,0.4188165214648428,0.49018359696910535,0.42621881893589064,0.39637300484316385,0.363001557330393,0.40500435670804497,0.4952214866328649,0.48578394249175944,0.4677224308923891,0.4645134749313204,0.3961672540652733,0.48118418890584924,0.4194992618700569,0.411771207922021,0.34592423529819616,0.37402023329969597,0.2695563169023472,0.30739140608873133,0.2661298379611216,0.20488807623617508,0.22433580585033489,0.2090343069685816,0.3696283887297593,0.3768898567154405
0.4087156277728049,0.34180381765057444,0.24510913971796872,0.3258194532401303,0.3776851557443046,0.2703093751050036,0.3471442019378613,0.41691365001291597,0.43680037540268557,0.45056499285649243,0.41871191229547894,0.38191712402844297,0.3474142675474655,0.3846366372431547,0.4955328680942167,0.4758457966418459,0.4838788775706851,0.45737518376670505,0.3787591278156082,0.46928046463966766,0.4025295130471469,0.37987454667692283,0.35962103165985204,0.3449990998688373,0.2493276207528034,0.28059607098949235,0.23830003622386495,0.185857767866223,0.19690629416742414,0.17346314885780542,0.3222541722144308,0.3337830430584283
0.443027237256488,0.4909972127053979,0.42662445857638714,0.4718809320552308,0.43512114387420847,0.4140634917921676,0.4861092051433222,0.46369500689070314,0.459154087983947,0.4917244454603188,0.46771306345434815,0.4627539941914175,0.4209705747901298,0.4550272772935032,0.5193328690378867,0.4988206120338761,0.5125209156791959,0.49029164808111436,0.4574131909749028,0.4564697625599362,0.42493017867646954,0.444849683486868,0.46219812293790336,0.4290788460573986,0.34348635040674974,0.4250698287756821,0.36348940539263624,0.2862214953729554,0.3120172820972215,0.2814644506355425,0.39827031642509325,0.43653156639941787
0.4925321606131254,0.48498617753866,0.4544740432756441,0.4805325819558071,0.4631789271363668,0.4176904666362298,0.49571801675320476,0.4253715178636402,0.44037877047029916,0.4505800105913056,0.47447755072228104,0.46048864286679386,0.45694399019959336,0.4793329815774439,0.5153063585429968,0.5150008396427941,0.5032415614731642,0.48612964241971135,0.46201137436300743,0.44935416033523434,0.4559397374302189,0.48818519347996686,0.4694914234929484,0.4492993699876993,0.3759907884970064,0.4387437938109847,0.3681066184311129,0.3154024844620988,0.34328302992155374,0.2948685030953824,0.410196562598886,0.465783584611777
0.46574806793339846,0.4429897972850283,0.46051911580326577,0.4668667118449551,0.44259963339785935,0.3902366621456312,0.4801057390526544,0.4055504216354556,0.4294757287726892,0.4231292681290297,0.45040763166292186,0.43206910157718315,0.44951890421292484,0.46552560783429225,0.5015517363934494,0.496954424104466,0.47607134301786436,0.45217138950415475,0.4258666285988439,0.4245895252174279,0.4498044975746288,0.47684812856788383,0.4718132456186414,0.45250054936075623,0.43486156407904264,0.41631851703864503,0.3915472193020131,0.36489144091821063,0.3791366235976037,0.3349978305533082,0.4252562286593313,0.4302233681598172
0.3980848697075545,0.4090177180249937,0.4630093569476155,0.4214946411116875,0.3955824365757189,0.3962938480235006,0.48082345357801914,0.4596032923112873,0.4188504738530583,0.4497260603461446,0.42496295216764857,0.4427004111137489,0.44205066085184413,0.473648335372012,0.4610146604859577,0.46935527955405143,0.4566762232277664,0.43510510183239354,0.40305898670271567,0.4024133929631589,0.40287270793269725,0.43301610905401755,0.45223626141966206,0.40851099924002193,0.4018891001239948,0.4313186260457496,0.4098901094062318,0.37774833168743716,0.4170674650088444,0.34847317560766905,0.40742156496588283,0.4097936881483514
0.4278563581488415,0.43979184716307856,0.49276060588568527,0.45143017008581093,0.3709092395623459,0.40681832330357853,0.46628770168357264,0.49179209668119034,0.4362531021244751,0.47776916655594326,0.4339680702073537,0.4544991378287632,0.4459562112456193,0.4538942961902734,0.44501704534410264,0.4613056646525188,0.4373992279648188,0.4071380304688778,0.4074338794844427,0.3991744291660282,0.3922938132200151,0.4186290756827554,0.42562026151008936,0.40366993172117455,0.3893954137739941,0.4447718933252876,0.42583962044302615,0.38786983056510943,0.42786744567770596,0.42299043286488686,0.43162787839351685,0.4023685358883939
0.46228254953237813,0.444024373118734,0.4710008356316025,0.45018910683335567,0.4176165887403744,0.4091005563105888,0.45750057835837576,0.476198402650843,0.4634933861864966,0.4630979327246592,0.4375677645885485,0.45923432030726025,0.44735119751003893,0.44447698171372046,0.44112172324868915,0.42879983969249635,0.4200335084396208,0.3941385174996831,0.40866907021437526,0.3850833222076416,0.3911902052587978,0.42081165238315515,0.4346106676954857,0.3946704197441451,0.4197683417176607,0.452903583376397,0.46050182857397015,0.4083145848348863,0.41641721712409946,0.4694290285987862,0.44573568782256545,0.40742011947112555
0.4280224540759536,0.44844417989697494,0.45452021785779073,0.4254618463885616,0.426020628925274,0.39131284787861575,0.46972717752883864,0.4580306756861279,0.4631248267148615,0.4522160535693869,0.45853007642524957,0.4618908481538265,0.4635108930770563,0.45399758026903997,0.47556191899708616,0.45669359403255444,0.46782699965977836,0.4314108648671251,0.46049224630688096,0.4464617850590028,0.44678389581419437,0.41557756395358997,0.46250923862733184,0.396593184400116,0.41159862463709246,0.4503350586478243,0.4060634270808396,0.3918255436842525,0.37885286997096695,0.44811603257047317,0.38328473142253816,0.4169685048415086
0.39041381576128414,0.43384712325045083,0.40421539961241654,0.38825243283144517,0.4319200079164451,0.3559652786583523,0.4445621332152445,0.4441465263426453,0.4614297359557711,0.48305342094992226,0.4574286889852457,0.44770947962836793,0.47289114306191854,0.4557969721190548,0.4925851778831539,0.4912976112463755,0.48845446235066164,0.44610126246810744,0.4735653469529684,0.47599797407917854,0.4621084051698514,0.42439018669717,0.45140598600370946,0.42537938270639186,0.4056113627949723,0.42984124436272875,0.38536661580643333,0.37292022728322105,0.3833535876509905,0.4407881746414763,0.3818598411988111,0.40124498006939874
0.39296959564189354,0.395471849096934,0.3302088212387696,0.384459139686144,0.39911105234760447,0.3461793703117859,0.37662123478306825,0.41409636250584864,0.3969102157718876,0.4787509421146155,0.40597124267137197,0.41137017444248997,0.4426464261756637,0.40170246751801925,0.4396897478239436,0.4512857295668388,0.44813489115451965,0.427717690939548,0.4214740167673817,0.4374754930308721,0.4077066088697496,0.4155813156129126,0.41745430605411193,0.4253419871445408,0.40440213625102145,0.39491254862007685,0.36679348128092937,0.3734259111101511,0.3786536762041311,0.3798304962227649,0.3676681852573381,0.3874958894365868
0.41066484990503827,0.3904220664979041,0.36582854096951606,0.3998100297090554,0.32983665065311063,0.3444277061150964,0.3711494416702209,0.42858133796856235,0.37347307700668175,0.481636969948521,0.3861864215785339,0.39729238151108637,0.379769491539799,0.38122930823928564,0.40958403803506827,0.40964820313166345,0.4006125693394173,0.39672973615413604,0.396733406611457,0.4153031417832118,0.3954413105362923,0.38196354818444295,0.4044512148509476,0.40760001869912804,0.39822320431395575,0.39238077310758307,0.3705737183018517,0.3840516803390002,0.36425350555404307,0.3602623603231415,0.3568547208834454,0.3684603404895718
0.4106595599269704,0.41327961240818406,0.43117052385084353,0.3963678369545774,0.3452642277897632,0.33592379043956927,0.41218188021209196,0.4494685275422187,0.4226589425788475,0.513863558127991,0.4158979754817335,0.403549623230767,0.2602418391687344,0.3186617924346223,0.39505834709787346,0.40708467359051365,0.3792119641876793,0.37997141511418114,0.39920055934339166,0.4329408239960812,0.4313644025025632,0.3764164860584261,0.4158616986798151,0.4573088560449923,0.4146709236480516,0.4435228103736976,0.4159671336296777,0.42758444195007195,0.4355466752003813,0.397201257726586,0.44707839245854414,0.3859788130656507
0.39317918266366836,0.41749315751048593,0.4342126149104015,0.41866235928924683,0.4051106544564184,0.3399352302305851,0.44238497763539464,0.4167610454604602,0.3485484615616281,0.5110350741271397,0.466638707735927,0.4075653601618601,0.23644731839726105,0.26954479172197604,0.3954333608724877,0.4384004890663953,0.4011747995134043,0.4162728684428906,0.4512613364219436,0.4850029380293592,0.48004541718140714,0.3670683286440051,0.4179929640194323,0.48831769637289735,0.39390450747517525,0.4410776842611302,0.35921895725798964,0.350449504702365,0.3424228198560213,0.2909250090116609,0.409418403823386,0.4095235927589446
0.3913409453259593,0.3539694425258704,0.42338856623556814,0.3998659035040082,0.4084499772085889,0.3757032160271275,0.45888781239753923,0.3881619326984649,0.3037236979268508,0.4816501873582803,0.4351412158524067,0.43598055594488433,0.2605527977888546,0.2942748097388491,0.3896974116943516,0.4251221742545305,0.428577524545553,0.4319064817016972,0.46564807491371624,0.4798357571842915,0.46941386902627913,0.3826863992225109,0.4326269513006238,0.46609334070748587,0.40289559000682634,0.4199393486896941,0.350699986982836,0.35029500988329676,0.31458829471543265,0.2698602163209294,0.35509568797972296,0.38646278823247626
0.42234428812573804,0.3864752348953042,0.4362425651880368,0.44559333174099935,0.4127329337665454,0.4168337470577636,0.4639775114784541,0.41415702048892183,0.3727169561412988,0.485328830732346,0.4474196553491509,0.4482397283884866,0.32161593166575725,0.37536314921336467,0.4447344186671194,0.48211096946374177,0.51596846446494,0.4736347223402904,0.4837406145123388,0.4884236981651243,0.4489996175751983,0.45248151496580635,0.4313859906016966,0.4379085482206517,0.4288511615996767,0.4114350191626888,0.36736669696152097,0.39554725700618404,0.3924181319311584,0.2793628239838857,0.39125518958348426,0.40654273918040384
0.462856000744938,0.47650357785991493,0.45757462450006053,0.45354144702216814,0.46341066291044863,0.42581509796240985,0.46912177090886614,0.4632972242172897,0.42962217429933236,0.4910166567136619,0.4673529495116162,0.45430914475447953,0.4341575083734309,0.37708743165944464,0.4411738145796023,0.4896382567015327,0.5196992972882672,0.48922209048638526,0.49661439921138284,0.5041696577932169,0.48723441005196344,0.45597336873769756,0.41813992578903325,0.4799509467940969,0.4403978698897422,0.41886757205711156,0.38047858674840707,0.4225042395616809,0.42798958517319363,0.29134841333899036,0.4262409545337344,0.4553456382624009
0.4649893243309894,0.46277197186434027,0.46269551850447604,0.43563756561963063,0.47521653281140047,0.39934284727440694,0.4310217702404789,0.42731055544950375,0.3746132556924024,0.4935037759771515,0.46200919746958286,0.43989045370551016,0.4280754380844691,0.3694503827614571,0.44189647208813493,0.4477369131271489,0.44871479210645565,0.45206777112628527,0.45061084025792597,0.45740747804488896,0.48349739956493054,0.4085807894462534,0.4285360001239463,0.4955724171188869,0.46603785435086315,0.4495424530359452,0.46826414646019876,0.4169830139855042,0.44593852855779076,0.33839144204961746,0.4529348068804581,0.40305649134720567
0.4155659538487107,0.43962327332082585,0.4077118099115775,0.4136146112359612,0.4243772217597167,0.35378790405967986,0.42199914196992866,0.4084311707558103,0.34593617933556026,0.5293343461487185,0.45422405628803564,0.415486975347008,0.27649658386587267,0.3498937857013657,0.4770143539654481,0.47776632627749266,0.48768515849494976,0.46768967896123725,0.42756323636083254,0.43802546223416344,0.4336662492716793,0.32642510421919435,0.36817415988848473,0.4098373792591219,0.3777576760841612,0.41792938608457986,0.45430139997857416,0.336273200364545,0.4112537931421969,0.31546771699611664,0.44473658255723125,0.3790186990927478
0.43032032451194574,0.4468839189984666,0.40970228600094366,0.4276206300763076,0.4430889945315874,0.3905123045049769,0.4702523544089196,0.43918147351789644,0.39620491641275807,0.5243256941827346,0.45249981528105504,0.43104495995799413,0.28008817719612633,0.3858719234004314,0.48535656650734066,0.5035289405588199,0.5248856007212214,0.5028097453997635,0.4538095372527733,0.46477172979874887,0.4585266142933443,0.36620888384506806,0.3737783357729842,0.4196145917601909,0.37608738398549635,0.4331408026753359,0.44936521646335165,0.34719582959456685,0.4466518810456376,0.3516928937400272,0.4571428127422263,0.38362346902179123
0.45435813317359003,0.4296598883877645,0.4772696878381082,0.3980094888375649,0.4092281709158796,0.4330889816888965,0.48261886275645466,0.48610623305032896,0.38925086272711656,0.5051591861791423,0.4799028474551178,0.4627639043248816,0.38465046300724703,0.474360410057659,0.47681227003710946,0.49838737951031414,0.5147487256410096,0.5064437280232815,0.47320763888144796,0.49259915649985586,0.478393862205707,0.4379247145689065,0.43584405903099666,0.47687570972817317,0.4466600725101053,0.4493854374923635,0.4749582139395221,0.40478356050576586,0.4927711279330732,0.4461507016301732,0.4375354236678825,0.3796120932889007
0.43846747790236396,0.39160340945026123,0.42559108166673404,0.35411539147521987,0.35031373498158064,0.395948775943601,0.4383158904096844,0.4499404631385871,0.36175227107876945,0.4925007917014754,0.47769276154554774,0.4541330886230198,0.44332120672493136,0.4547383719121963,0.4597744804213758,0.4869863215655138,0.5263872546541437,0.5029585743730757,0.49150033987869707,0.4867387969819239,0.4753935964403375,0.43911958485503105,0.4547344379079712,0.4510323651864248,0.44732564822116805,0.430936296478759,0.4769247686351218,0.420962973063593,0.4984725928024145,0.4423645102964788,0.41313619845304905,0.3560810364160722
0.4454144572004369,0.3938427160070027,0.3509058163066088,0.40770106799110756,0.3836031978742893,0.3616742458570469,0.39459680459720753,0.40061070830891005,0.4115215671661579,0.4347241741690348,0.46024803671460823,0.4128924473411751,0.4404368853636988,0.439884780891755,0.45714251044189175,0.4698109248842151,0.523005135990201,0.49563516460945645,0.4777468518251578,0.45164097767767786,0.4388473050664065,0.426547615133445,0.42960586155329344,0.40314316481315804,0.4123967422177674,0.43943584522666673,0.45463725692449564,0.4103160878106694,0.477021735280655,0.4285171957219764,0.4369696314595979,0.36310378502020857
0.4053276709604225,0.3983699547233391,0.3629922746292143,0.4178004574014559,0.38918697750034714,0.37430935328899567,0.4037230002753026,0.41290981185218484,0.40778057106047055,0.40458954534859515,0.4475364844478809,0.3990233565621452,0.25658700225317865,0.423618154593266,0.4661766791520128,0.46307997063014655,0.4589004840293369,0.426225427664286,0.3970329654349616,0.40865065638269493,0.39111809486928145,0.40375791323334437,0.411756403009356,0.4017262405421002,0.4007419122122447,0.3941597584014197,0.4253126822752282,0.3864518705405714,0.3986098637070212,0.3738932940960712,0.40423451221481266,0.35435353814939535
0.3776483612457147,0.3840521479944813,0.3780918687837793,0.40693254317879163,0.3368166501321769,0.3819353607104404,0.4271637680466278,0.4190884769623418,0.39983358279127507,0.4208742604383106,0.4702024241646446,0.4246205823489838,0.2362916614491903,0.4380551142096572,0.49003120611535506,0.49148033685129194,0.4968539643277328,0.4482916845555897,0.4209763799318916,0.45744067532871385,0.4071712769986231,0.41989576644744475,0.4202214271607625,0.4133971240602207,0.4015725878730457,0.3779715603617107,0.41236441706846594,0.3762193260112159,0.4216230662616828,0.35841563912595154,0.3414971157673704,0.35136498480736805
0.4286898520694787,0.4121699191695923,0.34614509423303563,0.43307695323250733,0.3864488728081424,0.37500274435188574,0.4136294578925993,0.39430286215364024,0.452640156119692,0.4164783647667672,0.4793524547468083,0.47462814333723047,0.21541057474067513,0.48531332069534344,0.5192726359795065,0.5069910911539132,0.5298060883337633,0.5058450980275758,0.4749138822246632,0.4946163394405401,0.44218174629180407,0.42076897392163204,0.3860383935090026,0.36091866185011795,0.3808267297547248,0.45020929796348774,0.4688550173164734,0.3654286841983264,0.5016466285825124,0.4623188677559824,0.43716246638855355,0.3521326914776739
0.4655165874486028,0.4008659726532963,0.351688379596592,0.42985640238155703,0.4498420058121976,0.3690105172166906,0.3923292102145416,0.3745423412424661,0.46633087389391986,0.41129917147077477,0.4562450012425022,0.47715593883523366,0.23130070149771687,0.4641416559624628,0.4917344166571116,0.48842558247608076,0.48752598414598625,0.49636056551140295,0.4649231173624418,0.47151304726213716,0.4627198312040883,0.44256829564630357,0.4096530409564912,0.40549816675091765,0.4120872402242317,0.47624189400034084,0.4878990906041248,0.38648741837729333,0.5019811792251992,0.4923816085501589,0.4871475974070124,0.3608880504137547
0.4752436990548969,0.4076910199168401,0.425321832222431,0.43091991153069065,0.4650303525836893,0.4211340054213031,0.4353915546663255,0.3997366125828042,0.4876525377277242,0.46061792428955706,0.4326399948902718,0.48284542346940196,0.46197524789915495,0.37380445935274237,0.4140153119361073,0.44950617661522885,0.44721898965697704,0.46959096545319506,0.4667004424121759,0.45463996236622717,0.4783067620269257,0.4839353482493829,0.4835945599077428,0.45157444406027575,0.46267254920134765,0.5001853203922695,0.5070942717599776,0.46300603772227283,0.5059139405109206,0.49587075955767607,0.49353459355904483,0.4183049549293344
0.4694816942585919,0.45295458828792506,0.4675689199595092,0.42942190782682416,0.4521707698676756,0.46091279610014996,0.46537642089009346,0.43880014447580273,0.4858520498434634,0.49744413243226265,0.45282954480982524,0.47494990554059174,0.46589699026902665,0.38351369796701296,0.42482969444936836,0.45630464629329454,0.4596157205339312,0.4677879147491216,0.465713993670343,0.4598498898030979,0.463887707028203,0.4522431524297293,0.4762920670997163,0.42750671545471985,0.44559318899785993,0.4913213452432693,0.4965876718864895,0.465195208054645,0.5009399479957519,0.49210798947362216,0.48453728933692825,0.42961155673021545
0.44132977049599176,0.3861926686680162,0.44375985036633353,0.4209349689493404,0.4347799298120247,0.4087802753597365,0.4353885764799023,0.3893753966436912,0.4592125793282052,0.46374100523094675,0.4568801641132744,0.47219209948244567,0.41322976908249637,0.44868483760874994,0.46814112952902864,0.4565475311931368,0.46135495114294434,0.4280289053994055,0.428229293642782,0.46381784742870985,0.4560401130105406,0.42860128212217485,0.45229513044588787,0.44305840772297295,0.445618005754163,0.45619289616360537,0.4208566914938488,0.46544406410378786,0.45134401596428725,0.4562155407920885,0.3743660341952859,0.3842559015352486
0.44980802986457097,0.4016103831271403,0.4562683555674699,0.44468300871563354,0.4219493469857669,0.4258632026424888,0.4486593139951769,0.3667130379430419,0.4272918682305112,0.4601358063218913,0.46257951296074595,0.46350122480011097,0.3918393399340924,0.45422505578793543,0.452860237545157,0.4503467406601946,0.4621090550563624,0.4141769747348038,0.4339184509265924,0.46450120853174487,0.4685481662505792,0.43721154832417225,0.4626616683059918,0.4854090452049974,0.47800994911794714,0.4423780138627186,0.4350851433019861,0.48656546203037415,0.42393749963137517,0.451997187788857,0.37655958817059987,0.41087100194114734
0.4543389687097783,0.4299036065613813,0.4628210771015349,0.4154606956765536,0.40330770361824453,0.4352837516464447,0.4328085056513721,0.392671040213129,0.4245525355255437,0.4360995822847818,0.46463115029232466,0.43031786166708214,0.4330972713471939,0.4258173456296762,0.4342255075929401,0.42846364371215473,0.4611408514146255,0.4322337532332719,0.4709622616677821,0.4491542585542935,0.4458385453034827,0.45491046094580556,0.4278769956949324,0.44472976353118887,0.43104446704759525,0.43615018302429726,0.43386069148695583,0.41173218246934934,0.4419403274842468,0.45755786787955205,0.4319165786143787,0.3862084020126703
0.44927149121785837,0.45488083886848085,0.44567808299759193,0.4618300887934693,0.4142796098261102,0.42366164939173817,0.4134184276520441,0.4348478790414056,0.4605373559738232,0.4258096318279597,0.4418243707468016,0.4439406058733637,0.4785368247327783,0.4331851699781856,0.4552419828525531,0.42151441289512126,0.46426909207714867,0.44693061826124797,0.4686437891711258,0.4405507467747403,0.43823340941138283,0.4595751872814913,0.41240657695567445,0.38895394288552493,0.3989553003268379,0.4579370149108237,0.44191604441571175,0.37437407865686495,0.46748203306311936,0.47597307230601804,0.44846543602050504,0.3664630254307355
0.46280061267771005,0.4703906400166716,0.45130272999789783,0.47951367466277645,0.4460470923776847,0.43514783123474543,0.43866579797115884,0.44373519452093546,0.4729945256486457,0.4548760445741536,0.42967326110061854,0.47954723561134666,0.47557164332133256,0.44968343714141923,0.4805687076585925,0.45250600720137424,0.4805942737926593,0.45700367089130484,0.4774278643819167,0.4487875834054369,0.44956829251505287,0.4545384934222951,0.4347892938746055,0.42052598805609864,0.42772249092550907,0.46059092926860384,0.4636963856133555,0.429280329791077,0.48265719241066607,0.4835979987889974,0.46390834828634997,0.3903336367483347
0.47476553515428005,0.4855395350733314,0.4601561059550568,0.49971646385730795,0.4912857169246473,0.4512138481584672,0.42574858281500266,0.41672681229212055,0.4736034507635566,0.4464706732470124,0.42774643150132896,0.4666402654497576,0.46456537836505407,0.44648804869018754,0.4771435948316774,0.46681354333392955,0.4748782508172448,0.4489084598438733,0.4687604733319595,0.4504144249945899,0.4595551332397154,0.4726469838013055,0.4583458616692594,0.43644506397574995,0.46192622414243184,0.46949113349183896,0.4851664776036997,0.44635358126949176,0.4913778580112035,0.49081022147670916,0.49629100302450535,0.38120553566820975
0.4663086503440508,0.4799431952277373,0.42010394841934895,0.49023891005248327,0.4839459065167465,0.4337160407517694,0.3991559675633002,0.39858048705003524,0.46613437820721476,0.4179295525082039,0.40996300197128344,0.46516619641058915,0.4537520231535542,0.4389989860274027,0.45300870335468857,0.4476277484445381,0.44184175260039277,0.42068957826953435,0.4567357599328046,0.3655725465301502,0.451446939525849,0.47904144979188246,0.4743522809049853,0.4069334455158876,0.45134725053362834,0.4751699552691562,0.4881571458415732,0.43365110157951187,0.49051945311173906,0.4867986885621657,0.4959898262161185,0.40330760553552386
0.40000968403653414,0.44495827411542466,0.3760505294058479,0.4442933161736406,0.44607361387082656,0.39933995876790707,0.3827543465760119,0.3710317045755302,0.438369689574329,0.3944333407747991,0.39240346805933257,0.46415751194379107,0.4351845314237143,0.4135324134595522,0.4087171232833937,0.426507272417666,0.42136099305953834,0.3956829460321306,0.4530596993450509,0.29117993671231523,0.4180874949364552,0.4659862779798105,0.44022144362490284,0.3953797072138173,0.4219593819439191,0.45027793272402633,0.46492800611170265,0.41852396986015084,0.4691640667049573,0.458778163335357,0.4576241479114123,0.4050948216009423
0.330174646861257,0.4021811177604787,0.4272835689093852,0.3967769273790061,0.35501766787357936,0.41729623723231885,0.42232944487324875,0.3940226213255233,0.4330860650210405,0.4200336215475657,0.44283978211484853,0.4785889562221219,0.4598131623080213,0.45189863007180364,0.4375869508274912,0.47168967746154267,0.47076981082721325,0.45911308935661704,0.46254153660566133,0.3244803475189374,0.4305474972889845,0.43907337839977806,0.40104500324744385,0.442021076264438,0.4067372859755834,0.38854175570677574,0.42562461590435924,0.4056875112952879,0.39452247393833123,0.390064851442323,0.36920524476339783,0.37642367554092304
0.3428049665195825,0.39690492288925144,0.4385517284921514,0.4058573795474279,0.3520855217979567,0.40846633973454,0.431873768356052,0.41068380821223555,0.46410138438230636,0.4480349835825502,0.4516991627391222,0.486048320967114,0.4883718854983658,0.4341744007016265,0.4506656683261445,0.48054351743038864,0.4812783986477499,0.47061544336348005,0.4637032235137354,0.4631556010785737,0.44904087906559637,0.45048439993284717,0.4128369729978608,0.4509938317043586,0.3758111914586066,0.383322436366577,0.3776742170120195,0.38873619595054654,0.3814600091251789,0.3813164571290723,0.3598536206632513,0.39036672123876415
0.3769971682311242,0.40413301845732647,0.41097964679584104,0.3720089091532047,0.401311348007862,0.35272723599630496,0.3919886395647597,0.3758585798060399,0.4547324055855206,0.4414112041774906,0.4291621472692436,0.47113943301706396,0.46590210286413386,0.3968619167646926,0.455394922347716,0.45963884270786476,0.47091140458454184,0.4493675934330133,0.46176345876890434,0.4460174012749508,0.466300871195954,0.45594478635617586,0.4620941355160922,0.4188416228435995,0.39178567968691536,0.44983244336551276,0.3916901774548401,0.37289029531496626,0.3945404010207609,0.36460845289070276,0.379653158578323,0.41180177485263697
0.3662992535434754,0.36905667702707773,0.4007538247799847,0.33339213483525065,0.41632454187282075,0.36787495957248206,0.407326940935277,0.41345349266691706,0.4059972733160148,0.4474809422003026,0.44277021038047654,0.42484615795102915,0.39983288302034947,0.4472911364329747,0.4583512115567734,0.4562183084099229,0.46714954022703076,0.44930351420951814,0.46647474117622373,0.42716057331512086,0.4267939062825073,0.43550690059601677,0.44013716427876337,0.4022279896803869,0.3995243230227193,0.4342877776477973,0.3728240549625918,0.3825124852848501,0.41062081132791917,0.3445379690706719,0.3609695862501061,0.39752501395797785
0.41037873347164244,0.40470729730273547,0.4049447476636468,0.3790634773312237,0.3919300969149052,0.39960910083625334,0.42406442427058344,0.4340679676506925,0.40228722772773384,0.41974737273554524,0.4553484222113782,0.42170796827281803,0.3760744404593767,0.43542995813770075,0.4420103188520547,0.4484049909847349,0.4600251870346016,0.4305585001225683,0.4480989940621409,0.41146591787925074,0.41009974645150493,0.4398915717185326,0.42075629055205505,0.40283992245796796,0.41200786198782186,0.41916063239509954,0.48133002667928587,0.3977058715691076,0.4806934718457013,0.3963362039975464,0.34006207868266436,0.3727500746309857
0.3853386672699322,0.3590580218686159,0.34470739870695905,0.3369114272147614,0.37220311887660645,0.36443299856375494,0.4072596300244482,0.4095559547982361,0.44510515802762124,0.3677712416704437,0.44627960165098424,0.4812609303010926,0.3888044585613731,0.4105001443072327,0.45148412424040174,0.42711290886991604,0.45202335386007547,0.41195210432357066,0.3976908319386423,0.3952734284934472,0.36270875259194885,0.4159418450242619,0.36130294570377797,0.3555979172298562,0.3631126115896453,0.4042982329439487,0.48373935452912287,0.3135914591600771,0.4744041844803447,0.38480149884318166,0.3132745419869178,0.37032991612105187
0.3812059428590658,0.37874466435537874,0.34834621969548124,0.3564070531443035,0.3937199303866103,0.356410273960477,0.38980557682815975,0.3524989220030818,0.43984511697582196,0.40599455546125673,0.45078266411892287,0.4750867439140411,0.4190374265848578,0.44587094187876264,0.47455312324240606,0.43652366110351,0.4693996471924514,0.4266792186620749,0.42848970036023615,0.42642232428905413,0.3827661969193877,0.4485245482522128,0.41186960214585333,0.36056382610134924,0.39641232991504877,0.41948518232364607,0.4960907923824731,0.3517371559324806,0.4667185729981476,0.4173302785635682,0.36855413292642153,0.3874089649419144
0.45624708887214416,0.4657385042813219,0.4423600334154304,0.4662927610545118,0.4475075161984072,0.43206920256847287,0.4171899127196852,0.3637742989858736,0.4296167178750654,0.450265427352953,0.44988682815459025,0.4585894378458081,0.43575046049463273,0.4239356777442168,0.4588177577395502,0.4386077454924443,0.45140488359612396,0.41566077785620725,0.45042710524488777,0.4473805178959826,0.42321942202965107,0.46347595026919536,0.45893788651354567,0.411847292104232,0.4533057782402539,0.4665603387439532,0.5081276141948694,0.4406081007083379,0.49305187655812593,0.47397527901466324,0.47108607364106253,0.42075503328104513
0.48830414875145794,0.48953232961615445,0.4771497198468337,0.48788585597229245,0.46125241279473367,0.4622099006276487,0.43532402356274524,0.43052980517883643,0.4427122490626075,0.40789924402221023,0.4322563485562336,0.43399168258807397,0.41233844161211136,0.3984241474741171,0.43843372476418535,0.43906329532565563,0.43843850352129454,0.42014579807321295,0.44322695238503795,0.4343272557884921,0.42510122011840445,0.4388592191896384,0.4493967964930338,0.42835006453905555,0.4598627250436571,0.4641403976678667,0.49002639795594954,0.46910696015462994,0.49383267734237357,0.48574750252541615,0.4748956046665309,0.4670738498117196
0.46515228088659705,0.45457663296376777,0.438070021282594,0.4209503270363753,0.35895323166776316,0.4355181265088119,0.42630348384941663,0.40128354278421663,0.4169439092450864,0.40469140660284914,0.4338221390533143,0.41981198224683114,0.4148752798946411,0.3946297665508294,0.4624307451212765,0.448539686761536,0.4493469976594584,0.4277815212106424,0.44101515487553183,0.41928757207332473,0.41560863017135785,0.428536654984909,0.4437351688045362,0.41209728795342576,0.4522589224591351,0.4650761631476238,0.4936012356270485,0.46601852005396616,0.4893030071350235,0.48174776235063965,0.4598497986889279,0.37191608880398735
0.45175148167301016,0.4281764252590187,0.38719824588981994,0.4228934131237608,0.35256380839685797,0.4607252347175372,0.44693422454817605,0.4036426612494869,0.43076616760305775,0.4753961826248831,0.45435320754763453,0.4507537140153043,0.4471613535893451,0.4328755817112392,0.48583564455917105,0.4688851779466271,0.4613430012351799,0.4393769682817482,0.4386719507682531,0.41946363177810914,0.4064344147783038,0.4190480054167425,0.4243026389898449,0.38534891987154885,0.3937747556164521,0.46473305430858747,0.44530028558899537,0.4114383679181148,0.4670357967058966,0.4624614092372214,0.4376383789834954,0.29139185375878873
0.435784752786175,0.43096762708979264,0.3956814599705739,0.44829064539236324,0.4267668531704679,0.4423045925913745,0.4245698146259894,0.41857261162782994,0.45171875624188584,0.46057272179260905,0.4544061833823299,0.45503654717779024,0.44037648079419417,0.4720364461736032,0.48587135591593084,0.47917308272974835,0.47225807804855985,0.46623444146674414,0.45047714946266104,0.44281875042483027,0.44709876100865303,0.45001912922604126,0.45268194461498673,0.3969404391206958,0.40917636114346234,0.4392140357822363,0.4347527803299915,0.43057175035138173,0.4747451105554845,0.4699983670169643,0.4140988990362544,0.3067859952302438
0.42965856615623865,0.4562024999019314,0.42675458149623063,0.42862292952114917,0.44062833232364457,0.4401977377284155,0.4453625623236269,0.40141916802485433,0.4330790326646838,0.45283435038031267,0.46495313680367273,0.4657152162718619,0.4382794570032013,0.4673827399827582,0.48434033676820404,0.48048641836517536,0.4834424087256173,0.47513761799562915,0.4771745984328927,0.47871295034340416,0.4691142247810852,0.4799891350745249,0.4646446744447359,0.4297848404258568,0.45272453096585125,0.43933703605879276,0.46693744703700235,0.4604957975737317,0.48703695850276196,0.46104912979268914,0.3948925979795802,0.3492092566111886
0.4575134496855833,0.4635019719175989,0.4422143915980252,0.4559301956040763,0.4378517321747768,0.43791663158109884,0.44988914775784894,0.39523908691717685,0.41836011274799134,0.44131008628732427,0.44337602882115507,0.4574791950390697,0.4340596205179497,0.4317523970929495,0.458567063605228,0.45021928966052915,0.47113055081683547,0.44260501805187585,0.45822995552486695,0.4608725467015986,0.43208444466251095,0.4631367354901613,0.43163791810816926,0.44561541291222284,0.4511099280960248,0.4510888944457705,0.4761899568497193,0.45700263433549726,0.48445415538803516,0.4662181066007804,0.4505252807089927,0.37305462651823873
0.44226259135237034,0.47236826256999154,0.45386878731615854,0.4748994321642767,0.427669703971087,0.4320544163142408,0.42271324508694263,0.405012263107564,0.38437031166846725,0.4359864368749801,0.4170747492283308,0.4260984528097386,0.40225370491646145,0.4070962729106938,0.42423187137031515,0.43654598277702583,0.46372086519407957,0.4245992414858062,0.42627103795141663,0.4437907655455487,0.4303704759427984,0.42267310965033733,0.43134685654135435,0.42350900333024094,0.43525807266275585,0.4411374885539522,0.46476039792325796,0.4286287403589451,0.4774374649907422,0.43097397979961266,0.447369236749972,0.394626720521499
0.38931878958527605,0.47204255923995553,0.41985888111280867,0.45675716878473965,0.4365016251045471,0.41953936602718617,0.43982072491762303,0.39269431173219216,0.370425511124596,0.4495072936373116,0.42167058357154646,0.4094524788093922,0.36454720054699624,0.3862473784320273,0.4243323248548012,0.45332612683161816,0.48301982094201734,0.42737684378157315,0.41564274401299833,0.40435138683436883,0.42608025160422835,0.38495397378401985,0.38109644322275615,0.35943594606575047,0.3638345381405301,0.4098361655186442,0.3706667235768899,0.34985843740354217,0.41781213923010874,0.36375381993495254,0.3695663940017379,0.3628526703586247
0.4298297387362157,0.4231179802833941,0.4000723537093905,0.4393958957262805,0.45364035247270007,0.3944289917192661,0.44721604121500713,0.42152874531956946,0.46798361884315487,0.43923865723113414,0.44089070253213863,0.47043776375708224,0.43513802224117465,0.36280409221520266,0.45232584187127445,0.4507563620214072,0.49123112445061146,0.4406925663027725,0.42825049640809504,0.39484663016953936,0.42086414117841625,0.4328711318781098,0.3906131109905346,0.3698869648894865,0.38133110358027245,0.4622366447795663,0.4224308144394102,0.35301267412119086,0.4654546523749595,0.38456022589876626,0.4232227454649483,0.3639190050704413
0.44956646129849204,0.39728347762183086,0.4370463539154136,0.4347115131339809,0.4493318476058848,0.3791288576128931,0.4426018170469714,0.4242984745821838,0.44264589689997164,0.4286848206183861,0.4406809959139326,0.4761127804955736,0.46130074178138053,0.3387782756746022,0.42876204343402674,0.4606234996727352,0.49207623543234463,0.46393071590819085,0.44838190997695276,0.45213550766011107,0.4494769866086311,0.4616132487793456,0.45055359046165033,0.4281991541771703,0.44150071020375165,0.48776655870441815,0.4906994791639581,0.4157481061081685,0.5145657081785711,0.3927300446924908,0.4463267172142719,0.34599144587732006
0.41392534474821857,0.37245962871484545,0.4554847028484735,0.4095282910852123,0.42968985970221324,0.3832333732367521,0.455086451059173,0.38983893215966864,0.4106867800836037,0.44167804724866944,0.4354223590833234,0.4524985738225082,0.45392665433452334,0.3642188059949923,0.42160310099232046,0.4321058858821786,0.4701613755577287,0.46606269808036344,0.4663012507499818,0.461172096995094,0.45674614941143543,0.4750755964270245,0.4533299367702603,0.4263118806002451,0.4230801137261799,0.4301648041941867,0.4727143941748728,0.39931113839133026,0.5050930555834194,0.38930804665201924,0.4115321037596945,0.3639248528089834
0.44357919980397165,0.4499999443405906,0.48343378449482854,0.419920868476107,0.4034738710880161,0.46839279294072844,0.49350212467443594,0.42687610298851036,0.40637016520238745,0.45351063099372774,0.4348010738259519,0.4406740256773422,0.44842677181477064,0.4358938296281922,0.4354784231949727,0.4331879833105782,0.4420562065297842,0.45432691257423435,0.4763322873063322,0.4519256660434361,0.4566128317347861,0.455676999416569,0.45773142479916196,0.4319056308399849,0.4244488962610858,0.4104092984359561,0.4409682409829698,0.41734504078881607,0.46496511803137,0.4301469679264962,0.3963852674327051,0.3694633949001484
0.4273551151054093,0.42030122005797765,0.4644095424786634,0.4345077551721625,0.44252425178282156,0.44004702074556684,0.45113614150388365,0.3690226620339366,0.4441323176095872,0.4298951073799797,0.4090821992143791,0.45534616552008295,0.44719758738219406,0.42170963263075806,0.4213599179078681,0.4356475602613735,0.4215647437053199,0.4299520970491915,0.45575800069691735,0.4321110289166854,0.438562234469903,0.42094281285121943,0.4398434311332776,0.42433803631127626,0.42231453160807425,0.4570189711523311,0.45783659788713427,0.41663742950256566,0.45457849172957576,0.4308210112511471,0.4328226630740991,0.36295738349651674
0.3550728150269428,0.37305251055556937,0.42482176546320016,0.4068123094197763,0.45612661291790696,0.4056024160398926,0.4238010493510535,0.34673488840604855,0.4442499498308035,0.4340287587633602,0.4093878718553852,0.4500764749510003,0.44482842400976874,0.38574665765772737,0.4083710736732723,0.4144731095839454,0.4049237690316932,0.4033122867919911,0.42689519007183874,0.4236424953830108,0.41627505303131696,0.41706126325163917,0.4191522333295952,0.40541236938209985,0.3908179216888593,0.46560814024341673,0.45066779090936493,0.3812285859398661,0.43166925905985476,0.41022746915156144,0.4165299086962147,0.3533266965064422
0.40930443439775077,0.4393121520555791,0.4397186059037172,0.44782946485092595,0.4719312647385487,0.453982750374554,0.44773452835943467,0.39149460269704217,0.4263100619793697,0.4593536144347388,0.45250564948393834,0.41067717423627614,0.40868152535231006,0.34743143055439296,0.42222485089625533,0.4012962168604546,0.4076726193264873,0.38503329383846263,0.4282035780574256,0.48107162539253256,0.430460519372969,0.4384329663169326,0.43628701574688417,0.3984538683627172,0.40973183858264184,0.47424020042781934,0.4646369777474771,0.4228401744391059,0.45516823027663567,0.45046739402479324,0.45218320067833273,0.3488301189630503
0.4927901764096341,0.4735639998351633,0.4569688717995038,0.4754369354082049,0.49196681763813904,0.4590536222941933,0.4864085947969529,0.3743971556680003,0.4295271417661814,0.44628552794149157,0.4019389884401059,0.4086970637830049,0.4123505693643665,0.39397728537148713,0.4706335612501532,0.4681064507567476,0.4560585502075431,0.4302608195449388,0.5201375544868853,0.5626769898546391,0.5510036303782206,0.4376839266222091,0.5060067471288698,0.4937411955290888,0.5128553178800203,0.5009708687115959,0.4815671442629345,0.489603140018935,0.4768126100448711,0.47184924765437175,0.4946935803268535,0.39690086205439357
0.5015750006503031,0.47681998050517804,0.4157576409590442,0.4536927413263926,0.4911596211327085,0.4670722731814237,0.5317667462946699,0.48637204202038603,0.42765892591247545,0.5210245140376941,0.4909226394435217,0.443402589542567,0.3810346187342357,0.427685267279075,0.4876717942929404,0.47367818525710254,0.47367328696300254,0.45537113334515467,0.5366799944922761,0.5516051372245557,0.5508453836342695,0.46004310851895464,0.5261206010219013,0.5309891137914651,0.5471125451207983,0.5188879979599297,0.5005962830777585,0.5186273515416442,0.5076380976245517,0.48122273513474123,0.49402343617624966,0.4410511750718387
0.47118660383926914,0.38871524375293287,0.40581441464810875,0.3942829069144822,0.45030628286925406,0.4456548075810222,0.5162474792434308,0.4548610611516799,0.44044729170261326,0.5241001760534127,0.5037823865618937,0.47559685627087817,0.33961802371829947,0.43073925302290594,0.47851628000692215,0.4543924133723792,0.4753887868179542,0.47942320436735536,0.535852012461391,0.5468694217502261,0.5469060578822609,0.50647524192902,0.5320671875584879,0.5333236605209895,0.5163856436243326,0.51646205539189,0.4942544060490795,0.4813765714164854,0.494464869084791,0.4649376562158875,0.4777541294097482,0.4410893665982801
0.4172385941539922,0.34436338564398394,0.4414616374567632,0.35071810285910254,0.4230833675761894,0.42853011595403384,0.4634335196391455,0.4279990726113864,0.44111866222327023,0.49317787532644963,0.4974437473392192,0.4779507610401324,0.3608562601973938,0.4503216125740812,0.5023742917906843,0.48477505019334316,0.46921757245359547,0.45393990243457066,0.4959647016397536,0.5547581091978251,0.5346168316199891,0.43598143654190546,0.4780330900478949,0.4818345445247741,0.453814485882508,0.47357600170121406,0.4443893226614667,0.41639993600183206,0.45353958027024627,0.43411560469036514,0.45722926109432843,0.41795415513627804
0.40769647821987326,0.41656420371309333,0.4553384034320513,0.3736407513308646,0.41044664110463686,0.43908904704626905,0.4533345796241106,0.41386395203573545,0.42746748873641943,0.4896449344729873,0.47754641632527334,0.4637940232080015,0.35956342040984,0.44074733976515146,0.5071039029406555,0.4843055292210273,0.4610523732743971,0.4390662411975058,0.45773420057517816,0.4984901494976355,0.46514640050921674,0.3903264215980854,0.41471240976859,0.4529601320375631,0.48484973903216033,0.4473398138863667,0.4883911717681729,0.4408087205412797,0.4997695723510061,0.43508553124927496,0.44080961310382427,0.376732025956154
0.4262286417358111,0.4463319368106565,0.4696207545338228,0.41091157782589377,0.3942033311351145,0.4678575057161196,0.4645230939078072,0.3832246023490191,0.39096252514887025,0.49392523455009796,0.4658503775045585,0.40622374277076395,0.3399310548394105,0.34648979759231263,0.4139799685072684,0.4158449145703993,0.412486763860626,0.4105698532076197,0.44920918644440905,0.5094676553912171,0.4940594105945213,0.45425550436364903,0.46971082973509454,0.5009952353891762,0.5270586430747968,0.419981812412882,0.505955499435448,0.5080827161376904,0.5175664444102491,0.37517386816809245,0.38599563456747665,0.36068691569078726
0.38128155603903385,0.38389518192538963,0.4351828183764531,0.3696629043644249,0.42456807738031377,0.4334840197356763,0.4703446224721233,0.41650599044389003,0.43084234651487435,0.48795593801239145,0.48737980703476913,0.4248037036454071,0.3771290310585007,0.3840310183764756,0.43614699506212906,0.457497709045563,0.44634822846802213,0.4245276384119906,0.45378297725300615,0.47786563978250873,0.4683552964162984,0.4624285928588342,0.4774601420906672,0.40788043951692665,0.46317507823051646,0.4119032412190742,0.44395017670739684,0.4220543205064226,0.44272270608293457,0.3704017122811435,0.36079654723729637,0.3948592267810158
0.4095108672148342,0.4004547747317688,0.48706638403557057,0.3866030402552318,0.4521774222205248,0.4919801105578915,0.47250516281209604,0.45740157699577777,0.4762623881537077,0.5095234374192856,0.4918904372717092,0.48906890101989836,0.4299362629475687,0.47766075868370744,0.4865134399044559,0.5002871222919448,0.49949852920017945,0.46988552689156193,0.48772363837272015,0.49555399223196106,0.4861426306168584,0.4645432574782941,0.5260324180960712,0.4318125664161219,0.5472331662527944,0.5057221847549932,0.520884095811809,0.4647101590914609,0.5100996947246073,0.4851577667329986,0.47081074681561463,0.4576409833525638
0.4831642444341242,0.488774283277551,0.5300083670485862,0.47806792745884946,0.4846423832161063,0.557343029779808,0.5015923609108421,0.4679809560698948,0.48987889925464606,0.5015566198331367,0.4911098341281364,0.5054690746815056,0.4770495392910627,0.4918429581487624,0.49793411102657237,0.507956639551023,0.5046234514240238,0.4989370814943896,0.502449709359653,0.5188329967812348,0.5134994955069094,0.4646405557568023,0.5279620487491243,0.5079164472515709,0.5710201527317118,0.5162804204060532,0.5342037405477154,0.5301192506737292,0.5367676305000736,0.523986189066157,0.5063212605887589,0.45394259531491093
0.4520079734422678,0.4737638760416874,0.5152935070654485,0.4974594079240736,0.46426990651267824,0.5513376253128651,0.48106605302932137,0.47174488330879577,0.45749241669242674,0.48527604260956675,0.4848828942191384,0.4900319428103545,0.45481374701602534,0.47414335344416547,0.49070908119557377,0.48883301285035546,0.47519130972534906,0.47832455122929673,0.4705505483837184,0.5038623801597498,0.47138034185984146,0.43077826756315213,0.4970923536958372,0.46122787482561534,0.5524604544439323,0.4990512782501544,0.5150670749289248,0.502096961750034,0.5149551680701607,0.48483360954717547,0.4634626788610782,0.4443525672927104
0.4633916746673386,0.4654870667521268,0.5118600479735246,0.47849984383627436,0.41678407940284434,0.5390192265464099,0.48674780537028184,0.46517962082826186,0.4169743411961532,0.5097109391876202,0.5084659658900628,0.4624525494268657,0.4172665211084991,0.4415146412925934,0.48893705061610127,0.47816342911336224,0.45942794535277387,0.4660050532439376,0.45124765018059465,0.47270032193405703,0.46363188603361294,0.42747298358174496,0.4915713365579643,0.4398844577960091,0.5455847479207203,0.497351865691156,0.5172520493273086,0.49161782772983176,0.5118733871205896,0.4518784470075044,0.4263515285527488,0.4466480542716998
0.4599531830225434,0.47559595967798873,0.53161805735905,0.49747650999258675,0.35368019606708595,0.5510774235144378,0.5252508099108704,0.4821211223062554,0.4611760339300288,0.5049845541516305,0.489410432339104,0.44986771862785363,0.4451821749401793,0.43832612498752455,0.4973777345720953,0.46658516420670304,0.4803523130180294,0.47249892459814397,0.47883382542709957,0.49626543314328503,0.4958587939933243,0.43760558978142594,0.48222775397819184,0.5076892742233515,0.5410008561810558,0.47739243225850536,0.4849773288684156,0.498547715137102,0.5073542410041084,0.4568763136308987,0.4424465664674853,0.4544567937531255
0.455264234315505,0.4819521299325,0.5293486944424893,0.4952188440868917,0.33899871731820286,0.5637801014585057,0.509558336887901,0.5192550750250582,0.47642267495401486,0.4794328266269377,0.4518868161264113,0.45499083528077167,0.46092907178366327,0.4635796691555931,0.47736950697509484,0.45319365660918476,0.4660508690639988,0.4587017766504067,0.48313232701020703,0.47217055873321917,0.48043865641515476,0.46438901606948924,0.4830859964239514,0.49638180720968134,0.5152069200779905,0.45277449400776104,0.45630791220795563,0.48537636848276483,0.47846538605401584,0.45466964464264936,0.4158335084087183,0.4240656359691033
0.44959570630254564,0.4862325785602722,0.4817915746693096,0.478972120892915,0.4259446238806727,0.551837416826458,0.4869177095243073,0.4483362076976592,0.47761405128648693,0.46861784063720685,0.45001078237403297,0.4652408241158806,0.465564754714314,0.4499196737381346,0.4457002901094709,0.426453952018381,0.4463202445756487,0.4632450971154339,0.46760998421860106,0.45382227092498273,0.46902942454715085,0.48879269566964584,0.4824017351278452,0.4529764948370531,0.48095133985199245,0.46952717911890074,0.4726332754490969,0.464741249372407,0.4640332289406826,0.4570721602572421,0.42968477575362,0.41454469472386163
0.4275683317652284,0.48878023299394474,0.4568783255082473,0.483868171404381,0.46363892575171867,0.4600173255572093,0.45032303109983257,0.3437790642099918,0.45014384495195153,0.41360818140846384,0.4218688765387491,0.4417920724266941,0.4588521770929949,0.4095590975051013,0.4111602033427475,0.38953755473518353,0.42810103950552025,0.45589567455527447,0.4421647733972709,0.43912971687186353,0.4297855877070516,0.45621794775311514,0.45762404032792686,0.437547076390216,0.434710206157736,0.45802920022999877,0.4709129628943787,0.4314132750602301,0.4488829135962387,0.43218424726951227,0.4703461671093817,0.41965511727175375
0.4431464827127233,0.4569985609996836,0.48031523831532014,0.46370601837766223,0.4184757061303769,0.4251658837029163,0.42416931114136286,0.3770665411621885,0.4127872407412613,0.34406159273112313,0.41557796472029707,0.4108535205719773,0.3932179604224225,0.37326765475073265,0.4167273811768052,0.3788159289705646,0.42386057139267974,0.4479515814953525,0.4360633308049855,0.451870723995421,0.4100519103781681,0.4506582159118024,0.44682850246382894,0.4338948503892386,0.4424862653835948,0.46908190293967233,0.47418444307880064,0.42432920534857554,0.43342397130406307,0.4555846393620658,0.4820968433409381,0.3935538697312955
0.3885434416247431,0.40536300539390874,0.4815414853877896,0.42537890618214613,0.36945456048982317,0.4265300076768415,0.42777076624874383,0.41495680808225593,0.3966622312756854,0.3667385551000968,0.4152742180553062,0.4090414016665356,0.3594465351120675,0.3675881656896628,0.4048902328606246,0.3861079618566815,0.4184225190050971,0.4213128377075176,0.4244714125172362,0.4379516473640652,0.405005634782148,0.4615752326492008,0.45664473859308236,0.3549208437250876,0.4188817071641354,0.4637050566931591,0.4131319635250275,0.4220935662152554,0.4118303212457407,0.42275958749917747,0.41103924500693106,0.3629761374109529
0.37054762218759874,0.395734077872402,0.47379265553019456,0.3942954841612986,0.3834628322867117,0.4812665642512592,0.4179015228095281,0.44877804477010785,0.4203601278581095,0.4126869868924259,0.4236981982607023,0.4321294186942903,0.4054600588385652,0.3877872972201392,0.41472603393133045,0.40711881076220824,0.4054414003983019,0.4213683974061627,0.4287582952741273,0.4684202678266041,0.4287488474932825,0.44570360858935393,0.4438561625734015,0.3903181027279426,0.42310610184827424,0.4473024594759551,0.3585660591491039,0.39525856800031645,0.3868488224019665,0.3665032553214103,0.35307020914025505,0.3896569387386167
0.40970393779883596,0.41011907690485666,0.4479773123956817,0.42798536582784313,0.43202587876078397,0.4735067100073785,0.4536669471315043,0.3839642176547652,0.4669051545233187,0.4001645298638632,0.4252589318914766,0.4052973776411812,0.45584579685158527,0.41035899057500586,0.4557819809663177,0.4301939121269449,0.41023873194127164,0.45132745314686895,0.4465575266430963,0.5140538001925634,0.46484203682805175,0.45561837439564346,0.4675917255880873,0.34471680522312226,0.4900577705778696,0.4284813170044282,0.41163494043823595,0.42568459413990734,0.4255344689545722,0.40856533432797565,0.4212578661426133,0.4068308293111077
0.4076706352355084,0.40178877964349186,0.3666028361292021,0.45011071415475884,0.4149059523073315,0.42674570532849776,0.45077646530756493,0.3242377532839899,0.45004378170780995,0.3744117216341063,0.4285209793341823,0.37750293091637954,0.4281999914618507,0.4124883931555694,0.4460498786267258,0.4482402862219961,0.42466345301622865,0.44351109805132233,0.4518218240877798,0.5219251513278168,0.48450788239173437,0.46334774115316746,0.4966717973355625,0.35290018378631927,0.5199344791034175,0.44643672226725917,0.4411430054027632,0.39093569843390286,0.409420469253348,0.38998777023724823,0.4526003577051595,0.3702578066781498
0.4236186345041565,0.3857003081981705,0.3122817667969458,0.4454200400006631,0.40133011910640964,0.3724551363955148,0.4388336563755142,0.3095442064988,0.40916790804333925,0.39674186753967217,0.4512676656130053,0.39088495547006613,0.4032769616765435,0.40724595820064924,0.4618270089891457,0.4609369928004609,0.45777231974767885,0.43020282944754595,0.44980681715749193,0.5226859013891455,0.4956783737658265,0.4185591609631425,0.4776029537636952,0.3925766709626413,0.5086980002225063,0.4334337112647697,0.429314097644598,0.38702373400635676,0.3907986685021761,0.395345698619717,0.4449321731373587,0.3429063978214898
0.4310400787133664,0.3867466978802014,0.3640250025768478,0.41704453082595466,0.41071356207994975,0.44462317345642616,0.49468835078625006,0.37608342277559514,0.3525652448349432,0.46276752345560485,0.4663355971556633,0.39200477719568966,0.4266682062510111,0.3799140653454115,0.4501913531434252,0.41947049708533785,0.43129879470977495,0.3366375993244855,0.3799067453146757,0.5194930828830762,0.4745738772458488,0.35217886411714167,0.433564444373055,0.489445698798142,0.4794552518177553,0.4311299418447401,0.3996342647648274,0.4095367040327995,0.41687736143176396,0.4161341693563613,0.4302018885239394,0.3261006150442296
0.39371843498712406,0.30848197900810687,0.3958338919220704,0.3842392532094603,0.3692187858582128,0.4457444138344203,0.48858885991601897,0.4539069400924515,0.37487481710164744,0.45545111847396025,0.4710774931574973,0.4085916516890993,0.42623149747799854,0.385925566636524,0.46592637409761356,0.4172359055379518,0.3995986436020719,0.33482299763001433,0.38982001795425575,0.5190699282879212,0.4718766315097023,0.3942263046844302,0.4580362463757891,0.47307747001130207,0.48366140546107383,0.48087189197394525,0.42769265760742065,0.38156328375825493,0.4024511364774987,0.36598612374627804,0.4329497344483135,0.3294637573986946
0.4255239683037754,0.3079412664857608,0.3347589675622321,0.37214075771243127,0.38982995312727986,0.3830928945325252,0.4279592769216416,0.42308772521223814,0.4337588574311867,0.4235685213850338,0.45837885588449656,0.4152733278636788,0.41390407100286947,0.40767899787157674,0.44965371605278176,0.42258657972688535,0.4106327427372665,0.4248689454607424,0.45479057762693514,0.5203060335659092,0.4992788834668523,0.4471193240948435,0.4738534200013396,0.45869331070324504,0.461355354181688,0.45841838510559246,0.4143139446107857,0.3308014957737685,0.37700367107219984,0.3256377741506278,0.43079745049212564,0.377779799033961
0.43441726883710313,0.37887488860638285,0.30344267778036493,0.3892224788907839,0.44891778584983877,0.37081843879611004,0.4216456068103455,0.387980077188478,0.35983553794471995,0.4212883526488279,0.42198472225207295,0.3704027285601663,0.3926963899093612,0.3791601057798045,0.42787273799282866,0.4189050593784914,0.40179592198761377,0.39712445482819464,0.4121677561909637,0.5075116768092467,0.4797480023353805,0.368285928047177,0.4461553565247674,0.5325968151685738,0.45351116528722346,0.4210456484478649,0.40418366558488034,0.30200744509611865,0.3711331325083993,0.3219341898862705,0.4499306629537822,0.38002117435758814
0.4238110874428592,0.41043882864090353,0.3234303628391753,0.40249982421437946,0.4628240062177174,0.38428890559868184,0.447473320155996,0.3596764523157838,0.3643802213991688,0.42142286001815726,0.42082467737551926,0.366136198663088,0.4030752325669758,0.35458395279913685,0.44096646767953757,0.4297165801255691,0.38781903631433695,0.36343798867944327,0.3837081354965171,0.5070016913594595,0.43899571645631047,0.371620211569593,0.4687272434584891,0.5650945820718871,0.49910147865402765,0.453476003241284,0.4485282308177612,0.37761676846238734,0.4302958303496466,0.39738836708065073,0.4740666384767023,0.36828955139763303
0.4255604969285897,0.4215226449313432,0.44739350879360273,0.3835663983614185,0.4097767774578116,0.43727828067544566,0.4943875333140779,0.38171558804206707,0.40867978945372213,0.4210968635344799,0.4650668337086967,0.39725757936687334,0.3901337886197719,0.3166343455849859,0.43318864747253194,0.4164818908131437,0.3727570564275849,0.3821158054635866,0.410661549289847,0.5149631987034594,0.4659518157562782,0.4455026732347854,0.5120401466036517,0.5558431811681143,0.529417995322295,0.48578822496996965,0.47325445410703876,0.4808979157914208,0.47346292844302534,0.46632791535394114,0.46336310562574773,0.41150841720463394
0.4357885140856869,0.4419668070981196,0.46017354466988847,0.4102352065190463,0.42534396137627056,0.44597841219175893,0.5059692788881279,0.4268436530743605,0.42383134763506,0.44846543297469305,0.47819481445616685,0.4386793856283256,0.4193337331136491,0.3555249485104874,0.4688598021435019,0.44837411552498396,0.4250363730643792,0.43988424923904523,0.43803292078745065,0.5148088575541763,0.47402578882797003,0.45875676830259327,0.48667315774587777,0.5326905351824778,0.5051805581507781,0.48785898855127713,0.4723971057359302,0.45794156232603317,0.46313614089871863,0.4368558731546573,0.4744866826958939,0.3838756464254941
0.4158846263666989,0.4287656319472918,0.41370130468131044,0.4317698060303578,0.4543785628731508,0.4486556464683624,0.4529159108174797,0.45773099609657586,0.40599981588158973,0.46085369335991816,0.45679886952353976,0.41866258247315624,0.4356636104647317,0.40295824007208797,0.4465833683978656,0.4305816134690075,0.4410805996656374,0.43092823805457736,0.43817034283812706,0.47326802060690226,0.44064620361610407,0.44849979587422467,0.4505979468292223,0.5359759007825503,0.4585786597703749,0.4436578685780903,0.44207673711640016,0.3964155424358325,0.42923196296623317,0.4096147182827083,0.4596827633737304,0.3714816745699529
0.39747682546954605,0.38621875939618544,0.4033146466503651,0.41061287923200895,0.39001179989867435,0.45726619367760035,0.44722121983369845,0.40628588835391705,0.3986271099006674,0.4719009213036296,0.4519743877227709,0.3559705543037001,0.40579745421324775,0.38749032777588804,0.41171098087726726,0.4024581956328254,0.4151255293702842,0.3774618320123165,0.42047609556894694,0.418501864033811,0.43503153837751246,0.4200501569658951,0.4509408429458983,0.5351589149678814,0.4576874969093889,0.39409981499367497,0.37767321226761424,0.399224343795561,0.3795416895469308,0.38238910734255965,0.3776648192855608,0.3895368638697901
0.40399759695125426,0.3967284352031428,0.4263674013731217,0.4240442294676171,0.3790347340252772,0.4316406165673074,0.46037112629789545,0.37647312053353993,0.40154665541469753,0.48322393191411867,0.43473775187661634,0.3858508412935209,0.41431703336106446,0.39561429216027155,0.4383668919176156,0.41533675026078104,0.39393912766358663,0.40043804783425985,0.4200728419494193,0.420986350886674,0.44971829204631975,0.40609648899734196,0.4587903378489392,0.534092479586304,0.4877801132317406,0.45695395234971514,0.4161072138136851,0.44011860778309647,0.4269985183172316,0.4367699871537369,0.3938682365574718,0.40634014433005655
0.403979903152824,0.4303789612176601,0.43702592802215307,0.3793313881583987,0.3728053777749364,0.42616579828101525,0.45213863849099684,0.4075698449465853,0.39723566539056576,0.45892487754721184,0.4161735905447662,0.4130450302822299,0.4263819463972538,0.4104106100337412,0.4268573902862681,0.3824964116613839,0.39923997889725465,0.4183135765130754,0.44408764197967054,0.44220466970937344,0.4642077975233377,0.4361804686312243,0.4592222976016533,0.5331228367610514,0.4714093045526003,0.45035149532895086,0.4323765661749197,0.42817316381337356,0.4370121113386179,0.4154054689959757,0.4129282936322266,0.4091960372352573
0.41793887075576325,0.4557991046129912,0.4398473883289024,0.3700440074607497,0.3825116299379473,0.4184369945878063,0.46691793178016816,0.3976518371468333,0.3777868134616886,0.4606607677647043,0.4317221961130747,0.39898573276726734,0.4150931626695328,0.43573318379621556,0.4391478683397668,0.38832060083802145,0.41516731238391497,0.4048146236425577,0.44505920961523915,0.4691423370756379,0.46591936158253927,0.44224977105826957,0.451047018251097,0.5274240835796163,0.45519192143460285,0.4331655023054678,0.4373045598938499,0.42931729176149597,0.45506568812153325,0.4159561787599562,0.43421546904152747,0.3959198416451552
0.4047265088201267,0.4381328859351678,0.44630879331881373,0.43653012469798275,0.43253004651243393,0.42092597588304403,0.4709255927518349,0.3932609846841718,0.4331989868128516,0.47497080820844517,0.4680523084286371,0.45213825667294155,0.4753910560633499,0.4522475368637204,0.4812198150955529,0.45877413550215007,0.4607019520759847,0.4487655988851902,0.45057722852928506,0.48109416294751284,0.4468882410326193,0.4647401275204102,0.44265746282011004,0.5081117660622657,0.45790194371854454,0.4551881760696147,0.45406272016220084,0.4430152468223713,0.4635790096711167,0.4403008933686394,0.45128066063365685,0.39025249121320865
0.39008698159663585,0.4188227090200875,0.42086381864088795,0.4249519004209306,0.4422391080394883,0.4343966080207783,0.4458958512753995,0.43555395022123194,0.472914945440833,0.4867309156458008,0.4773436435247816,0.48853167492341437,0.4722693319635251,0.4608391843655477,0.49731420026671597,0.48518957363580445,0.4760055897223982,0.4821721995130994,0.4489675286034908,0.4669003347372215,0.4454047237196553,0.47124830965849146,0.4599996247014367,0.5104109818286389,0.4381078759860016,0.4858810217341226,0.4797591377084257,0.405857647384488,0.46893810452028456,0.4455915268549164,0.47135704935131917,0.41662608902652454
0.4247178127935927,0.4453918907988758,0.4232259912675867,0.4441374319302079,0.4342588812546768,0.4314647496630169,0.4269977356834888,0.4536706687525591,0.45482600113051086,0.4551360803955253,0.4755644965023905,0.46027998440178003,0.44209080230126513,0.4486740080800105,0.49179960839670744,0.4807793783276782,0.47926645104971605,0.46760301351814215,0.43946255507396725,0.46053785422206006,0.4677408719980102,0.45451961216189607,0.4671066393655614,0.508682641401868,0.4402840974557742,0.4712494464924649,0.4680284129964713,0.3877158781813196,0.4655284092548142,0.4360930691695959,0.47457359385600717,0.4158552686408231
0.4548095018687655,0.45414904354638963,0.4256569695703725,0.44804185379362216,0.4296097390946038,0.4610155057964576,0.4779528945890969,0.4189254643985756,0.4524678032470206,0.4551352652341029,0.48869668705911457,0.4478752295173482,0.42367585975639094,0.4432818181350746,0.4770144991407865,0.4506643889551106,0.46905313686020894,0.4549617592664854,0.4521521598287964,0.48400257229015387,0.4738450605984207,0.4463533954032928,0.46373013991684525,0.5165469095075328,0.4822006267177559,0.4718462153841157,0.49232814895783417,0.4586323996666258,0.4846528318463307,0.47818152061059754,0.46537545007947395,0.43185060878831416
0.45217216853589237,0.4327589512779387,0.3974764924273644,0.44188838547351555,0.42543099218715485,0.45406446353838353,0.4731156037334048,0.330923733967677,0.44480654152145727,0.46612351303030175,0.46805189322710494,0.4639003947478183,0.44233807229952743,0.42656788556316433,0.45869005447093436,0.44817307443397447,0.4617360894268231,0.4685595663736509,0.4704700008207398,0.4888591035550174,0.48078164864305356,0.45765088604237364,0.46423371543940817,0.5180407702099714,0.4873516410072681,0.4746266188189278,0.5006730308968064,0.47465584157441304,0.4965066357717851,0.49135379569494353,0.44329285335490803,0.3971131568438236
0.45980060032065406,0.44382328120849823,0.41322679061181616,0.43091621366640165,0.4083353079662977,0.44012422585915784,0.45395611283775755,0.32794282333634783,0.44486743552394786,0.4484532468337323,0.4552310573296284,0.44855122786607804,0.4498486872679228,0.4137185189840062,0.43830352937062206,0.44831425311465034,0.4552308981909658,0.4649977961451617,0.4662047558813508,0.47403539621902113,0.4666160028135532,0.4706405408391325,0.4691502863800538,0.5020680375617071,0.4773608985353987,0.45604819261205465,0.5056094399932255,0.44579427967408347,0.5041611649276574,0.46685775537170604,0.41025848260919195,0.3575825023250795
0.4686057842498628,0.46879506652845065,0.4313603232464573,0.43165843641230994,0.39463521537326285,0.44883985127744047,0.46061955794116466,0.399205931040001,0.43861258973788486,0.42737094447427043,0.4354335041471427,0.42431207941209065,0.3858486377872102,0.41996710166395185,0.41467562688471105,0.4117043435467104,0.4169728483637147,0.43582118216751353,0.4491906391825261,0.4501984855548064,0.4381979399451465,0.45695691243668984,0.46077651257612773,0.4974876006425137,0.4759519330245722,0.46533618461608844,0.49576783966393445,0.4541135077727611,0.49139226837636535,0.4653912823215428,0.43313479050613574,0.3952444484995963
0.4571555458618076,0.43615055498623406,0.41561333854289073,0.4294817009380475,0.404763895948745,0.4299503120865178,0.44994528745322826,0.39008315932100696,0.39374122343477685,0.3941931906419603,0.4063537554025148,0.40272698271754886,0.381059308089892,0.3916044007822599,0.3829087494604625,0.369970156397185,0.4065605516340055,0.43225593783728183,0.4289233036301325,0.4542698810590485,0.4509775601034045,0.43690797702058687,0.4291512870860842,0.5120264862302649,0.4598750806203156,0.4253751424153949,0.45229224654015193,0.4627160382390578,0.46864767247535566,0.46798665306275655,0.42978194607753495,0.4330671197969701
0.46137294042843374,0.4203246586168216,0.4388612338369805,0.4380612058501164,0.4200792427431518,0.43298280267276007,0.4596639756250858,0.4321671641580746,0.411032197890986,0.43602994926221517,0.4493655799214994,0.4478867765573291,0.44365946904210984,0.4018586272019213,0.40050783439806376,0.3896974797911372,0.43514680975971015,0.462395281949011,0.4503761866362597,0.47442993231997505,0.4755505176165949,0.4449698113797342,0.41763199637638904,0.5078073556218279,0.46623553814480573,0.42201402987659964,0.47451953803553015,0.47489196285415697,0.4915649869581433,0.4746031713262139,0.43541873376551893,0.41740070770056836
0.45136945808752094,0.4321132914404068,0.4607313870394816,0.4577539057324325,0.43143446307246064,0.44911791460691697,0.4699581377883451,0.42705255198197084,0.4541520407180646,0.44524612640441374,0.4582180405483499,0.47991576163321736,0.47110150889916313,0.4511053644862441,0.45009234080465016,0.4422181402592284,0.4499871987221961,0.47212961360590855,0.4754958355458481,0.4645844672174355,0.46584991546012494,0.45685808263450356,0.42994563915024936,0.4901332098300518,0.45928331668502664,0.4396163693582232,0.4342419542981388,0.46750909211649694,0.4763831414979097,0.4666844981376485,0.46086064159574636,0.35566501686352336
0.42694997752999375,0.4398196132435628,0.4641976507471255,0.45261079660827247,0.42478651423005903,0.44985661198977006,0.4647429452277338,0.38606538474768454,0.46122020510523115,0.4142179754218791,0.4330072969481341,0.46831393369415103,0.45391884469776217,0.46321999630918176,0.4551630019522279,0.45240304193652503,0.4411026509123239,0.45805252327485835,0.4564834123432727,0.43024041266800145,0.42672931919358625,0.4521485803042973,0.4391946425133895,0.44687352735104147,0.41615088019334817,0.42921538459821806,0.38999363553501165,0.41872352066008733,0.43918659151924233,0.4517872364370546,0.4361716848197606,0.3537799071695666
0.41086925266203045,0.4151470840543228,0.4331753548828196,0.44603891641597293,0.4383827780344041,0.38524566421987233,0.4257456595209074,0.3520668420669339,0.3896725191405055,0.4490828223621507,0.4415646660421551,0.4657299071539854,0.3725015284492593,0.3960811565409541,0.43760751072176124,0.4373278361461868,0.4342392417832791,0.4046787111094654,0.33831606694552474,0.4047154483795248,0.40586867468556825,0.4341139802420773,0.4543203906350796,0.4869651030589421,0.41508982116271304,0.4667117034510447,0.4550013311499918,0.40798379803100393,0.4543669554178957,0.4396023364657935,0.45363564280238855,0.4005206377181284
0.3747525139364551,0.3844434333786988,0.40354493673113045,0.41634799420830204,0.43027210752390826,0.3692790104781518,0.3954664644060701,0.30256790637528985,0.40229168260504883,0.4005265839006247,0.44185607394003695,0.45247915188809973,0.38393815897832945,0.3426182744189806,0.4286272529175914,0.4434553019529901,0.4565228449727238,0.41372978287454626,0.37213293830202726,0.4452156485820877,0.4465440906278108,0.38207021591641194,0.43709861822024326,0.5057876191571433,0.3981016829655893,0.4596368563825224,0.42415384652298255,0.36542890659873367,0.41254384006702444,0.3840329944555496,0.46331643790324206,0.38759214363510985
0.36142073699616123,0.4059086048692038,0.3618502379702155,0.405223509318535,0.416165216355555,0.3862272847794454,0.4170405804571121,0.3012312150160005,0.39822399503799183,0.3483233974601037,0.3919182844104638,0.45454818181957896,0.30885767742102177,0.37127716966126734,0.23271701441525253,0.4600866864596778,0.410805024922085,0.46262465938969594,0.4865506227530111,0.43370553806645806,0.4867544381378194,0.28295276259279767,0.39626277084212946,0.4899668847005849,0.3938134145584398,0.426799946668385,0.3942424478918153,0.38774026158540437,0.3805147932134463,0.3799517255136905,0.4323449393820179,0.37227814725244857
0.311987858896176,0.4082164817653789,0.36115614561694,0.36140543542619236,0.4265263281974782,0.3897345557524824,0.4322261861638149,0.3432011032499055,0.30031472068992954,0.36846929240387016,0.44314532311173616,0.4543982776232292,0.3149614729332488,0.4880502668426473,0.27753054131156546,0.39789459904971214,0.33725758030262737,0.39841402747907423,0.45638317626426556,0.4630546013267986,0.47941988597592233,0.2930864592059144,0.42508293852419327,0.4403541046535252,0.4185321414745598,0.429289643803608,0.4152892357959881,0.40311843323901114,0.3824541007995911,0.3521860921012272,0.4036707845979168,0.3977993807107595
0.2910586792888523,0.3401440470587789,0.42038021467375725,0.3173303511113637,0.457070319852357,0.3869645506044109,0.3975590231870514,0.3798603137161734,0.3345956172079009,0.40350983885187175,0.4519731349950036,0.4435141150083145,0.4227011947218381,0.4063305329930805,0.41647354357086785,0.34843267468159483,0.3422324120166823,0.39587902724581875,0.3616593064790321,0.5165497888394748,0.49086559937228713,0.3991758178091801,0.45626693058112344,0.4514850361959333,0.4329636918301769,0.370987497913246,0.3993481554504212,0.3694976200864806,0.380036051814039,0.30505651688144125,0.3370154018303179,0.31824176606982824
0.33624767731986865,0.3338774232088099,0.4110610097831984,0.33524090169473514,0.31354624504647016,0.410712431619257,0.41734131356972975,0.3806812870750156,0.47034769771318863,0.455460449469835,0.41364798518944906,0.4388880381828127,0.39799525831001564,0.365568875881992,0.4574645816751345,0.34497408921410755,0.3551562036554909,0.47836032207101736,0.36836986756577583,0.5285023164344255,0.5119576317061295,0.436322332754919,0.47832347679374665,0.4941589869457238,0.4511776539033247,0.4213462136854737,0.43870028896456076,0.4100644919857739,0.44671662450490635,0.3370117799839814,0.3359641661032695,0.3702260187599713
0.4063157100052276,0.35907783498702095,0.41974033545076994,0.3681778495296797,0.3295517217928483,0.41717352249175726,0.4307656861561602,0.3847490110859457,0.4645067584379587,0.46741933147966636,0.46424416638240207,0.45389708562376613,0.4506925905521331,0.4661870857575216,0.47922577078355144,0.4556777846388493,0.34180959636751723,0.46383539652018657,0.46133008158637034,0.4908615560744598,0.48877690062463164,0.46565889032580676,0.4805289312094119,0.458843083516173,0.45625925557494174,0.46786380428519303,0.4846704800898955,0.4321889884977603,0.48883984049057466,0.4133716190304173,0.4337128230189347,0.4427622655367012
0.4613552294648726,0.41972396607662954,0.4303806640524615,0.43595750183938514,0.47126784734732097,0.399155176044771,0.4312558678680537,0.3816126911124895,0.47249876934263707,0.4703140146438133,0.4816793519400479,0.45199553446499274,0.4321288884711089,0.5022999030155612,0.5169676216247852,0.45006936122227914,0.40601736824818396,0.4198212346297742,0.4110208041626617,0.4733630623551873,0.4667685880149907,0.4137249773242645,0.44873115673481095,0.431018854808031,0.46211287561723713,0.4823688812674609,0.4848718466937238,0.4288855017382693,0.4987039890096251,0.454339542687966,0.47362573423854754,0.3998311423476415
0.45616247831141304,0.46686139802957394,0.4694863230321804,0.47026782896901137,0.49055918480966426,0.4614363489797998,0.48482053425057814,0.43466208789763927,0.48664079436583213,0.49470041199599435,0.4885428696590793,0.48528519893656064,0.4547579670468145,0.5089992044973702,0.5069173378458603,0.5075780353891403,0.502084468932414,0.4638993505916214,0.45419294407393734,0.5146368716064359,0.4841682494199437,0.4322042746082094,0.4496451793870403,0.44784995491323243,0.4652003021312214,0.48230277760423496,0.4776441570337079,0.4518378387741349,0.49482657659645957,0.44741954718941407,0.475842575959888,0.3539814502029918
0.4227134763404222,0.4668319141992565,0.4767690233653717,0.41615824504210447,0.4622265629419655,0.4597789192944299,0.4812118858361317,0.4292607030074934,0.4683629693098092,0.48588168602506066,0.4881019471533795,0.4952532432306111,0.4498318533633712,0.5029912228751808,0.4992017603511842,0.5212004201677772,0.4971130210133676,0.4923024887939347,0.4725191562892621,0.5102062044295683,0.47063561699053763,0.46265886575074666,0.45697122085896386,0.4548580085282374,0.45047228622495283,0.46305265036273924,0.4564323982581802,0.42683343187151995,0.4646709538730979,0.40555007300471274,0.4684083329202918,0.3146544711026231
0.41126063664638557,0.46046269375275456,0.4633874879237327,0.39517137544657854,0.4468861351917251,0.424507519599104,0.460222694999577,0.34327322929403536,0.3970677015526037,0.4448246958218904,0.467399014332419,0.4515833354634335,0.3803667214429858,0.4335078849183778,0.448216116501407,0.48244281766412156,0.47169451654962974,0.4735102945785111,0.4377216863477165,0.49929563074198885,0.42845055860844455,0.43953973573461413,0.44075453930670166,0.47448979227202065,0.4332228822336359,0.4317617266311234,0.42999436448248407,0.4002496210479341,0.44640714894904604,0.40122915203044746,0.44024270598291476,0.3247218042994697
0.44932501171658296,0.4750858720289263,0.47104732657455445,0.4829716401391998,0.49322847140393483,0.4774239143748526,0.477574091366767,0.35959017729195647,0.4523325682833779,0.45852788838185415,0.48623492604492835,0.4873941482499892,0.43756815165299046,0.4508758639646461,0.45019186927020705,0.4927654221593743,0.5048970958384433,0.4876895492953918,0.43692676929448293,0.49274649102522317,0.45269384511757393,0.47718398256355204,0.44476453766529184,0.4865898958863914,0.43803744714182236,0.45456586398699506,0.4463880243857589,0.45038459740884235,0.46482868286809437,0.4529634754720169,0.4712890967698947,0.4346813231119189
0.4294587616903131,0.468701704127298,0.46134654513171214,0.48053017306281476,0.4798252884896242,0.4822913004563114,0.47393683288552557,0.4255998760100327,0.4792587710726242,0.47116308669138485,0.4811857896530076,0.4878779220507914,0.4634983499196403,0.46256192065953683,0.460476241257026,0.48756165572005755,0.5060615675282296,0.47694669138234663,0.44313053177539796,0.4808107666029089,0.46774318103039936,0.48470836721853783,0.4595703036878952,0.4770675494648623,0.43178862966694287,0.4625043384415189,0.4321088687244624,0.4328570188366962,0.4465307386467267,0.4461426520090875,0.45869282062255795,0.4638526334261341
0.4176707704147546,0.48459681224883794,0.4679405656014097,0.46582221822245595,0.40012655314139034,0.4787127156564903,0.466026327646618,0.46661817570370856,0.45760695613155855,0.4787514857102512,0.45263972145514236,0.39304839707383604,0.4567894806501201,0.45171263692322094,0.4820611017500569,0.46966268045251225,0.5035464082270233,0.46104751702402086,0.46437951579707926,0.4598196294773887,0.4319175859271672,0.4487578826892987,0.4398708557339396,0.4618010169663456,0.40510663965651783,0.44518227139100425,0.42206975114517437,0.398591670809966,0.44614602373661666,0.42856324594395134,0.4410799822840994,0.3879472421197764
0.4210556689559009,0.46586094640427095,0.46681916994813066,0.45701418875037686,0.4168231902926733,0.4738314854365572,0.47625470115406154,0.4430737525570354,0.4352084672200588,0.43144936036348464,0.470559599549861,0.3948113489351763,0.42673434061359794,0.44545057762972606,0.47693581338886654,0.4420746401721757,0.4701922685720244,0.4276405370868887,0.43561476461385124,0.4667575061479286,0.42567856827905953,0.4343552511987427,0.44584632488443066,0.4508642287210146,0.4215470720896162,0.43599926899747177,0.42460206933496486,0.4164650806652147,0.4409344322790347,0.4188817174043466,0.4496452964519346,0.29804871516728487
0.42450953156710786,0.43464570448006573,0.4254879680987085,0.43845093486813513,0.39663290654384903,0.43672412517666054,0.4546302864675364,0.45092974329617247,0.4192790451218904,0.4252926409264585,0.46734506324267217,0.42833402520279446,0.4278346590864461,0.42984067820498484,0.47636950185172894,0.4660807270783961,0.4673370954744165,0.4446246453337556,0.44280838246680415,0.46805126584352447,0.44131387050304327,0.45759764294610045,0.45142357978855685,0.4495369444439672,0.4262818971498247,0.41351234027169076,0.41714200200824664,0.40343977379837453,0.4242088868347203,0.4203071945900454,0.4290503798668219,0.330402546699581
0.43387988376687214,0.4469637069316861,0.4155532753925514,0.4365216535729837,0.3885381857956119,0.39978896633631933,0.4267240062983832,0.41677876837968614,0.4126650752508907,0.4508489196580111,0.4603445170722107,0.4132087424287468,0.43918881592732617,0.44373278426880575,0.48144008277714223,0.4925483283544425,0.4775179517574084,0.44172584870575277,0.4418604999202416,0.4454983685480068,0.42612071840918964,0.4437605891631837,0.43926720700964883,0.4150452503693127,0.39015892214413894,0.39358613694360933,0.41062605054180434,0.38846280729438476,0.4221224177550533,0.4181468407501077,0.43121987990326355,0.3715948026053752
0.4338501571407769,0.4287912166822176,0.42079799125852246,0.43994039970965443,0.40470891779173945,0.37822006045009987,0.384590780437843,0.33847604682733556,0.4061720927871015,0.3871879957183611,0.44499117312870956,0.43412100477635734,0.42340371018169287,0.4292313842071052,0.443205408062745,0.4639738970178783,0.44527349907674446,0.41771536304024487,0.4397179673766481,0.4480191305264797,0.4286920263930944,0.4544429168396866,0.46189857458584915,0.42495591022236995,0.3860455347418962,0.3862984519733839,0.4183384392627803,0.3907186434849611,0.448304975311858,0.4216799459640433,0.3749177348734587,0.39894808620254163
0.28345672196533667,0.3330633388790451,0.35725634535601747,0.3500140164881702,0.37349088294636756,0.34237696481024166,0.3534352104337975,0.24846852472002431,0.3538132305996041,0.35845305707976804,0.42737641677705607,0.38835291847651626,0.36349580283308014,0.37117116445848924,0.4240112518790814,0.4471343727211118,0.44123283392068285,0.4161209594811126,0.39882845734309813,0.4157278790137628,0.36891289011144524,0.3823409806733491,0.3475450379165789,0.3976240142395691,0.31927899129548,0.2764725382564907,0.3198347857541595,0.3175480661998595,0.3425589685495241,0.34972167579105756,0.28743147807365765,0.31294551776540885
0.2894426842927026,0.33361888831252956,0.34801337679784267,0.30782276291540556,0.36318790655911126,0.3199867274591009,0.35279293567806835,0.2477685250043556,0.36155497708103085,0.35848909987071254,0.4411321662430086,0.39783155231527817,0.3604856726476603,0.3824037542112162,0.4573408938218806,0.46908347166825426,0.47404658233438524,0.4320111713227949,0.3811101821367132,0.40665145830467647,0.3437782290518443,0.3482205903580618,0.32099532323375257,0.41291865129164035,0.3130361670369146,0.2933624079403033,0.32541025910901494,0.3184279085625061,0.35928454793890036,0.33382928923869043,0.2851368502596524,0.29329303074186025
0.3718751934774032,0.3853345376561179,0.38819018579922004,0.3837670956038315,0.3809254679890722,0.3883060889028664,0.4161083060634635,0.38141448621273744,0.4005699270010865,0.3801659156210233,0.451604896471214,0.431003954372953,0.42545672250361216,0.45419291272653817,0.49386981000538427,0.4987273019171716,0.49933745936864077,0.4565998290583335,0.43637649356478175,0.45102420977765045,0.409112226274341,0.4435158326167473,0.4034330681459274,0.45144815902895746,0.38269945017553714,0.40142902152072746,0.4087913939020389,0.40548314571545946,0.4305057772828228,0.42438350520754636,0.34957979177306375,0.3317512217595074
0.3550152873144531,0.37285333530487125,0.38806723540052196,0.38825798021672814,0.40343269781926,0.3811265555852795,0.3854577940704203,0.3964109703095412,0.3556492130986621,0.3607291001761871,0.39875929987599235,0.35624464512765425,0.3583858655787276,0.3748396283663264,0.44493502200823726,0.4403624703391584,0.45558276109429147,0.37505519613800764,0.36545306783367454,0.4116273857705127,0.3590192779484961,0.3999185602935225,0.3770919912227615,0.4021120834140352,0.35597065044967274,0.3903652401276287,0.3942258322257289,0.37413297415513813,0.39810786812411797,0.4121971428312225,0.37972570980902964,0.331133283881863
0.335197844847626,0.3893164309248558,0.3982239561519603,0.40200284802126796,0.3856517043311504,0.359654943537475,0.3764978261644446,0.4057335691109779,0.3788527610435021,0.3823898129536545,0.40427603619191943,0.36584416243645923,0.38255156902980136,0.3816099462728792,0.44993311278650683,0.4491247362447884,0.4634123042687094,0.39824051022033213,0.3888113605875384,0.4558347642019141,0.3690155064435757,0.4294833193775098,0.3995356250026925,0.41494922210052343,0.3501808025892368,0.419093893870789,0.3399206070446807,0.33012523999564725,0.34037005718206814,0.3569856420348712,0.3843083082568777,0.356059551989629
0.370267923772702,0.42600578531624944,0.43881072216356487,0.4347791834344963,0.3995591906805789,0.4208621126946622,0.4459201000997889,0.41638770375987527,0.4488953492616308,0.44847691178033716,0.459194911150427,0.44140046465702387,0.46759698199360916,0.4452186652152443,0.49630574712439707,0.5098244740621601,0.5065926497355405,0.4774931544253391,0.45190464296432525,0.48565717098763517,0.38850907157212905,0.4769092340397051,0.44630564469378464,0.4126632429872009,0.39962787605152145,0.40516676854853334,0.3676783707738141,0.35952007915956613,0.37324583074371537,0.3737755939044075,0.3679639181853119,0.41422163764686193
0.4454214842199018,0.45787403136952404,0.4722984602010356,0.4354525667887891,0.4160538603754795,0.45543543683217985,0.45105129056207804,0.4089616122104985,0.44822684836564625,0.43370120135338414,0.4598082543652626,0.4472521711989591,0.4350345324000067,0.4180885769143318,0.48456189552190787,0.4999058860234348,0.5073103201792983,0.47589701546532376,0.45527473359530735,0.4750580240487087,0.39730344063964373,0.45532032454829285,0.4525185549347548,0.3880909770809725,0.4119195005247913,0.40825408608287134,0.43824632858276935,0.40279164644643334,0.456463933559309,0.4483963046682288,0.41819960229141584,0.37211290358691423
0.40119549137062005,0.40300102714400826,0.39770320184167984,0.39309178722414023,0.3715727005033149,0.38239741899509405,0.40182161394157534,0.40490799131373983,0.4349521931765174,0.4098616040700058,0.37694326768592534,0.41462183102849554,0.4249062372950418,0.3825677750363093,0.428968550570196,0.4646100237911986,0.49854809082027113,0.4631985577426675,0.4458056859403079,0.48165524549609656,0.3842582401568353,0.43120564641738496,0.44465604997052316,0.4023982493308504,0.38460191829568857,0.3910024391333684,0.4238869884873008,0.3948998118233766,0.4507805021723534,0.44307657343630774,0.43216590068969524,0.33623139135104624
0.37417049555759885,0.3809884338287071,0.35107081853693384,0.425086354915047,0.39763902778844523,0.3796556730853717,0.4124724880712372,0.42953125594127045,0.45812001837616206,0.4490773209163695,0.38720774937408275,0.4252601102197675,0.4461574292096907,0.39872056745373424,0.447980260520108,0.4575769912643889,0.49553028197036564,0.46301617788641014,0.46136162456232754,0.49348297777149847,0.47619090486494253,0.44480162224556913,0.4534590120326682,0.41416260526167165,0.36010500801157475,0.3971469791224259,0.40845069460697614,0.3709065979162005,0.43149850396433165,0.43142722214933404,0.44225279782222043,0.4198043112861155
0.3915834253043551,0.36668145632800886,0.3529062864767211,0.4055836373705251,0.4053007684761019,0.3921974582425453,0.449456426606111,0.4032679212617613,0.44753701946458,0.46441726864045857,0.445603881684676,0.4456663479352176,0.4699587157650465,0.427702434647299,0.492222839318283,0.48065427143607553,0.49653669842711445,0.4606475704933109,0.47154147249776257,0.5012900677991763,0.510944327883039,0.4537753626328233,0.45378269558006973,0.44287192971595857,0.39321530667953114,0.42866560636004075,0.4145857999662337,0.38217249231956085,0.4575772760697771,0.44421567665766887,0.43601109876582506,0.4613271204431345
0.3563285504771982,0.3722711109119011,0.3762760208707087,0.36173640396488094,0.3234885390323474,0.35553196561145944,0.42853508566454745,0.35885252454570615,0.4030739087886934,0.4119583054529337,0.44660549867474136,0.433500365776421,0.4613219866760087,0.384603043086205,0.47321203690119734,0.48464692064835696,0.49752771557277164,0.4556087270254026,0.4459997516847161,0.4936323892670202,0.45773092002223104,0.45002927671420995,0.44742539994200986,0.4566652104179045,0.3825686091958163,0.38654279497727295,0.3965637021244746,0.37014728814334646,0.3871110712600255,0.39387688363244855,0.3980752400167259,0.3850724409792926
0.3417360224360197,0.3667831424083957,0.35756974779077566,0.3862178049172804,0.3144380345863007,0.35036991938196926,0.3818734943000374,0.3463234507529161,0.38792332851197353,0.363653011806531,0.3840438341678841,0.4084466898285347,0.4408515605593622,0.3513963155157802,0.4666214644685099,0.46598630700937355,0.4777180710404826,0.4639815187073357,0.4170402155679503,0.4629291720727153,0.4526643076288521,0.4273516809345988,0.45056286368868914,0.430551297620638,0.4116089096566556,0.38290688594084704,0.38613846334336727,0.3868755318690536,0.3541504707086472,0.38320768640288133,0.35571448457481136,0.36708146608699094
0.3940692198392028,0.3736702568651511,0.3404005587349735,0.4062437363942748,0.39332260826284665,0.35420184627546275,0.355917459803357,0.36859876835910355,0.4401295559469786,0.3856540075814653,0.39294462423538323,0.42343588427350826,0.4516245089225703,0.3828708313773388,0.4719441910244692,0.4736003403960199,0.46844404741467166,0.4644799107502507,0.4472921015782969,0.45000037781253094,0.46611629554285144,0.439884453002604,0.4352736690319711,0.4434752515810728,0.4878332804214598,0.4296326984793134,0.44139512591706326,0.445504453414559,0.4196716699663014,0.41838527390349023,0.38741878969765975,0.39552133155706415
0.42850731521821755,0.4268514503595301,0.3898504812974684,0.41297177742983954,0.42917737799377464,0.3753276516148737,0.38207710733456746,0.39908035484470916,0.42282764266947176,0.43220741790648376,0.44447186049648785,0.40844990047254126,0.4324317894691847,0.3790084144244766,0.4468847658671807,0.4391129435132665,0.44663448008550594,0.42531516750911486,0.4353270195910036,0.4427136367105567,0.44076816333280433,0.45062548318892415,0.4231931523937758,0.43621072223107904,0.4698900941833628,0.44592167588555165,0.4569175615265485,0.4440290284430956,0.46493085438195886,0.40197492281712555,0.35351966337690977,0.4288926043105504
0.36859882508806574,0.3692228595601203,0.4069887343983583,0.35794437618614794,0.34474059842040244,0.41641371057821197,0.4179190546972803,0.4138280017773197,0.3765965637442094,0.40431415150626576,0.44298337453503106,0.35904207772801666,0.3461086235168022,0.38927843235116855,0.4037783350127401,0.4202861519132889,0.4229531645900822,0.37942270342036005,0.3639198284974991,0.4271341905399887,0.477368728147266,0.37509809401590427,0.4197834807204893,0.4176614216193819,0.3692522767545701,0.3932296879049961,0.3833093955763114,0.3696004582665983,0.4025509724754566,0.3443307608204994,0.3375346421392636,0.41032206013470274
0.3570665434063591,0.3690026584817854,0.4005497833400845,0.35459481728244957,0.35630918563269187,0.4116020790085872,0.4513593338972157,0.4358984495923719,0.3764452599468042,0.4224446556080914,0.45606155341856397,0.38622952540301314,0.3397124554321695,0.4058544916591154,0.43089482280446256,0.4603746442468725,0.446649635840152,0.3886831287321373,0.3626624579703193,0.42692149701825394,0.4548456903330911,0.3319640453387405,0.4301520539948307,0.40891658788559493,0.37392557809133475,0.39872783910316356,0.36985331418142886,0.36144789799831706,0.3848182791362739,0.35036696910866744,0.3973651857171241,0.3948988338859204
0.3493638495075596,0.4116571197020632,0.3928928438056817,0.3894397578973781,0.39748179783314447,0.3546328050852757,0.45320624798150405,0.3273565291766604,0.3777888802060964,0.4287178794673526,0.46125079989922224,0.4261014903402835,0.36644074503522833,0.39252912316032296,0.4550925160548154,0.480686989205763,0.4803488144829254,0.4135886694950428,0.3918522764287713,0.46452056681354476,0.33627944330697845,0.3363717913181706,0.4264738393105033,0.3948256048676126,0.37648104626460355,0.42511243045390107,0.3776227886880055,0.3530382425587983,0.3795932220206435,0.3450964740253153,0.38538286376937025,0.35557161227641637
0.3729990153652591,0.4322158913665889,0.4081007540198771,0.4301546366908364,0.3939255639180461,0.37102542064168104,0.41796880144520593,0.30365273218319416,0.3993471042679059,0.39022239610932735,0.456335098618019,0.4063251019516566,0.3752928674844116,0.40238229075251786,0.4491815466213649,0.4834978184565315,0.48716757398046856,0.4345236961692179,0.39418246993505995,0.4783139566727816,0.31669740860454776,0.359360701184657,0.3932097965785281,0.399777602973787,0.3552481017135872,0.41173558288274414,0.39291932008123104,0.3486505345069105,0.38338610512695465,0.3489354387155386,0.3938445166434922,0.33349053435143083
0.39483512177023594,0.4248775381419254,0.42365255411243014,0.4298166971735428,0.4204909571808205,0.4071769351079025,0.4110787161706512,0.35599245209468444,0.39990613808507713,0.4167304613209124,0.4450875823212481,0.4017396757593339,0.4055206193186114,0.42690599443449534,0.4652634756183126,0.47684003446542994,0.48054454029403953,0.4482815061788184,0.40950879120917233,0.4510061550081231,0.3840971835451621,0.41276552130403893,0.3799742929015047,0.4086442665715269,0.3605566644393575,0.38928883230369066,0.3959542208272923,0.3500341227096305,0.40115169342297,0.38132633853803066,0.3997760388451003,0.35818994717398145
0.3871570004415976,0.4174926963732496,0.39143619796215423,0.39125126105027336,0.3510474651420139,0.4132148142629276,0.4159152971612941,0.37812261362190125,0.35658903004594344,0.4378431783636448,0.42299262369875507,0.4047880633022612,0.4155853065738447,0.4246347138198247,0.44833228815763315,0.4546396358586332,0.46959223721117765,0.41116917973229233,0.4158921132606728,0.4311178598732464,0.39582271842049666,0.38799148710749676,0.3782983393092651,0.3946827447285215,0.3614373668194058,0.38965093965055425,0.39086351412192605,0.3539976870994428,0.402744354031164,0.39071024903303,0.4081466864282041,0.376463461675411
0.40885336645768183,0.417608175438407,0.3727472490379316,0.38453262385442727,0.3522478793950535,0.4017239882736956,0.4099382982237732,0.36643856650237544,0.35522821701325064,0.4164092244968477,0.4084871942169037,0.3941773638409807,0.36695191052617643,0.39320335429086906,0.43339500009675486,0.4546800297031995,0.4787376955909928,0.40821811535257824,0.4149503244118116,0.43250865957972595,0.38926340569252893,0.37442589751926053,0.3842836796214199,0.36398100747055917,0.36062088189052194,0.41910770601228997,0.48012985767024685,0.37175963994167194,0.4594390542483519,0.42775531648792486,0.4388729233743579,0.3942052302096197
0.4749147163793631,0.4558230549927721,0.39546490123977596,0.4357592908027404,0.4548855942210112,0.39889460119816467,0.42048563401572825,0.37272312390660967,0.38651331110570786,0.4440634866765611,0.4499754875813612,0.4126730528336797,0.3425591938668518,0.39733686431388066,0.4736242022365055,0.49468231078354596,0.5017348780247205,0.45177689045422975,0.4515272327324048,0.43307578132782204,0.39664736973760983,0.39170023314350433,0.40482654228076786,0.36258457780294195,0.4104285434584302,0.4754198422674845,0.5568839375358373,0.35775755525405456,0.5053991899747355,0.5381234079634888,0.48585639222060556,0.3656207053559856
0.4982453535473432,0.4700535698475092,0.44069605641711324,0.45376510953869503,0.4674286335154023,0.44428434416094154,0.4423268569336525,0.38855866043099235,0.4115449511235315,0.4568444842062857,0.4687957815493642,0.44293524222968994,0.37947090635255687,0.3815945110035987,0.4720640754395638,0.48757934296156125,0.49207213755713763,0.4318524063630856,0.4493720866709499,0.42966451826559127,0.41285950486557843,0.4032045754702785,0.4255862843514611,0.38951344204052435,0.4510790812137691,0.48321248315972254,0.5557527149871628,0.36496764742351584,0.5318479910025271,0.5351461910313147,0.49272182929541114,0.35988536245204733
0.4694465280994564,0.4420630826573258,0.4792981170793877,0.45381341322467034,0.4572537038471502,0.4494525534018322,0.4813758715050294,0.3923737651443526,0.4585456915182541,0.4310920266469825,0.46915945365752576,0.461094828075939,0.4581664971403286,0.41678187571381653,0.4690789724853995,0.47045267758832976,0.4747557750088156,0.4568399512874896,0.45750850088509787,0.4766688715542688,0.4604617434692221,0.45143542157548117,0.4685470853078467,0.4441153040083006,0.46053823478158873,0.48318900580792823,0.5209653345354326,0.4109687778542003,0.5133417099984141,0.4423527096350219,0.4642345527709595,0.36983523321525874
0.41435559542156747,0.4283471210767788,0.4628085383506334,0.4432612036735522,0.4115999931477035,0.4513204960940419,0.4862147521034291,0.4184222803776184,0.467829364104891,0.46164182925341146,0.4697973136025827,0.44765064154482787,0.4539111165513926,0.44009255815227183,0.4735667973723478,0.4734878543269333,0.48132832128526043,0.46809627763835154,0.44430729105446387,0.4687584629110323,0.45935693869870714,0.44056019094035165,0.4485524408409566,0.4452056767489826,0.4463166767775904,0.44619791699826034,0.49571611123807113,0.414813962085811,0.46352925522531163,0.4199751863191347,0.4488876658205464,0.3866362518091658
0.4494622168220832,0.4662737883082078,0.46942736668184193,0.4850753257195279,0.4145566284491407,0.46681161619401407,0.44391630114335057,0.4069021102385413,0.4580845937145604,0.45327329648753406,0.4444358371648956,0.4403299394755703,0.4368856549931618,0.4279574812591242,0.45914477539969784,0.4567462283813317,0.4830600625233235,0.4611897554070711,0.43557077186717336,0.4418020953064058,0.4451259733638225,0.44613823126773483,0.4191166115151803,0.4113947446623762,0.43364552231462117,0.4075198842557209,0.47073021940646675,0.42011447311239863,0.47351672756013424,0.44817409499831345,0.4683436779603918,0.367854349438981
0.46072954088497386,0.4666770084031435,0.4714004631001593,0.4764756051242504,0.43705289871335395,0.4702642330587466,0.448949221393401,0.4151468063584328,0.4462618502896804,0.44153177019242185,0.44988856727654264,0.4426216993908031,0.4389274089020008,0.45600728641042293,0.46075980768499564,0.45585942228559123,0.47778000830720296,0.4528798505522441,0.44809994278363174,0.4435956699602476,0.439577960342271,0.44885949396705094,0.42730097000763567,0.42096593033773966,0.43133222212642564,0.4503463120088148,0.47845174099874943,0.43539357043432836,0.4827402341291285,0.45856868374493487,0.45457646111184274,0.39878944586327336
0.4252875103097,0.4543811855539274,0.45157039517564157,0.4384823433418277,0.42461923596388845,0.45538866721798693,0.4495598305351481,0.4206446806854229,0.4306413228212014,0.40671898821344216,0.43491337831772847,0.40120447317111063,0.42877678114203494,0.4524022588717322,0.43683870419465426,0.4335169961687172,0.45620995479900744,0.44197198558732065,0.44772203289830664,0.45174062648344343,0.4380726541996187,0.44582115140180323,0.4331077502709642,0.4498108262265065,0.4485468816044351,0.4599359734945391,0.4945956994046556,0.44762426821875695,0.478246045422954,0.48624879393316095,0.4385641116353423,0.43603098150762026
0.4017373106801804,0.43976877191083297,0.41511924878858775,0.39425412870290916,0.43024673805970876,0.4235101494526555,0.43852624980350047,0.3768258050973708,0.4571565194985173,0.4240797513800873,0.429292285371284,0.40473588538599325,0.4472760234512909,0.44808119893786696,0.4508420852306112,0.4493747237991183,0.48051653527208643,0.4689938019055441,0.46159793742827654,0.47812569109499214,0.4624503745061913,0.458158424530144,0.45394985214122563,0.4763791614765513,0.4611382005900292,0.43800144100948335,0.48999435339581215,0.4588463261808881,0.4709191258228795,0.48985931409984346,0.42908451593088776,0.3812434866072623
0.4387293355820795,0.4673105603674416,0.43570821181099756,0.42660506758555405,0.42473459913710376,0.45666732326109594,0.46153647808292153,0.40831680837997947,0.45215947098458276,0.46294976079204386,0.454160741912602,0.4174086257032191,0.458886233632504,0.4337846714250971,0.4747171792481689,0.49201470651202195,0.5041537854015895,0.4658256643261161,0.456882291285742,0.49273090246661816,0.458028404552352,0.4443411828736597,0.45555372969161484,0.4738310256465195,0.4575122073584279,0.4231483483971638,0.4477508097020056,0.4477493383877216,0.4772956374669782,0.46608508249307834,0.42320930986949273,0.3877298713109434
0.4346445209369773,0.4418160683390938,0.4056266468781701,0.4240013813888701,0.37048143390044375,0.4149443008527094,0.37247260671385496,0.43235525187644824,0.37126956121554694,0.35698851165640766,0.4079544331162895,0.3995849181206162,0.3934113348725166,0.40999079451725584,0.4426650433805745,0.4782091679929664,0.4666055615642522,0.41725062985794037,0.4209008017775267,0.4471740634578965,0.4332735873585175,0.43152933125623577,0.43679897876377716,0.4481389948866063,0.4466661881826205,0.4356377475194267,0.4412461375855549,0.4135095021904184,0.46398273565677756,0.4431563927507909,0.4230696871903546,0.44340615265991107
0.406157238255527,0.3760805382692725,0.3474924939348246,0.37923093879794134,0.32001226645954395,0.3639885021988875,0.356076333698058,0.3924640553101994,0.3755290911506429,0.33768481736615263,0.3761207284875204,0.39623928583621904,0.37858369633443134,0.4097233442252195,0.4161249958329201,0.4369012567508111,0.45157687721768935,0.4208053117858139,0.41327481051896975,0.4018335520861305,0.39759043056645865,0.42830172439291303,0.43135461634278877,0.3619326157877665,0.3930106112927926,0.4465065959257048,0.4324832242923007,0.361009128564913,0.4477241558287073,0.45043394526593117,0.3990590929105554,0.44012188956410647
0.3749461320852592,0.37181837669052936,0.3899323072390284,0.38150018675624314,0.3175848169455673,0.3846579129374698,0.40967886094530837,0.3607779633973705,0.36928305071028306,0.37238910558831423,0.3912938376087562,0.3847822021310722,0.41024842977478515,0.3891044015843579,0.416474497856037,0.43227816986853873,0.4581529138318501,0.42726575939262745,0.40872633000905206,0.3850907098160953,0.3653162062937353,0.4144123440218468,0.4129235826788084,0.31574325561006916,0.3597441457342077,0.43730303558974204,0.3941641804699137,0.3320784275919791,0.42967280333495095,0.4430422080319292,0.38899389020499753,0.43159250341096056
0.3703785721168774,0.3888302779002315,0.4200512597069424,0.38633907217084895,0.3588830054234523,0.40852941355770733,0.40646623798607084,0.3564727236589085,0.3704848364112326,0.3696718984835357,0.4052466712712766,0.39128171049980237,0.42909750066172214,0.40662776076323087,0.456404436383445,0.4845851579109175,0.48586523548201127,0.4508814174146415,0.44085516888560045,0.4211399090360535,0.41109224658863086,0.4358147666853934,0.42190641273121254,0.36985181414169105,0.367491260825581,0.393374401332219,0.39423869070397805,0.3732529723284842,0.4378222480864437,0.40291660771389215,0.4036061086455052,0.4048007915267956
0.39759810698740927,0.4237979679084591,0.43740776900318834,0.4167833573980407,0.36542515640676093,0.4380514016609553,0.41407816871907344,0.39100808716650337,0.4047583497235669,0.38733342374516916,0.39742646419661787,0.38967200495492416,0.4156275198240147,0.4216893098041469,0.41937856985484234,0.47453829565300054,0.4726836926460723,0.4366991717212839,0.43320427057126043,0.4217085742691982,0.42178304684690443,0.4412009823496551,0.42422408473149403,0.4196312769068915,0.39947474063870453,0.36874373836817576,0.4321116246534546,0.40888907345157044,0.44711804115818815,0.3797229700311274,0.4054339328916031,0.33025107144671995
0.4055286559023075,0.4397642944790744,0.4365224385350437,0.4228410025885875,0.35863710911819713,0.4321281003034816,0.4110228746994017,0.3878986996962122,0.4264262037036714,0.4339208663294977,0.3961805342319815,0.40988144803076076,0.40757639689540964,0.41247764635182427,0.3983275732219662,0.42644946163756886,0.4391941420405409,0.41231464840025006,0.4124946563936974,0.3875355844031476,0.39340571983921546,0.40901557045218784,0.4160660180100528,0.4098321689152788,0.4305301551925697,0.37144165178975136,0.4250543032303425,0.4232409348852677,0.4401428549285466,0.40293060427782573,0.3828514471172306,0.321036302067572
0.3807472524085273,0.40350556937692916,0.4388468090874126,0.39913848290387927,0.3269779411094082,0.39813272942280326,0.43338113182787563,0.3675948722476489,0.4200411858774071,0.43514758514827423,0.42405648390966966,0.44194890719917795,0.3992792971539419,0.40685581368993357,0.4370336748938644,0.4184685708208932,0.4430535347348166,0.4308155253848354,0.4203497174227202,0.4006657799359647,0.3949548399859178,0.421639651772308,0.41170443358372816,0.41367348776020585,0.41871594494595027,0.3448295486306431,0.36193926774551827,0.4182483023019192,0.3883452740464651,0.4012437043433078,0.31859213570734446,0.39253240115548144
0.39815607331339575,0.42269793024738234,0.46117490101465564,0.4290361442583559,0.36855187099536346,0.4230976460778438,0.46277020678880565,0.38964729389970526,0.43599878761137273,0.4230284597705711,0.43348528492006366,0.42736129431257125,0.41961768620325257,0.43359567627633017,0.46283269927647225,0.45851216407133544,0.4718239466427326,0.4616084356215007,0.4413332689412262,0.43914444312565354,0.4295950857849581,0.45614866070291316,0.4247864978854513,0.4229353612925034,0.4041543996437986,0.3877893572710937,0.4010876557031614,0.40061413285808956,0.4109905554827871,0.4132700847842438,0.3720618763200993,0.4201899312745012
0.3995299108053915,0.4316240559222305,0.44938638648151447,0.4302578069529537,0.3706779381338397,0.42492738753911735,0.4308955745462297,0.3910947151601601,0.39997515476891343,0.40783259222059015,0.39787850464854874,0.40490008668913263,0.4286689801213325,0.45820906659316624,0.4484459733145737,0.464567743232456,0.48102495843650594,0.44599432632524244,0.45217773817027135,0.44107362870493105,0.4247115484665666,0.46019583011193343,0.4396499930425269,0.4022743119788389,0.4006617347952413,0.40793113942301595,0.3969782027580684,0.3948899149523883,0.4172041435469472,0.38672655733685235,0.3796343829324388,0.42909613160226645
0.3790912593517698,0.4293061551103167,0.44014806482503344,0.4248053281848535,0.35070048392683845,0.40488921240736053,0.38739636514201037,0.39028671265146325,0.37576655039028234,0.4308518024999234,0.39636473991719373,0.39209947740887713,0.41684481833978754,0.43201395701412876,0.43182147185896314,0.4343472544954322,0.4605804384050086,0.42500010410136196,0.4271790236806283,0.42125858250712755,0.40558537770360004,0.4339122607157924,0.4325425209347895,0.38424585946277284,0.3914932445783833,0.4034196877826379,0.39605182087380086,0.3861943855051869,0.41109571637252207,0.3738923938038562,0.34437621833029847,0.37409188376748015
0.41333924962145663,0.4464340667230166,0.4350082782583179,0.4408024892114707,0.4246399261975473,0.42321346761336737,0.3971689526218155,0.44819895901393497,0.41429895307753334,0.448460313945117,0.42283597425916586,0.35178581188860253,0.4003337696430588,0.4321238364446855,0.45096442899869404,0.4375061265700921,0.4500149984647567,0.42504960634842875,0.3818097448167757,0.40103241881571167,0.3477474632952292,0.3691024405757738,0.4343872609859364,0.37627579120075166,0.4279763747145049,0.48041262489828856,0.4772496246145817,0.4185235858188406,0.47956736763297664,0.4752300795773958,0.45947013069022014,0.3754336433301845
0.4003602172644484,0.43455730433781514,0.3970650290137617,0.4547432003979819,0.4751054251155043,0.4348117693206718,0.42513619700171423,0.4764675249523447,0.432356358917884,0.4300326061340869,0.4459989154737287,0.34427475330266405,0.38301322681405764,0.43264303836247264,0.47106004702447246,0.4601914718145468,0.4784785304028437,0.42072177106301434,0.3705828254219733,0.42401395733709807,0.3010665579868408,0.38335483296347933,0.4210662179288593,0.39246230999153264,0.43485385102110585,0.47485343970546284,0.4747973023366248,0.42475492589051167,0.48138556921045705,0.46800111638120234,0.47417285312240204,0.40052418626259373
0.3758486128632461,0.411007900748838,0.3813203192446035,0.3519350230087807,0.4734655339068597,0.4142287938072252,0.43191179429951665,0.4502846562260243,0.42656441593883937,0.431119520653782,0.46419179231169444,0.38204282757295177,0.3986986409784583,0.4304548912461793,0.46035799552396706,0.4748421094054035,0.4970768670043726,0.4364733624138117,0.423823829253985,0.46938303699706235,0.36286997998778103,0.4390581806499306,0.389890143775677,0.40889410887643357,0.426807161934726,0.45040617103771813,0.4418153457605716,0.4208781468444811,0.4510872413170391,0.44435118136084867,0.42693741355011855,0.3551435045877203
0.4363340146623597,0.4529803724389298,0.43476250914758335,0.38188349445889225,0.45461582896970404,0.46162513268222943,0.43895026284137884,0.4241120121674674,0.35646308115328407,0.42582031208930116,0.43764512249020915,0.40578650929002036,0.4038775750501001,0.3906563009211436,0.40447149141067756,0.4410105306933715,0.475527238565783,0.42515922816178503,0.4408598769179456,0.4766208232889668,0.4610415613547895,0.4327697175734002,0.39887111992682484,0.43669718267724206,0.4447365607452467,0.45640069478883544,0.42387533927780635,0.4466884472244859,0.4341020181255973,0.4479530520004635,0.4089889355640538,0.33907666871035363
0.4799731515177564,0.48147043145364876,0.4393056848807113,0.46716098051707833,0.4200253731418838,0.47894570696941774,0.443349110218788,0.41788424150643483,0.3568514974598034,0.38260269068696134,0.42068074156520596,0.43947919575166394,0.39446168480499183,0.3763013826407421,0.4227639848877182,0.4488802411466615,0.457394134816606,0.43506747751438524,0.45663113448671316,0.4873641586234527,0.47377797702699975,0.46161210319072854,0.4798409226880592,0.5061314271685997,0.46064259624641707,0.4817126941984467,0.4657578665324068,0.4681823418167001,0.45850293367669553,0.44561586548411675,0.44979076900582554,0.38202541541683055
0.44777710566657014,0.43296762061519195,0.4359961948646985,0.4295116205689205,0.41731919022226766,0.509847880627191,0.44455170664908966,0.42140605034597917,0.4267512420247753,0.3727914938919805,0.39736373061661234,0.4185913554707758,0.37385704840044326,0.3869124348109179,0.4759662229852756,0.4694608264744818,0.4599496641875762,0.4452305387421308,0.4550485009424251,0.4685252546670063,0.4552854344377462,0.4225070987367287,0.4256740717599156,0.47860548353637294,0.428608028664844,0.3967792772260081,0.45872219023128624,0.4341931182239293,0.4542720792339762,0.41528258428137305,0.4432353468578371,0.37932428665179163
0.3878603691014084,0.4152130021157632,0.45266134010793224,0.5051383877049366,0.4126325864935664,0.5408150362815267,0.4530280629348429,0.418081817582275,0.44529150207577245,0.39929175310663684,0.41565448746841216,0.41981437577158087,0.4147264911969683,0.37026617531577605,0.3939540114642286,0.4421174379938111,0.4429506656041748,0.4319811660143671,0.4138079474731326,0.4419798477560086,0.4771799809017007,0.44170387357147756,0.43870792046196627,0.3913419398391598,0.44051283593423823,0.3889626715306775,0.4253732238831146,0.39134281474542915,0.42679363422646127,0.4306370966838294,0.39434911887873586,0.3938576133020496
0.39653088257820435,0.4547678901673717,0.44381295772746826,0.5438095079209883,0.4405365992808705,0.552448958278831,0.46613719171071,0.42160832297860756,0.4457193236916283,0.4408162460128833,0.4611837857353461,0.45302912955241836,0.46346298348654913,0.3528812999631178,0.41194020390936714,0.44530678708648064,0.4551570842930624,0.435810573249758,0.4375323665013382,0.4554376445542488,0.4939089452135307,0.4915576098319663,0.47319006059935864,0.41803205845260205,0.4508373341121984,0.45099623160423746,0.42896301302203477,0.39150795815504436,0.4281773280188328,0.44905859362392103,0.40531560339668105,0.42642770923657464
0.41399941301695586,0.4414783795680569,0.41360966330563637,0.47688225015819913,0.4623003168998353,0.485066807628097,0.4209955375957794,0.43020878422935815,0.4507175216982481,0.44850801900462,0.46803665306017816,0.43739023948819733,0.47552785597882485,0.4026747193505372,0.4653098359107808,0.4809538093241736,0.4869274798620258,0.447493867094347,0.4754404428046478,0.46901891540604457,0.49803914436433216,0.47689372625050497,0.47234393942563463,0.44898059365852816,0.4414975243228566,0.4597666918860532,0.5032314299599581,0.42654397649315395,0.4790306835809402,0.4558662422119057,0.40052161726874536,0.3737274377010384
0.4241408129391886,0.4248563251326613,0.4308313153237561,0.42198201909052824,0.415019794146254,0.44030299204074635,0.4475982527484827,0.43337515423450235,0.47307468955030096,0.45196255983475564,0.48236805078414907,0.4526320010096676,0.47663042735523414,0.4599155034263868,0.4534004084733813,0.48170813073710167,0.48522667661213903,0.46816293238993023,0.47635969922651605,0.466491507511148,0.4775178316169799,0.4559982309663997,0.44915730942902143,0.4512680845935345,0.44379252732658475,0.471840542367463,0.4973122956031407,0.42438518958808147,0.5030702794537388,0.4719476366302588,0.38906943587475007,0.3676789430963894
0.43859623900542033,0.4529304193556139,0.46606262962400985,0.41217389685250994,0.3889481833643525,0.45356941378678983,0.45366254132718326,0.41907779654343036,0.47635496996128374,0.431992882217148,0.441889183823464,0.4723625312024462,0.47336855554847324,0.434050862967524,0.4340102284967682,0.43566942310995643,0.44944006320587443,0.4308122823703707,0.4480581753129318,0.43264203099816234,0.4183330188208407,0.4596411994853593,0.40662547135937527,0.4261248911876102,0.40153792434413393,0.47851464676562244,0.4529338504008786,0.3598572162730118,0.4614392777502116,0.4304654255335235,0.43825366662199394,0.4033738672585964
0.3883337689508681,0.3932492460496647,0.3922629631258966,0.3809782166047972,0.3917858718169768,0.398701667828415,0.40027870240021685,0.3698724520328388,0.431350881159367,0.37768752734766725,0.41591016772623773,0.4453841878535118,0.4646512737780062,0.4348106403491424,0.44593496784498066,0.41930436695161,0.4198207690502952,0.3975654887991806,0.4072338477269798,0.4019715685891037,0.3983451519040082,0.43950144805602703,0.3947077289569857,0.38149774775620054,0.3856185988667051,0.4612210298311561,0.45679890808057233,0.3457836913189485,0.4240376667502934,0.39077919915800463,0.4536709242546828,0.42385838531018255
0.4113005932768999,0.4156437106256249,0.4031754790000158,0.40386116512493236,0.4140179071164818,0.40666340843117493,0.4367686287315068,0.373273870443751,0.40598814129603694,0.3468600646248277,0.4465707024501043,0.4313192058568421,0.4404231213483343,0.438654078906275,0.4572764286824955,0.4377830647738388,0.4342463320192389,0.4089041223581038,0.4025997449771321,0.40170442381798704,0.40853721716803554,0.42681064714115713,0.39903895914235415,0.3872690118809036,0.4104320794518188,0.44791929841650835,0.46483202609864843,0.3860991764111492,0.46083949562841,0.4075798270148292,0.4515819794929109,0.42009726901801453
0.4492983380919334,0.46065523235946215,0.43504534154166646,0.45745288799104805,0.43106142647569956,0.4461033366352954,0.4507585845146676,0.41693890247086707,0.41030189696145,0.3525068743981334,0.4279095986125435,0.41038454187083967,0.4163230792159723,0.4108652088769095,0.43757151598031013,0.4399719720691046,0.44068420058630065,0.42814379958060417,0.40863549518261766,0.4149480844642734,0.40864394167687584,0.4440186381393147,0.41729718806763877,0.39952174742921015,0.4327319393187616,0.4531967274851301,0.46914822026495234,0.4157830316290184,0.48452001388666527,0.43326756436435665,0.46409948274301044,0.4297696271392898
0.44579194407817946,0.45680597690885505,0.45686811729771076,0.47661732034418225,0.4348748894792407,0.45913914252985816,0.4376466591994913,0.43459942684485825,0.4300767105716369,0.4272482556088295,0.42804189767791173,0.40083350633196,0.44337364788888356,0.4236183868305861,0.4641024672817572,0.44868400516642576,0.4691018082516028,0.44857226981802345,0.46599640233275674,0.4622678504225054,0.4627000711320241,0.4767440334911787,0.47556152104096716,0.46778324532491145,0.49026608933967436,0.4532939543201103,0.46358082237478837,0.4744090733641035,0.4911889270983063,0.4728467392484943,0.42726728142442666,0.37810335284499813
0.4647415482591694,0.44270345861959903,0.4413670642824756,0.47199913966295526,0.4598290003777384,0.44068226997468607,0.4367663473161464,0.43597864431823247,0.44136632509761464,0.44363248959699353,0.4303264397079542,0.4090302494157649,0.42080235362426416,0.4286029165929625,0.48376008464589204,0.4453671459080635,0.48378243837898777,0.43155518567398543,0.4683063834908331,0.4777169432452877,0.482493513719781,0.479930543431959,0.4748497595470641,0.48655822267058274,0.49367067768539985,0.4484043659073627,0.4471271382607005,0.4746528155885191,0.49654247934486145,0.46540947177717096,0.41541437834323247,0.32128061228258964
0.47313373995542957,0.4366568578153467,0.43603310523004674,0.4714244286787192,0.44747872515652487,0.4065687145213167,0.45930792279878546,0.4327877455495754,0.460257577164453,0.4478594704893773,0.4483877211989205,0.44024665137434243,0.41167308520900725,0.4006032459029426,0.44478851836662414,0.4313605731737894,0.4468539881724194,0.4214865989132117,0.4334834279833543,0.45424954993556904,0.41342523110416657,0.43709222150766086,0.41555183055594724,0.42519486231815834,0.4484164873813058,0.4575577211594074,0.4334199173297524,0.4436952621143444,0.5048513274111442,0.44274453990852614,0.4629789514892533,0.3516642675863451
0.469614926172672,0.47041856277232785,0.47419877706082475,0.4715783872339652,0.4230742244358186,0.4527213656632616,0.4754628745751207,0.4431974638925218,0.43894637508818574,0.4282680925966303,0.4635032323770235,0.4342113109429823,0.4277218517786938,0.40616576923476594,0.43118479406174814,0.45772081933818504,0.4534465111129636,0.43976072744819567,0.42701838396768477,0.467144750222983,0.39413327399890424,0.4305189530490186,0.4167244802867253,0.41542966959400257,0.44213756423789,0.45329959018866345,0.4466211322828681,0.4533780490931599,0.5135111582887775,0.4777177565598345,0.46062160082652104,0.41780791161523856
0.4465034511060223,0.4595096281631728,0.4499077099969107,0.4255468940561223,0.4166889236273709,0.41813919435616675,0.4624466046887235,0.4325055316904869,0.39950941594129263,0.42397595961567863,0.44202217299235796,0.39511205018069734,0.4002281518266357,0.39148349291520285,0.39930379399793975,0.4503565650587238,0.4354235435205288,0.4237475460189841,0.4341842780300512,0.4443628848073552,0.4290862475632337,0.4255283359590018,0.41794452856345776,0.4297234624961341,0.437075636508309,0.4322585785684206,0.43557498476779094,0.42755983404345427,0.4855290569837944,0.43103340260706197,0.4357745796415354,0.3992118880564064
0.40167328292984983,0.43473989371615834,0.42815081144916445,0.40810260512826496,0.3983154469581827,0.3972263987784935,0.4241149133051571,0.4465995654432235,0.4056347624575629,0.43828086125728105,0.41609481252446506,0.4051390707641279,0.3962490015042394,0.3728133943348764,0.39469085286227495,0.4205611542539922,0.4090703923547256,0.41343832249033324,0.43919332778026116,0.41683684269159166,0.43907380726385065,0.4103294228049863,0.404512992900167,0.4159982492584868,0.4101517442625967,0.37267580239570414,0.40846734463346795,0.4110259741884196,0.45888468716661707,0.42851143610866804,0.38598636219241594,0.3712334460460155
0.41652589952587643,0.4253373555775006,0.4172424288788131,0.42269688090716645,0.3935132273881935,0.3825442830843102,0.432860479898157,0.42327292097696995,0.4211934491981812,0.4431358476856509,0.4314925739635474,0.43150444975689023,0.3784955638276819,0.33908503805394025,0.4090995537276739,0.398846164036884,0.39658824160938366,0.40244376524360626,0.42382678459287454,0.3909487599930094,0.40327696599355045,0.42002124706765037,0.4300914258242019,0.39022050641646794,0.4062949618196161,0.35541096209912915,0.42899688212956794,0.39754893673784997,0.4622994017221066,0.42333900691977183,0.3820148102500589,0.4022991781509799
0.4222766522827444,0.43624375195154413,0.4375477832513318,0.41040492662166744,0.3946139702668818,0.38968920497567083,0.459014530522835,0.4242240976597861,0.45610636267130333,0.4646246787029695,0.46230671440102933,0.45727973218205614,0.39256237142917993,0.31579794319669985,0.42975564500594265,0.42646208138009484,0.4347919779934915,0.39771605808875904,0.4275257298754001,0.40567180626673804,0.40948210615276265,0.4171577318464991,0.44642720884171644,0.411811963077476,0.4415787453021793,0.3932909854846743,0.46459287454355946,0.4276156001279123,0.4545220172255613,0.4052793832827342,0.40908742970983525,0.42373506812455053
0.4382020499825206,0.4396665968567785,0.45154300885858295,0.4444413524547999,0.42553062094082317,0.42754409309046365,0.4348061237702553,0.46224187265839256,0.4651629989579863,0.47318839143488267,0.47416831816587507,0.4611776954595868,0.4320282729543206,0.3541595889608411,0.429571455456322,0.43590621690594866,0.4461792840838818,0.40542922563048966,0.43034298857220443,0.4393022391648995,0.4450612523098139,0.4103460739795315,0.4331069904209594,0.4656152313604267,0.46359803902146607,0.39260717592399325,0.43956171048295123,0.4798108200649172,0.4771591308453765,0.4510650755600409,0.44837881064102253,0.36441116855024824
0.46145852994893033,0.4071483592110954,0.4034755063173142,0.40219384278906406,0.45514531171589434,0.40647537521791943,0.40062018940181,0.41713632646588106,0.42974974096719715,0.45269350132625735,0.44782437464989466,0.4253986656986742,0.4138305949355846,0.37714017101165215,0.4008475016055609,0.4069163442770807,0.3926455805600586,0.38383205782257535,0.4223073389088158,0.4231335106307789,0.4462317204085724,0.3995857743441585,0.420406864198015,0.44872317239448434,0.46461245325654943,0.40452510024697547,0.4596390272813697,0.4770289788574573,0.5131270083155989,0.4717703498028722,0.4724981774759462,0.3524109550663682
0.4649903997907207,0.407372333958193,0.38969961016077426,0.38380954872402984,0.3605504096814541,0.39740597140208944,0.382579174911273,0.34103953700938133,0.3992830823840055,0.3834836397154393,0.37918679799422406,0.3854338195368642,0.41645959525771403,0.3224291073259493,0.35883618702890474,0.388764486619496,0.37536765761133684,0.38133665997292,0.4275239650718103,0.4153275995861602,0.43299437196383134,0.42386496867678997,0.4194302451696599,0.4105460789720141,0.47078190759412764,0.42688075469653736,0.5070090778586218,0.43756418271251557,0.5176618506159584,0.4750564826290269,0.45846863554498885,0.33258254429394685
0.4264966377063721,0.409586456977815,0.3954383267204961,0.35559858572447006,0.3252664332679095,0.3769391183335296,0.38075970309570106,0.30956764052269536,0.37909794573335104,0.372426016637843,0.3802637412020542,0.36289695609738376,0.37454807068708296,0.336453361834655,0.3597767125683163,0.37581323822177104,0.370457111453832,0.37118829861599073,0.3590408820722024,0.3893416849737754,0.3707177957355916,0.3772042807056806,0.37840197293716793,0.3699220541168332,0.37518625674617445,0.3589778628545228,0.4291449225828066,0.3590137058092454,0.4168912470771351,0.38637562217238636,0.3602540407977866,0.3310242889967133
0.424257236666444,0.425833922264101,0.39300795426289065,0.384569293051178,0.3434807620139806,0.3822730247938005,0.40425062182228344,0.36240376696860493,0.39183846082833124,0.41894640822360996,0.4010068266270665,0.4072549724753397,0.36269073842881533,0.379696277990358,0.39954458488188943,0.38674548550835797,0.38399395447162793,0.3760991610977258,0.3624734120455273,0.3761975722399689,0.36789273924894794,0.3522014191757487,0.375448712958474,0.35884273333090766,0.35730490162517453,0.38809452676220113,0.418431513304554,0.3498706909292862,0.42737094535170167,0.3777264997299115,0.3852980250985263,0.3466399002796905
0.4388991501776621,0.4369140218819848,0.42342497898625997,0.43534329761347956,0.344176978895756,0.4191315812724867,0.4203205995671612,0.425021589523754,0.40276630382066686,0.4631953744422667,0.4318873119656862,0.4234252524112724,0.3829671558398605,0.3982902541633798,0.44422028379457373,0.4189303465035633,0.40281795883339055,0.40688853559245547,0.3925431806576852,0.3781244682629326,0.38920835031331735,0.3994440052474842,0.4052348369731895,0.3700335271481894,0.386011225701299,0.40407176446136756,0.4215088713105535,0.3814961593295522,0.46456246888110536,0.4214734256686211,0.4149252274424737,0.3351998425224049
0.40751371688884463,0.4325486757156816,0.3895466938025144,0.43436464948193354,0.40716484624036187,0.41957194180828233,0.3851106983581701,0.3734723287182904,0.38749323171398276,0.40063125185299786,0.3967347093310926,0.3479047595377328,0.40375600655403704,0.36759957717365177,0.42393395543173984,0.4147840963501089,0.3968871351129302,0.3818849968464914,0.40235826430589616,0.3729576159377334,0.3851595890111188,0.4335482264732344,0.42676944984627146,0.36059855939098695,0.39660244113767323,0.4061028944336269,0.41882612816351705,0.38861457423957513,0.45345238042728475,0.437401310654756,0.4170400349794656,0.34074297166763495
