Fp1,AF3,F7,F3,FC1,FC5,T7,C3,CP1,CP5,P7,P3,Pz,PO3,O1,Oz,O2,PO4,P4,P8,CP6,CP2,C4,T8,FC6,FC2,F4,F8,AF4,Fp2,Fz,Cz
0.5505315876547132,0.5338434193919981,0.6025007939658907,0.5437789881446262,0.4685354157974349,0.6039935406809671,0.6066141580400924,0.5491944271701772,0.5846823298406106,0.5492651960556278,0.5278528851762714,0.5593055179980903,0.5977945670406131,0.5872540949065069,0.5981567790453998,0.5857655014510161,0.5645906475683417,0.5372077031177802,0.5753808559938773,0.5882510406567821,0.5923600890867429,0.5106692699369578,0.5387015640985517,0.5806477275395664,0.5350097307015834,0.5069240256661325,0.5276849405708648,0.5139555167749184,0.5208837356390256,0.5024670889168915,0.5048345243877581,0.5291578274897759
0.543367431545933,0.5195382364835194,0.6093608697151113,0.533080465215411,0.46379724780319825,0.5968711165722053,0.613734029968841,0.5389124706498679,0.5726326087472265,0.6125151496506449,0.5689887813252354,0.547497988276204,0.5768765568308454,0.5838172806146201,0.5891657666864824,0.5724311186380174,0.5518665897875039,0.4293730147144127,0.5578435548128653,0.598285538761269,0.5977595024024217,0.527197763228114,0.5502350663418911,0.5733083030904398,0.5580968471969631,0.5139557394325351,0.5299516215843086,0.5007690488503451,0.5278670896208424,0.5253449350904441,0.5090782527780211,0.5288370275759806
0.5221007322916943,0.49200104081527324,0.6167789555873344,0.5076564165064587,0.45916090224986006,0.5769249969995622,0.6208100606486998,0.5345927388354192,0.5682678578280078,0.5891224046599272,0.5603520746296256,0.5459612991135042,0.5535050896952168,0.5706802955911355,0.5863434368412376,0.571807054744716,0.5620962421594814,0.3423979657690192,0.5619087601015509,0.5839372491086275,0.5957697112249539,0.5121552115752517,0.5304910705781655,0.5871657397036533,0.5329389459524251,0.4973787907917171,0.5256727374649717,0.5002740096424306,0.5110821655837137,0.49889163887332216,0.49461169668894817,0.49493597420875324
0.5094610568041937,0.48879607119751695,0.6081101378740331,0.5089724205464946,0.45198512374305727,0.5696067883910058,0.6359887667199967,0.5268343634982621,0.5752133949221202,0.5877288380357407,0.5566547839083406,0.5476851983953887,0.557528630389088,0.586676981340052,0.5969090589352248,0.5772518968618243,0.5812762060604567,0.3240497166226558,0.5559894703030058,0.5904121270520528,0.5866773359323142,0.4900968987945199,0.4919129914221876,0.5869072862729744,0.5499700403544879,0.48776134503499746,0.5134681702778257,0.5110839883198114,0.5187090406812179,0.49708637016799295,0.4689827001116283,0.4668924900191218
0.48140131029701966,0.49441790065647057,0.5904158695780761,0.5294229475815802,0.4479683111753696,0.5904354224813897,0.6027009574839084,0.521419172191924,0.5754203483600893,0.5984107242366473,0.5638733000554368,0.5448226722639623,0.5526091419098982,0.5837618302406413,0.6018966450524568,0.5793593559708501,0.5804943543675889,0.30484225685237365,0.5530583873892636,0.5780376683469286,0.58296608781135,0.4880076087674862,0.47994968812511646,0.5821686725978958,0.5240798075179237,0.4359547044948482,0.4915716831230568,0.4997411225304378,0.49270370249713247,0.49341525755809756,0.4633107481584774,0.47480131039771334
0.5592252946664695,0.5337819551256193,0.6126038900545279,0.5772341622786619,0.5359037036137962,0.597696934924451,0.5991043133177424,0.5302158826650291,0.5611400842735718,0.582817258881328,0.5396692751609758,0.5164497980236495,0.547466158503835,0.5702106115228607,0.612761780791899,0.5936943082919567,0.5731706805452805,0.342991010932583,0.5602587599168523,0.5743158168905806,0.5925404083691665,0.4707325621586394,0.4845663507488895,0.5974466513879843,0.5616753666372098,0.5174010355298642,0.530356742975992,0.5272252782990658,0.5641915895927057,0.5596901512000043,0.5071784278299906,0.4953636803391245
0.5475106409550135,0.5364847831748834,0.6111280727778555,0.5986616459104406,0.5502282981406268,0.5821272635183066,0.605498536151349,0.5277839039420409,0.5450854174542641,0.591374532412118,0.5478795719324542,0.515869297574633,0.5477849788315566,0.5736988655845006,0.606921614118161,0.5966778623950239,0.5974553699152172,0.3788640275233794,0.5608715962129829,0.5732339057316636,0.5912144599951271,0.47083603165081245,0.5024438332990854,0.6125644285896525,0.5662630570878207,0.5137264402595672,0.5459263470668959,0.5721599328429111,0.5660570992744668,0.584628392193858,0.5280180243063636,0.5048358464143701
0.563319085566755,0.5555809122990557,0.6179397030728064,0.6179998203429616,0.5977135744409735,0.5632135023638503,0.5845959747949281,0.5297628247857414,0.5632383836968577,0.580795216802184,0.5769747440307857,0.5172565140962812,0.5350107905543456,0.586495717490302,0.609864082465376,0.5992329991210009,0.6186032159394218,0.38727532066547904,0.5743431474175748,0.560138299486107,0.5939744444830746,0.4338091602419746,0.5164844006398482,0.596253079528252,0.5750918953034483,0.49866368101966513,0.5567268134900638,0.5575034634085982,0.5713023354846024,0.5908919925182368,0.5276418350167075,0.5211739921264691
0.5329100546762848,0.542604442108886,0.6169761822477354,0.6407575305604637,0.5981715272365109,0.5577732592941756,0.5638212612408199,0.553189378919173,0.5598967262713062,0.5992790306225759,0.5981648158708328,0.5156644822528018,0.5487239171547423,0.592076994608607,0.6147286408575422,0.6073393674384304,0.6168649006099535,0.444898303322817,0.602072864543311,0.5689317081643808,0.5960846638586164,0.47038177256655844,0.5190564517578707,0.6047251332680981,0.5968711651945174,0.48752869892147327,0.5785311517855788,0.5743822580517237,0.5829683262620471,0.591492746071117,0.49940334809651576,0.5058947530186801
0.5296053028364379,0.565882319470093,0.6083752342401691,0.6491258276564226,0.5998810198346582,0.5696181654315255,0.568696635053681,0.570729406523132,0.5944165970683823,0.5981197285820795,0.6080971737466992,0.5520827325759703,0.6144838717157758,0.5848642651855743,0.6084579144163759,0.592694780190963,0.6264208448972959,0.444973632459288,0.6113737817703772,0.6020647334456841,0.6164322629790835,0.5448190724252183,0.5836900973589332,0.6159396429351439,0.6002861322031007,0.5271855037714411,0.5892110428462177,0.6055339739902824,0.597024190827103,0.629926058690728,0.4910477569961309,0.505239017057351
0.564177100150649,0.5805055444039805,0.6062940038838821,0.617926448647485,0.5892810295189547,0.5770905701592001,0.5813141503965015,0.5941561131875988,0.5807488360573407,0.5893790514107657,0.6029780739304925,0.5732039252033682,0.6189573139135823,0.6004173009351289,0.6183824284433009,0.6117439284588487,0.6424320879809289,0.4633452195529494,0.6156386067292813,0.5744014703444656,0.6000165087567321,0.6062640169175006,0.6130137199611855,0.60907728395504,0.6259324200650851,0.5583683266768459,0.6125545531897671,0.6121953480426902,0.6004073544862859,0.6315204542403694,0.47412528055078834,0.5288682114370287
0.5733658351155344,0.5777072422098584,0.6009390468421726,0.6230123880393419,0.598830348208079,0.5763464324583798,0.588074010904599,0.6070319412770293,0.5899599038822694,0.6119039658615433,0.5914241348115413,0.5944012670872911,0.6132047314102577,0.6096241479990566,0.6163831643481072,0.609550652786591,0.624786650947799,0.46794715458283714,0.5988142708800726,0.5777825257678435,0.5837060063351465,0.5817016738347385,0.6130082721290974,0.6060691524555509,0.6169180208627132,0.5296258882661378,0.6074917359814515,0.611116928517538,0.6009842169840655,0.6239346736668836,0.46557721109996963,0.5212430544814429
0.5904742157529055,0.5789571587314023,0.6053260112689227,0.6276974976281285,0.5906271641888706,0.5790523301404935,0.5848355300461121,0.6027675424905719,0.5951788459218891,0.61553535058182,0.599578772099142,0.5791322046266948,0.6071114901690801,0.6096282098409691,0.6067580895443205,0.6004958206078649,0.6115043401202382,0.5298655416468045,0.5880846053907108,0.5755828053902967,0.5853726625228379,0.5805325259865991,0.6287907921976705,0.5847957504442721,0.6191500424323828,0.5317564241683541,0.6258279914391331,0.6040380054881694,0.5954189588912822,0.6026634641165621,0.4566771125402055,0.5190228923991164
0.6181099842414831,0.5935232808345803,0.6239736569182257,0.5916031098701012,0.5919649634894167,0.5970161332097674,0.5863653559655353,0.6071383099199413,0.5993837914739191,0.624827936582468,0.6132742954222674,0.5727236667955972,0.6182419027072402,0.6221694871413529,0.6096550041331513,0.6226310229394264,0.6027966009729594,0.5479377880842488,0.5799647125453913,0.58114897072454,0.5870757693529127,0.5802154705624498,0.6324655939420459,0.59065576899851,0.613195943272935,0.545976687148184,0.6210103949447127,0.5795859895931172,0.6181219807363254,0.6123858239154869,0.5297477410332053,0.5389965007326869
0.628676339027151,0.5991136175675713,0.6261587194454235,0.5749787689036602,0.5943195859437419,0.5884133295004117,0.5964230733373111,0.6028374144331742,0.5677387229040141,0.567384414493918,0.6265209999389983,0.5831229592822388,0.5984694896203052,0.6263161221378275,0.5981702785457408,0.6317251584445611,0.6063453185439199,0.4784734657255638,0.5849146867875465,0.5843443207111462,0.5879908924122744,0.5720420730013086,0.6213073320610658,0.5701870713769286,0.5898222280787918,0.5542651745056395,0.6250625564156235,0.5899195912394462,0.5936934990254669,0.5893586833040632,0.5594210522884472,0.5433576660777435
0.6148202218197558,0.6028561633199595,0.5987835223596513,0.5682453077209645,0.5943437010646632,0.6077836659263576,0.6057016277222794,0.5996757052191376,0.5666784404009013,0.5685562953828021,0.6131044728864089,0.5845660502020769,0.6063251795769415,0.6250631078587917,0.5998685962563037,0.6149389030242517,0.5998919449678084,0.40683732101645115,0.5973474845510179,0.5858422738559306,0.5949538023341724,0.5872648803872804,0.5995002284159668,0.5941103421981594,0.5893888849052826,0.5700091860184987,0.6140266665826792,0.5831048598100822,0.5797770722341646,0.5795006554553422,0.5947906425691601,0.5853496315191056
0.6282566087234379,0.575428311222683,0.5929880990589256,0.5706773156215966,0.5964897366862426,0.6145024122811661,0.6028590341155,0.5951391291816751,0.5627853626967017,0.576400337728123,0.5983948808258774,0.6088814764346726,0.5955087109960292,0.5911250143641882,0.5921246824172143,0.6020352953122095,0.5926210266564144,0.36903079862558424,0.6001845980810195,0.6040610146938169,0.6257547895586779,0.5841938060733135,0.584819303674317,0.5942702228471053,0.5952645248143715,0.5990133050626703,0.6127923699790893,0.5768242898500482,0.5732465197017828,0.5680826844994642,0.6123579256326243,0.6045368265746959
0.6067857873436056,0.5807586149262891,0.5853420443587762,0.597818851770602,0.5785610592890298,0.6296711168343003,0.5902746834553371,0.5935443358721235,0.5651276604323183,0.5563727556289991,0.6107596780721444,0.6103254552889654,0.6044680555695674,0.6037188839647769,0.5771000528202966,0.5956688268248431,0.5971058650973923,0.34725902523577207,0.5851893994639865,0.624651945311181,0.6250793109646102,0.603495613779772,0.5960302119021124,0.6147636735325217,0.6149429972042009,0.5977340845513732,0.6134961579766081,0.5966743064962426,0.5957920445459046,0.598368774232656,0.5857358422523506,0.6064339994872412
0.6130094938834815,0.5755739184442596,0.5799114601355247,0.579451704733761,0.5778963418499831,0.6292069244716274,0.5887014943502415,0.5945691247396118,0.5855534215029338,0.5637884529456727,0.5894794287426394,0.6042375944346811,0.5980541505815012,0.5882552371042795,0.5577551940761338,0.5844626891211232,0.5943067302425598,0.3343718986897045,0.5699619766303992,0.599333763472824,0.6008454742463353,0.6163569526924815,0.6050984722017586,0.6152114525364589,0.5993887900237211,0.5893503868783018,0.5663655027200154,0.5701124527407657,0.5808322627675341,0.5834393528711866,0.5993259579336742,0.6080717496317987
0.6173953724196212,0.5512515002378894,0.5752965202205268,0.5569280156737865,0.545122337473868,0.6329545428532131,0.5967919079853681,0.5937582870595363,0.5960696687396727,0.5613758353243589,0.6020458183187904,0.6046960749684833,0.5841549194903486,0.5843171771133693,0.5641003417048392,0.573593862644563,0.5976456934640219,0.3506206541981167,0.5595314033102512,0.5878923787348724,0.6049976988293899,0.6183299885183398,0.5966493521599643,0.5914972442986547,0.5883910771296457,0.5721639908352975,0.5482831863008912,0.5589063723852353,0.5771815091676467,0.5945499269412892,0.6200447142480744,0.5935012338283223
0.6238494614681543,0.5666693599820836,0.5775943809794217,0.5507494594513557,0.5332107005833074,0.6332651191869546,0.5945536574157062,0.6159071687643789,0.601416894805438,0.563613128368043,0.6119217406373595,0.5962656140802692,0.5995945892564712,0.5838525051534464,0.5761026428324063,0.5771283869694149,0.5844948679019042,0.34720511260044257,0.550980360932153,0.5834301188464251,0.5871211074732245,0.611664419705874,0.578460965747781,0.6081614626019318,0.5869705381939616,0.5663350550023498,0.5412626479948214,0.5524742716935809,0.5722263952315947,0.5725339628383131,0.6132657502031038,0.59439357897786
0.5938273450386817,0.548162467746767,0.5577037414637972,0.5303051540274465,0.5108646017629163,0.6314347505694955,0.5773857390728646,0.620309856607679,0.6127642789725989,0.5641422755715,0.6084942952296085,0.5831654573085387,0.5731667230975848,0.5758170900843513,0.5831324011812002,0.5843028077002708,0.5900191646333789,0.3457080530908574,0.5582736969191622,0.5854712973247898,0.5837403800617855,0.5954191347500319,0.570701920774553,0.5962998820276958,0.6016203951564929,0.5488796159404717,0.5404641179279884,0.5627683029449208,0.5848143424463138,0.5713008207055041,0.5985986734255462,0.5820002676313106
0.5745745672865443,0.5402835700850545,0.5441255242252343,0.5351986097739772,0.5029788260612862,0.6216220965037218,0.5638659809970218,0.6435777449698196,0.5852825409526489,0.5456085994881605,0.6039260081819647,0.5755078127437631,0.5761669767534198,0.5762571581057319,0.591592998325783,0.5765779562557407,0.5907448234598724,0.3274523777771376,0.5667931770913108,0.565968523013818,0.5589066606920168,0.5951499797294849,0.56950462006467,0.5783359152927192,0.6167545810441061,0.5329941827651736,0.5508751967063086,0.5880537232559562,0.5805964027211866,0.5647841480207286,0.6051613029247372,0.5778823060405232
0.5670909365351171,0.5307274904631295,0.5493897811869353,0.5278865885630253,0.48588553061149836,0.6140098600012215,0.5714571054457085,0.6281716919694961,0.5732267160142617,0.5481103501190151,0.6013084457893743,0.5510963975083728,0.5839144432196096,0.583578456146241,0.5773394966001186,0.5686474599657705,0.5780589336542171,0.3142901810952383,0.5714187043185646,0.5680020652061958,0.5507992781313141,0.5751316524170038,0.5649433054878983,0.5646305315106072,0.6074516971201985,0.5150755239153199,0.5470877548795268,0.5880856632598556,0.5725191927713306,0.5736572314914895,0.5994902053028646,0.5905629818450618
0.5601720388189074,0.5163575527670153,0.5311638863945207,0.5156144879462737,0.4793202836985732,0.6009673197459187,0.5965768367675606,0.632245027065758,0.5929413154907834,0.5724340030110882,0.6050174437147026,0.5869549924757418,0.5803909285187676,0.5801224928233027,0.5785789886431788,0.5487459350365899,0.5359308089695647,0.3360012255960807,0.555439969457803,0.5413450876848852,0.5461111937721219,0.5758587005383594,0.5650446032640216,0.5723780395492738,0.5894734800335986,0.4973404641960083,0.5335017202450334,0.5580380857938051,0.5697265048820022,0.5295591573598273,0.58115200658537,0.5975370157526209
0.5839478885949533,0.5508551708359236,0.5532786107269929,0.5399949263753216,0.4818217921534946,0.6043340012810525,0.6022464942547483,0.6276104289297542,0.5964641530752933,0.5715979375522008,0.6216415021066496,0.5808571813067541,0.5673920917516986,0.5989019302263886,0.5865843804170486,0.5506245387278061,0.5475653987282166,0.39851718933936753,0.5923703725382532,0.5553606158158779,0.5603853147144512,0.5871258987371255,0.5811571919128273,0.5901289472316557,0.5811897673224641,0.5046178708866514,0.5405571644301719,0.566946303351677,0.5712079225107372,0.5438334879554073,0.5915455671126332,0.601259795590942
0.5890218094354726,0.5682286560024624,0.5747472317226411,0.5553285751981394,0.4746201147172997,0.6172572206526868,0.6030178018040823,0.631278714084096,0.5644999350516992,0.5727993833027238,0.6271391514430142,0.5808527133352959,0.5673186075814307,0.5962368388444717,0.6056334172246574,0.5453141506183834,0.5440121368501986,0.3804655199470261,0.5988790551856061,0.5533246384493868,0.5608613119949306,0.5841221177764587,0.5892679680305192,0.5738954555711637,0.5504179714307912,0.4939115541313325,0.5278616514482425,0.549374931467343,0.547939258273587,0.5530026978084503,0.5878164051213066,0.5852055059191786
0.598769153429815,0.583096055544265,0.5705559810102264,0.5541980696237343,0.5183166038068779,0.6029456632563366,0.5986367893287435,0.6351480773052034,0.5505172967163221,0.6032935468013856,0.6162930855765311,0.5636338051180723,0.5808436106681873,0.5888547914431379,0.5753641449035618,0.5576056661223358,0.5316644923263942,0.32792056343361975,0.5976450720934383,0.5531571225914054,0.563982185258891,0.5743879376571259,0.5808708913654838,0.5595428617731297,0.5558463531786874,0.5231660183590076,0.5599788565956939,0.5463067177029186,0.5462614596825948,0.5533209837840682,0.6032712928748557,0.5870999527546639
0.5788771113491842,0.5427177401684452,0.5443333786732173,0.5568438077046993,0.4942963218147801,0.586749984625112,0.5947160992991293,0.6093772974944865,0.5470210027840204,0.6047678143008908,0.6176575837909036,0.5541319247977876,0.5946472053875203,0.5931831150090622,0.5722636516616432,0.5664773096556003,0.5401384621268804,0.3007996853737213,0.5801180758423607,0.5368659576727406,0.5334134155413986,0.5547759208366522,0.5395990918928315,0.5287263204316512,0.5433469129727136,0.5609038422814048,0.5772070928006614,0.5288484825363405,0.5822582646851826,0.5626014414643475,0.5685226130868452,0.5788842068012997
0.5476774665575413,0.5192361022745872,0.5279686582648156,0.543989702209936,0.5308780850553569,0.5746039304554563,0.5989239429763387,0.5839873659152379,0.5507189320976859,0.6045571401208577,0.5992581973682122,0.5696967629212264,0.6072818438604605,0.5925430367694473,0.5597391102384175,0.5692148941806062,0.5293282206308456,0.2761752151353083,0.5983009302466601,0.5505492858236238,0.5431331587961409,0.572985783511108,0.5555387720955404,0.5098984881270723,0.5418333820678867,0.5535612790267165,0.5707974736097893,0.5240708505160114,0.5734529868442265,0.5686805691650503,0.553951615853316,0.5796864733371124
0.5173577827677789,0.45024555701658825,0.49784557132592167,0.47354973225248603,0.5258417120272608,0.5535649165609776,0.5900034691794819,0.5414021880602,0.5331471440816542,0.6075258851548009,0.586149803826528,0.5682956688339101,0.600011055502549,0.5862236412502025,0.5528881516538804,0.581070013802574,0.5205434713574207,0.29424857806126575,0.59734226099319,0.5447420452195921,0.5442953553131484,0.574527562794436,0.5554993684039219,0.5120717298462378,0.5432267196647474,0.5474574849056429,0.5674367602968245,0.5095294473045441,0.580247092592309,0.5599361239350297,0.5478737066872713,0.5510407038646533
0.5627731795350494,0.4946342873630934,0.5523093908513235,0.5194817843251126,0.5327854147773886,0.5716299085864465,0.607940666572209,0.5140385735163149,0.5318425207178725,0.5945930458109381,0.5762417228449209,0.5612524780087876,0.59959845426545,0.575882474556098,0.5486710434414362,0.5818765493868688,0.5338227494170591,0.3046685250082118,0.604452895543038,0.545644419696768,0.5548623624669953,0.571537907208605,0.5862391902924374,0.5021308388445124,0.5318648957908333,0.5542297785058521,0.5462626719150622,0.4843673363485353,0.5796652268029525,0.5568647545635328,0.5806109739515255,0.5301752242692136
0.5644472785994944,0.5077343020628275,0.5644911943762411,0.5276212977504633,0.5289134749917992,0.5621545047089445,0.5972232279607432,0.49414930623086356,0.5116820272960759,0.6120660187134018,0.5813955494460457,0.5494316572318452,0.5894258873837717,0.5968033503913701,0.5864725832079174,0.5655967501974158,0.5673063638491027,0.30388829871970324,0.5925272919696621,0.5621269181215414,0.5500757188699418,0.5760792412388522,0.59399616344056,0.4955905791596878,0.5307274008527976,0.5313475101384505,0.5342852167907188,0.47278269541600143,0.5402559467429938,0.5401166980045256,0.5659207347652505,0.5342298372898409
0.534798944026176,0.48638222196991565,0.5115616442528386,0.5110737319424278,0.5202019664097083,0.5514253227425311,0.5929272870481158,0.5047659656128717,0.5620931083413531,0.6397793323450329,0.5974346921175794,0.5630977383158058,0.609462587222273,0.5883623701569375,0.5585083469653098,0.5754111009761647,0.5851607928601272,0.30882141132614094,0.6048997094697872,0.5493248611241262,0.5331285525420052,0.5826946696685923,0.5654408012402113,0.5000901055444857,0.5147508192928445,0.5300073258637047,0.5207923468525191,0.44504991323081483,0.5052066891568591,0.492989723307371,0.5651555894026693,0.5467148977176186
0.5527025666370542,0.49541968353358723,0.514152784761869,0.5144286410931836,0.5032608510022181,0.5636724569740744,0.6170316683061446,0.4898638121550424,0.5556975755024983,0.6279303047572342,0.5984983204970468,0.559545447134212,0.5837976369231208,0.5891632568036412,0.5608586030713131,0.5608687143415393,0.6060533803269142,0.3059427357852429,0.6079759326239014,0.5551861018438344,0.5370772560304713,0.5538231476792621,0.572582501941685,0.5127864479401328,0.5404611719784094,0.5383121735976231,0.5251603538420485,0.4471163588331674,0.5012483727724599,0.5271836525926332,0.550523019219551,0.5426131412028754
0.5354817467598028,0.4800400838257687,0.47420102011467774,0.42818274916243143,0.48723314152050146,0.542450673132007,0.6133525283103496,0.5042872217556612,0.5291327712103467,0.6177661013442144,0.5968160716215132,0.5419069406757406,0.5869136836157741,0.5872442011461358,0.5582278626605747,0.5615100371709585,0.5919032986347428,0.2947041724453439,0.6039610275465289,0.5851926297250722,0.5505601675377536,0.5759662615934374,0.5548680242402557,0.500155234427636,0.5293937459248966,0.5203453841065865,0.5384889637984809,0.44794524074811615,0.5007341703367757,0.5156918134171636,0.5349037255789341,0.526918201144503
0.5352676027379212,0.4693774271409145,0.4517841994908241,0.410813760869791,0.48062038355188835,0.5325439012694992,0.6186875785984582,0.5061492677175524,0.520781583364033,0.6212649487651708,0.6084263804880511,0.549434261527453,0.5815374471158263,0.598462350717464,0.5758775301939288,0.554052491250094,0.5852925221008966,0.33894107631683285,0.5916949517793447,0.5890644947314716,0.568086539108608,0.5921014146065123,0.5819860075138186,0.567950653640255,0.5643426428419278,0.5290250592492604,0.5554198049804153,0.465556816337939,0.5198436622780043,0.48956030239460435,0.5305246831474177,0.5726812416329395
0.5023583605181564,0.47855851748849493,0.43757122289598965,0.4048354248180431,0.44889210543133434,0.5229208553461484,0.6027350823635605,0.5069216484294949,0.5277517826158141,0.6235697851854277,0.5894980817591249,0.5736328583077435,0.5607088335422677,0.5929690564091022,0.5786517276551926,0.5515875693034147,0.5797119778396651,0.47544665519008206,0.5634549487042622,0.5848661883312778,0.573510183517589,0.5596157879354228,0.5740384745328011,0.5666287943017794,0.5536632926001244,0.5136974697029293,0.5401362548033053,0.4870400360016581,0.5040682242970035,0.511252220115366,0.5186764982417295,0.5726569213375402
0.49835114971272143,0.49717161944101784,0.4476422166150481,0.41764777664956676,0.4483318907819319,0.5463984590283548,0.6030966368735394,0.5111112972431514,0.5411120081855063,0.6098119226371486,0.5894481712129042,0.565208507680214,0.5827561117134029,0.5971984990844657,0.5571262014144437,0.5443988221305623,0.5689708452019321,0.4860649756398374,0.5600893849132541,0.5958933655470493,0.6027836748790563,0.5768348591489916,0.5748219337532613,0.5516267955811675,0.5512294922294693,0.5183422134719031,0.5691484506427145,0.5176316782349902,0.5177660796190205,0.5159112559277319,0.5040842013546362,0.5727319282941968
0.4946407885373681,0.5015178405804864,0.44100505185932015,0.40500488593825235,0.46908917523368926,0.5375946846626104,0.5896854458713465,0.5089351086541826,0.5498381337121904,0.6082081666631324,0.5900095937311093,0.561401625349391,0.5772572562954763,0.5966515273265658,0.5730617127900622,0.5533568028396506,0.5629129953141686,0.43763184279799666,0.5742978031161752,0.587786664902119,0.6143258117540227,0.5741355265983416,0.5917987402085381,0.5808038026616038,0.5663185714730422,0.5587673092067892,0.5631880823450094,0.563948024769873,0.5180539454082451,0.5282109331066769,0.485238252203499,0.5713156289032157
0.5261754227839638,0.5560216648378999,0.5102131255601593,0.42864827764708485,0.4585265947614468,0.5650740824350997,0.6222188613236032,0.5298778965162527,0.5543155657952553,0.6085367651078537,0.5815266246100963,0.5630843079549481,0.5788763934772382,0.5745804335200108,0.5655027352749318,0.5721619773235072,0.5561438606238663,0.4014187534976931,0.5513506031044001,0.5895937441575846,0.5988818467359076,0.5592694915715367,0.5733262391646413,0.5464910602421545,0.547818337482959,0.5507771721854605,0.5532044717345475,0.5619950419723901,0.5240086810447155,0.5506662289474091,0.5144593887069887,0.5904130616843382
0.5314769788273008,0.5286459171414022,0.49200222701197677,0.40957992110884944,0.4626822884394765,0.5427288431086149,0.6160453241028774,0.5565896411452752,0.5708887893929986,0.607927718037924,0.5701657158997228,0.5736058760418196,0.5610112668110577,0.5759019749306047,0.5574064252784565,0.5527015192833417,0.5540073259433784,0.38868363114616095,0.5056533021367664,0.5506185454251455,0.5793746246944479,0.5574834394126227,0.5767351558579,0.5306421015736007,0.5228337733943872,0.5470961162702546,0.5709889426030346,0.5455890634716892,0.5206827358772605,0.5589733208397613,0.5392477096770464,0.5898583323636679
0.5251554493208157,0.5141822208579452,0.4751313741660665,0.39057887883369014,0.44439840145281045,0.5374113119095216,0.6174153301832918,0.5689740516369975,0.5832898294497891,0.5752771664480705,0.5699903569339623,0.5479798834132416,0.5858537225115723,0.5566058528848288,0.5464644217418837,0.5223044803935859,0.5546015245873996,0.4073449008951937,0.5215888736236477,0.5424610133585875,0.5810959330736796,0.5773199830446,0.5751060604052651,0.5331303316093345,0.5193585684660267,0.5779938320971103,0.5891626637713084,0.5499243400038998,0.531365930905076,0.561917792956849,0.5633689017484071,0.5735524536742957
0.513980591908786,0.5034846163882184,0.4837480265022085,0.40122214073267276,0.4575851761311523,0.5149555071636697,0.5882762750957915,0.5696967629212264,0.5727419055448286,0.5658927799064452,0.5732195219546569,0.5328626189714208,0.5973370146337077,0.5510189253607103,0.5201060483294515,0.5318568006135291,0.5481186388140357,0.4167028877243304,0.5413779931441473,0.5718821177549769,0.570323457886639,0.5916508706489484,0.5771017648021026,0.5371590049900693,0.5153324473957501,0.5735578032040599,0.6017974019717175,0.5252238592585259,0.530677598443068,0.5711181001650206,0.5461992639431359,0.5595798483857414
0.4894827245654237,0.48023216745002245,0.4755765751449659,0.39308309186054935,0.4748114430205297,0.5106813652544883,0.5816805598173229,0.5674948818632017,0.5753323539607988,0.5909667356513069,0.569038542415973,0.548724527736801,0.593892222464604,0.5756713308631908,0.5398205338839499,0.5426196931021074,0.557854828966476,0.4245240673573074,0.5287759086431396,0.5869355751519698,0.5672463024193997,0.6033664858215111,0.5809351899530173,0.5135842462050704,0.5099077714757618,0.5721240676226482,0.6039402575203311,0.5098080191193098,0.5260263329006218,0.524739097332772,0.5392018898272483,0.5559350433435757
0.5086515621718528,0.4805632671481817,0.48421003192567075,0.47207083360144625,0.5204000051286708,0.5304600094668432,0.5811411866680586,0.5760779153883246,0.5927864507766074,0.5786620833850814,0.5735759292398759,0.5696124476993383,0.5861108546669207,0.5826499012368324,0.540354473525007,0.5391625631171708,0.5788661536630151,0.4295050862631016,0.5379213474197857,0.591539923137033,0.5762873639258986,0.6136873031981882,0.5896913319106848,0.5330768217123871,0.516341357551293,0.574484945365506,0.5893060081502292,0.5095872335148441,0.5387477135688213,0.5310998892881206,0.5401267779396012,0.5598308031664966
0.5171886903565897,0.4886681200658904,0.507963814843715,0.4729234620119665,0.543534076915414,0.5312155076122766,0.5780462812321878,0.590666662330399,0.5885544872775652,0.5805037629508671,0.565582602170575,0.5739570634164176,0.5840195808916469,0.587786664902119,0.559314990820807,0.539318345473777,0.6068476318124973,0.4613528737466573,0.5453698595376597,0.5991696329009374,0.5876613202040357,0.6040477062834052,0.5809853565288625,0.5732267160142617,0.5639527900201653,0.5757341726598652,0.5771715525660347,0.5364753131514847,0.5469354279895835,0.5431175346530028,0.5578118276064942,0.5578146097553609
0.5252175969352304,0.4969260949567413,0.49946163695491036,0.4970114606400151,0.5601184267999886,0.5249002174923616,0.5824690575607165,0.5602235059729656,0.5974572481140674,0.5422294257708304,0.5536866824597758,0.5683349353228564,0.594420733043895,0.5833118776341258,0.5786711256403494,0.5369227889894647,0.5926698920011544,0.44850511593472026,0.5522512460494653,0.5768020326408335,0.567965666903535,0.5923298093349807,0.6069260051128165,0.5513309906248909,0.5840665289763236,0.586562032138851,0.5993799475433302,0.5529385079317405,0.5704432210893632,0.5360102837144334,0.5647938324615887,0.5512754560192037
0.5411740115161864,0.5061660243438347,0.522059798847321,0.5196248320499481,0.5688869479886183,0.5501262953409353,0.5941243954866682,0.5876540257136764,0.6182112675349093,0.5633708032574324,0.5777746200755652,0.5708170647008001,0.5850439042315557,0.5907309243118068,0.6054625751454211,0.5558676700426933,0.5857666476878265,0.4720220873717517,0.5701793321627834,0.5891980977405267,0.5777712711561207,0.5931590379570926,0.6141892295178532,0.5665228467530676,0.5861665157886138,0.5961783225383673,0.5970948856937321,0.5765662348351759,0.5604688119571215,0.5493735204488406,0.5668471924818159,0.5641578093699235
0.5683156978109686,0.5309303412964963,0.5420266819956293,0.5620941039498897,0.5699785749709693,0.5727583637242836,0.6086284462653009,0.5720316019478814,0.6035917908010743,0.574478483699624,0.5755650893431007,0.586498940571126,0.5882199941152882,0.5940379062008061,0.5830211116669745,0.5183586160735357,0.5677698452175178,0.5052162722263023,0.5550322327926087,0.565376213493277,0.5496193265674875,0.5995313921887943,0.6178220099600205,0.5614133796472293,0.590601069158189,0.5941509426423339,0.6048370008836463,0.5782970508211284,0.5806783405337772,0.5686430001299371,0.5900749954201313,0.548809513958044
0.5507924773540375,0.5319109766250361,0.5360852905252286,0.5587114488551784,0.578478879383722,0.5623252274682008,0.610445475453288,0.573483913245501,0.6066587340847682,0.5824871433552715,0.5811451447879985,0.559772934160308,0.5904930264998619,0.6083970363100784,0.5718958955087389,0.5294773335469067,0.5622617650932885,0.5475391676213627,0.5780647411789335,0.5980237994272245,0.5458859241228905,0.567786828119524,0.5878754787926699,0.5570944777770592,0.5835579663523529,0.5449178063852823,0.5917015218717303,0.5763113185224,0.565338756348893,0.5568588555719653,0.5795254120152052,0.5763159772525575
0.5259012861714379,0.541986039581053,0.5174087479103149,0.5622512109501417,0.5979729431766623,0.5765650425607632,0.6002458112802985,0.5536626190659915,0.6125106486409304,0.5345336307177887,0.5942389064115693,0.5688649472605318,0.5959543519410039,0.6087684727354032,0.5529324421616553,0.5515199606980197,0.5600871525446686,0.573543297243624,0.5986091163907142,0.576530613183851,0.5649290364218855,0.566952577999277,0.5858128620004074,0.5786942680406612,0.5927360563329822,0.5558955716628861,0.6022623626568953,0.5794731380319981,0.5543958384673656,0.5616356388746191,0.5744102714238642,0.5902235789243337
0.533119473612346,0.5506190770690521,0.5296441873466429,0.5830641059479456,0.603378961046494,0.5817851249712798,0.5875412209541483,0.5753293253558642,0.6068750580131067,0.5484521374095926,0.6011228498173784,0.5635648636742923,0.5693047509830342,0.6329179310104727,0.5616156902461727,0.5272248105651083,0.5431506545750366,0.581239214819237,0.5810114892667844,0.5712910849706679,0.5731672109385153,0.5779739189024071,0.5787119429266533,0.5948697490416761,0.5774128519612077,0.5558769067384743,0.5922787689088894,0.5725891521948934,0.5485118097639301,0.5595480487313325,0.5796301640331625,0.5983226144594697
0.5364409153908742,0.5488120374494243,0.5421568441841522,0.5842145838501429,0.6153101798463567,0.6064183293526723,0.594908740976532,0.5861820432484484,0.6059207382433938,0.5470860313047293,0.6267514882664271,0.5507696264365279,0.5457917260115771,0.5999867686921132,0.5304287448394085,0.4979484549757875,0.5178304629410387,0.5556188371904632,0.5627723330412057,0.5627375946582872,0.5770770984705962,0.5506515493294689,0.5813953681158237,0.5952204418629774,0.587344773600187,0.5671270803046045,0.5898831017286471,0.5730834395623585,0.5496096747578425,0.5544050072226528,0.5833562480780032,0.6074739011094352
0.5244370631769769,0.5348821417401012,0.5660969902741644,0.585083462420492,0.6010989051254375,0.598932214221082,0.5782393179741203,0.5806174809310746,0.581100150088745,0.5401823617610524,0.6157932843125984,0.5247631316097724,0.546077162003218,0.5983084486988212,0.5171285140961064,0.5081685715290235,0.5184292431044716,0.538710398162965,0.5648786547013035,0.584708903805073,0.6084281763699144,0.5586415334336227,0.5906113968363937,0.6150950783959827,0.5963574916826625,0.5584819581151752,0.5721250419641309,0.5796140450528912,0.551999803197855,0.5562012261823179,0.5690205372915383,0.5867637481806298
0.5310873059272874,0.5405527461835102,0.5543490317505735,0.587503418901075,0.5983778127593762,0.5795104395951176,0.5878766779540724,0.5531483614655436,0.573642974082789,0.5381773880589023,0.6095604644516798,0.49776797397601846,0.5424194135477338,0.5866929600290465,0.513033360067712,0.5064717061432182,0.5120273922268651,0.5338343777538208,0.5117994014043216,0.5851020176324111,0.6108169121768183,0.5595072554750663,0.5756741490666266,0.5811051255686365,0.5713380723868942,0.5585491211676202,0.5604359037817406,0.5679840376059393,0.5515606579835691,0.5564145435078239,0.5575936860349222,0.5913428802781115
0.5148674742518317,0.5085661999846249,0.5428876726932316,0.581043196688815,0.5725916906870472,0.5418848873085563,0.5945064398084559,0.5454712805492581,0.5824477321689584,0.5302543027873236,0.5906488606434381,0.4699597224160212,0.5327528185615362,0.5644652303683463,0.4962308883388094,0.4802079169450244,0.487438085412286,0.5368895598982738,0.4833376903122652,0.5721742462346228,0.5932963207130886,0.54694377138397,0.5427220154272542,0.576088820125503,0.5686835217649133,0.5665230530625862,0.5443492594719425,0.5789057625695274,0.5461324375981356,0.555400654069755,0.5593783992102723,0.6049343960628975
0.4864299402460145,0.45952261691589386,0.5415522546280674,0.551066508582061,0.5318120855643698,0.5450045020152968,0.5956093905833282,0.5488120374494243,0.5656433304736158,0.5422027638386256,0.5584037155475273,0.4953798467391101,0.5320227008040241,0.5701018375366085,0.5344853117971253,0.5075477590055868,0.49618083941176344,0.39638211622698827,0.4751187299125061,0.5714626686371307,0.5938165840212073,0.565928662163459,0.5270050361367036,0.5457199777073837,0.5767020319460625,0.5453323191817728,0.5517116162383332,0.5774870123343747,0.534381719966348,0.5611477813581085,0.5022547549282628,0.6039776402538447
0.4983436980561108,0.47095646400100744,0.5096396004538958,0.5463809795672327,0.506407058633741,0.5379955291179185,0.575851898806553,0.5415570385548388,0.5742887603499852,0.5563531423006064,0.5148412190993441,0.4881466755045373,0.49312604666658966,0.5636913267922398,0.5231665447199533,0.512105795731619,0.47873923098867216,0.33214723760261156,0.4744168349511141,0.5463118223090598,0.5797128372677415,0.5685635797838525,0.523208497252841,0.523400967177392,0.5871791411820152,0.5585105199737205,0.5697170568621885,0.569034194084434,0.5579972281000118,0.5523447344403806,0.5068358530890299,0.5808936032829252
0.48206023127040887,0.45583843922936007,0.4816811796547684,0.5412951284127547,0.5026886923007595,0.5302488412361378,0.5918572475959484,0.5552891530499698,0.5707210721397326,0.5472197110914733,0.5320702947304201,0.5101192843405439,0.5296611998021681,0.5740717714723153,0.5494286252707916,0.5395006014083872,0.5225101983609362,0.2947729415646939,0.4930581116506047,0.554749962562339,0.5754330320320291,0.570622159982209,0.5275186128880002,0.5162129016545632,0.5779325815977204,0.5529292971768378,0.5708281668821937,0.5557539509110349,0.5742254324613664,0.5518273774095054,0.515122085799496,0.5593632945620322
0.47737455238941473,0.46014608305930516,0.5068126278751661,0.5439992217604864,0.5008452693674322,0.5524786562233476,0.5815816458713231,0.5381452557355515,0.5808405998197996,0.5437674002295996,0.5415834977902143,0.5392115954165412,0.5393186656839271,0.5789802674240749,0.5484967520434031,0.5284261872581846,0.5377010603236678,0.2819121805638209,0.48882345758206586,0.5687396517626603,0.5840324778437102,0.5899259723309956,0.5609651337075557,0.5257130925143986,0.5883275343629416,0.5586869895479198,0.5896638229913943,0.5651001457927143,0.5656602893907675,0.550527800578067,0.5094679079139938,0.5545660860957283
0.4761746063027746,0.4522478769343154,0.49766075620583516,0.5240371980450755,0.493893518068365,0.5300183013952258,0.5811235937415602,0.5274900183299825,0.5807358971499547,0.5536097638752108,0.5299176031582843,0.5685997448150197,0.5555794555129622,0.5767624205916503,0.5618357870275045,0.5060768501624787,0.5715057792979814,0.271755590590217,0.4872556538901136,0.5717186410879492,0.5769676590338817,0.6022728919960213,0.5624930887262329,0.5264070315007011,0.576225842501043,0.5505758888718664,0.5653629301909907,0.5506259532596024,0.5469575898657751,0.5510067405420982,0.47395772945962095,0.5467887743756683
0.4316322399679182,0.41568817662256546,0.4842459859612787,0.48074673148178665,0.4914009715398614,0.46215233141923906,0.5732930132428762,0.5257564701240119,0.5781644030280436,0.5511933666579796,0.5129719703268489,0.5712549990831006,0.5578614015205291,0.560698776390414,0.530299149632672,0.5221136291446751,0.5900626601347388,0.30123742480515553,0.5129854518194207,0.5938230207880192,0.5788435558157718,0.6192327677206599,0.5693130554003235,0.5302363905594931,0.5834445452992713,0.5690896016649757,0.5685647015146381,0.5327518821734484,0.5370287356570311,0.5306409366684475,0.4884862917414574,0.5457996540230826
0.41439568369006446,0.4051309074414267,0.4681345725749704,0.4861815814246369,0.4893409659091269,0.4817207529334893,0.5515505117632865,0.4906195592848716,0.5531827651202436,0.5480792153070062,0.5081473207264605,0.5714357175615049,0.558994635861082,0.5676189469100371,0.5475526025432846,0.5299161036439396,0.583523590448428,0.3477536434576058,0.529059302276873,0.5992497127307403,0.5873705517133292,0.5905319023653408,0.570964795256274,0.5366950037444077,0.5731866724988033,0.5737743194494621,0.5801112781565121,0.5335078283145971,0.543257595694472,0.5150985974661096,0.48905542633375454,0.5466310268154555
0.4330627567226823,0.4350498569622655,0.49268846627465945,0.5066251975481176,0.4939665128325493,0.4997322220202797,0.5539928023774419,0.4481726187041137,0.5361490071138639,0.5587616272671282,0.5148446667221221,0.5443959103883796,0.5451013637540224,0.546711959421058,0.5279954489155998,0.5018813521148292,0.5340258856274311,0.3667836035852535,0.5424966236282253,0.5917710692866354,0.5883582568010768,0.6013453107854465,0.5715659573060806,0.5423900914822952,0.557651350385824,0.5677093232849493,0.5750158948565111,0.5269265450351759,0.5528372218459536,0.45972709789667265,0.5253113915509265,0.5613916471691266
0.3975607096762245,0.41354052211370984,0.4755195684287037,0.4556596522134962,0.47954680008896117,0.472227559180028,0.550543973157459,0.40960590077419573,0.5371309541347673,0.543651715398897,0.48691911582307157,0.5467774331425359,0.541527649256194,0.5480018829174861,0.5358352264831346,0.5197796566392873,0.5054211375474211,0.39700688264107636,0.5618262763708136,0.5701545664626175,0.5877546807662476,0.6024654482058074,0.5808019931536557,0.5775077684468134,0.5678932519384579,0.5602381452251928,0.5801967736703649,0.5263817330777256,0.5436640163820492,0.46580048687164705,0.5262803653218475,0.5480724549579984
0.412093634939072,0.4443767434751153,0.4941137208745803,0.46699058934860876,0.49015586422629104,0.4933092523436597,0.5533106641887046,0.4494260046057753,0.5198991461456244,0.5671064596645803,0.514491462731993,0.5318119166176117,0.5344976727136556,0.5646103731766013,0.5818385218823015,0.5298789668610947,0.5233816158043165,0.35837659307277003,0.5791882991441487,0.5809806104331195,0.596434148058871,0.6113551380173604,0.5977786900176816,0.5656356879952075,0.562538479594596,0.5268900348202958,0.5862535447028301,0.5354857464456368,0.55720261213529,0.4697863402867812,0.5297835375106048,0.5364124489333165
0.4555192449641669,0.48936013057539923,0.5136391304450747,0.5294123549335134,0.5193569036246248,0.5191988784289874,0.5752194585110646,0.4810192238608447,0.5467688853531992,0.609772324978157,0.5561323308175121,0.5463054721588932,0.5033536089272896,0.5811947932292185,0.562541024470298,0.5537443352655363,0.5445808790265877,0.33976432031140125,0.5623777491307463,0.575765348519776,0.5865658998370835,0.6131292152564817,0.5864667816144372,0.5580195222550085,0.5578505624108536,0.5264156532230174,0.5874636153111977,0.5485245515956513,0.5784729713362982,0.48610643022618416,0.5437619682692194,0.5339835893873722
0.49059501699808855,0.48855068051870054,0.5243733440390604,0.5559526051556166,0.5292916053390347,0.531488014202636,0.5779902472934896,0.5257024229804339,0.5560491323488483,0.6038202625381591,0.550463151011684,0.5507924479626172,0.5173365224171891,0.5865560063445524,0.5787833886521601,0.5617560076070068,0.5527964055584635,0.34248339010365264,0.5627262103498152,0.5483007349325371,0.5642441653782894,0.5896918242912191,0.5803099945590989,0.5626653601943779,0.5275904757622827,0.505397115285153,0.5773238362010914,0.5465538141677536,0.5714057309037028,0.4929395925570672,0.5627853626967017,0.5587105319577548
0.504755469463384,0.5245521210795641,0.52785198034299,0.5701910603369714,0.5473322803259694,0.5406423294602286,0.581196124888508,0.5529068983202875,0.5632990333517192,0.6026392052735781,0.5423920897338251,0.5292593254548287,0.5051964633113861,0.5445221973330928,0.5447271754416722,0.5174563981641876,0.5403777164218855,0.3634806181124287,0.5336007281333954,0.5299099594601627,0.5563911004962597,0.5793882952032874,0.5699793259926403,0.5495722909279345,0.5362965144950599,0.5080924180440224,0.5735911454971862,0.560769057582333,0.5661406382075271,0.5082131945884857,0.5679290565154933,0.5613523805867447
0.5093362496005456,0.5368325325011053,0.529664681332649,0.5829344821843785,0.5514657835734982,0.5471072057138252,0.5840472674770226,0.5446950915101043,0.5743966574945414,0.583164611272222,0.5379205223514597,0.521008501171043,0.5281676884976144,0.5412756235514148,0.5434008806244507,0.5100542224163559,0.5346768395881706,0.4825998379479737,0.545382207114253,0.5313703332458266,0.5655518710197502,0.5845429378032445,0.5743067868596017,0.5421265821421516,0.544700939854846,0.5239602983076183,0.5767310798380024,0.5589192473918211,0.5656075671896468,0.4947927800631258,0.5294602342724471,0.5759279727972244
0.5176409786572294,0.5826992931024876,0.568302848688551,0.617898791695155,0.5402242029767339,0.590794006864072,0.5936265990536647,0.5366084398963021,0.5646216385355103,0.5441210595871742,0.5383815891068549,0.4948955972542507,0.4996259782603346,0.5057941666106237,0.5378653331130071,0.4970680956340729,0.526369978203791,0.47884399198613753,0.5333802042411399,0.5130481655469536,0.5817877453023411,0.57596085047848,0.577462781560483,0.5148122502156341,0.5485022757323877,0.5313623260973492,0.5831893621361564,0.5730683255642673,0.596868173710972,0.5063233160724789,0.5501200859513493,0.5877243809495594
0.5580147247602086,0.5889481762198894,0.5930712818104901,0.628649785453101,0.5385744242938844,0.597345076502034,0.6012968274067693,0.5330844682112171,0.5776781456342808,0.5351410742702583,0.5473093347949707,0.4970542846171356,0.5333563483139943,0.5192515640800625,0.5455863104117425,0.522770025891143,0.5385976971381692,0.4325967546923481,0.5569790032831193,0.5284040058827155,0.5937229779092958,0.5832484286527654,0.5774238778665725,0.5451637613468823,0.5701708550972231,0.5270520986075348,0.576243338756073,0.5831462853456169,0.5911807240571062,0.5286506420478962,0.5578183356038088,0.5782355469555983
0.578376736057283,0.609327019310577,0.592906620860241,0.6121987836665521,0.5469905339000797,0.5821249580886061,0.6013003840688419,0.5379725239690561,0.5961296955152562,0.5441958666311827,0.5703963488672552,0.4905368683631836,0.5455932263041174,0.5449410817277673,0.5505035633915052,0.5373694414263528,0.55634146814394,0.42259874815474663,0.5618216088009721,0.5399116355097665,0.5840704012812953,0.5947809439042926,0.5839142004938281,0.554838194755969,0.5646543751972086,0.5317738458552367,0.575657448103532,0.5834404609831108,0.5887830869239605,0.5145984932872966,0.5451041072214834,0.5650689517042888
0.583923885849038,0.6069504675664918,0.5937829504979781,0.6161284509989834,0.5407253639762098,0.5887899027080027,0.604535824923617,0.549208006345533,0.5559816228212031,0.5409678411239268,0.5699082252306101,0.4917316920581253,0.515107729835565,0.5636076630061404,0.5505872097044306,0.5447369745117404,0.575652121867395,0.4208808734052905,0.5714871248581206,0.5853558350785703,0.5714348021632522,0.5579591447791417,0.5985056734652561,0.5808235470448103,0.5774614272727063,0.4969749868320917,0.5701494144567318,0.6040091128097785,0.6065183904085296,0.5439151098643354,0.5222398250504309,0.5666203991751997
0.6116541463087622,0.6234550305727401,0.6109090823229733,0.6249074438916168,0.5720793856229548,0.5934408840890667,0.6089252826973391,0.5687245041336632,0.545946662909454,0.5555383103187665,0.5828690920519196,0.5017792720143255,0.5070688392036309,0.5585334977038711,0.5366303661994186,0.5459577700687602,0.594677975169186,0.4173147720668005,0.5701532932382085,0.5997731097824868,0.5793985489317994,0.5483250314320669,0.6036387921140084,0.5852367272688462,0.5797360176249519,0.4913355586296028,0.5898778745438126,0.5917303884720986,0.602694615063924,0.5662778313219482,0.5453632709931032,0.5658108269529359
0.5884967661213771,0.5774554891126635,0.6043616299963316,0.6055894194486946,0.5745809224866938,0.602751705586075,0.582403589325047,0.5670415646322722,0.527619813750579,0.5353520513181727,0.585165668327345,0.5321467979937351,0.5291138255248969,0.5470027498606642,0.5451434419384812,0.5412913732853748,0.5819780273533375,0.4707283750835252,0.5643211299761132,0.5910429961157445,0.5637962837931035,0.556150531349989,0.5981946929295525,0.584963102713654,0.5830996794219955,0.5109928688221985,0.5596157879354228,0.5890158020732966,0.5885066862208117,0.5598751576684291,0.5551715732005648,0.565758790483653
0.5565856821982579,0.5689974063639774,0.5800005727577694,0.5687369125306951,0.544260855287956,0.5884522993776199,0.5843977884591702,0.5577112845710294,0.5646475464852061,0.5223579960221781,0.562139130177675,0.5268755471927153,0.528844129268669,0.538452085511909,0.5410527683980545,0.5386158238846623,0.5897195662356538,0.518292665867722,0.5639541895340208,0.5719336098067727,0.5766599854373621,0.538103799476019,0.6034568478318164,0.594084938464948,0.5922945613413088,0.5587142934740368,0.5600479994900578,0.5922643554206742,0.5862690699983162,0.5818896190082393,0.5706492843862209,0.583775907296267
0.5485711136918964,0.570544858467613,0.5807114974230183,0.5791940997958608,0.539547373880535,0.6065864908760739,0.5854041841636912,0.5565012804552545,0.5638726598570608,0.5426812884208825,0.5742551395014333,0.5313178160691047,0.5639078845444687,0.5537831235273089,0.5401686529999011,0.5711282123111286,0.5969653865152877,0.5442094976099733,0.5616236656661412,0.5902934151542297,0.575398260042158,0.553608104914417,0.6011420353898285,0.5939917963155166,0.5886410007080345,0.5877264891890186,0.552696427242968,0.5773007895813446,0.5615751129871741,0.5855922921219006,0.5857064826088964,0.5764492810058908
0.5305206576575424,0.5535139149781045,0.5619211653005531,0.5484073916785346,0.4962043552118086,0.6040973637264343,0.5438018920076255,0.5552494705308935,0.5370527202163684,0.5523522919142427,0.5425367522476396,0.5288476361641021,0.5667005051488889,0.5828601875651842,0.5734659063935679,0.5804417298606244,0.5908059714710432,0.5706617858292803,0.5897889908520855,0.5927367643410669,0.5724198590169296,0.5670021851543897,0.5932222382908432,0.6041348728929952,0.5982997088828078,0.563292597261558,0.5579178940999528,0.5924161560001371,0.56134752337426,0.5784042194048916,0.5723763924569272,0.5499548665327458
0.5019136522325429,0.5535129983365691,0.5123619190367887,0.5538795684677594,0.48537280653336223,0.5874531091952239,0.5029540269270631,0.5680466082772982,0.5423966074897353,0.5457278664784554,0.48847151269044325,0.5295219338788594,0.5375062459370981,0.5704700957058416,0.5531441460952615,0.5592125350231768,0.5852234998225175,0.5512323848236855,0.5834809870212653,0.5883724880003024,0.5839053181941466,0.5516265805320826,0.6037046948832554,0.5803363128985568,0.597499105837724,0.5354784842956385,0.5835151442679694,0.5862336284042257,0.564070138284803,0.5333807619470514,0.5830976318316071,0.5317474453591855
0.49152658001686866,0.5754139048120139,0.5104010854450315,0.5534780786385336,0.4928644232116103,0.5914702258410733,0.4890246980584805,0.5852793505923355,0.519846846737015,0.5189443693684723,0.47367190282825045,0.5222695486276266,0.5508104978123176,0.5656834330059006,0.5503899401754301,0.53769387293473,0.5932075530879849,0.5245107282430024,0.5803923833605149,0.6051138310746226,0.5818319707260194,0.5282290081246874,0.5894687510851038,0.5749012119372453,0.5910660575894545,0.5569898448882256,0.6085716537520776,0.5602152184943575,0.5599223013477841,0.5253903517013772,0.5864948201931406,0.5065665668456072
0.4818024356333539,0.5557962062230598,0.5040926974362049,0.526043166546799,0.4620876028964508,0.5889750520139411,0.47922627949544877,0.5817479631041876,0.5070293645838054,0.4925712853064256,0.4603615208667432,0.5136396348254926,0.5443660651185454,0.5610386006013458,0.546735867476534,0.49630952536004,0.5727820444571783,0.5509310034000323,0.5800651016143942,0.6044964589408824,0.5586152876018392,0.5307073472563664,0.5540934376969541,0.5794824990500141,0.589352835934864,0.5259298339221711,0.5723909794241455,0.5592438886414639,0.5361874494246787,0.526529663649672,0.5711133907578605,0.5347000386991817
0.46395119638272814,0.544917500875527,0.4959778389589939,0.5075605509143062,0.4886003014206241,0.5817165379510435,0.4854927356685997,0.5337782035538671,0.5184618982909792,0.48897153195254656,0.46007436953224773,0.5027239407113561,0.5323978308466777,0.5248261503326557,0.5236563427380557,0.48841387259937113,0.5670337567142626,0.541149354093788,0.5740506817190253,0.5876344463159358,0.5632143100758196,0.5213664893346408,0.5303269678673852,0.5729330115176139,0.5858023113614664,0.5388026835017284,0.5532148981667729,0.5430209798675549,0.5430649819181509,0.5151780470898502,0.5664601153262485,0.543647243091369
0.4864675163029578,0.5380366103607326,0.49476854231693673,0.5186734093899824,0.4848337442896227,0.5742707759948154,0.5081916955683549,0.5425497893391009,0.5472741214448459,0.47365247266488697,0.47288563658008453,0.5153232050248454,0.5423040813541924,0.535523387397774,0.519520772032034,0.4835557492253787,0.541995792623019,0.5229778705312748,0.5680507520846737,0.5675502384481436,0.5387632478406393,0.5412110525398481,0.5225950469741627,0.5608459338990092,0.5724493618320063,0.5503343968377264,0.5546899352787334,0.5221345292855496,0.5413786219460096,0.5014739604631181,0.5707747020108421,0.5616545246252711
0.4941052834814714,0.5403310798711164,0.48762544098347993,0.5124656922595221,0.5065081145682868,0.5670225852500566,0.5180295077673335,0.5563540676785886,0.5604803413033949,0.45407154628657015,0.4828831237401096,0.5130584471842474,0.5387978318137858,0.5414694365734357,0.5395392415872582,0.5136769979207569,0.5369791717154232,0.49139909228393397,0.569811997389708,0.5725254788573934,0.5435107751003527,0.5650952537000483,0.5165175484906057,0.5430690509406458,0.5689340614279863,0.5736923327502482,0.5469316403740989,0.5098175591644959,0.5368011101692512,0.49605359101501934,0.5611385320014621,0.5679470307226548
0.5098200932639719,0.5608584529210164,0.4886871333249397,0.5192114171422647,0.4974840068284166,0.5655777251262806,0.5205557237082372,0.5508826879863249,0.5256135658270494,0.43440383502905766,0.47683695919816843,0.494400696609853,0.5274800586711279,0.5245070064416316,0.5344557914774027,0.4881310138382922,0.48700196398031603,0.4777711156333798,0.5592395072940424,0.5718945393380532,0.5535732761234192,0.5586001813617864,0.5146432122857961,0.5791134434796983,0.5752873606289436,0.5505003252141716,0.5537411777770047,0.5272119909809583,0.5796437177083273,0.5325698735736417,0.5613448238114047,0.5710444837590454
0.5061280971946533,0.5469217528478988,0.5227232689977984,0.5153294328550234,0.5013278282753603,0.5704798826169479,0.5447695673834413,0.5371747695847596,0.5152097816692099,0.4526140545813986,0.4763652277139198,0.47422209800657905,0.5269557204599701,0.5213550674876586,0.5197742293420048,0.4750705962935706,0.4665057720895392,0.4955408654010944,0.5804044041608708,0.5826843873060141,0.5556234942326793,0.5642810044323775,0.5173516217151525,0.5992497507329917,0.5725775693195418,0.5215649877218226,0.542026026614323,0.554364530961001,0.5741924201582644,0.542656228391498,0.5580218307733815,0.5659717415361213
0.5030056536610347,0.5630666170931558,0.5346529598465484,0.5196410577797309,0.4972714752394612,0.5859526570820855,0.5680928752203261,0.5203063471483412,0.5175824062288705,0.4619947255693835,0.48083401724150776,0.5026530113845652,0.526366089270802,0.5062725852895722,0.5112418568625309,0.48695493244198657,0.44123233196679545,0.49682910699729405,0.5630657577655195,0.5622214898255868,0.5457363381581193,0.5663954749208014,0.5299687412738573,0.5839062826998543,0.5815866594600474,0.5138716206382862,0.5427991169561944,0.5515132581152841,0.5777908655529274,0.5095122103445432,0.5591841021959324,0.5812219887448996
0.5229742351677447,0.5671645616190011,0.5396234253194442,0.5220276922143797,0.4944263599433071,0.5932269844121557,0.5760295079160753,0.4894130137738922,0.503909061937234,0.4799487517791337,0.47516704352584227,0.5272387503469325,0.5124538001400727,0.5081945540776424,0.5187160661600665,0.49110841075967354,0.43826066160660127,0.521570423803427,0.5690846378061337,0.5490838684405689,0.5443635599514736,0.5556815977337198,0.5316870124104125,0.5717263485952059,0.5830071641678224,0.5321596544628597,0.5327704941388074,0.5511250327826326,0.5855220246589354,0.4584372453198684,0.5513637812681578,0.5653448992271214
0.5520195130387675,0.5828509098552355,0.5720589488339238,0.5474378564179675,0.5168089922930369,0.6021041990902308,0.5661406708000896,0.4788442172558584,0.5307614641002908,0.49364592720386885,0.48535746621868425,0.5280886911897714,0.5170977468165966,0.4881163227982104,0.4952239475882227,0.4864872477894781,0.43003171533469753,0.5758294126735518,0.5669848526473131,0.5633886718656927,0.5525034594540993,0.563336943410983,0.54624670816909,0.5579846562677049,0.5858181603294468,0.5357574841624048,0.5492768101402434,0.5428968401472433,0.5526658888168444,0.4920511703584805,0.5495790449629719,0.5785871419079833
0.5444656192667048,0.5773388756933818,0.6002280619075386,0.5374225552536936,0.498918023395559,0.613968041451901,0.5590504168956278,0.4699322117269878,0.5422000588634239,0.49918669884853073,0.5043262878956017,0.5258563254446253,0.4955235642029013,0.46865984404912203,0.48729032442349896,0.47414197390438373,0.3970367467501143,0.5420802281675542,0.5734625890677139,0.5487312358829702,0.5679931251691547,0.5964680545550282,0.56415403946429,0.5380709689486468,0.5889666436718503,0.5255931473516561,0.5381933523480159,0.5516029245500654,0.5549926899363111,0.49856410121929773,0.5473939297664205,0.5966813625026522
0.5459446401885822,0.5857943488880479,0.5959717301093517,0.5501162100994784,0.5175163555944301,0.5951409494214673,0.5760233841653566,0.479582579328603,0.5583006904286849,0.5222695486276266,0.5200817511896829,0.5259328326876838,0.5087253581779496,0.4684950707931223,0.4885555538481865,0.49099975486335007,0.38153328242548024,0.5131323381200248,0.585307119867789,0.534098789702136,0.5616931202912062,0.5884390870423711,0.562795815348801,0.5317104613934205,0.574978051288615,0.5445808790265877,0.5712233522375305,0.5580465123707596,0.5713189282034993,0.4921981869959176,0.5544268791112904,0.5761047111339274
0.5748853323495255,0.6043568160772784,0.6168189695425863,0.5482368729314918,0.5083178627855638,0.5972938668597667,0.5991665885648815,0.5170299423607769,0.5714360540391659,0.5491315163586346,0.5298428944768218,0.5311533232716611,0.504248860244129,0.4666133295764972,0.4976754043791122,0.48384089148770903,0.39982374878584154,0.46857869261786256,0.5356992716199396,0.5509709698725287,0.5698020927882019,0.5785540545993901,0.5683473298020209,0.524337980209065,0.582544188937269,0.5274269405598705,0.5512268314085875,0.5509176068502318,0.5811044072942935,0.4862753300681379,0.5408626382782694,0.5982873497837228
0.5732122819704694,0.5933123442227823,0.6113126917498494,0.5279629470483099,0.5316482456583249,0.6117050324341059,0.5971920740422209,0.5237065210337278,0.4999484154406432,0.5794594322146238,0.5132256592042452,0.5446284272987301,0.5114050367922512,0.45801066368621424,0.49274519684157675,0.49824424712497006,0.4305920581855861,0.4757217966848698,0.5113098852766649,0.548072524889357,0.6020510820024514,0.5742438990550857,0.565040179027958,0.5241621273991302,0.5641032103067658,0.5198994937031953,0.5372052114823068,0.5506495547928116,0.5745396940000222,0.5369644562663635,0.5402876564963068,0.5753176754223853
0.567131424134791,0.5928858505761703,0.5980312105305313,0.5082461874665339,0.5327851851315192,0.5833946732141018,0.5923344092076627,0.5034774903776609,0.4735267880340987,0.58003836113564,0.4972861008415356,0.5326537433068735,0.5493693652133997,0.43520371475131214,0.4756733052313178,0.4985798973490536,0.44945625622082447,0.47689944124510064,0.5420633742612707,0.5507717631389699,0.5997770137373882,0.5754698028887625,0.5994056285282471,0.5428591122531665,0.6103796755602237,0.5234622077705028,0.5298707828632871,0.5416447038909631,0.5815901309552286,0.5305025518601948,0.5373901636658707,0.5634873634275317
0.5438591104593605,0.5794078978279285,0.59793525533331,0.4974174778565367,0.5125076409416947,0.5842385010230575,0.5997024795845164,0.5149682220809949,0.45767748837023553,0.5898177912282635,0.5403523834550227,0.5643113459251975,0.5797096161630638,0.4836445545364014,0.47918634775993446,0.518277321643625,0.46492131707676304,0.4821677608481853,0.5404192045684284,0.5703110770521707,0.5844494350403078,0.5784529100218669,0.5900030156516819,0.5429144197404621,0.6151055426184402,0.5227689267472343,0.5029529510446719,0.5767489560280611,0.5404583476752416,0.5388846376529798,0.5288693610859919,0.5665387284580075
0.5661158668565421,0.5742811737439862,0.5990982583539627,0.5145268995573128,0.4949825168901617,0.5779895256571357,0.5946019427091906,0.5181020967982639,0.3403039690948095,0.5784995608728164,0.557541367380823,0.5619751263638046,0.5859884378410052,0.49879110610031524,0.49130720849389264,0.5224983919302281,0.48108770673075396,0.49295484951660423,0.525415639661524,0.5413029772361334,0.5576590699002367,0.5668863667530417,0.6019043867398631,0.5344688831750851,0.6166387928662999,0.541568151148448,0.5190090716162732,0.5874230946381614,0.5314715183895375,0.549462094869491,0.5518863425733,0.5647789066569909
0.5824069137777382,0.5732066467635407,0.6181418814356514,0.5254942150374521,0.5187888618529226,0.6025779313521513,0.5940820189353176,0.5406692919581199,0.19774411636032374,0.5701542588923064,0.5792215895174401,0.5849665117703433,0.5742134831461659,0.5281007729809544,0.49888553863884444,0.5100580658416498,0.5004501873891584,0.48129076671574655,0.5169038363871467,0.5463879411060045,0.5584574419238232,0.5504196802127629,0.5829800672543128,0.5455665354442069,0.6249176454771651,0.5562639735301425,0.5137171543833391,0.5881982117360776,0.5409177309105809,0.538482949158167,0.5379168081540018,0.572116172029499
0.562692524101993,0.5449443504390352,0.571805992913769,0.5145722866766522,0.5157470798474268,0.5947071077466928,0.5906965331303191,0.5681781935137427,0.14368642660523132,0.564864471814911,0.5504270717420704,0.5788207677714726,0.5694185375701543,0.528204803027818,0.4873032663308068,0.5263058090538899,0.48318307700807106,0.47924819254285744,0.48552367281469166,0.5499714333575727,0.5529248106275215,0.5329750797312741,0.5583229177586547,0.5298987677471463,0.5811036251264561,0.5396829672742115,0.5032878520483725,0.5437276996735831,0.5118691626165595,0.5274339271392678,0.5396290663824639,0.569675988105253
0.541611655308254,0.5045144256020684,0.5363427399945757,0.49125741875152623,0.5222340477441654,0.5718100018154848,0.5875720380836742,0.5531869856387163,0.11763113866986565,0.5295092212232895,0.5215463935110922,0.5319801777633364,0.5150586978160712,0.48822305673034483,0.45507829457362114,0.4845490847194645,0.41743872695648643,0.43821349389472625,0.4596709803051475,0.5264073652484734,0.5402218616279881,0.513617201587732,0.5422546441749355,0.5092752065445283,0.5540906562011205,0.5311558017123253,0.48495742774425027,0.51699175226251,0.4991167579707535,0.5264103547826889,0.5406930753647561,0.5558148050746387
0.545400780680764,0.49847832217739607,0.5269266867108249,0.4831438005553949,0.5157054382571936,0.551168999093454,0.5918545442652744,0.5834963371153211,0.09841635186646931,0.5599462681261433,0.5103185738107077,0.5446263152798155,0.5101002852428936,0.5348810514586952,0.5044690580111554,0.502081939645513,0.45389616536426985,0.4225141313376127,0.4744742356606607,0.5496101081103476,0.5566820613346704,0.5100739076418901,0.5486794292675157,0.5182320903166491,0.5455135467118258,0.5501639217274502,0.47373874245147557,0.5192450569607315,0.48069508416534695,0.52571135042759,0.5382042901474848,0.5559791277201781
0.5271504064512313,0.49119747048080376,0.5447649264069477,0.47914016328605297,0.49507546064990454,0.5406546541440858,0.5803857784145576,0.5877284593783983,0.10714348767780438,0.5791439457824014,0.513901457256857,0.5259012861714379,0.5204748931718712,0.5572930543394784,0.51287440112658,0.496974516355922,0.4849669597927694,0.44094409485925684,0.49920102236822783,0.5741298308196767,0.5719814137855276,0.48965062662953196,0.5210866997440707,0.49760588341685263,0.5205627990438491,0.5119976015113228,0.4755904254967716,0.49220520932493234,0.47341536685337227,0.5238495581678,0.5126971276869189,0.5478771386717266
0.5069558759462376,0.48881209725903574,0.5158308561989337,0.4977203017255462,0.5183198597570075,0.5178034104730515,0.5704854601723265,0.5512954913002002,0.13036949419825422,0.558772709713404,0.5150358310318596,0.5236078171849632,0.5464568108350664,0.5680240816543979,0.5222111072209644,0.49712704980778144,0.5321917658431903,0.4990505123216725,0.5395533866411591,0.575872791913511,0.5669170961313144,0.5308288226919858,0.5267133022386294,0.49966289315438883,0.5105532661198117,0.49551138879294815,0.4600245941194029,0.5088200361013853,0.45918714470121225,0.5135261992792363,0.4989123077020655,0.5431716333383095
0.5089856968439835,0.46607309887609444,0.515971169256186,0.4867412631458472,0.5122599032865334,0.5025836594130308,0.5689987510364858,0.5380589058704104,0.14969845621209685,0.5421219171293027,0.5264566661607366,0.5210558920168056,0.5302158826650291,0.5683988231199186,0.5379171698130113,0.5310118092078941,0.5389195332514098,0.523969882726015,0.5553621592967232,0.5801439870371483,0.5755902534888244,0.5434214915212974,0.550896728758165,0.5095524017640226,0.4830398344430556,0.4622630618426376,0.45158374670569745,0.5202514894563149,0.44452054566401134,0.5023374506618301,0.4826568407090531,0.5458738691134712
0.49351550458161625,0.46185389257451964,0.5281871709618916,0.5025881631460012,0.5114800740511295,0.5172088666871,0.5720131066386319,0.5385861831037884,0.17661726999552718,0.5475009864455744,0.520407325173458,0.5365036480596741,0.5104481940577925,0.5479579268320015,0.5525652299387559,0.5309577745375974,0.5051020282269023,0.5139530696301857,0.5290493627224422,0.5744915988837286,0.5652735626269558,0.5509026749997714,0.5647186478055619,0.5157291540194718,0.48584028101444116,0.4593299505061036,0.4598862490423715,0.5162289560940431,0.4492547466201998,0.5108256237659907,0.48543712491987917,0.54909453862864
0.484570216726635,0.44544497105018177,0.5048948980756047,0.4914054389404271,0.521222078681373,0.5076495775390217,0.5493435962016657,0.5414282472609522,0.19314919544601808,0.5267161854476795,0.5203527458439565,0.542814991550771,0.5058961384208994,0.5181418320751126,0.5399677329140817,0.5178691966437834,0.473944962835129,0.5102919447993349,0.5007095006028376,0.5696191370225999,0.5808632274672725,0.5185638466851467,0.562006417809339,0.4989116063496693,0.4801004847026603,0.4625231455364854,0.5003938604891016,0.5006981218897532,0.4742835611079366,0.473076153779752,0.5111344563811692,0.5437188798339962
0.47023885879165106,0.4553389558414886,0.508197007907706,0.4786120037823357,0.5338254095109293,0.5027163176963263,0.5281861316072478,0.5304530912283746,0.17646735681589315,0.5120076570005456,0.5076477130316535,0.5522500629030536,0.5207042363117644,0.5026595922197882,0.5382433795894227,0.5061779363585126,0.4797841271930838,0.4941582490041655,0.49680246884821894,0.5632142085149561,0.5710411883938119,0.5105729070600715,0.5370796229130097,0.49893687730247066,0.4822491345958683,0.45196983193717116,0.5007634830004652,0.493251606678604,0.49401203875470495,0.48655197271991707,0.4955903943212972,0.5501647571929613
0.4467520440455675,0.4268678492896518,0.48946227651548996,0.477270715196293,0.516025928001803,0.5101561499825956,0.5241338049684857,0.5225678835563279,0.21752555900998652,0.5127825715529515,0.4840217105891873,0.5653345453977682,0.531867934123097,0.5180507245065256,0.5252271981061721,0.5183382564430936,0.4802598807269502,0.5042522129239795,0.5145082729574042,0.553700094140789,0.5753641449035618,0.5241929580929382,0.5562214121886027,0.5046068663986544,0.4572974000832749,0.4358519079355693,0.48422587151005053,0.4755442836955373,0.4537341869194699,0.48687238274349787,0.503073063486251,0.5260049638553391
0.48138026890431,0.4471333742018894,0.5274100282078477,0.49475975607919737,0.5168761936057903,0.5340212841309059,0.5208506686612939,0.5069378099269808,0.3290936391689142,0.5088730589694532,0.5087955926183831,0.5647912064774137,0.5290392920210832,0.5078524582865744,0.5351076176381918,0.5312458618105829,0.500579132556819,0.5053816600065494,0.5118282557587441,0.5615278344070481,0.5761004585124141,0.5108256237659907,0.552258195300475,0.49656181604108207,0.47193871648867963,0.43985821279625303,0.5007752879124893,0.5090628586386151,0.48202855945574163,0.5039222432929163,0.47573685087860956,0.5183908271851642
0.4596968629848003,0.4558986709435205,0.5488826762443663,0.49612943973031276,0.5048133499032552,0.5326815789450821,0.5234063477185383,0.48480994059956894,0.4572413776318843,0.5324629021730428,0.5171278503972795,0.5691375102933254,0.5534031036755075,0.5400619114371051,0.5610516821931186,0.5338287023240027,0.5392240061369216,0.5062308622496463,0.5495957342305617,0.5770300583281808,0.5681937691503324,0.5055129835632347,0.5764609095580961,0.4945462409890468,0.4877455111774936,0.4491258734531894,0.5170834914087302,0.5299844604006505,0.50070540915211,0.49390915009928993,0.45000128155743996,0.5193422950558936
0.4362703243849482,0.4151347643533379,0.5150223200829959,0.48515638826651614,0.5097215662428567,0.5445691402643337,0.5157933061914264,0.4708083405075663,0.5042602315198565,0.5004008261968236,0.5029234547836722,0.5402047696406835,0.5482325107387565,0.5305260329285846,0.5168961537320211,0.5093229388087789,0.5494580938613562,0.48856514977731924,0.5525832895263656,0.5578142861971629,0.5473691084809762,0.5188236669009574,0.5752170752658234,0.5017546380367477,0.5056793960044075,0.4227852158059101,0.529805544310707,0.5388867011168754,0.5079161076023588,0.5117621527178442,0.4438507270117575,0.533659384591177
0.43487899331445773,0.40746848030590155,0.5167572878865216,0.48602493617146114,0.5098687774581768,0.5451059995842247,0.5040131198281006,0.4769666687848123,0.5120297178307953,0.494171630268073,0.532689562848029,0.5465320827185925,0.5580583978059692,0.5359169368136838,0.5312648708683996,0.5123106806567022,0.5671586971061515,0.49950917973790443,0.553277654104736,0.5549047931353248,0.5388791229521661,0.5513331583685587,0.6032785464263758,0.5344184368845789,0.5076911139625495,0.42457924259514473,0.5441924345195251,0.5421411574121586,0.4978826637935136,0.48989421452100357,0.40304109955226336,0.5468535363215715
0.46108326377462583,0.4284679306627574,0.5382377964151647,0.5055122195501951,0.5065421643811251,0.5748643834156834,0.5229682277375277,0.5130873703865738,0.5075583545379025,0.5119268409119643,0.5528138974963811,0.5642539787118305,0.5493992971037506,0.5454953988010478,0.5613961340614648,0.5576325422862256,0.5629486614552237,0.5300902353489161,0.5548303792223692,0.5612532068752905,0.547583721355853,0.57179976059308,0.6153798163071021,0.5496473124879825,0.5289824164306128,0.45991717666296117,0.5303003591698727,0.5252296008227753,0.5119161364149564,0.5184107900337532,0.3855910889171311,0.5127957747666139
0.5221196303847496,0.49765185077376917,0.5427875621079329,0.5539278948902231,0.5455950427124605,0.6027631190916763,0.5411547340915921,0.5277168605211833,0.5199971952407733,0.5090201617544519,0.5461727622018229,0.5694278686986447,0.5593348101308204,0.538342178913883,0.5558657835408822,0.5450368715118675,0.5579451763816231,0.5442118511393345,0.5534147955630493,0.5463692080502895,0.547733352748517,0.5878514128706741,0.6111857649006531,0.5764461033537137,0.5551631136821464,0.49752678654200233,0.5471084439303159,0.5336882329208675,0.5316662108232113,0.531712663766842,0.4050159726862869,0.49178697255582426
0.49309063816827403,0.5046375583781072,0.539055074462386,0.548012604320268,0.5307631301922819,0.5917641212874251,0.5155606056494755,0.5274471922445084,0.5246965437760932,0.528294924772029,0.5240256790170936,0.5776580997027205,0.5474112393272259,0.550331658889216,0.544731613958231,0.520390716049748,0.5646033294464616,0.5501933239025423,0.5585349283605624,0.550598846403246,0.5755379340282758,0.574943980667971,0.6156118420545336,0.5759005559803347,0.5376017031008833,0.523201555211347,0.5447639479211526,0.5231594380215991,0.5408009690847425,0.5401393579999367,0.35147807078934956,0.5011895749009259
0.505852879977895,0.5298467057408084,0.5575186955018938,0.5489740785214281,0.5362533503321274,0.6037447014850376,0.5272061538288627,0.5750979521627885,0.5500177618167569,0.5369895873597857,0.5229351985356437,0.5749210260211515,0.5691979124338402,0.5752534353341882,0.5650809316318894,0.5258273555235584,0.5805211410132779,0.54505773574439,0.5653993611360558,0.5535903453540012,0.5772373892852423,0.6032799077052864,0.59041117031334,0.5579405626629149,0.5378998891522362,0.505408747590801,0.5172043058749661,0.5110542997331432,0.5301628442514817,0.5817364031210273,0.3469704466597817,0.4908313613425058
0.4769453443863354,0.5294203694890077,0.56508241615279,0.5398298341142456,0.5148406556946218,0.5953474797754528,0.549506445442959,0.5730632520998685,0.5517065746169023,0.5621550278962116,0.5270258682369682,0.5902897951202375,0.5444232913204776,0.5511560096797097,0.5706701482002832,0.5382488371464564,0.5878800835578926,0.5448007021502821,0.5736988655845006,0.5459925758805411,0.5580630219963645,0.6077240751320534,0.6046019990314755,0.5482061950304358,0.553569414123558,0.5377762443274576,0.5174953771094793,0.5272473195210633,0.5497327426032121,0.585814128036154,0.3519114975322815,0.4882604905280448
0.5094967829838616,0.5325324507248497,0.5757298806896601,0.568023596915239,0.5124203033205926,0.6183218311067524,0.5787079767880416,0.6020127279872732,0.5419514400903983,0.5708968931750569,0.5378206488782971,0.5799573744976623,0.5331597874846429,0.5429815223448895,0.5682773659732917,0.5111118228398416,0.5707152578273237,0.5560788504976816,0.5687030045367796,0.5412417716747997,0.5779578259698877,0.6174845220101088,0.5917020121881046,0.5602848583242821,0.5687405792600357,0.530926803087078,0.5252594313112285,0.5266080289668595,0.5632233200104156,0.5820568542923602,0.3811862127024233,0.4803379175245384
0.5033158660640682,0.5309788112879618,0.5485189194846959,0.5536151802766994,0.48785275918243254,0.6104918264695423,0.5907038478841776,0.6095412214705564,0.5494209000128242,0.5844139804234797,0.5357506170346407,0.5891114974218046,0.5473687435415399,0.543562226588893,0.5446765412483906,0.5273479049462504,0.5528653134681942,0.535329814603321,0.5661404704568415,0.5150383735456134,0.564392248002313,0.62238148348521,0.5908598922292684,0.5459089484702663,0.5068176023684517,0.5130652663594955,0.517050860260318,0.5178734211454388,0.5407683897984048,0.5548769308133211,0.39125948301304075,0.47231422884366114
0.4967584753448016,0.5593342564020317,0.5727518428898682,0.5897978453735867,0.48350970736466314,0.6082604287662926,0.5979952160870161,0.6178602609012491,0.5408607298984164,0.5869525205467877,0.5580172535676955,0.5609334121129387,0.5405903325116437,0.5621991011778034,0.5443717462571945,0.5362275191239292,0.5605280802241417,0.5555337936062098,0.5695261409096785,0.5307265428906882,0.5809824312783376,0.6297325256400499,0.592322267234806,0.5636328482017924,0.48794044599318076,0.5258157789839297,0.5404478797973339,0.5397993911812775,0.5688494638823682,0.5600494706310527,0.41535599812419305,0.4766225633848605
0.5276751040940091,0.5793929832050501,0.598071531499767,0.6085259813449088,0.5209498514987476,0.6054357685399778,0.6274235242629197,0.6189433196371221,0.5391197672967877,0.5638781671094236,0.5678660526080488,0.5157202118508545,0.5484328756956771,0.561741488445343,0.5577826068537617,0.5406984059677272,0.5760171848275079,0.5916191360589227,0.561199720854405,0.5441072786733735,0.5777593556295167,0.6160627551889187,0.5925367735164501,0.5851193913158,0.5194649863566985,0.5325317624078502,0.5799502099590794,0.5517355265101168,0.6008798717529662,0.5786354197887668,0.45055592385158516,0.47311902771548053
0.574692431751481,0.563825138896076,0.5988275499128924,0.5895477454864166,0.5313885554782778,0.6125705333919502,0.6214563949916664,0.6207187877235298,0.5236725955913941,0.549412518425556,0.5720523529764312,0.4822056663859417,0.5463334732713504,0.5759494536706374,0.5648715687800356,0.5565745912314868,0.570916591027217,0.5647824712830328,0.5597412033742275,0.5600086661303793,0.5639769837011286,0.5953924949164667,0.6155435489007828,0.5897460300133595,0.53153939235772,0.5730836422048367,0.6189662006065244,0.5712385540639774,0.6081816126005037,0.596248678370502,0.5043318701600831,0.48227891565794245
0.6160683815339023,0.5898902355596408,0.6034112245950157,0.5923799612925623,0.5687179825930143,0.6023490526576747,0.6082943511896113,0.6279215950440128,0.539690024472876,0.5467914457475113,0.5875178386630594,0.5000246455005933,0.5563468400021337,0.590449522876201,0.5854375771838648,0.5605308852741219,0.5672766363915428,0.5555155203128512,0.5573537399776447,0.5924968992559279,0.5643283992990669,0.5839081855735483,0.5940818792265029,0.5807453238080786,0.5641493390985075,0.6118958364838523,0.611388606193175,0.589606501619105,0.6028092549803309,0.6045503407099989,0.584113825627111,0.5103750718322595
0.6102763909029558,0.5834122289555764,0.5867421225404901,0.602220552138636,0.5310301534053121,0.601025930418045,0.5904098764248696,0.5893659450787517,0.5131678616729771,0.5558442830553287,0.5971350573230259,0.5081327169081846,0.5550745051959823,0.6039407836936382,0.6010470250426592,0.5580613736554628,0.5811628826389356,0.587214433705107,0.5407671961931212,0.610961811960557,0.5771745682611081,0.570750117196961,0.5995224691676972,0.5710647441044849,0.5680237571857113,0.6189465536147462,0.5955493972924835,0.5905723331832539,0.6024856771049975,0.6195410275109706,0.5903779322616867,0.5489218287730373
0.5798784035931995,0.5812309248662845,0.560407924224278,0.5652753851965273,0.5400570086975144,0.5938276834346033,0.5926607606603644,0.5966112722654118,0.5189979803517761,0.5665976516913793,0.5948308555039226,0.522867415110118,0.5573647177269518,0.592143222913451,0.6044257462499719,0.5666693599820836,0.5799778451058807,0.5688410949181697,0.5545813310910234,0.6050909746718764,0.5742224852837645,0.5689431496361299,0.5762988700066707,0.5544627386157921,0.5560953967340944,0.6038853773948611,0.5710594845278352,0.5759139622994964,0.5919446750507826,0.6111564999032543,0.5736085174977856,0.5456330697240621
0.5724428014951771,0.5940336818542069,0.558548589940073,0.5753641449035618,0.5542858388409904,0.5947071077466928,0.5862767422683999,0.597195232802458,0.5069615339481728,0.5651066379704022,0.583118027578261,0.48884150258961034,0.548176402785955,0.5796689298551934,0.5915313615111328,0.5606634569678665,0.5731785738793131,0.5488221102269494,0.5230915928930225,0.6093268380912917,0.5843034441542546,0.5453484015681273,0.570964399775277,0.5605461417230134,0.5392712637513135,0.5986222611679527,0.5852698279841355,0.5977394984398632,0.5866239536022635,0.6297589493337513,0.5548474880350898,0.5409509396331236
0.5386419867396655,0.5827991233910799,0.5639124541779079,0.5877501625568392,0.5857929302627749,0.6097798829934267,0.5753641449035618,0.5830630195322699,0.5135750766337156,0.5711467384756334,0.6246846979569048,0.5262699461934642,0.5732194497810451,0.5801261402330642,0.6035979458508499,0.5646605802101097,0.5606689739200814,0.5502024386486211,0.5374472046481388,0.6173634231059756,0.6061635956301259,0.5543153400222762,0.5728269197993722,0.5757486863426401,0.5238699464470282,0.5720368658491868,0.6051138310746226,0.6020604479335199,0.5982252447330095,0.5961674382894245,0.5752950053453361,0.5737160810051767
0.5375344694187187,0.6043516817768142,0.5723081911458351,0.5759366249846233,0.5996098987636757,0.6129791308068198,0.5665904209457383,0.5415009850664029,0.5290875882725534,0.5765693746981022,0.6138555568724194,0.5081638565565658,0.5872354529471713,0.5830234910382066,0.6064847219269608,0.5639909272268979,0.5648591602584144,0.551559815851996,0.5556078971373439,0.6218896133241466,0.6096416550303696,0.5484110135785412,0.5776600754568632,0.5771390546071163,0.5493746517014008,0.5763391234869506,0.6266769703503801,0.6121376190792452,0.6021056908436581,0.5989829197066036,0.5812964312648461,0.5684723188656406
0.546288984459335,0.5981906755169245,0.5951821916699068,0.6003065733637089,0.5819133435854372,0.6136134802642484,0.5562998813134347,0.5557418378984776,0.5235124972142005,0.5345254211213177,0.5966133848183067,0.4886196409640068,0.5672027937942313,0.5919938053331354,0.6026630297565373,0.5713289525990759,0.565072985803896,0.5614515928600473,0.5382589329706752,0.6047335798146809,0.610751626074645,0.5762887590921689,0.5734529868442265,0.5905135261585434,0.5752480480786796,0.5842346170822459,0.6113223789460716,0.6228262074591253,0.6176636738212058,0.5980088073018724,0.6040444029832333,0.5681551157332743
0.5465816702391237,0.6102673295023182,0.6003222458993386,0.6163600373461751,0.5888535659698083,0.6101954684875062,0.5686930060865393,0.5642002839734841,0.5226879663099102,0.5469990057352639,0.5723038280349353,0.46590544153322255,0.5674883424239417,0.5681009898310887,0.5981484325286273,0.5351534559045492,0.575607305998985,0.5491022367136229,0.5352223903017319,0.5934440993904716,0.6018904871145745,0.5786177746764232,0.5580658005416664,0.5816334100764912,0.5993974339227558,0.5819468129695887,0.6056670901799676,0.6107641770997919,0.6195330163249814,0.5751403060665893,0.5846435526003403,0.5703616038653735
0.5328550735702298,0.6061085930561713,0.5874127123897297,0.6171747365487678,0.5892399422978482,0.5978370007556204,0.5880997029387964,0.5479368705640397,0.5394328009141283,0.5530308254368835,0.5737150586352107,0.527001047801388,0.5661953569195195,0.5668685301958932,0.6105958481778905,0.5360214730941137,0.6059295223050799,0.5383682021445388,0.5324420643395436,0.6098018633336856,0.6064284493831793,0.5681625653733028,0.5519740172446669,0.5903206862998815,0.6033523388178189,0.5716799258622794,0.5810151053879996,0.6109757384357801,0.6054621760608413,0.5822349281645707,0.5680404375946743,0.5754093681935638
0.5546310675933068,0.6089122977186077,0.6105197752845759,0.624965668143873,0.5901190791214059,0.6097226079896015,0.5913418174524684,0.5466867491261782,0.5291442042896755,0.5538267085907617,0.5658811542948508,0.5490550928268745,0.5649785082300569,0.5535367418590404,0.6017129746003135,0.5445314055041467,0.6005947376586477,0.5491590875673646,0.542698091214891,0.5942254202629339,0.592022788743004,0.5471809099761762,0.549753741412183,0.6101694022482814,0.6125920465364822,0.5776505418437267,0.6103633948588563,0.6258021771618869,0.6154697199131376,0.574817296763771,0.5739822723363646,0.5072499346165419
0.5694607361865671,0.6030667474528977,0.5868274956675245,0.6343504859097477,0.5740684371303436,0.5976185681646095,0.6096759359210034,0.516747449035712,0.5376258963702429,0.5436692213878191,0.5619739380880462,0.5675095722752264,0.5570528384495002,0.547218934958594,0.6005792690446178,0.5291066998360172,0.5823592431667538,0.5682629387372968,0.5380838976212547,0.6034478707629994,0.6083697667635324,0.5746707710218779,0.5659701462434021,0.6058737833932629,0.6172861035014203,0.5626083088718765,0.6014906618052965,0.6138803501956538,0.6092885482377033,0.5595422612268127,0.5772334485751108,0.5010930003853763
0.5984938754307524,0.6030479646887129,0.6091034237983429,0.6370080574253508,0.579517854055577,0.6108280827886763,0.6245978664100509,0.5356616980881912,0.5721409741763829,0.5432258167324114,0.5704648584675703,0.5720412203333747,0.5225608799844117,0.537700223960573,0.5983719838615427,0.5089156315415555,0.5752416484251824,0.5424726014904487,0.5563447036600713,0.6089942808961734,0.6190912524354839,0.5950990925949646,0.5681155584568809,0.614355359093797,0.6271329369867907,0.5720642307528107,0.5830261964797118,0.6182781903960409,0.6309673650428252,0.5704295554511584,0.5739486699071183,0.5348745419436215
0.6129279036266582,0.6219614928891778,0.6015586160882554,0.6482896456563534,0.5884756280398902,0.61107392371502,0.6252531894624603,0.5247369299783917,0.5669510933692803,0.5297702501515338,0.5770487716344237,0.5471727104656868,0.5113844613982894,0.5282904205013427,0.5903203736143849,0.51487445573868,0.579206975136042,0.5370991669707167,0.553410859173502,0.5913426757613381,0.6292225957969222,0.5807344103359875,0.5549968420791281,0.6174613590433952,0.6246742848191753,0.5851239503874989,0.5919989138098131,0.6240253683210907,0.625607906983136,0.5792788506343648,0.5596157879354228,0.5546681347505971
0.6325662946660173,0.6164883445591033,0.5953323031406113,0.6419915013024126,0.5768735791524161,0.576650082437248,0.6039689554852253,0.5913207177851748,0.5787531255819277,0.5177356059140164,0.5986563371390228,0.5478154674484287,0.5030723013524964,0.5299145034605941,0.5681767479016452,0.49249768119347404,0.5658471465384629,0.5330817654700193,0.5512799358196816,0.5923678027015121,0.6192858844478304,0.5942072327050416,0.5500051346366596,0.6146156015551151,0.6183962621472394,0.567778475818258,0.5831462853456169,0.6257727459254255,0.6349803452431333,0.5884072047917183,0.5551904260341478,0.5214860873550509
0.6269269716540972,0.6158004772022377,0.6015259830921539,0.5962828927312045,0.5554421591724942,0.585577712132852,0.6072633666701077,0.5656794037783194,0.5691691058860486,0.47105644562654114,0.5811355260731768,0.5416215137937808,0.5047881274974465,0.5177388450643592,0.5273278031328048,0.49799233589864167,0.567215447778172,0.5138735015187957,0.5579914852507076,0.5887097761707388,0.6126187609040599,0.5976011893204475,0.5414251999474488,0.6202726509393912,0.6166824460291034,0.5825112453750787,0.578994521143594,0.614080661869675,0.6288479224932608,0.5802572175656335,0.5550910994489461,0.5079783934414139
0.5936194746987736,0.5692475166978864,0.5836044230239998,0.595476025916765,0.5039536191197896,0.5772983814833929,0.5982161764322522,0.5778451663717193,0.5823328142196552,0.4647955727068644,0.5832121636683786,0.5653191303360025,0.5318033184076635,0.5332114057358053,0.5277199943033406,0.49011530222437333,0.5444576532200066,0.5095516644761969,0.5647676431480584,0.6077788035878438,0.620338753748309,0.5808142896931001,0.5321808741976269,0.6156533743606026,0.6226856855831114,0.5819050311276748,0.5856788912774833,0.6138500796262691,0.6331708712308494,0.5827713297863865,0.5643743597603819,0.5308653083916445
0.5840362343212863,0.5326312953175938,0.5753822031051461,0.5737380080975953,0.47833456924222245,0.5715530352588881,0.6026988625796582,0.5604909338489205,0.5941075753639794,0.5171788852886001,0.5809926615378378,0.5581068382952277,0.5487234760401251,0.5575804984566753,0.5465921020511844,0.5181651782711134,0.5455505952806082,0.5068497793972737,0.5734702627967181,0.6154192748531435,0.619945740268487,0.586615124192266,0.52733872653202,0.6239732890245292,0.6155197086169202,0.5902346465407591,0.5851320488503488,0.6176835767824738,0.6113615775530185,0.5832108468760058,0.5729806648755061,0.5088141701209119
0.567411510701984,0.5148819404706936,0.5966555450941599,0.5717551859429961,0.4454585720598485,0.5623014457043001,0.5968097503891258,0.5632554971734136,0.5884765579960567,0.5011345478409088,0.5617210518708851,0.5366367104454594,0.5366367104454594,0.5742328220284244,0.5580551430045826,0.5363842997197238,0.5530332260857853,0.5322916836608683,0.5772760576312692,0.6252667514262932,0.6215494290806657,0.5940887533561654,0.5421585587033348,0.617864120139397,0.6135103288131278,0.5939790264055576,0.5949165800866364,0.6245587195313265,0.5972030657046035,0.5950207974531135,0.6049447955391012,0.5091380787429328
0.5715752918737634,0.525720448230831,0.5921016306708762,0.5610906572111167,0.45418507574252964,0.5744636495703117,0.5935464639867521,0.5945392703313899,0.5849821443224795,0.5247373473160156,0.5837940306055737,0.5448229896666735,0.5421903712215635,0.5576146390678199,0.5453407389036111,0.5433873476500782,0.5667643765204845,0.5492032508267535,0.5847264316055248,0.6219746312576682,0.6162096478163142,0.5958140780822324,0.5697988950574168,0.5943235646892834,0.60983431562969,0.5863422219139114,0.5914252793792927,0.6143499581638648,0.5983507433818697,0.5924905171106175,0.6218223997380151,0.4956089117682047
0.5708539894256758,0.526949804121878,0.5953942696413765,0.5531045199359307,0.46781494336451473,0.569933355961989,0.5906746848088134,0.5912668171989344,0.5783796291140748,0.503972741910138,0.5872650334880806,0.5376932898297819,0.5481913497590666,0.5598384307060186,0.5410739277171485,0.5810932180737884,0.5747380100136549,0.5639230451330031,0.597720474028789,0.6164497829792591,0.6166185718629881,0.6000799923502019,0.555789560640707,0.6129828819909853,0.6026767893985249,0.6049668963653336,0.5847426278219073,0.5981107153052576,0.6051011423295392,0.5841002861351167,0.6137935736372335,0.5361282340664072
0.573537522798231,0.5449396174635028,0.5890933947457978,0.587279179481433,0.48576054313235734,0.5938067840989881,0.5823566118042015,0.5861931884436521,0.5730816902750125,0.48909739001344876,0.5619680266358731,0.5161263967217053,0.5682325311153251,0.5801722544010786,0.5626783778898881,0.5731119084959547,0.5763840328043073,0.5626367733263826,0.5915642602840385,0.6163493114891214,0.6086108911362103,0.5765262600837393,0.577344916298881,0.6190392084062235,0.6067708621674563,0.610748605885919,0.6092587598182251,0.5967602623404152,0.6050324312771468,0.6159407105356051,0.6397510388377778,0.5460143524195841
0.5922591261080528,0.5372197753615361,0.5846455360012581,0.5809717859700357,0.49243899751555137,0.5959282733870689,0.569623772442145,0.5659583039118931,0.5764310392755402,0.4898450346209095,0.5334399456782196,0.5241853509559222,0.582384380546855,0.5662095771268728,0.5704583953494828,0.5578595703095525,0.5459252108072015,0.5821825625478226,0.5911522549532182,0.5895706191802231,0.5959722494885585,0.5735479295539888,0.6008283029376545,0.6166561271473462,0.5972927830551138,0.6077968609090045,0.6240179857137752,0.5861296636944895,0.62393080792662,0.6259496416916681,0.6399389182842444,0.5500556858154012
0.5932811842197597,0.5620704556271803,0.594503734658062,0.5699081113143039,0.5264631961546312,0.5980876328658542,0.5876946304811806,0.5743801833954623,0.5662923130080881,0.5545028929458448,0.5578875773549297,0.5424057020165721,0.6088539351704421,0.5906528790443861,0.5781260874241675,0.5762171821554662,0.5770541909370607,0.5923381312949688,0.6008147962211459,0.5842044671961965,0.5988453703076363,0.5857084610880899,0.6080966896932357,0.6129828819909853,0.6085328515563644,0.6126656357976329,0.609292039751753,0.5827397904550801,0.6163328468084806,0.6342000135708279,0.6239804692859777,0.5525061807666762
0.5799623697945901,0.5840993005113604,0.6004747102850562,0.5923382205978698,0.555438403968603,0.6007738604289302,0.6109435051384187,0.5634170819697677,0.5753979281166863,0.5629151667682037,0.5775059319720368,0.5470264483518594,0.6163786463744786,0.5931681686661405,0.5662305850478371,0.5906584997537445,0.5639680585604496,0.5921012430799111,0.6095330405188117,0.5778195243598457,0.6031973349370294,0.6001898335470941,0.6053576422508478,0.6095273229308986,0.6063902403123536,0.6421998337840017,0.6134814125595839,0.5742471060955014,0.6304230408612279,0.6377016863312999,0.6222343777089063,0.5817648494955137
0.5921468708479994,0.6134261714576247,0.5954061709320716,0.605845485670178,0.5740624465953887,0.6059689839853094,0.6319353350363547,0.5819456334189859,0.5996271799429281,0.5712014141999497,0.5979924129868758,0.5631606779935499,0.6056345253002569,0.61065413745342,0.6028930820524154,0.5958633062142183,0.5700954011493806,0.6118180552462259,0.6066915940757723,0.5950219692102512,0.6016507688569673,0.6054621760608413,0.5898988494176156,0.6247896298011317,0.5998576689724603,0.6354751613014686,0.6045314393564559,0.581863646598997,0.6260544468768348,0.6230867044876521,0.6229777256803138,0.5622621340070767
0.6017710351833224,0.6322257727291637,0.5928056163452203,0.6230393067653608,0.6067816494201397,0.5814009258123666,0.621546373043315,0.5906220435796254,0.582912462128657,0.568500166649655,0.6068558023492475,0.5787971356315432,0.6216561401074924,0.6291286569237586,0.6077204684386692,0.6141632342346509,0.5929900743578128,0.6071852665073666,0.6181521560660617,0.5738729225029068,0.6144457432584706,0.6008666729434987,0.5813074786370585,0.6160221915588707,0.6216882165778003,0.6215916984685151,0.6085191792080602,0.6006397222664219,0.6349302295194302,0.6260902195231786,0.62060783617885,0.5516025761285109
0.6234739153409641,0.6311414474856719,0.5688494638823682,0.6192876079242506,0.5942020260530232,0.5898116866165855,0.6249101889822282,0.5921535526635656,0.5826530378931044,0.5615790899328201,0.6245466967570553,0.5849891375898648,0.6249832778080573,0.6287677557555393,0.6059305701165424,0.6144336565554812,0.5935589553918141,0.6039004521684962,0.6077510021678248,0.5746375296312604,0.6125151496506449,0.6026979916045975,0.5622209537640578,0.6206788218248619,0.6319180943237412,0.6188712399838918,0.618276261288803,0.5755828053902967,0.6188225002029699,0.6030229605898253,0.6189819297167442,0.5713071659583707
0.6511854377361437,0.6270100725689665,0.5899499072799517,0.6301516491275968,0.6013600211905281,0.613786405783364,0.6118070351435886,0.6065170152835775,0.5967183628911604,0.5570259394389581,0.6088409152387019,0.5893218513811606,0.6259245589321925,0.6244634758709426,0.5967289674012586,0.6054880530724153,0.58914813550044,0.6074280148816036,0.6115156619462246,0.5899532995885703,0.6276033640029817,0.6066848651223484,0.5666796993725766,0.61570244252629,0.6356155105219433,0.593495407742453,0.61356670632252,0.5871501782866303,0.6239656339347376,0.5851149075876152,0.6047598693980696,0.6114285802650439
0.6199956216962922,0.6234642428619899,0.5806986801485834,0.6135675736852646,0.589992537040174,0.5851610366439546,0.6000675783066847,0.5949639118683836,0.6031666540634572,0.5761774043293323,0.6078895003884054,0.6097456150596752,0.6257470888097801,0.6143139261191536,0.6157535146337625,0.6074892640777271,0.6003747341864754,0.5978909221921005,0.6139666497973214,0.5764070066103405,0.6231935877191233,0.6134847251249725,0.5637023042819754,0.620949911732751,0.6354116727184541,0.6069872547587362,0.6047761840542759,0.5967409677277582,0.634435804431568,0.58484411980232,0.5853786076964468,0.6127125849613387
0.6088851894129639,0.6239334674329864,0.5861240478162189,0.6188216831180511,0.5857582666407263,0.5837761194293865,0.5816035298642772,0.599109982264447,0.6130516787571038,0.5823626246305837,0.5970467992131196,0.5857804632443693,0.6101786152598414,0.5964858103104088,0.6122439529780778,0.6079424887952646,0.5947608680081957,0.5686585738878392,0.6166963134827212,0.5968423542119269,0.6090935285848481,0.6183826095645119,0.5709478060959794,0.6211842288461059,0.6347127088690367,0.5790440018619625,0.6026221966128986,0.6049037705602637,0.6483229230134865,0.6125203376661807,0.5774734053354291,0.6114221594934636
0.6133027478944938,0.6065457476479725,0.5815160690300666,0.6268977950187447,0.5864990377681375,0.5799372530465619,0.5863792051342391,0.5953845513557867,0.5785758934776725,0.6086427534908411,0.610172779200582,0.5276815412170103,0.6099823972939032,0.591383472930847,0.6113449965317042,0.5980172729671472,0.5926220844035928,0.5674162689602928,0.6130780845289507,0.5944802928212983,0.5884799564224721,0.610168067098254,0.5492792021299482,0.6264057754174934,0.642885345779057,0.5588983763256301,0.6155836666478399,0.6040209888516332,0.6531621483299498,0.6091527928070083,0.5860034608357563,0.6114091692128957
0.60238326745052,0.6048715808987755,0.5945945352780474,0.6286486986608333,0.5792709085651058,0.5747601811575387,0.590138915325148,0.5807237457673868,0.559796649197242,0.6131408094355307,0.5913584329629167,0.5118417807480534,0.6091312591398714,0.5937907252641481,0.6079893722196386,0.6177897534067532,0.5725260321786275,0.5710588816742275,0.6122935086054866,0.618133228879789,0.5764456494189046,0.6042500461052575,0.5710755032134157,0.6136146063338036,0.637370268632058,0.5756289403506273,0.6178202269753511,0.611958873256513,0.660482218500936,0.6097511365031395,0.5914631396314276,0.6019752462317753
0.5558336469887035,0.5762710776659853,0.5804945471358451,0.6231193047350724,0.5320080210022583,0.5653786409733221,0.5682700081529221,0.5800682039274543,0.558252415872879,0.601658261857398,0.57580341572108,0.4694856823755042,0.5972929419307699,0.5674021073110556,0.607872373903665,0.5967345389276129,0.5729098490468122,0.5542012773105183,0.6073377267919321,0.5975011034026924,0.5689102301449579,0.5898724821064901,0.5816990787879044,0.5695799241047672,0.6214002878214379,0.5492019969619879,0.5974818898569322,0.5996994464183611,0.651153739712733,0.5982723647578946,0.5685929330331269,0.5860252990849069
0.538007798817655,0.5555804179925822,0.5685719559022329,0.5601323168725267,0.4900746796609518,0.5423509294326968,0.5560565375518366,0.578322917242809,0.5313952202931714,0.5913932799384284,0.5803390162382953,0.42463196223058525,0.5870168191293389,0.5663691772974477,0.6083032994672918,0.5813820644173773,0.5736860209290328,0.5264065899752305,0.613606052873852,0.5902461588377781,0.570695325668555,0.5791882991441487,0.5736917163031563,0.5851118254058619,0.6236182597436206,0.5664142696169386,0.592320192994314,0.6082053155390795,0.6375523278425356,0.6013396313068224,0.5568764771371066,0.5822489992596968
0.5134828441071817,0.5370643348008923,0.5474973652744431,0.5082653730214561,0.4461243554557924,0.5101047115911931,0.5290905873824644,0.5710776471850957,0.5336801671054542,0.5753792231976039,0.5380890059476857,0.3957036423114753,0.6043318981575461,0.5657387855309731,0.5825553164080101,0.5767079562711044,0.5708798324562333,0.5323917612634999,0.6104500343443993,0.6023834539517652,0.5904792194941871,0.5850838475915451,0.5883251252353546,0.58903660172347,0.6159502625504507,0.5564566435415326,0.5759950911778347,0.6053685929333736,0.614566262227887,0.5990550873903706,0.5398171819441162,0.5641458480497604
0.5156854949549329,0.5313663492627356,0.560069199867924,0.5285107216466899,0.4503078338496628,0.5310424154913667,0.5496982465311174,0.5879058437599307,0.5179955817585625,0.530979700187468,0.5255471476333659,0.36206382968592626,0.6097093319900613,0.5672224908190754,0.5560010842204913,0.5911141827007531,0.5579583943986903,0.5611313061618083,0.5975305633795367,0.600501241847896,0.5828767862022818,0.5997841682430387,0.5858880014409465,0.5719890422391511,0.6063678355917754,0.5508826879863249,0.5672139373306395,0.6018359628786747,0.6123481385505939,0.5891389301521327,0.5331106685554255,0.5509676485971547
0.49038753925543443,0.5271436156561917,0.533539730346905,0.498772839807617,0.4737876791696022,0.5167964633376867,0.5494920550779665,0.5701435430394522,0.5153880539116211,0.5267378322079549,0.5329082018654316,0.3673295822561701,0.618521232268633,0.5774982297600899,0.5620815517384709,0.5860696995460293,0.5578025508112417,0.5788115750600671,0.5868359854225614,0.5884636248571513,0.5757734497731822,0.5743816032681422,0.5574277209900292,0.547283285351834,0.5963384455103272,0.5343459657473464,0.564834282454811,0.5972581295382982,0.592948592261776,0.587269228650974,0.5164400852398863,0.556691956644444
0.47134785948682006,0.4767883680985039,0.5133649216380194,0.4586804289337343,0.4362853658288138,0.4614852377304048,0.5527327561254554,0.5636684783860458,0.5352038398275963,0.5081615809556798,0.5311308899267363,0.3725611187494887,0.6017729068768589,0.5960046296622201,0.5710864969371853,0.5773987336013493,0.5429170959816949,0.5965242251186663,0.5958254523030793,0.5994105652030509,0.5834792069106197,0.568630312484401,0.5884585437448874,0.5457261910579961,0.591119708949051,0.561110929006373,0.5414825399339094,0.588635561387732,0.5624773686272054,0.5645556135190165,0.5047309397112139,0.5489837543775522
0.4673866399239874,0.4588914475030741,0.5013249475601702,0.44776216180828615,0.4224159606396963,0.4562009874551117,0.5551524133740816,0.5595427125581385,0.581594694654198,0.5212117522914257,0.534655839346667,0.3866798805093949,0.6070078712980345,0.6339058990076756,0.5969404471528608,0.5941150263943372,0.5361527253873919,0.589317412924425,0.5927753522641992,0.6038076657896534,0.5836497293709875,0.5495896361712101,0.5756719792910937,0.5236477441694656,0.5595472031817866,0.565647334664912,0.5341170926765004,0.5792954826887187,0.5511150089425996,0.5451384961330328,0.49945689615923095,0.5355799251141664
0.448239671603823,0.44061416873144377,0.49169343036141117,0.42842975411388684,0.4346142611433846,0.429367629332173,0.5590261073286549,0.5462123948812735,0.5858468000842924,0.5182114387447251,0.5446791078673929,0.3717769009127861,0.6208388869777138,0.6405082424901061,0.6146525697405201,0.5829393716306935,0.5379293786593803,0.5946674259943414,0.5838244629727596,0.6049283170078258,0.5643926755521723,0.578010925940848,0.5839313766361667,0.5279379514112956,0.5547887471871067,0.576834222630088,0.5394208012796116,0.5752726996106445,0.5534705769798546,0.5398707336490319,0.49046111724093444,0.549635631184154
0.43733449135630564,0.426359463894922,0.509385465857712,0.41949098088238157,0.4372106267270097,0.48686242857621664,0.5821734028997362,0.5599612946244141,0.608564944210178,0.5153482939468053,0.5384015854905604,0.39644686517031086,0.6180583093469143,0.6354847979553927,0.6144574798761311,0.5724102820598544,0.5611276055958339,0.6050399130496785,0.5966018632872876,0.5956161485164747,0.5656416861046606,0.5956959518685838,0.5872769971307575,0.5302283861835928,0.5669802171971892,0.5600273952678443,0.5365848310525938,0.5692515653047564,0.5325187851245844,0.5424929767623159,0.43650344055446594,0.5343874680330771
0.4450772408741933,0.43296129709244735,0.5125368874069969,0.43293349512502244,0.41259230449716966,0.4877436722005201,0.5850240764619338,0.5321495229287608,0.5928257570778696,0.527859212162583,0.5550406719316476,0.4244293379731452,0.6156891215209414,0.6213798550575622,0.6105249839890787,0.5829142357216562,0.5731070606649552,0.6032882559265024,0.5983968440141346,0.5981562032431993,0.5715667210353556,0.5792343830868019,0.5697161446064217,0.5567760422350737,0.5746393286127512,0.5367506911511871,0.5378459331668182,0.5502115715528271,0.5520161421964587,0.5558259905748363,0.41554583863652117,0.49338495665698273
0.43983139585388964,0.4400978079042289,0.4931928789432303,0.4331955719770941,0.40639020007471544,0.461202342380496,0.5969594228142614,0.5246147057650409,0.5723283289890008,0.5499869285418245,0.5588296109367509,0.4683898298658695,0.6048275919640124,0.6088170210768047,0.6109090823229733,0.5917375367070117,0.5744977188565803,0.5896204062472606,0.6056317787734852,0.6170301103569172,0.5871051494332203,0.5841537320391901,0.5838468647984464,0.5825958011042237,0.5732233007142226,0.5520904667719136,0.5456105895131206,0.5515663069823389,0.5500379501552629,0.574130990514932,0.44770382012908777,0.49986502946960815
0.43032492202335515,0.44842515499937546,0.4821362406952312,0.45085152386847205,0.3674012585378659,0.44132636488186766,0.5897262402956958,0.4924545478164806,0.5494528340128878,0.5499708205762409,0.577082436079219,0.5070750001632719,0.6176819614698067,0.5937897776932225,0.616314748516657,0.6230026037822114,0.5749397728861593,0.6021096280259152,0.6127368783798496,0.6116683969055063,0.5912659377653654,0.5863236068503586,0.585119687440059,0.5916629653654647,0.5682869548490489,0.5103226932178343,0.5363974978334156,0.5441530499119327,0.5462954133810712,0.5730125026292501,0.40986269204054165,0.42338204436592264
0.4387237908287808,0.47659448971527457,0.5080902947131816,0.4782646077166785,0.3376019347643865,0.46737347378815086,0.6128302304793349,0.5003318475269801,0.5439283001433305,0.5724343931104785,0.5911807636047282,0.5577792401281213,0.6202555181622565,0.5898965292971832,0.6196528333533767,0.6172426516832211,0.5855970428317511,0.6022551023922994,0.6119554126235794,0.6180026703502148,0.5801644561628103,0.5730939963690228,0.5838783893370781,0.5887292931907777,0.5552518625344048,0.5032073928811016,0.5343551531917848,0.5380068915475208,0.5293213350072724,0.5712945568261755,0.4228310361743511,0.41956306335408594
0.48462452103508047,0.509842242823335,0.552534456988177,0.513051114490988,0.3461888022207887,0.5325656104023967,0.6223196657154906,0.5194259777873468,0.5684308557204661,0.6055632298358065,0.6075103029373763,0.6283920451033207,0.6175018415553841,0.6081568623799832,0.6116249718462422,0.6118588646688592,0.5854985357686457,0.6062210005884714,0.613956809278597,0.6023928172914812,0.5832701985239418,0.5918467057549459,0.5915740998947132,0.5982873497837228,0.5570325636701242,0.5034942126286855,0.5501834147625667,0.5452568364710039,0.53093423029788,0.5625492416199823,0.45611023214513263,0.4681772881943076
0.518221785391459,0.5290545891242284,0.541093038367938,0.5268982952271066,0.3410245707556793,0.5309191012953203,0.6204727586653208,0.5448187673083783,0.586668282510396,0.6122616375385728,0.6041864092144377,0.6027771871953665,0.6158220474544478,0.626043128088043,0.6067638034115264,0.597176405251958,0.5975330031852599,0.5919067413600931,0.6113119561617668,0.608671944924617,0.5929280644025378,0.6072270364845055,0.5748595917072556,0.5959206884398224,0.5729456865723107,0.5317259395351221,0.5459502596972686,0.5452579660477664,0.5231725722549709,0.5631008406019469,0.49425276850884065,0.5040364603083235
0.5696562787983014,0.5831901987859596,0.5805792578422158,0.5838577485862495,0.4121346411430868,0.5596157879354228,0.6098811263004776,0.5577683830131823,0.5965288599660087,0.59127098898473,0.5964015447519337,0.5582697115442617,0.6211790095079973,0.639752694397141,0.6092240436598608,0.6164586746847531,0.6069059229768798,0.5945761283009229,0.6339583091696146,0.6131825704302809,0.5921853523903026,0.6143827124246662,0.5765231240938283,0.5972195262068257,0.592925571833509,0.5563900768519898,0.5723401693080374,0.5707838527806859,0.5541483057532892,0.5864387656964292,0.549341664914917,0.5506322759825388
0.5857622836272233,0.6176879369388333,0.5832186487679121,0.6258028875477583,0.47131855382704463,0.5747981544456054,0.6049199979494256,0.5589966029585758,0.5964119351989569,0.5938836757325996,0.5952429655785739,0.4517893766737445,0.6198728659879903,0.6338827345596246,0.6183511760140387,0.6110344221114696,0.6113196947945637,0.597028048304872,0.6313025228948356,0.6122371037664925,0.5888008637720142,0.6004410571126165,0.5831523336534515,0.599349696884159,0.594485837337546,0.5339563984253627,0.5731760427742758,0.5653580368485027,0.5762504106715755,0.5960618523604797,0.5761596831609741,0.5303737716447118
0.6292137508528602,0.6270088213182133,0.5906388297258022,0.6484765508284446,0.5120046209129616,0.5884484437180025,0.606563088789696,0.5608439834724627,0.5846852207062818,0.5863772645830257,0.5911550750972885,0.42803306167319466,0.6210586223856175,0.6189118020178948,0.6089561826653358,0.6023366131118392,0.6230824308154945,0.5824277464223118,0.589072354726285,0.6236482194843367,0.5870844529055655,0.6070754055690645,0.5851678224631841,0.5973892729666322,0.6056715779483305,0.5512325617091274,0.5866136872374804,0.5774112285252867,0.5805422152049217,0.6030331757830867,0.6039808089526609,0.5336077776973625
0.6373364758188647,0.6181862829579746,0.5839732252558362,0.6440405106116407,0.5094806920029226,0.5875411240972653,0.6035725812610493,0.5649719871359477,0.5791737968350792,0.5846405533036754,0.594870519790524,0.38679635515048844,0.625383768075846,0.6201020960173598,0.6229639099130286,0.5980234345876864,0.6149561812979875,0.5936560874749248,0.5805884726796754,0.611553473961214,0.5912477313979102,0.5889893108678794,0.5795704024649675,0.5953454735519652,0.619234054721809,0.571410709063385,0.5884063904200122,0.586657177085389,0.598580218924354,0.5935367230247177,0.6017176929353703,0.5351392965466617
0.6154543991974478,0.6042119861243309,0.6068836130113064,0.6348459094527469,0.5169955531633985,0.5984479802407628,0.6126312121108931,0.5776832883336163,0.576017066751925,0.568635692744933,0.589213273122639,0.3690516729239441,0.6323055213037002,0.5984841402675811,0.6075042321857296,0.6022559955199617,0.6198850308868034,0.6003867607459291,0.5643873011217441,0.6124569371336862,0.6004254405097231,0.5816516763346031,0.5806196314525222,0.5805526198423794,0.6064563677660404,0.5690729683151562,0.5881072290978439,0.5975984226798139,0.6065045351379152,0.5869127681410936,0.6193330451820097,0.5421892137105965
0.6185848350549755,0.6186525855519971,0.6322622067935422,0.6100526774213532,0.5427081150385862,0.6221717675736994,0.6112486985598935,0.5648809130723247,0.5788164911610908,0.5747992763866066,0.5946420847176804,0.3816047456238301,0.635700475461462,0.6150595890481999,0.607860085778544,0.6100049742204765,0.6230707945824985,0.5686959994218783,0.5677799872047824,0.5824769752170903,0.6083341641411316,0.5674620945637823,0.5949936270170738,0.5635136285459126,0.6009317177788331,0.5687958991988441,0.5809227106738203,0.5936643200813386,0.586425795206835,0.6040613947091885,0.6337444089450267,0.5442301575387964
0.6400498084685797,0.6043735251380714,0.6249036534317748,0.6065840833043719,0.5638524840057475,0.6090031664599982,0.603665875955055,0.5578443082870406,0.6044771047804192,0.6136546359843428,0.600235722588083,0.41896221199558686,0.6345032922622578,0.6099128733687907,0.6089344760284967,0.6203678025064396,0.6262869299315126,0.5919244777682141,0.5765669975273264,0.587304155845713,0.6058237424037949,0.5765418302000792,0.5925409056018969,0.5743713074345871,0.5998996226658843,0.5801692176916137,0.5938317711958647,0.5869493192387915,0.6210917600539969,0.6167368778974162,0.6393482079371383,0.5835266103024189
0.6228179830847556,0.5747880277314155,0.631026924478957,0.5868214138619235,0.6265381004282701,0.602989754151277,0.6152137820753617,0.5836939683892579,0.6078350393232753,0.6290326293491748,0.5673562255103995,0.41802337475910356,0.6548032096099363,0.6057597168923693,0.6076617961213107,0.6167041094637682,0.6227124581504437,0.5706372628291646,0.5604988919111088,0.5937658541730771,0.5856495551963521,0.585807849217419,0.6032165714100286,0.5578570358215502,0.5781770862801765,0.5867889338526792,0.6009409866932115,0.5747062315928017,0.616912619659183,0.5978530881423053,0.6055465862302795,0.6039792359887642
0.612656477657532,0.5781352210645352,0.620188994254644,0.5673390150077855,0.6108085058367566,0.5977564822161832,0.5951986815407481,0.560590922093629,0.6056031398587522,0.6177074729583698,0.5709310284386865,0.40714666394317994,0.6413240246809276,0.5873663134174241,0.5944514957847062,0.6032274660230471,0.6288002119562421,0.5663884494147016,0.5590583225302954,0.5908767337064588,0.59142965618062,0.5829625919826524,0.5966905403262356,0.5632891933017316,0.5833431108323409,0.5915776253046663,0.6074889198772782,0.5750882904426252,0.6024975154186883,0.6018580931337235,0.6014252147721493,0.5994616964826223
0.6055865901086269,0.5616367757978025,0.6277621645287632,0.5495332452164359,0.5943191605972601,0.5703405344601082,0.5712312507677457,0.5671627236250905,0.607872373903665,0.5898951420730374,0.5824880174068054,0.3993477118563255,0.6030970717649655,0.6096912123778371,0.6212016831190281,0.6046333293866794,0.6112036877201841,0.5671709054779941,0.5490360029817494,0.5679209725543176,0.583902397863682,0.5856393589449717,0.6070444815065335,0.5688456609575386,0.5541750564983599,0.5825134460277076,0.6091919347474865,0.6035303141158805,0.608251833278935,0.6087233478435524,0.6073337482928776,0.6080935009228094
0.5707102032946256,0.5033246454302482,0.6129032291997505,0.5314368920119125,0.5384499032880862,0.5387377350435734,0.5769596500805684,0.5391053087410638,0.5992750105811085,0.5981669793100087,0.6043664819769586,0.39012171255876105,0.5764417597693995,0.6238911857982222,0.6250596961878064,0.5978370007556204,0.5920703299645665,0.5887251914843833,0.5461151007165201,0.5488998050521936,0.561617174178105,0.5715348801726331,0.5939282569558288,0.5547887471871067,0.5395237878527341,0.5712291474408406,0.5666290433807786,0.574299310109945,0.5918411158660141,0.581324173866843,0.5783186780889725,0.6019023530383788
0.5389965007326869,0.4907075940385976,0.6031859911643029,0.4977223987675636,0.5277393462080525,0.5255160398464476,0.5827305631212566,0.5406556535028351,0.5722756071903926,0.5792190646940072,0.6139092381956459,0.3505598522084883,0.5720456609021894,0.602279174470744,0.6137256140669195,0.5911981954170318,0.580560396658382,0.5660394938673525,0.5392499985159389,0.5435123803688439,0.5402209503771279,0.5596157879354228,0.5785566374983103,0.5372498782360781,0.5493671996926907,0.5436526181319394,0.5527695883469578,0.5807094945280339,0.562607325880092,0.5526210231320008,0.5119662649299258,0.6150828694482952
0.5284013541874205,0.4887122409303666,0.6101384773599731,0.4780397977375706,0.5301589356365448,0.5193229915320263,0.5766467589113748,0.5011805177667885,0.5623760489426964,0.5698600954865316,0.5791722421292569,0.34751512838746607,0.5795860452286505,0.580003110303937,0.5925724710261622,0.5928490514141557,0.5408159949134768,0.5745227481353702,0.49341899223636776,0.5710144207770961,0.5613620775147893,0.5883579989827024,0.5431842195874893,0.5360695942297109,0.5176638064049724,0.5060999865853777,0.5387392660045804,0.5811245395203695,0.5586246093430255,0.5515221128692112,0.5077766388361937,0.5956684791043725
0.5340461263926018,0.47234239076874035,0.5814901011432865,0.45383563316107317,0.520667146610782,0.5232631932396976,0.552717968859834,0.45876470283266085,0.5645106962526325,0.5520954047155341,0.5708308587555626,0.3957144082872562,0.578152291035192,0.5763583022741642,0.5787368293822012,0.5927616589097552,0.5230294832778131,0.5801848074627763,0.4864426136997384,0.5807173081735452,0.5430256626246676,0.5631544524091165,0.5454397097887286,0.5275355241358624,0.5527932364226497,0.5032624690401043,0.5349348537679971,0.5621423553788872,0.5336339937966705,0.5483410557622832,0.5230117810479775,0.5918343006819474
0.5331485308502638,0.4727090831648349,0.5839165506201152,0.4586620073043568,0.5134135560420233,0.5172490933590309,0.5500463369192721,0.4417491507240016,0.5859977556593944,0.5866927224984807,0.6014662501704497,0.5141411545247149,0.5878500282274475,0.5886333281923922,0.5936208250814384,0.6213980974528536,0.5194779239994171,0.5780273912783547,0.5026718220390578,0.5661140285240025,0.5221020118339254,0.5574895139425317,0.5505850125597906,0.5177888727613791,0.5563329810864974,0.4985654968850128,0.5536611741369339,0.5456117398514061,0.5561095185163815,0.5446380495827936,0.4846495694123268,0.5646140132642172
0.5306525881799267,0.4796051087031449,0.5828422415609699,0.47075462877300356,0.4710304417121857,0.5344987300270884,0.5742551395014333,0.4790487422266276,0.5907203915028715,0.5961880775587667,0.598088448429945,0.523659302104058,0.5961308364632477,0.5725581601361674,0.5661328408376817,0.5818342663748237,0.5204645542491899,0.5548196156719297,0.5148008142081845,0.5597084878196141,0.5204017529277984,0.5571299792718687,0.5434208507916367,0.4914424014279,0.5314685586187423,0.5502211468139573,0.575899535830452,0.46542561667217286,0.5500055929340972,0.5424583715129885,0.5053844910259094,0.5503092727262823
0.5496917898494349,0.5259386620554753,0.5782094323197206,0.5171207316497254,0.4822047248519097,0.5447784258531649,0.5523265763220799,0.4709978298247276,0.5980405275855205,0.5972212944996381,0.5934467128772866,0.5153171295522875,0.5959261363513243,0.5869571335397435,0.5549038032446516,0.5775043603534568,0.5059814858458986,0.5391376738817886,0.5336355875417454,0.5579049235317931,0.5309345766887041,0.5417698162528103,0.548833419198428,0.49352433056163236,0.5347019421466055,0.5323790166704225,0.559583488715446,0.4631079096516841,0.5281732959174955,0.5381095827144591,0.5155054073755989,0.5453731902319544
0.5675363462612891,0.5642227641228579,0.6119384732984385,0.5223519834918636,0.40653893371470584,0.5737972153369371,0.5715919789821384,0.49193417708546017,0.6029600950511212,0.6017409351036371,0.5916296561812868,0.528450543356678,0.5880825228924428,0.6005403923459829,0.5457300010221955,0.5820977400302783,0.5285892624352092,0.56932286845906,0.5648714062814285,0.5756515920871216,0.5556371035476376,0.5478619243285341,0.5554425286380161,0.5280234396731166,0.5447756983242643,0.5500970095991075,0.5534805037656845,0.48272226024830595,0.5188170901338257,0.5338472194899304,0.5331836029492343,0.5422059837987723
0.5560870644149698,0.5631936092833065,0.6106309146872482,0.5126661856568098,0.39311785556570544,0.5767326456215085,0.5602906884132235,0.5242987263164502,0.5782131721020057,0.6250748497463927,0.5879309546361549,0.5311848806095002,0.5860717725345738,0.6010825024066888,0.5498137382091461,0.5490728132083594,0.5260548739803275,0.5499386421262111,0.5533312293813386,0.5788506638243573,0.5376286255631918,0.5276582682403037,0.5213894479749643,0.5054141828985037,0.4962003224035692,0.5194974629857716,0.5512573824648977,0.44873849021437884,0.4999800105940926,0.510583023085519,0.5296432222327392,0.5184036256380758
0.552876519297519,0.5552418249426886,0.5968820662429756,0.4889764283471045,0.348157143260847,0.5658607172724599,0.5517290813631514,0.4855970842268526,0.5555739412934786,0.6047044919584857,0.5627554019452838,0.5349158266995901,0.5965516970102678,0.5887678387099073,0.5692512047649056,0.5347877857304585,0.5254188974450131,0.5487516613923447,0.5575499086284348,0.5721761303035134,0.5567755139578464,0.5091084640161959,0.5152207131002126,0.5064061996508198,0.4616896809205482,0.5045846414874914,0.5332984796180493,0.46131577622616504,0.486235702812815,0.4905400011464048,0.5234428201157298,0.5124928862696299
0.5681303946634993,0.5794960251290199,0.5900323960037368,0.5399886938217342,0.4166324669179895,0.5844748264209562,0.5652053485265718,0.5206754319009398,0.5435658066557725,0.5884130970618701,0.539992100265354,0.5353037104262952,0.5650952537000483,0.5625651120889252,0.5364009927462786,0.486890473941226,0.5069996984869533,0.5468879960051252,0.5468784883599258,0.556541302107756,0.5457209996166065,0.5211922937613622,0.5097115459342358,0.5051040569813553,0.4625945908648445,0.4739329073856251,0.5388391236831818,0.5008587638505986,0.4974783431035829,0.5222754878668339,0.5396545253665509,0.5162068736448658
0.5587185245284328,0.5894193183260044,0.5425983776007127,0.5714639158420923,0.4460231768779982,0.5779129096460793,0.5592022774132062,0.5537850641482254,0.5711070955726935,0.5824267745818745,0.5756325652514358,0.5816854816439506,0.5533852381847867,0.5738358996457864,0.5412988958494013,0.509158559793344,0.5295090438516454,0.5306282510621704,0.558238566949248,0.5522693331087359,0.5484887409656322,0.5451237100021811,0.4983864623204831,0.5175841626192775,0.47313156423269626,0.48457571707386454,0.5369556836978343,0.5012418985568668,0.5096273012738819,0.5287914297350477,0.5483162326814893,0.5203792079367079
0.5534021757107227,0.5830485670673352,0.5090414243327347,0.5880191487019514,0.4692948761152716,0.5624732467430922,0.5664732984100923,0.5748499506429148,0.571038340403852,0.5584772482481847,0.6084529226573901,0.5828959081312708,0.5394619417464421,0.59141853778078,0.5712453284890232,0.5345251480624895,0.5651595396439487,0.5208043238158869,0.5783174986201052,0.5807842123729011,0.552243131140218,0.5614412845378354,0.5121596849668164,0.5362941130217728,0.45603986827454857,0.5115198271954665,0.5399907510467392,0.4937464565917093,0.5062130119600248,0.5394741521664557,0.5652126086344571,0.5412688212703234
0.5753491279719711,0.595994988190865,0.5257572436686012,0.6114787943748442,0.48362086093756634,0.5800579875304609,0.5739833218762199,0.6011925877830617,0.5722764231521171,0.5698247605031774,0.6317529679406159,0.5921822763751572,0.5443241638404746,0.5984000638335597,0.5839478885949533,0.53597327457404,0.5456746739474927,0.5417959498038404,0.5856692075499608,0.5997897449809036,0.5449472052088508,0.567950653640255,0.5339811460724813,0.5284094369515311,0.477585666557048,0.5190983964377788,0.5263747577032886,0.49594646921223523,0.5091670137860476,0.5544128114897966,0.5563275325196066,0.5392448553844045
0.5700095012613579,0.6071833570775519,0.5400101855635332,0.5935363490302719,0.4759648065400298,0.5771173552737443,0.5667124572516907,0.5827420741949096,0.5515062655402333,0.5565626719142617,0.6227480561616523,0.5877563806847365,0.5340976330848652,0.6089199358251212,0.5712692337256546,0.5234495430877213,0.5289925958087479,0.538741626256986,0.5981454138259674,0.5919713302261088,0.5564807925782963,0.5680814469599709,0.5266717797504846,0.5443298467080496,0.48484560795669374,0.503905180921417,0.5084821778295752,0.48945238236576744,0.5005513488229855,0.5292448233063352,0.499479222309365,0.5460101358796441
0.5416805544686549,0.5525555101694253,0.5100196948893885,0.5553279185773764,0.48421449089025465,0.5316719109238182,0.5307499398818838,0.5539929886206552,0.5590569542396445,0.5695865344697687,0.5881516950211567,0.5817943857210356,0.5550736607036155,0.6220810358467084,0.5648669815180505,0.5275686516308328,0.5364293706304709,0.5590874607829681,0.6088622605772943,0.6018694079209296,0.5784441607298022,0.5985846524484049,0.548418074317833,0.5942669467901674,0.5267712919214174,0.5348560036694895,0.5274218354893985,0.5523858072961451,0.5424721370233435,0.5289390086296327,0.5074239196353084,0.5527898228650229
0.5157967576234059,0.5330556461418697,0.49456619542561114,0.5462183368383796,0.4735740237057603,0.5105313005233671,0.5298788396505848,0.5680969490270494,0.5380019332406144,0.5845437375317786,0.5992510947928185,0.5718611552394477,0.5507329143578454,0.6002132183497022,0.5570518228596532,0.5182646741136975,0.5301657332530755,0.5712379969923898,0.594761962682828,0.5986457351304723,0.5809147494925401,0.607470956005036,0.5564011550281835,0.5891827970222968,0.5266570889826713,0.5370562177050869,0.5368047190333434,0.560128608459482,0.5442163479590909,0.5258596691917042,0.5218452507538724,0.5200689514984508
