Fp1,AF3,F7,F3,FC1,FC5,T7,C3,CP1,CP5,P7,P3,Pz,PO3,O1,Oz,O2,PO4,P4,P8,CP6,CP2,C4,T8,FC6,FC2,F4,F8,AF4,Fp2,Fz,Cz
0.6489594291140601,0.6483835417634398,0.6554529858057873,0.6421470314321255,0.6245469819777851,0.6725021497545278,0.6572615251354237,0.6593977702759506,0.6240843393256236,0.6657673714263329,0.6313113541639419,0.6303817471345021,0.630844449829417,0.6365063608959081,0.6482315581250248,0.6362488812685769,0.6428348081193614,0.6423371836990227,0.6369452939713763,0.6312183599729757,0.642032458726922,0.625274371156165,0.6254748580414791,0.6337844037626971,0.627086733219485,0.6189618052824587,0.6149701624872378,0.6301351387790934,0.626502436107264,0.6341089853179824,0.6423842103428953,0.6211413938258137
0.6509377207245913,0.6482197641555763,0.6671348294445038,0.6449572386380844,0.6329065989469597,0.6651826345348325,0.6624589867502947,0.6596974295624828,0.6283908830462746,0.6656323273589172,0.6390889603911332,0.6281319823055794,0.6400423610665632,0.6394895042218107,0.6508052795098196,0.6325261239879573,0.6513277767674612,0.6442802195703556,0.6387605003998914,0.6509646692885004,0.6513817470424229,0.638022148291448,0.6395145041132367,0.6331860960141641,0.6401838113499622,0.6361390761160857,0.6250744748295975,0.64567574671293,0.6451400219387711,0.6497526782017217,0.6439940813424012,0.6536082522499513
0.6398215423270862,0.6381213200895317,0.6578378830936142,0.6352501898562306,0.6132681386666282,0.6544700283147791,0.6565294846826433,0.6497526782017217,0.6240758052319063,0.6574552031174575,0.6572615251354236,0.6400518852293792,0.6467950610374621,0.6452970775529429,0.657479997641303,0.6468737888287577,0.6540161219901043,0.6332999132580763,0.6299933341964745,0.6707627706582686,0.644486898007051,0.6306231229529777,0.6338114736166648,0.6648618402098083,0.6310017783538998,0.6367535499389118,0.6361803288286388,0.6338893016758144,0.6489299171304163,0.6423842103428953,0.6310835997897921,0.6506242457389366
0.657013906074227,0.6337844037626971,0.6536659980299205,0.6485988195768727,0.6203449252895683,0.6332772970151075,0.6576363142469894,0.6534366790048567,0.6366929917440942,0.6575047574402261,0.6628303618208989,0.6496343421425733,0.6484288715961034,0.6509727493555514,0.6566251853440803,0.6455713781413039,0.652697454437527,0.6405451907478196,0.6370978123460218,0.6600194445604756,0.6407866245856073,0.6360916668923637,0.6249704247178602,0.6630044826897972,0.6230807025750001,0.6271370696583364,0.6430154299993134,0.6296668012266937,0.6461660621269353,0.6258634735307896,0.6508907235126034,0.6424429807802231
0.65666925580887,0.6454698866329946,0.6629555992945071,0.6523041521209216,0.6372196382465258,0.6302366064362543,0.6785395241148405,0.6389130641566579,0.6486502295204472,0.6452725398344367,0.6569223587280455,0.6430632251274411,0.6415728021017268,0.6559895389935977,0.6459520531535707,0.6418310791591673,0.6540060804562733,0.6473698304749103,0.6474642930868487,0.6368635570650786,0.630644675140222,0.6495981471593528,0.6293094968830991,0.6373415898159213,0.6157324813848432,0.6308899410434835,0.6424056242074484,0.6356550448349957,0.6430504610496405,0.6364916223948406,0.6564254878478438,0.6278861459198393
0.6543419592444965,0.658728474374023,0.6621877350712753,0.6477137514213462,0.6428489257927482,0.6357332430556618,0.6657175131366662,0.6384144611288893,0.6482960212911413,0.6618249209697475,0.6565702034276156,0.6514354512201328,0.6535445760456856,0.6585415046975179,0.656463540105604,0.6537391390310646,0.6542580944783514,0.6530619895258185,0.6504376561119681,0.647087280346191,0.6418157812495203,0.6569867685245819,0.6455831067624416,0.6418953460146352,0.634266442050173,0.6483540309721554,0.638418101318699,0.6408403326264892,0.6539408948617452,0.6513232786353708,0.6527219070994656,0.636715861165653
0.6592073924227586,0.6651434260005097,0.6528038964370217,0.6439993017988461,0.6411877157783559,0.6323665058925835,0.650969598740134,0.6485806091623723,0.6402917553101404,0.6636507321848045,0.6518171606508437,0.6545341109057484,0.6489245301088082,0.6591869883981734,0.6643475895953179,0.6454848530629713,0.6470017033850182,0.6533622718669566,0.6430504610496405,0.6520152708394384,0.6396671699303965,0.6481577425229209,0.6366365468192974,0.6561514783548075,0.6424331749209881,0.6485594684102668,0.6354821675682354,0.6425214989598927,0.6541347101925864,0.6486355139436595,0.6489626892889788,0.6398469065173057
0.6369563620626227,0.6421019436964536,0.6541482812624626,0.6420823803178042,0.6248729447027808,0.6279171373376958,0.6358223241018782,0.6489983576388422,0.6161509945118779,0.6509279740059745,0.6316483679171595,0.6340506554848824,0.6243106823521246,0.6339776457099091,0.6401298070841037,0.6479514866797759,0.6286613801713459,0.6366281128896123,0.6117576800606864,0.63434202587249,0.6098291200708051,0.6187408460290018,0.6130374320218339,0.6358367697920999,0.6183325677406117,0.6208415159807319,0.6367366784204547,0.6183133261666783,0.6367827978164705,0.6286830032992863,0.6432212900792489,0.6150899719832345
0.6312433912684065,0.6188933102742779,0.6566246839112122,0.6233029081394742,0.617759932387676,0.6357547294123544,0.6410559854911245,0.6577692330199009,0.6209907805014158,0.6478320200630555,0.6163086395081406,0.6130262532804303,0.6152096072801377,0.6133594777830891,0.6099608046092913,0.6390840749527542,0.61561844194301,0.6176736325937925,0.5999130177540002,0.6117910385135293,0.6059678739055733,0.6000563379316992,0.6201419988662842,0.6128377917303126,0.6133594777830891,0.6155995691479946,0.6246715167450883,0.6157620653029006,0.6373415898159213,0.625472279240976,0.624676938443295,0.6322818140177375
0.6364916223948406,0.6192132351211476,0.6392498286314126,0.6123720268074291,0.6125844925169429,0.6126323923428316,0.6545835250075341,0.6531955903535709,0.6319724403269006,0.6425900704228307,0.6097313660883823,0.6085925551338057,0.6188274370160788,0.6260427794820685,0.6091963165008534,0.6229196531370204,0.6254159512130865,0.6055389512378275,0.6069365358428929,0.6054762266058066,0.6189946425742616,0.6115503512117288,0.6425746252043871,0.6213816271485866,0.6252743711561651,0.623587368337982,0.6163758889990054,0.6309578878940029,0.6355637444446417,0.6416979105768357,0.6189946425742616,0.6419834928427787
0.6478125109134512,0.6421470314321254,0.6471429287812206,0.6240235554107015,0.6179044501400911,0.601134639694007,0.6641062510943937,0.6421019436964535,0.6232627559174374,0.6415140979331552,0.6127024821727922,0.6115430105380132,0.6166629318957761,0.6247145718147444,0.6341478962723621,0.6415826480775353,0.6354557251727814,0.6084962397755566,0.6179663259288861,0.6216651392125198,0.6151667713310078,0.6156812022332356,0.6394016810177179,0.6394705339993445,0.622452358688596,0.6246249366234553,0.62367375972541,0.6280131770848261,0.6197017781015676,0.6363903315519759,0.6182931322491193,0.6329580036764476
0.6330004611387059,0.6397240668325314,0.6403643463088743,0.6271358934961384,0.619056936398863,0.6127020689632439,0.6435397912526004,0.6418365755773073,0.6186589343140778,0.6526193279013999,0.6089698644968677,0.6127169297972983,0.6174445148647288,0.6112628107852194,0.641766789154967,0.6599685831737221,0.6424252101689581,0.6303076657963195,0.6185919310861996,0.637434098304898,0.6032458199388744,0.6122469825358253,0.6178128710995702,0.6256035118373781,0.61561844194301,0.6206578514812804,0.6172152466039923,0.6220269225135937,0.6155841939024971,0.6243768716992645,0.614686646029109,0.6191843718306914
0.617377752590602,0.6352942808802085,0.6399150479439143,0.626660223355133,0.6115503512117288,0.6278194528798879,0.6136570009863497,0.6419432818450682,0.5980526739583354,0.6572914794883148,0.605138288090162,0.612989532195945,0.6154352589826675,0.6152096072801377,0.6347977879682699,0.6500677920735725,0.635924030720339,0.645965103722844,0.6213958845538056,0.6393290837159455,0.6081803026435548,0.6274706217160962,0.5923088717625986,0.6181158021712431,0.6300621790580037,0.6109763665606662,0.6172357281061065,0.6280567580597065,0.6278861459198393,0.6277844503404849,0.624633955320806,0.6250934719401864
0.6430504610496405,0.6470846929192542,0.6654662119780291,0.6425236033865503,0.6241590102862624,0.6268026554223183,0.6373415898159213,0.6414055354370638,0.5920390559568861,0.644440811630144,0.6152092650415282,0.6037467823437574,0.6185993957456027,0.6258878092250756,0.6354226882066262,0.6466561216927044,0.6296687872078164,0.6409351834129218,0.6373123407775905,0.6416449043802287,0.6279006727218366,0.6353407172848364,0.6266575348999196,0.6343675799145303,0.6308237133114185,0.6251550006518829,0.6354857186139268,0.6397042633620003,0.6336628010239915,0.6396263415072756,0.6221820083769511,0.6266670298808055
0.6329065989469597,0.6508463524450814,0.6788220390653867,0.6443390024581775,0.639547862292684,0.6361989289776991,0.6515000638858419,0.6398215423270861,0.6145943997477741,0.6279055149259641,0.6351297919888629,0.6130374320218339,0.6265725362523321,0.6132643799212381,0.6550326629979584,0.6449276187186602,0.6458917615385741,0.6210182914081774,0.6335500188544873,0.6334868966742631,0.6217819406755988,0.6223113961892255,0.643145134962312,0.6398997179112577,0.6383450227360238,0.633000461138706,0.6315440811073644,0.6453419008911436,0.6400423610665631,0.6563451563368412,0.6283413354918865,0.6201322875168822
0.6387846470444143,0.6627051243472907,0.6757884318862616,0.659199920470588,0.6475518135591474,0.6518848133928603,0.6514561289403329,0.6457555064657827,0.6116276972492618,0.6446532148502548,0.6513277767674612,0.6510975195934625,0.6219709061852036,0.6127432642831999,0.6498458121909017,0.6359023147663918,0.6470508953252337,0.6243102534200049,0.6307085534547353,0.6306231229529777,0.6164916671983655,0.6291535438052311,0.633370882372523,0.6430210811270065,0.6589356872395363,0.6340749365512723,0.6397778578489106,0.6396710347824041,0.6333443328873416,0.6615128437510237,0.6511894411833258,0.6410515510685362
0.6513524250259287,0.6460291811100838,0.6501228854212157,0.6391174980069473,0.6398997179112577,0.6450308527806955,0.6564799303598747,0.6594775458557889,0.6261848059768608,0.6624538231886536,0.6456908031344828,0.6619170179782609,0.6381710718584049,0.6391175875790133,0.6457447948030776,0.6502688977653951,0.6473823833699356,0.6442117237786874,0.6396263415072756,0.6323435292911037,0.6275637029718389,0.6371038841747817,0.6452640265530593,0.634383218418436,0.6444175838586228,0.6453765907424054,0.6370926571354224,0.6279792790010168,0.6291210367965411,0.6483835417634398,0.6537141180820579,0.6459114036039232
0.63709279629028,0.6337358107989648,0.6572597756147441,0.6263349830013067,0.6450600333342816,0.6570529916796218,0.6494384496489839,0.6787665539032857,0.636886797055487,0.6616143425592986,0.6373123407775905,0.651710993298853,0.6477631402096533,0.6460319303730153,0.6395612026834352,0.6600739681947281,0.664803584051663,0.6545494928319874,0.6517676444612097,0.6474042476773977,0.6389087915476428,0.6466717822911807,0.6541936846818148,0.6501615087300588,0.638986288196108,0.6515000638858419,0.6284683666568734,0.6304896821720392,0.6485764792408011,0.6270795268464656,0.644914909176619,0.6444271863058523
0.6456217923265685,0.6367535499389118,0.6834872903880833,0.637434098304898,0.6453117997892763,0.6543404329237146,0.6483791359347045,0.6564403150871836,0.6223260548254075,0.6557347778617906,0.6431719539931794,0.6422917909057367,0.6307085534547353,0.6295957774328432,0.6199035244795896,0.6465065854403842,0.6427663676109359,0.642599732318662,0.6421881604021513,0.6403135553617417,0.642032458726922,0.6330393720930857,0.6447312873514033,0.6572466696616558,0.6336947161461303,0.6483835417634398,0.6312909525019877,0.6283482880193848,0.6484288715961035,0.627714261536254,0.6217037073168297,0.6364194800067025
0.6430798397958498,0.6311642745088057,0.6675510196646023,0.6237940249237477,0.6234768695243238,0.642215586415224,0.6335460435534571,0.627500948939575,0.6224274506530919,0.6520614067094151,0.6596801693887967,0.6368867970554869,0.6121080941952937,0.6282169133973392,0.6416979105768356,0.6413191813763044,0.6430798397958498,0.6307151919213859,0.6310186607468005,0.6369122063283168,0.6368783362319077,0.6175169351471042,0.6286613801713459,0.6364950965358983,0.6258753263761114,0.6303698480169934,0.6368344420274933,0.627746793255076,0.6356820231108288,0.6284683666568734,0.6177851959420675,0.6163061824499165
0.6477494915390825,0.6387618211973844,0.6583592051944889,0.6432603518414652,0.6312689272160075,0.6483737049654854,0.6296403490475787,0.6514852753308908,0.6303387505897291,0.6623368475444278,0.6486421708395476,0.6338136388581144,0.6126994469601971,0.6331273810138877,0.6486355139436595,0.6413996116984928,0.6575930146625583,0.6372196382465258,0.6353672677602519,0.6424429807802231,0.637273340253884,0.6311453501980023,0.6222958919710577,0.6244469116108712,0.6311254469733627,0.6282396399125322,0.6457447948030776,0.617684766497923,0.6414094044831925,0.620015517390216,0.6425997323186619,0.6057586348799957
0.6375566597085264,0.6468414808919167,0.667579611256344,0.6464997561560761,0.6388106664406741,0.6425746856471073,0.6477545376540041,0.6459012902512524,0.6312965933317447,0.6649216697434472,0.6308541557587207,0.624498659057143,0.6242945605318101,0.629810177669213,0.637273340253884,0.6440987328024247,0.6443289463067938,0.6366853003768745,0.6344187658433754,0.6485303790684469,0.636715861165653,0.6367123139313362,0.624216327173041,0.6308743408410775,0.6365891198344367,0.6390840749527542,0.6458233210301484,0.6228388193020652,0.6441921456723307,0.6239273122422874,0.6369074518024666,0.6152092650415281
0.6128674685421786,0.6298943940358502,0.6490541241358407,0.6167191066931302,0.6124486856275324,0.6095592412069113,0.6274211379634199,0.6389130641566579,0.6112328723075025,0.6597124109625836,0.6167971406494007,0.605391741845232,0.6192974979172844,0.6241947126188381,0.63737083769348,0.6416688757525337,0.6312283697876894,0.6252453815489675,0.637229387410081,0.6432357674647707,0.634425998321821,0.6310769096895766,0.634425998321821,0.6336947161461303,0.6290473886701061,0.6425236033865502,0.6481569241178874,0.6151401584787696,0.6421509095805971,0.6298967785707752,0.6311601110301994,0.6386190501164922
0.617826216781322,0.6125345229623349,0.6489590064722361,0.6238616717363921,0.6100181532973531,0.6193263600922905,0.6285507188747714,0.6402583385321812,0.6050381149714821,0.6457447948030776,0.628355862293884,0.6129611478454458,0.6254159512130865,0.6314860872410235,0.6369160460938177,0.6427957463571453,0.6426607160988373,0.6392386446814805,0.6345602161267744,0.6477431666993645,0.6410266067449151,0.6362110030971938,0.6432799378029748,0.6314421956357301,0.6211644235057515,0.6337065803164311,0.6397677917906746,0.6058024193922178,0.6425214989598927,0.6306884967515489,0.6271419118624639,0.6428348081193614
0.6291405878607959,0.6177687009301809,0.6325813258095755,0.6235975497591763,0.6196273934767336,0.6101024160934899,0.6210721114116813,0.6187262993525795,0.6187840359764227,0.6337649486698381,0.6275922592303838,0.6202192160729646,0.6339874095632717,0.6379403311776665,0.6436183127415323,0.6494714569831713,0.657479997641303,0.6453253624895715,0.6232550043857379,0.6268152212342752,0.6274760368490321,0.62539662468271,0.6251804452832073,0.6354917425977126,0.6221089155529378,0.6220417693822015,0.6306343759741412,0.6174712340359856,0.6312327150172314,0.6309256665558343,0.6301875074559866,0.6435225094533884
0.6163269033165628,0.6239592316255377,0.6085488162591072,0.6194045934510597,0.6246039023655273,0.5862973041255748,0.6046983747470596,0.6100324897858119,0.6087569568785031,0.6152431459774738,0.6097313660883822,0.5999482330146135,0.6185030848703504,0.6152969688074709,0.6293597209301562,0.6339330763553702,0.6344746885100971,0.6173313475058549,0.6061312873043446,0.614435731583346,0.6096944304444152,0.606073775290124,0.6035331541470987,0.6146047421126745,0.6019862240504177,0.6124393239257353,0.6179175171716759,0.6092536651889151,0.6115036083410572,0.6199922918209807,0.6162512463456598,0.6229196531370205
0.6217229871921544,0.6320907681848247,0.6096800939559565,0.6342209060473355,0.6330836972355388,0.6093120304677723,0.6363464702317293,0.6191089627842868,0.6200104487903825,0.6160782163384195,0.6336628010239915,0.6227711724894208,0.6316166663697107,0.6172222109677795,0.6277744112200899,0.6272722045634832,0.6301264578518888,0.624676938443295,0.6283171235231311,0.646063267430738,0.6310186607468004,0.6325980561371546,0.6161317439834288,0.6246249366234553,0.6020319519448805,0.6234756229838215,0.619585650426953,0.6070321669744186,0.6192833330219392,0.6397390768430393,0.6065005591496306,0.6129320483660737
0.6182844628762223,0.6243433801625676,0.614355179754095,0.6243658087521808,0.6305372536178065,0.6180619828275309,0.6276931659252748,0.6270983308875836,0.6312393051462353,0.6219832438433353,0.6456567209050526,0.6358270206285448,0.6249871573679812,0.6359282534170381,0.6511055996605135,0.6343858523513496,0.6355770190042807,0.6277880884479989,0.6310615629305159,0.6240723111707386,0.6315152054107034,0.6372196382465258,0.6356599611773932,0.6288211753738453,0.6182492348628149,0.6303304295358363,0.6302555352961907,0.6150105610651623,0.6259703250783354,0.6418157812495203,0.6185726895122663,0.6149250340584852
0.6193167394912177,0.623041006482653,0.6238616717363921,0.6114400895762921,0.6250388652262859,0.6142732354284401,0.6182931322491193,0.6384668827983708,0.6249607616410391,0.6155889138632805,0.627476036849032,0.6251901083600284,0.6119636947100238,0.6247551454992697,0.6400081602712359,0.6311703814934333,0.6297996562144407,0.6239791122326511,0.6252647080793441,0.6064764125410188,0.6252163908114791,0.6130454106415826,0.6237457020031058,0.612970726342558,0.6175402487455078,0.6238809982667686,0.6303336714564536,0.6213873813465657,0.63429308273533,0.6359280701824539,0.6225971952712382,0.605138288090162
0.6253236149077367,0.6340506554848824,0.6311933938238821,0.6199543964142847,0.6153156351880568,0.6164877936647424,0.6312668972567618,0.64778899052487,0.6253289778700656,0.6248421584395298,0.6301824283227113,0.6236770643420798,0.6194353336456809,0.6237016392591325,0.6152438188217815,0.6303201405167076,0.6307382042518347,0.6315054994813997,0.6254159512130865,0.622690966436227,0.6246363384559753,0.6181685018692596,0.6114686274165917,0.6178262167813219,0.6176537101176842,0.6210006377251467,0.6268063825455689,0.618150998007026,0.6343286689601505,0.6280519158555788,0.6217433725712889,0.612874935866928
0.6190195419063019,0.6282130636007357,0.6278994965596384,0.6217557287314678,0.6192102102812397,0.6214537385817501,0.6217131832249453,0.6337392386073644,0.6275967262835316,0.6323227312130276,0.6152437314643122,0.6272916036830287,0.6331423167217245,0.6344454534146797,0.6289363278963942,0.631997446066723,0.6274760368490321,0.6344454534146797,0.6260153089178706,0.6344016787351238,0.6281233993181929,0.6312183599729756,0.6185993957456027,0.6242655990859647,0.6180786027962869,0.6284344685730642,0.6266386742623884,0.624676938443295,0.6312618343323078,0.6192740756713325,0.6337844037626971,0.6115241012177307
0.6147538435023348,0.6210287179426729,0.6224764639877056,0.6100324897858119,0.6304691119537312,0.6329664123719959,0.6281319823055794,0.6278763275354672,0.6269675725993462,0.6219457489266977,0.6008888779259679,0.622340376600992,0.6337795400375209,0.632850398070256,0.6397826957934959,0.6273640748435452,0.6337586944318553,0.6394016810177179,0.632639744216866,0.6395145041132367,0.6401838113499622,0.6276644370716861,0.6217131832249455,0.6265169629092612,0.6285071054276262,0.6330393720930857,0.6310017783538998,0.628526904367839,0.6238876325388676,0.6337795400375209,0.6331930428266999,0.6203922285979495
0.6082424432302966,0.6215879970146764,0.6221048706711128,0.6159692478285229,0.6295046983970329,0.6427172813685843,0.6371511540513118,0.6369598068304602,0.6203979651841349,0.6234954582770805,0.6126151841640604,0.62472525571116,0.6278994965596384,0.6288419750580402,0.6286100042300068,0.6257973271929679,0.6393824935078929,0.6330781889553817,0.6216313904836848,0.6339282126301942,0.6341089853179824,0.6275955501213335,0.6215349571201099,0.6216313904836848,0.6344259983218209,0.6305823416164238,0.6291425144739717,0.6310378886734295,0.6242999559272223,0.6240009069614668,0.6237833789142849,0.6279258112881436
0.6114935171337125,0.6428686674433952,0.6231792044732133,0.609815628884519,0.6309773001343791,0.6302132911890949,0.636579463626374,0.6418080797294431,0.624633955320806,0.6310769096895766,0.6254159512130865,0.6301727223934076,0.629810177669213,0.629171633789048,0.6285071054276262,0.6292900846427228,0.6430700470111499,0.6310503099093524,0.624734918787981,0.6310191383596908,0.625077664369409,0.6332640457436185,0.6110830190319423,0.6248254653773762,0.6203423880838367,0.6250388652262859,0.6285598873891021,0.6278824187965888,0.637434098304898,0.6307230977073351,0.6253526045149341,0.6188864288009145
0.6157041343169952,0.6339776457099091,0.6158049376631959,0.6095271543968342,0.6222594882153462,0.6132278135597478,0.6220266373123436,0.628586065640286,0.621473022259644,0.6201832663394218,0.6283171235231311,0.6281319823055793,0.6252047365592996,0.6280351221011512,0.6223741253298269,0.6339783780740235,0.6401496105546349,0.6339143997882984,0.6201279045657451,0.6224957476655995,0.6153156351880568,0.6332931545558473,0.6074903760320802,0.6213045197900641,0.6220603860411786,0.6187840359764227,0.6296293215624879,0.6268063825455688,0.6331956602946683,0.6394741741891541,0.6314130774660502,0.6252559680950922
0.6121194736188483,0.6216023435284667,0.6153100683877286,0.62317188512109,0.6108218031911326,0.6121490507468579,0.6038224634708741,0.6170559449229932,0.609122847839188,0.6058024193922178,0.6152524681381402,0.6220844913402882,0.6126881939390336,0.6210343864539818,0.6136100448653213,0.6347132496569595,0.6486355139436594,0.6366671134133188,0.6234372388423449,0.6191350017623785,0.6129611478454458,0.6161317439834288,0.6079689540223775,0.6243945162161416,0.6126707100010648,0.602389004060493,0.6251558977281783,0.6182063048586135,0.624573053345267,0.6283908830462747,0.6269576256793112,0.6363698590622902
0.6216215332599538,0.6269688235629155,0.6193167394912178,0.6271225428563391,0.6066057382073774,0.6119478766154676,0.6156958120670634,0.6130549891386948,0.6040765576679411,0.6093745540106241,0.6145403693907553,0.6098765418131544,0.6031035993768292,0.6156568408780957,0.6147203048049988,0.6240531375635687,0.6401496105546349,0.6266270765942898,0.6288031475225972,0.6210343864539818,0.6184953081894926,0.6126111817824382,0.6185438262218101,0.614686646029109,0.6061148253631347,0.6029280988722403,0.6239592316255377,0.6053672645609719,0.615887181344129,0.612294333001435,0.6152580349384683,0.6343336246527147
0.634250840901001,0.6144930759518558,0.6156708177797151,0.6155699522977068,0.6117994637259679,0.603042236978708,0.6260900573804191,0.6203301909710471,0.6110290356582474,0.6186956073337525,0.6216913277848706,0.6114514192378205,0.6100448639076415,0.6173386063484568,0.6078056461314033,0.6092642617124867,0.6191523562532952,0.6245242478933448,0.6183325677406117,0.6156812022332356,0.6181966842575407,0.6192301485041408,0.6191542433363119,0.6063943026726146,0.616107744418149,0.6115430687326785,0.6220603860411787,0.6155848412587014,0.6122905010302568,0.6149212060680072,0.6126343415252127,0.6318363500118789
0.6307959182739644,0.6067609726564022,0.6250486580766292,0.6117994637259678,0.6143778732358494,0.6044369492297685,0.6262420836104343,0.622103775018182,0.6314181403905041,0.6152524681381402,0.6275131939379437,0.6250098756190883,0.6161990899344761,0.6241947126188381,0.6252946241702482,0.6238080160993084,0.6209188837223963,0.6344259983218209,0.6331706545548458,0.6133689553910624,0.6220989541454885,0.6357233106575225,0.6173969843328315,0.6268994983041783,0.630844449829417,0.6127836354765741,0.6238006195986074,0.6185755806167635,0.6242632056713555,0.6293791476731915,0.6064229992566996,0.6308730183255371
0.6296354285471155,0.6169809696735044,0.6275118582339361,0.6238550638479575,0.6108322097404751,0.6308013310661043,0.6192017363676934,0.6200362546007534,0.6338859124745592,0.6277311756628463,0.6341333049046796,0.6275955501213335,0.6188947756288758,0.6262118403087582,0.6335085146283518,0.6397390768430393,0.6318068284100932,0.6278171403762486,0.6357744718241809,0.6089804378528952,0.6169463283442239,0.6255829121430048,0.6045765247465575,0.6300620480553525,0.6402228960254754,0.6176816990289069,0.622453880306432,0.6247875815897178,0.628492578625629,0.6517481503642046,0.6015100880669058,0.6342063146796526
0.638076783561971,0.6356324327608954,0.6399641854823918,0.6382639507467542,0.6143250660636398,0.6513817470424229,0.6269558380844591,0.6126323923428316,0.6343676299684139,0.6219137694696759,0.6177515260496806,0.6246998110798355,0.6330781889553817,0.6125395728083379,0.6412624989862058,0.6479402467061293,0.6482454612614671,0.6336628010239915,0.638600255770318,0.6331106515701511,0.6340506554848824,0.6199543964142846,0.6213524910847972,0.6323645365777293,0.6389168546861116,0.6152092650415282,0.6214720263927275,0.6397390768430393,0.6390694184428781,0.6622605595641994,0.6132297335585257,0.6338574135376704
0.6234092227116794,0.6317003288011888,0.6341479463262457,0.6298781245197324,0.6184394722485789,0.6372926480214991,0.6362867702092326,0.6086491793346787,0.6367366784204547,0.6089101100223767,0.6223199972701674,0.6178295100757605,0.6360772699394877,0.6127169297972983,0.6395096186748577,0.6459948269223124,0.6388106664406743,0.6401496105546349,0.6403407106874331,0.6341973293520773,0.6410959322982785,0.6290678055113544,0.6369355448078212,0.633390338197014,0.6247682515882612,0.6241786257429438,0.6093689487226348,0.624531021106748,0.6369999546043577,0.6456269896628914,0.6178372587183776,0.629590494027045
0.6279356934742273,0.6273683792420793,0.6096944304444152,0.6093120304677723,0.6177364861150542,0.6005905833509937,0.6278861459198393,0.6141278706965371,0.6122110742422637,0.6280373890535818,0.6247948615313695,0.6073788046565999,0.6314421956357301,0.6198754211059034,0.6255458488922903,0.6302555352961907,0.6142303365448718,0.6160466504098048,0.6239592316255378,0.6213999294356306,0.6211840934992855,0.6355260866726357,0.624507209366272,0.6143778732358494,0.6149315484329074,0.6330888051728008,0.6216215332599537,0.6135900785760949,0.6373052294112203,0.6331525892061316,0.6258242019830558,0.6244387688578462
0.6427663676109359,0.6258634735307896,0.6190619919874052,0.6181303597028743,0.6211444282448261,0.6120893268988666,0.6105914535007405,0.6313839581509739,0.6105485546171721,0.6369513460068811,0.6249414351106627,0.6241776021146798,0.6202884734127303,0.6338379584448114,0.6384838802447448,0.6278194528798879,0.6325813758634591,0.6257296164048134,0.6342946201934405,0.6313329704959343,0.6343238506759742,0.6393824935078929,0.624915676902462,0.6190676523492349,0.6241786257429438,0.6389315111959877,0.6536679459604303,0.6047975821991692,0.6430504610496405,0.617338606348457,0.628921091817641,0.6231792044732133
0.6448590749301902,0.6260133698612481,0.6282019828271233,0.6265068077428225,0.6195421768085807,0.6273597962546926,0.6213937930339583,0.6151815153045761,0.6365793593320351,0.6380185067618379,0.6275579875127789,0.6314776653554752,0.6157793793547481,0.6313839581509739,0.6341478962723622,0.6201109270357826,0.6402277814638544,0.63628667725374,0.6309256665558343,0.6348883520235915,0.6360575912393566,0.6276631013676786,0.6220614772021043,0.6307382042518347,0.6367535499389118,0.6426978126278371,0.642837087646552,0.6110290356582474,0.6457592118980782,0.622719547848018,0.6215034461911951,0.6280275706692096
0.633446545190223,0.6272079117956312,0.6117291314411517,0.6143879316844376,0.6219302039487687,0.6180489569463431,0.6281233993181929,0.6023010183131177,0.6334868966742631,0.6363572540943669,0.6261848059768608,0.6283171235231311,0.6213320306968257,0.6241628181721666,0.6251804452832073,0.6266628862311439,0.6372245866963069,0.6387900609125885,0.6255851137503401,0.6373296575768574,0.6262052204994152,0.6238895208528079,0.6223982306289364,0.6219121954490061,0.6300904565528092,0.6240746762488024,0.6331706545548458,0.624414131672823,0.6323470507997246,0.6371708904941916,0.6250714201641179,0.6243658087521811
0.6097070080640314,0.6137896052454698,0.6159884469267081,0.6021384984868972,0.6182459767535347,0.6093120304677723,0.6153100683877287,0.6252552196270363,0.6254159512130865,0.6226648579172157,0.618072234445158,0.6164418972384635,0.6121394722497456,0.6239592316255378,0.6219038786916143,0.622059357074265,0.6291198961849647,0.6246998110798355,0.6210721114116812,0.6278619339510837,0.621848985410409,0.6181401296867585,0.6155848412587014,0.6113592088557874,0.612913253525161,0.6189056703748479,0.6238616717363921,0.6119349588517592,0.6201279045657451,0.6253429414381131,0.6181066824118052,0.6247551454992697
0.6000528575210137,0.6048781033699259,0.6219832438433353,0.605869197003691,0.6248737882980182,0.6045765247465577,0.6142589742268677,0.6202822369087284,0.6146047421126745,0.6065072620528364,0.6083623921257079,0.6035569450033347,0.6014121684690192,0.6058502530983851,0.6240729252609596,0.6283171235231312,0.6209912230260355,0.5964464739581364,0.5973293957267236,0.5952148833135663,0.6026865128107345,0.5941477951474251,0.5956524551193882,0.5959565715508324,0.6065072620528364,0.6138487802582281,0.6122333135429947,0.6096561992009517,0.6186015516872724,0.6158193370330015,0.6151564578693184,0.6203423880838367
0.6252453815489676,0.6181074660867428,0.6190908541624114,0.6185042490038404,0.6292609653276465,0.5992147930841603,0.6094262974106966,0.6231234995536966,0.6127357356506852,0.6141662696316226,0.6072859635196787,0.6072115286090188,0.6011980237673874,0.6159781334650187,0.6312128060642583,0.6270983308875836,0.6237091465114106,0.5984504343390311,0.6053824619336482,0.5998533918414883,0.606222615995759,0.6063314015707765,0.6116921701223389,0.5973261200574727,0.6311453501980023,0.6240055856974374,0.6252226632978604,0.6183321279938446,0.6340818833638081,0.6325577046531147,0.6181485793931513,0.6175093769282204
0.6233302417808043,0.6319543749781862,0.6217911313824644,0.6248421584395298,0.629155204729008,0.6057985896568249,0.6085843246567216,0.6352613348830136,0.6148399650107748,0.6212994511902307,0.6247875815897178,0.6339776457099092,0.6153292674859138,0.6301032446598499,0.6392509081317741,0.639210863843408,0.6388843492090226,0.6157809380979158,0.6129413323463953,0.6078345447652596,0.6092536651889151,0.6122127664881049,0.6226005184529598,0.6033660458374871,0.6219457489266979,0.6122127664881049,0.6178776205186933,0.621935272548602,0.6326758795834206,0.6274022773258885,0.6183887891477639,0.6097648601997857
0.6059867833017122,0.6282532034564052,0.6185726895122663,0.6298864848688618,0.6201791989871024,0.6123955243677658,0.6094406338991555,0.6184889905698112,0.6151667713310078,0.6155416381620893,0.6206439302596953,0.6267482724930039,0.6129611478454458,0.6210729545582916,0.6304206226728581,0.6339776457099091,0.6370197865153068,0.6126904861782886,0.6051284275632333,0.6034559842124756,0.6057932279629479,0.5981326062658062,0.6180401166735993,0.6123382829261793,0.6122127664881049,0.6095797308803849,0.6185286381789984,0.6191061384719224,0.612874935866928,0.6119478766154676,0.6151620246696465,0.6093745540106241
0.6154888309898796,0.6133349611943076,0.6099338905012163,0.6240905697778366,0.6159836471983288,0.6093140332300472,0.6095271543968342,0.6133195018685158,0.6063333104073289,0.6102199474994882,0.6078360462988268,0.6053004869494988,0.6090142051321141,0.6079720944349291,0.6136862841033222,0.6142589742268677,0.621409247903506,0.6092375649094803,0.6161461433532347,0.6086943286983231,0.6094262974106966,0.6218248801112995,0.6213524910847973,0.6150806498225679,0.6096114171929711,0.6156513271447855,0.6138638246665296,0.6092211818655147,0.616107744418149,0.6157176587716934,0.6127049723872726,0.6094262974106966
0.6134320639142832,0.605644181443561,0.6107206492788013,0.6250098756190884,0.5996679720102103,0.602381940893241,0.6080484222478036,0.6065813368266114,0.6035712191572667,0.6123901234770651,0.6004170209455979,0.5927253662476277,0.6067193021175215,0.6127169297972983,0.6129320483660737,0.6111590160607081,0.6161864994410393,0.5979284464557771,0.6093120304677723,0.6113215122156141,0.5950211419208321,0.6145809247924052,0.6100324897858119,0.6092536651889151,0.5991207779027472,0.6095797308803849,0.6097188103553522,0.5956748781165148,0.6193263600922905,0.6091963165008534,0.6158684444823225,0.6159884469267081
0.611647337199536,0.6125850418772221,0.6027741843896001,0.6180037939367323,0.5982398273470998,0.5963230575744853,0.6009385043627368,0.6113845107808462,0.6157809380979159,0.608846251989164,0.6086318051554711,0.6037325081898254,0.6233243621437378,0.6151564578693184,0.6147631656630013,0.6155168920679085,0.6210182914081774,0.6115179787068049,0.6053667991959066,0.6193949728499869,0.5938669557601517,0.6096496352727314,0.6067569000131021,0.617528970659829,0.605051378744429,0.592133588183835,0.6131332224974639,0.5994967593115991,0.6252163908114791,0.5998238504015984,0.599799060975754,0.6234195851356938
0.6143879316844376,0.6560782128884848,0.6197173877691196,0.636989055868791,0.6183400746868843,0.6193167394912177,0.6193083818629098,0.6513277767674612,0.6150220227924413,0.6264212931185897,0.6250497207510978,0.6280373890535818,0.6336947161461303,0.6335452650276701,0.6330888051728008,0.6394895042218107,0.6368477965317805,0.6211058601405163,0.6152580349384683,0.618136328261749,0.602742423052561,0.6211058601405164,0.6095797308803849,0.6181485793931513,0.598841838446967,0.5968716093127169,0.6074772780264897,0.6009800929112383,0.6282746424519353,0.6001756093293531,0.6092536651889151,0.6296687872078164
0.627968383509991,0.6618497933232661,0.6249534102441183,0.6400518852293792,0.6247682515882612,0.6222187497732145,0.6191542433363119,0.6569372142018133,0.6220306821941687,0.6371708221209951,0.6352613348830136,0.6296354285471154,0.6269046066826454,0.6390984000691883,0.6398319557313886,0.6511749751560006,0.6508790326990651,0.6395431313011168,0.6128649783276982,0.6157473374136073,0.5970188677285061,0.6214537385817502,0.6017798616150193,0.6030512515747872,0.5989308451698708,0.6201729295671187,0.6152096072801377,0.6119541162129115,0.6217819406755988,0.6179663259288861,0.6283171235231311,0.6279356934742273
0.6372270538270487,0.6453998736873012,0.6283171235231311,0.6338552529091043,0.6180104708236555,0.6137641049514007,0.6217867615482923,0.6280373890535818,0.6251321280153422,0.6282396399125322,0.6264334305636732,0.6244817784854674,0.6190569363988628,0.6265557755188538,0.6337795900914044,0.638414886711877,0.6493278588279606,0.6439744464336998,0.5996987838105753,0.6152092650415282,0.5896209779154618,0.6156513271447855,0.6026745438327078,0.6034046705668552,0.603175605519458,0.6335500188544873,0.6368059955919819,0.6213668375985875,0.631823035370113,0.6257947467971919,0.6341527599975384,0.6295502207084542
0.6393386078787614,0.6360110123555663,0.630867417613058,0.6478086645182001,0.6280883967787898,0.6106631654489298,0.6182800652175345,0.6097834720092851,0.6252946241702481,0.6250389949998083,0.6155841386353823,0.6238703522573058,0.624136720967275,0.6218687709834688,0.6243945162161416,0.62317188512109,0.6295502207084542,0.6309414588339628,0.6098778217176747,0.6189283580075055,0.6132174852936008,0.6238239353618747,0.6125345229623349,0.6184556284040251,0.6144319035928681,0.6258878092250757,0.630464584059555,0.6052966256600739,0.635784123516854,0.6293817355758519,0.6334465451902231,0.6244986590571432
0.6340506554848824,0.6188887955074852,0.6283413354918865,0.6458917615385741,0.6370246278851496,0.6109385246837767,0.6216023435284665,0.6186859867326797,0.628492578625629,0.6220989541454885,0.6283413354918866,0.627476036849032,0.6280373890535818,0.6265169629092611,0.6269614813382247,0.6255540280847017,0.6334730607570057,0.6212994511902307,0.6220603860411787,0.6215202228015886,0.6224126934341369,0.628209461364269,0.6064938977256825,0.6059729712668517,0.6207434112055054,0.5993927863769113,0.6001858054271167,0.6049242196560998,0.6247145718147444,0.6175951685058734,0.6189056703748479,0.6123955243677658
0.6189187374064327,0.6121203148885932,0.6142589742268677,0.6242259193825449,0.6313057247922047,0.6168121045983527,0.6189187374064327,0.6219302039487686,0.6193263600922905,0.6110490015618649,0.6181775785319784,0.6157473374136073,0.6183887891477639,0.6157473374136073,0.6153100683877287,0.6193167394912178,0.6243945162161416,0.6116220516315457,0.612874935866928,0.6127826641819671,0.6182018318587653,0.6120893268988665,0.6284347912877558,0.6093140332300472,0.6332027919902549,0.6054398089708799,0.6055048383347359,0.6364525849817502,0.6255609513655656,0.5883845755982401,0.6186378818682903,0.6062279178345433
0.6114514192378205,0.6047267855971625,0.6108132918214112,0.625474858041479,0.6123720268074291,0.6116187917201545,0.6064075536643341,0.6288710943731165,0.611158034724397,0.6179920062306663,0.6185726895122663,0.6068236624043651,0.6069269990828133,0.6181866914249093,0.6242752621627858,0.6170762098247603,0.611637508970988,0.6223199972701674,0.6117625205786333,0.6240690583212974,0.6056746899118944,0.6125279900233827,0.6273134866355754,0.6219718231002138,0.6314094061897134,0.612352426836892,0.6158193370330015,0.6332978725975498,0.6333320655102271,0.6018254898475719,0.6120357344978902,0.6151619716026286
0.6311601110301995,0.6160709457238985,0.6231757769216395,0.6313839581509739,0.6187132323209946,0.6244527877479787,0.6188370576171516,0.6260265695098539,0.6214296332826407,0.6244885378330923,0.6253526045149342,0.624203262927967,0.6161509430816139,0.6290678055113544,0.6341478962723621,0.6214874812622752,0.6217037073168297,0.6245961891281748,0.6259356687697785,0.6461368815733491,0.6222958919710577,0.6207932120127937,0.6221030214978078,0.6358950950844507,0.6270535373127484,0.6126258233526888,0.6126707100010648,0.6216313904836848,0.6275867886571231,0.6208944595097466,0.6110251844194349,0.6268026554223182
0.6588864258132943,0.6265024361072637,0.6302754339716974,0.6251804452832073,0.6274410160966413,0.6254159512130865,0.645179319441754,0.6277844503404849,0.6221871489117069,0.6256435036634496,0.644927515438616,0.6248254653773762,0.6150471111252318,0.6251321280153422,0.6311254469733627,0.6249036987361453,0.6306500879323619,0.6303332444514818,0.6528366682407671,0.6655037401971652,0.651588979245295,0.6343529885468475,0.6452084307023664,0.6546230538709285,0.6506979815314933,0.6283171235231311,0.6318765469190367,0.6401838113499622,0.6336092894750679,0.6341089853179824,0.6280131770848262,0.6430798397958498
0.6567711337691465,0.6402228960254754,0.6247948615313695,0.6220844913402882,0.6283607044980114,0.6259609259885562,0.6527950481006098,0.6427270742189276,0.6246224747973618,0.6474977450311707,0.6639566555201082,0.64307004701115,0.6117178972126378,0.6297475039080329,0.6427270742189276,0.6423351823011222,0.636952193418823,0.6470508953252337,0.6710118310723703,0.6592923734191792,0.6545396116233572,0.6591373562457316,0.6596442722401119,0.6540216227077129,0.6541482812624626,0.6452381856466651,0.6428543940808712,0.6539722146503222,0.6387949463509676,0.6449572386380844,0.6310782401574694,0.6544886651549155
0.6360818886288235,0.6309506978512651,0.6173337181255523,0.6242430355394802,0.6261294841253682,0.6295502207084542,0.6540752714874892,0.6450025706224309,0.6294091193299074,0.6618647163242347,0.6709828645288449,0.6506240357555962,0.6250292021494649,0.6366853003768745,0.6384203518160704,0.6323645365777293,0.6390257994924216,0.6564799303598747,0.6628880664493868,0.6675710077883251,0.6658417524668414,0.6709127228568681,0.6650780304844337,0.6652723819404129,0.6656588918166302,0.6627656776592389,0.6420923150479796,0.6480298279666605,0.6528817244250964,0.6585881906680933,0.6320265120522612,0.6617587873851873
0.6341973293520773,0.6360062029161937,0.6065412541301759,0.6371561461878811,0.6282019828271233,0.6185438262218101,0.6302366064362545,0.6310503099093524,0.6261105156187193,0.6424311248708299,0.6597272080372193,0.6191979766871184,0.6272637791352897,0.6373605060230352,0.6410900667364736,0.6299703943548878,0.645699395162253,0.6509249677755644,0.6341337106459981,0.6681780922258831,0.6435725435091475,0.6460291811100838,0.6456908031344828,0.651594199824951,0.6507030553681341,0.6331185404394216,0.6271370696583364,0.6212537973380566,0.6496984432272425,0.6448258095466938,0.6215241101696974,0.6453998736873012
0.6152431459774738,0.6330212495980584,0.6184556284040251,0.6399388025867708,0.625197322925056,0.6100181532973531,0.614686646029109,0.6309287685789265,0.6291036869385287,0.6266389294396116,0.6341973293520773,0.6240746762488025,0.6290551496547426,0.6338114736166648,0.6474440565739832,0.6321726681445777,0.6504764884066858,0.6277311756628463,0.6143250660636397,0.6510580827800438,0.6244727495749107,0.6243433801625676,0.631222511993562,0.6430798397958498,0.6488462528024279,0.6099530057584082,0.6093140332300472,0.6035331541470987,0.6514852753308908,0.6060075253352928,0.6154594649623768,0.6262590840169688
0.6366100151941441,0.6309506978512652,0.6370978123460217,0.6309742038396203,0.6364500971509092,0.6174445148647287,0.6343675799145303,0.6310871012552262,0.6326892571380982,0.6426824926644567,0.6324414946752108,0.6287851875703898,0.6351864319471714,0.6329619789774779,0.6312909525019877,0.6285520413903121,0.6488462528024281,0.6312327150172314,0.6245011050158439,0.653705526893315,0.6411397400413422,0.6259182694290883,0.6399641854823918,0.6600441884948888,0.6658096643384268,0.6332153264966978,0.638814250936303,0.6310191383596908,0.6702914414252805,0.6244387688578462,0.6270208472769848,0.6435397912526003
0.6401496105546349,0.636263451319292,0.64897910310739,0.6372196382465258,0.6402228960254754,0.6411351570859402,0.6515300987402819,0.6222424743376426,0.6343676299684138,0.6335209454409729,0.6340513878489967,0.6219832438433353,0.6270983308875836,0.6271370696583364,0.6222969831319834,0.6266474245930062,0.6397390768430393,0.6504613286289259,0.6221089155529378,0.6338379584448115,0.6238981673065758,0.6264334305636732,0.6256908776340606,0.6403252616333612,0.6575444074378393,0.6310961820674438,0.6514561289403329,0.6392017705932967,0.651633901337887,0.6507948086255428,0.631993285932566,0.6395096186748577
0.6431233563499407,0.6184040077991387,0.6681007487000816,0.6369563620626227,0.622538688118746,0.6658417524668415,0.6479802569663877,0.6425213570800608,0.6245242478933448,0.6306932066956745,0.6189283580075055,0.6184572296561897,0.6184935486788266,0.6314421956357301,0.6373610885299248,0.6357332430556618,0.6312618343323078,0.6428739797159144,0.6217131832249455,0.6448102704644266,0.6140510669156163,0.6220989541454885,0.6270535373127484,0.6334633479719872,0.6562912041348373,0.6204805195660521,0.646202951222354,0.6459948269223124,0.6449050188533927,0.6500286584250966,0.6369160460938177,0.6362525643506484
0.6488905659638105,0.6305046620906957,0.6667036480795171,0.654154473012675,0.6183400746868843,0.6727559535919655,0.6359380025805932,0.6321359401882946,0.6249704247178601,0.6337586944318553,0.6159245614578065,0.6230066784193,0.6236343940452606,0.6304955082792179,0.636481908080363,0.6340646515851326,0.6295847784373456,0.6338567099466511,0.6278763275354672,0.6678720515176868,0.6322818140177375,0.6341333049046795,0.6426053470935393,0.6592262446971519,0.6735377983029124,0.6267495908744435,0.6571431742597246,0.6619354457696494,0.6591053282844608,0.6351452031786524,0.6249036987361453,0.6336230286294607
0.6486490496707981,0.6417428970000946,0.6622000101790924,0.6536443396801398,0.6314126028167737,0.6586032369004149,0.6281319823055794,0.6337129083556627,0.6247851984545484,0.6304071910981548,0.6114465861338257,0.6260185675133131,0.6235358921470473,0.6122011837031495,0.6346274399342187,0.6350301814506778,0.6279101076181394,0.6307831548169213,0.6233207362621234,0.6543261708212346,0.6422196569482455,0.6342061018685315,0.6482150552058306,0.6706041719365923,0.6703615654593793,0.6334479108269786,0.6593481575540499,0.669685009610373,0.6544590211261967,0.6430154299993135,0.6127357356506852,0.6349201333513601
0.6517519630878981,0.6457447948030776,0.6538832716851422,0.6600194445604756,0.6452435392826982,0.6543404329237146,0.6347327483709629,0.6625085514146692,0.6329796087219329,0.6486403927224925,0.6351771800812572,0.633390338197014,0.623354615997779,0.6302106007761201,0.6538876296025984,0.6442946977481864,0.6364831349614601,0.6337447468875216,0.6448840107833951,0.6506831929765421,0.657311079458192,0.6380185067618378,0.6678570603727986,0.6606706196799887,0.6790024455996625,0.6618249209697475,0.6591844129425065,0.6585933108782807,0.6516191127829358,0.6568629337909041,0.6338525498124942,0.6447072065188496
0.6370246278851496,0.6520076332367701,0.6698053323990215,0.6654352996887394,0.6419432818450682,0.6729924221767016,0.6476535692590331,0.6599463249153356,0.6327422953353098,0.6485125774977655,0.6403459943769518,0.6341819950929556,0.6207586573242831,0.6497233561852275,0.6460684410649234,0.6449815071072108,0.6279356934742273,0.626444326054699,0.6517716810944828,0.6427324777859297,0.6457592118980782,0.6254522687036356,0.6737101205558823,0.651327776767461,0.6626910348850639,0.6483636574304925,0.6487830798254093,0.6424311248708299,0.6486347316760388,0.6384476920135516,0.6350229848548166,0.6484090492092974
0.6392948829206182,0.630085363302512,0.676389856634908,0.6489098145320206,0.6325234654181965,0.6753361432866515,0.6459651037228439,0.6654352996887394,0.6267821705768133,0.650320404394628,0.6199411327653819,0.6224175143068303,0.6281863652348937,0.6368477965317805,0.6371660781685486,0.6540792458843161,0.6311938874817884,0.6356599611773932,0.6403643463088745,0.6372555685542134,0.6399436880251498,0.6330985690261635,0.6628850900469145,0.6482065764896905,0.6514852753308908,0.6291553944567657,0.6458674883313089,0.6574403476436896,0.6397778578489106,0.6450308527806955,0.6211041176110187,0.6496799448251414
0.6333708823725231,0.6268209093475661,0.6399150479439144,0.6370926571354224,0.6427270742189276,0.6665928182543635,0.6267783197280322,0.6485026636386974,0.6185676339237238,0.6430056372146136,0.6269664643680177,0.612184753015397,0.6245985069701151,0.6283376083686361,0.640193335512778,0.6505254297135951,0.6428446009697051,0.6421249431261776,0.6312128060642583,0.6220429632801439,0.6371461436311704,0.6310927019677052,0.6275777324283864,0.6308730183255371,0.6312014922053437,0.6219457489266979,0.6443777580712298,0.6542119405362087,0.6393135331209358,0.6529805201461226,0.6214296332826407,0.624414131672823
0.6282832254393217,0.6325667344418927,0.6218339620902369,0.6309414588339628,0.6355844675648178,0.6402995283610982,0.6155889138632805,0.6278861459198393,0.6077228659986728,0.6271419118624639,0.6333369292354033,0.5996761289990481,0.6205401763276153,0.6312689272160075,0.6336717371125483,0.6401838113499622,0.6223344600753677,0.6219457489266979,0.627476036849032,0.6156812022332356,0.6279721561844505,0.6143778732358494,0.6084962397755566,0.6212226616035953,0.609144962072817,0.6111841670064041,0.6328640135933707,0.6282832254393217,0.6336092894750678,0.6339589222495324,0.6215349571201099,0.6144930759518556
0.6217002925471788,0.6219457489266977,0.6391175875790133,0.6339776457099092,0.6283413354918866,0.6213937930339583,0.6216313904836848,0.6218166465887585,0.6142037007528045,0.6115325411758037,0.6233256263905814,0.6030821091893772,0.6250934719401864,0.623024338307035,0.6230216799522764,0.6351810454407328,0.6181966842575407,0.6246136952158706,0.6312128060642583,0.6314324897064264,0.6294755802273531,0.6288138554767684,0.6115356820339573,0.6369512068520233,0.6247368811866834,0.6142626527821347,0.6232599523472013,0.6254072112288346,0.6187262993525795,0.6367405344464451,0.6249194947220037,0.6207401721182272
0.6227690056733364,0.6363903315519759,0.6512932678049829,0.6454849430545474,0.6308540596163094,0.6307029126249782,0.6276631013676784,0.6224943765144368,0.62290571021899,0.6185919310861996,0.6309287685789265,0.6193167394912177,0.6129611478454458,0.6126904861782886,0.625233234010652,0.618426183640325,0.6192132351211476,0.6131332224974639,0.6296484130806982,0.6198754211059034,0.623880015334127,0.624138946039524,0.6005333003229129,0.6372001395325222,0.6394363332040172,0.6249648371791152,0.6223016932578876,0.6397826957934959,0.6176816990289069,0.6391336291666881,0.6231234995536966,0.6282396399125322
0.6176188162451008,0.6356826311242236,0.6459948269223124,0.642150909580597,0.6274223237863215,0.640242776958125,0.6222969831319834,0.6099955936559565,0.6241898071806181,0.6346691374393689,0.6316419989680888,0.6275419227915324,0.6092733578515743,0.6177823317033195,0.6307085534547353,0.6279071641554681,0.6250486580766292,0.6024533359638241,0.6285071054276262,0.6183658656327535,0.6245600118442365,0.6152580349384683,0.5993769724081894,0.6479953715636624,0.631281246572684,0.6294445342991007,0.6170978492270935,0.6273328988759517,0.617522270343017,0.618315519256461,0.6199140857804772,0.6304310984826814
0.6204733648524806,0.6303239655271499,0.6453119797911239,0.6335931257665955,0.634800230523758,0.6293841273884784,0.6294091193299074,0.6122518230537726,0.609378577124316,0.6301271520443766,0.6062768172689632,0.6150467688866222,0.613806397560998,0.6199140857804772,0.6274410160966413,0.6394705339993445,0.6456508913307666,0.6246584525000145,0.6199509719284642,0.6425997323186619,0.6370831364129077,0.6238727353924752,0.6250714201641179,0.6567638999033493,0.624589959447497,0.6223567025687922,0.6265047998217765,0.6268257515516937,0.6167147915368842,0.6239843636294224,0.6154594649623768,0.6171439754487973
0.631856967093017,0.6340611006340152,0.637836779233007,0.62748050390218,0.6222439432374169,0.6215596703344104,0.6310983525985365,0.6223199972701674,0.6158156373101128,0.6183325677406117,0.6149403897072004,0.6124242613268982,0.6130262532804303,0.6221771875042577,0.6275622707902487,0.634440639743387,0.6398997179112577,0.6275955501213335,0.6308250375890407,0.6393523141268069,0.637859420981788,0.6313025510678459,0.656429149537447,0.6571872447245144,0.6435225094533884,0.6216651392125199,0.6339143997882984,0.6397735976605153,0.6182063048586135,0.6370097037679128,0.6085409565532135,0.612913253525161
0.6380575914373512,0.6483397847680986,0.6483397847680987,0.6371219061737531,0.6242355824593661,0.630757616492211,0.6326869153047917,0.6340749365512725,0.6218734096230586,0.6142626527821347,0.6251321280153422,0.6086943286983231,0.6222958919710577,0.6187262993525795,0.6349136351188425,0.6424919525479017,0.6410076326559422,0.6358777124888333,0.6435640597217267,0.6334465451902231,0.6430610285324405,0.6385505040014449,0.6590170598203766,0.6648267293257967,0.6448360670139027,0.6185042490038404,0.6188994958324993,0.6526509641068566,0.6184563816542856,0.6285071054276262,0.6172344881779257,0.6127186043213495
0.6420923150479797,0.659482277361508,0.6579639583658301,0.6487823393207365,0.6313542563476573,0.6545014173256374,0.6497391020460873,0.657029221547717,0.6217911313824644,0.6435725435091475,0.6360233657912086,0.6098908894749008,0.6279792790010168,0.6240906231188821,0.6372439002691648,0.6368634527707396,0.6341478962723622,0.6333263599112889,0.6390694184428782,0.6449572386380845,0.6526550842293077,0.6341819950929557,0.6576466464632563,0.669665637439049,0.6556975266149447,0.6374840195732249,0.6402277814638544,0.6740294076023189,0.6361803288286387,0.6371321867966415,0.6313839581509739,0.624414131672823
0.628930113959379,0.6413529894610593,0.6564824739862802,0.6457592118980782,0.6354333841415709,0.66804607315719,0.6573110794581921,0.6467987341676414,0.6291626098092294,0.6639517979388924,0.6531133928594741,0.6134431538829742,0.6188706325420432,0.6298831874441863,0.6339330763553702,0.6310191383596909,0.634246262605176,0.6240968860877912,0.6310186607468005,0.6595576131535802,0.6426824926644567,0.624033348261045,0.6568629337909041,0.6611424471003465,0.6574106899183667,0.6365828506171821,0.6456269896628914,0.6441624144301695,0.6367256103292083,0.624507209366272,0.6191861049821302,0.6247059291807835
0.6210729545582916,0.6391223185705805,0.6432212900792489,0.6313839581509739,0.6398714917099099,0.6426301688813377,0.6512634109832747,0.6483397847680986,0.6237196089723966,0.6601533593913653,0.6683818034721295,0.6187553919630562,0.6190619919874052,0.6239592316255378,0.6512932678049829,0.6274264892946441,0.6273193785823539,0.5988038533310993,0.6194045934510597,0.6590047967617211,0.6430056372146136,0.6246998110798355,0.6487535690341247,0.6685288223814174,0.6370536566117159,0.6192420972961536,0.6238099572317513,0.5887688576643815,0.6327949166548226,0.6015038331227958,0.6115325411758037,0.6242945605318102
0.6242065928521684,0.6309270693912826,0.6426094828894834,0.6251777347363232,0.6300620480553525,0.6476453109129204,0.6573809227065484,0.653944999111,0.6223741253298269,0.6595187329805497,0.6595120570613473,0.6325980561371546,0.6274211379634198,0.6278763275354672,0.6563449448752597,0.633740629083141,0.621848985410409,0.6065928436109186,0.6202192160729646,0.657465170401963,0.6552010696292943,0.6197116353252986,0.6691156952714931,0.6764401798223859,0.6480007164097552,0.6176274123529059,0.6250098756190884,0.6077495277820597,0.6335598563953527,0.5986398372008913,0.6083606719664706,0.6274022773258887
0.6298781245197324,0.6154264177083746,0.6458132353115034,0.6246909153057876,0.6217477379134561,0.6476842406300617,0.6653654951850437,0.6388436450408025,0.6188214304689836,0.6435741454403718,0.6342703391270506,0.6194331974157474,0.6304529908216697,0.644913066598785,0.64605371882859,0.6341041670338061,0.6283171235231312,0.6293897070895311,0.6233302417808045,0.6469992627198151,0.6238999164166277,0.6119455980403877,0.6766206702147451,0.6754770392734867,0.6618544482183715,0.6215505020980391,0.6139237565611099,0.6337844037626971,0.6248254653773762,0.6217911313824644,0.6125007790810852,0.623142360187129
0.633841416991847,0.6216023435284665,0.645788966842377,0.633841416991847,0.6181000613608337,0.6279356934742273,0.6572818703252938,0.6339589222495325,0.6295046983970329,0.6355356039179593,0.6365793593320351,0.6160081117906762,0.6188370576171516,0.6428152210470711,0.6428446009697051,0.6240968860877912,0.6315054994813997,0.6302494283115632,0.6185042490038404,0.6413114707538845,0.6086038762654459,0.6206184096863844,0.6507948086255428,0.6770023789301676,0.6544674459582147,0.6248939584298936,0.6240235554107015,0.6282046191601415,0.6249718547965047,0.6312965933317447,0.6191542433363119,0.6344746280608684
0.6194498002352732,0.6263066630801881,0.6312965933317447,0.6338893016758144,0.6086943286983231,0.6192974979172844,0.6432114972945491,0.6329759766525002,0.6300358516540225,0.6358695732665643,0.6277745681544012,0.6191243014373644,0.5961132067194699,0.6232423602776055,0.6481278347760675,0.6182063048586135,0.6314324897064264,0.623257979577937,0.6209129896672664,0.6552939835134286,0.6136463081887488,0.6122518230537725,0.6423980511939762,0.6759695940856931,0.6430503465749674,0.6238895208528078,0.6244678731225886,0.6336947161461303,0.6185803020770307,0.6270535373127484,0.6192301485041408,0.6275723810971623
0.6122127664881049,0.6204800536599433,0.6185726895122663,0.6242086555368684,0.6174377867610324,0.6243869688674827,0.6301880691524683,0.6217557287314678,0.6129591986630647,0.6207874754266084,0.6066767098602653,0.5990163038609898,0.5990038549448442,0.6062225876946984,0.6349067376391395,0.6051249237630081,0.6183887891477639,0.6024895206398895,0.6114936255112725,0.6416196772180665,0.6134795912407648,0.6091963165008534,0.6321505315559772,0.669020865139268,0.6343529885468475,0.6215984561603577,0.6275196223758216,0.6281233993181929,0.6203761368126718,0.6238437843772615,0.6208415159807319,0.6089612788062251
0.6042853171585534,0.6161621102658814,0.6243869688674827,0.6054721888465646,0.621652832658992,0.6178257023931634,0.6236837564674768,0.6189187374064327,0.6050497978387651,0.636481908080363,0.6108565973851217,0.5909149458901517,0.6092997142388047,0.6003280431543127,0.6357233106575224,0.6245354618571015,0.6061148253631347,0.5993903562706508,0.6125007790810852,0.6252163908114791,0.6344406397433872,0.6249414351106627,0.6271370696583364,0.6587474873808195,0.6444653493486503,0.60274661050275,0.6123613876188005,0.6268161202583529,0.6185993957456027,0.6338402247517834,0.610799929783784,0.6100181532973531
0.5868906163550643,0.6080273193012348,0.607299613490184,0.5810692483129617,0.6107685491046901,0.6035569450033347,0.6188158080069099,0.6131044866391994,0.6010593198692153,0.6482462856297424,0.6126856640336114,0.5948356464705429,0.6064229133150054,0.6004668276215325,0.6348544819271823,0.6297699043506223,0.5859332669679569,0.6049067228908389,0.5994142587636856,0.6125844925169429,0.624579338374613,0.6243730047596026,0.6171281553212994,0.6458587810562956,0.6358305727428578,0.5931797780300565,0.6006854229160128,0.6177044084134155,0.6223199972701674,0.6230506695594741,0.5970687804411616,0.6294011487083774
0.6014948176600606,0.6161934367921342,0.5957175199892529,0.5894300550782995,0.6060470245082077,0.612970726342558,0.617403868997484,0.5954900689468652,0.609314033230047,0.6399641854823918,0.5966820798093239,0.6078160144632553,0.5954900689468652,0.5894178345830131,0.6147778935522944,0.6097809509420941,0.5899935596322436,0.6099177902217814,0.5859774719583021,0.6123613876188005,0.6127024821727922,0.6121828443684346,0.6073681969355024,0.6597005291048332,0.62539662468271,0.5873439951794992,0.6041471367137465,0.5893253812923729,0.6120844863809195,0.5982045151519929,0.5978713121586323,0.6151475722328228
0.6272079117956312,0.6343529885468475,0.6223199972701673,0.6220266373123435,0.6161934367921342,0.6216320096380495,0.6277250844017248,0.606852273046756,0.6035569450033347,0.6335598563953527,0.6129306240898024,0.6140942700122285,0.6048382823824132,0.593301563703387,0.6130374320218339,0.6181091788380524,0.6160782163384195,0.6024919174789651,0.6103173182419421,0.6303336714564536,0.624589959447497,0.5966109940271549,0.6157473374136073,0.6619086077775874,0.6423178862476835,0.578432724674571,0.5937103016620613,0.5982014000347684,0.6020350019704487,0.5969142469228264,0.6110535717596417,0.5950808702901762
0.6269334137105557,0.6450992932891213,0.638696971971217,0.6332201447808741,0.6244103044743231,0.6142254355295317,0.6318534547982014,0.6136909440581031,0.6122617651719923,0.6275240894289695,0.630323498191726,0.610635929132479,0.6101954439295474,0.6127073513001859,0.617607204018598,0.617657128299097,0.6175893003211477,0.5969410770953587,0.6163886753814126,0.6221871489117069,0.6208703542106372,0.5894442061753533,0.6121003512896507,0.6439940813424012,0.6370536566117159,0.6055389512378275,0.6054760046413689,0.61223302821286,0.6107041393081537,0.609051140776081,0.6170136777573675,0.6094024026556918
0.6134069125312345,0.6488950193175237,0.63819904172075,0.6148207659125897,0.6305032941932616,0.6298810720767218,0.6399883568007048,0.6140510669156163,0.6252946241702481,0.6263474658502709,0.6245457593498841,0.6236877103515425,0.6126151841640604,0.624589959447497,0.6216077287614796,0.6186015516872724,0.6240746762488025,0.6186859867326797,0.6179957685877473,0.6334730607570057,0.626146067206108,0.6189187374064327,0.62539662468271,0.6497970492692436,0.6135033904679396,0.6251804452832073,0.6236770643420798,0.6213045197900641,0.6220266373123436,0.6184753857133843,0.6240326314673188,0.615833313934621
0.6015029697663217,0.6332444643675711,0.6341089853179824,0.6032291073803645,0.6083953827894188,0.6338893016758144,0.6342070932054399,0.6211249759729297,0.6220614772021044,0.6253289778700656,0.6234450524733683,0.6196152019617237,0.6144510872320613,0.6270644328037743,0.6231525585907136,0.6191976914858682,0.6221820083769511,0.6221627246990573,0.6219486891548246,0.6281000776714828,0.6279006727218365,0.6211444282448262,0.6191012581222932,0.6430700470111499,0.614878016756823,0.6184826670958324,0.6153348342862418,0.6188274370160788,0.6203449252895683,0.6155848412587014,0.6155848412587014,0.6099608046092913
0.5996378321207011,0.5991551689937942,0.6304691119537312,0.598841838446967,0.6128538150073044,0.6252946241702481,0.6362464021504838,0.6242259193825449,0.6225676788562345,0.6243396719593222,0.6228098285645768,0.6247948615313695,0.6249124443731742,0.6251321280153422,0.6247368811866834,0.6247059291807834,0.6254941845718555,0.624734918787981,0.6194045934510597,0.623626165806513,0.6125481295466949,0.6118679042343937,0.5955647679401721,0.633446545190223,0.6168903379571218,0.618894440243957,0.618894440243957,0.6108169273999781,0.6181074660867428,0.6056044333878037,0.6017270059459462,0.6222969831319834
0.6037087173335896,0.591381498194867,0.6218675155679287,0.5954094969993172,0.618645867282493,0.6220844913402882,0.6266386742623884,0.616107744418149,0.6168110589609856,0.6182960301464545,0.6201891603945516,0.6180862781416245,0.6246982251115275,0.6186068715377676,0.6223199972701674,0.6223199972701674,0.6223344600753677,0.615945248263243,0.6118377813842011,0.6251611187528308,0.6060795138620692,0.6061625109743753,0.5897513425939707,0.6337065803164311,0.6146671553941795,0.6285071054276262,0.6217819406755988,0.6059392621766438,0.6159984911896034,0.6126062233821518,0.6014278890629042,0.6235971750690245
0.6032755926813088,0.6121394722497456,0.6191820380612079,0.6035712191572667,0.6061520086488931,0.6189056703748479,0.6188994958324993,0.6122990170324557,0.6118205537687841,0.6174962142804581,0.6241590102862624,0.6188174441834474,0.6141089979015216,0.6116669256417004,0.6120114766059462,0.6189799403383532,0.6188887955074852,0.6163086395081406,0.6069730997879262,0.6180840438407911,0.6162366398887463,0.6145327203173023,0.6056335287958166,0.6357332430556618,0.6144251489370405,0.6367271159930952,0.6301038145495579,0.6140942700122285,0.6248254653773762,0.6241590102862624,0.6104726785657429,0.6126594569799013
0.6051248035141008,0.6183937526152301,0.6130374320218339,0.612005360445339,0.6092645499690227,0.6252453815489676,0.6239649688213413,0.6237707298104976,0.6218339620902369,0.6233302417808043,0.6299697754528614,0.6312128060642583,0.6150899719832345,0.6249871573679812,0.6115666352862458,0.6181530231015551,0.6120659686322858,0.6091207574653643,0.6084097192778777,0.6129419904842934,0.6130163111622104,0.621848985410409,0.5992005060006026,0.6514606270724234,0.6121218793072993,0.6139017818067014,0.6311703814934333,0.6126881939390336,0.6276631013676784,0.62472525571116,0.620778495144968,0.6219486891548246
0.612970726342558,0.6126439200223249,0.6183400746868843,0.6120844863809195,0.60300417196854,0.6248421584395298,0.6264818500966991,0.61561844194301,0.6052996661029598,0.6188081954421454,0.6251321280153422,0.6254256142899074,0.6083953827894188,0.6128270360410392,0.619260271419977,0.6248209486549203,0.6043267143208625,0.5950808702901762,0.6161934367921342,0.6065920304343329,0.6084340991888146,0.6015815958165298,0.5865466503135842,0.6428686674433951,0.6127281828184618,0.5963754094987052,0.601450178704607,0.6081803026435549,0.6275723810971623,0.6030512515747872,0.6148828009599048,0.6184753857133845
0.61561844194301,0.6186667451587463,0.6277311756628464,0.6135561976401492,0.6119636947100238,0.6118593474960368,0.6261121691222987,0.6098335274256447,0.6031637490679247,0.6126782518208137,0.6129176100560954,0.6161317439834288,0.612448272417984,0.6032291073803645,0.6124529971851628,0.621028717942673,0.6068914269989922,0.6122127664881049,0.625233234010652,0.6177226638746747,0.6185331111788466,0.6058715083185234,0.5962806465243697,0.6274227621713935,0.6114400895762921,0.6128219531348073,0.6052445834395805,0.6186015516872724,0.6240326314673189,0.6061802267893718,0.6046907457750285,0.6190812335613386
0.6106170599251056,0.6171108799380489,0.6285071054276262,0.6107903512866716,0.612352426836892,0.6272871366298807,0.6248939584298936,0.6121375230673646,0.6175407822888304,0.6189465321313288,0.6214537385817502,0.6182760996693709,0.6182931322491193,0.6183994930323464,0.622110395014296,0.6208527163711102,0.6299705465350819,0.6253008966566295,0.6186349989622254,0.61597924961567,0.6107515850600871,0.6113682550862858,0.6164832608603701,0.6330781889553817,0.6250037575181404,0.6156568408780957,0.6257296164048135,0.6178978854204604,0.6145327203173024,0.6338379584448114,0.6062474360702089,0.6308743408410775
0.5949785043107226,0.6157620653029006,0.6225620233270812,0.6032178001651985,0.6108322097404751,0.6275196223758217,0.6146377893666767,0.6179175171716759,0.6192420972961536,0.6184204217004535,0.6184108010993807,0.6174377867610323,0.6184368995906969,0.61536747157898,0.6217679551931563,0.6310927019677052,0.636473308101926,0.6249036987361453,0.6179738321068431,0.5984812194905719,0.5894300550782995,0.6161461433532347,0.6158193370330015,0.6222594882153462,0.6239917220388238,0.612989532195945,0.6154594649623768,0.612913253525161,0.6085183619849515,0.6216651392125198,0.6009385043627367,0.6303387505897291
0.6113251351330378,0.6222621432422227,0.640132389809091,0.6160741437338405,0.621935272548602,0.6123572067095328,0.6305911972903292,0.6332772970151077,0.6269576256793112,0.6332590557352539,0.6181685018692595,0.6216662303734456,0.6082424432302966,0.6209756780481063,0.6115423248745014,0.6220880050235575,0.6214874812622752,0.6210140010748472,0.6024533359638241,0.6081741056402233,0.5904396984629258,0.6335209454409729,0.6276644370716861,0.6355135594134936,0.6277311756628463,0.621226286431295,0.614089429344656,0.6075472942869428,0.6139982597434067,0.6137320049958813,0.607936470698977,0.6197229578367249
0.6297328795804209,0.631061562930516,0.6536774263506477,0.6311642745088057,0.6313451306155308,0.6087757710719836,0.6406151806961983,0.6419780258607063,0.6300358516540225,0.6350481879225384,0.6343072046488596,0.6312909525019877,0.6123955243677658,0.6277311756628463,0.6452084307023664,0.6461317079391639,0.6392509081317741,0.6338114736166648,0.6145857805471008,0.6402277814638544,0.6337795900914044,0.628969709144378,0.6270644328037743,0.6574137109116426,0.6363113505345319,0.6233110731853024,0.6220269225135937,0.6302366064362543,0.6218339620902369,0.6389772280973719,0.6189726736027261,0.6179091385236717
0.6223453916454125,0.629047388670106,0.6357332430556618,0.6309414588339628,0.6285071054276262,0.6194668403333758,0.6416219049505045,0.6301392989132504,0.6268063825455689,0.639352314126807,0.64614178891967,0.6387754044027126,0.6204751073819783,0.640193335512778,0.6622995129594005,0.6592923734191792,0.6727408936779513,0.651633901337887,0.6512634109832747,0.6586898382037676,0.6510857372689216,0.6265068077428225,0.626444308732131,0.6461926644608696,0.6176769876164991,0.6220844913402882,0.6117291314411517,0.6482351936140694,0.6173268729369743,0.6502018161921459,0.6246982251115275,0.6250046545944358
0.6403459943769518,0.6337837001716777,0.6387509762370754,0.6207756822574944,0.6340319320245059,0.639372729360728,0.6447476024686587,0.6318248963486347,0.6295957774328432,0.6291743188634079,0.6514637007504644,0.6393869413436994,0.6289289378164312,0.6530546222912771,0.6540438777421093,0.6544787839462853,0.6713016823619252,0.6599685831737222,0.6657773426703051,0.6647122446355229,0.6511749751560006,0.6543472148715166,0.6410204771718452,0.6522979280841062,0.6242945605318102,0.624643618397627,0.6180867387079092,0.637229387410081,0.636259756654771,0.6538458524497218,0.6280883967787898,0.6310191383596909
0.6451108789333282,0.624886340172272,0.645478399914372,0.6215879970146764,0.6397735976605153,0.6345717993735605,0.6375597334948727,0.645862580984988,0.6287416208866065,0.6291184998598657,0.6623030260691213,0.6538506167538819,0.6447476024686587,0.6593326298963669,0.6512607036515811,0.6542879256054956,0.6600281219177571,0.6483823619137908,0.6559470859704627,0.65399159784411,0.6571426728268563,0.6570238010404232,0.6562158881513438,0.6512932678049829,0.6369463945263804,0.6311938874817885,0.6286043748582697,0.6180523751277559,0.6457219850833295,0.6397826957934959,0.6263349830013067,0.6372555685542134
0.6192025347961336,0.6176816990289069,0.6275391834716607,0.6216662303734455,0.633186096014164,0.6249194947220037,0.6256137957428097,0.6281559659673162,0.6275922592303838,0.6424331749209881,0.6568652750064033,0.6449969797753672,0.6390294396822311,0.6486671318573466,0.6621353260174325,0.6506093387116477,0.6559506626365185,0.6330888051728008,0.6389231302148939,0.6528420447835529,0.6482418590490279,0.6286828578487764,0.6479218408298321,0.6411397400413421,0.6371708904941914,0.6193949728499869,0.6295046983970329,0.6307673224215147,0.6352037117064105,0.6310712688598196,0.624203262927967,0.6291153515656412
0.6147631656630013,0.6270208472769848,0.6427760459866063,0.6217914165837145,0.6216320096380495,0.6307570907385214,0.6305273494384876,0.6252433667817144,0.6280373890535818,0.6481569241178874,0.6509662307957675,0.6342063146796527,0.6274706217160962,0.6379843059665106,0.6599852958157897,0.6487732430274546,0.6451471405306283,0.6301778557704627,0.628027284157132,0.6324645867960462,0.633757962067741,0.6188752762089453,0.6342209060473355,0.6387167754417481,0.645421129582956,0.6158193370330016,0.6220266373123435,0.6309870060636829,0.6251550006518829,0.6218634482156093,0.6208944595097466,0.6299106141804144
0.6115503512117288,0.6186859867326797,0.656505812124779,0.6180867387079092,0.6244469116108712,0.636203816598314,0.6402910608380339,0.6259173404617667,0.6296462356014716,0.6478969379332516,0.6593731186288725,0.641229972250573,0.6221812548565769,0.639406412009285,0.645421129582956,0.649831558231722,0.6514613495199889,0.6543261708212345,0.6460976216185096,0.6447312873514033,0.6369208063067536,0.6252500816463967,0.6201891603945516,0.6311657117426784,0.6449546313108102,0.6181066824118053,0.6188956775422164,0.6198032320337682,0.612970726342558,0.6162953556108891,0.6190195419063019,0.6294755802273528
0.6143531271416686,0.6096944304444152,0.6308414037596974,0.6097643567520933,0.6281900923581442,0.6248658149484868,0.6269675725993462,0.6217085281895232,0.6259948240723657,0.6338317042068286,0.6461317079391639,0.6397240668325314,0.616107744418149,0.6342946201934405,0.6479402467061294,0.6530837488307552,0.6544748095494586,0.6539756149352899,0.6424431237212916,0.6669027266207942,0.6424702999312948,0.6310186607468005,0.6077276221705371,0.6244817784854674,0.627476036849032,0.6150467688866221,0.6149459565075285,0.6119205140441755,0.6155848412587014,0.6208406503636272,0.6217433725712889,0.6310871012552262
0.6186912769751134,0.6134795912407649,0.6276233250206589,0.6208366054818022,0.6212994511902307,0.6250934719401864,0.6193263600922905,0.6293064478627504,0.611647337199536,0.6307382042518347,0.6340311572588329,0.6310600158386561,0.6161509430816139,0.6339874095632717,0.645862580984988,0.643729438374644,0.6505559729553873,0.6425192658154383,0.6218634482156093,0.6465175458567035,0.6305573103209929,0.6159836471983288,0.606907925200502,0.6184040077991387,0.6250486580766292,0.6065984765014962,0.6151619716026285,0.6183321279938446,0.6268995156267463,0.6152916356227769,0.6222187497732143,0.6201891603945516
0.6245469819777851,0.6273683792420792,0.6368477965317804,0.6220726586397788,0.6226683519783834,0.6275967262835317,0.6309287685789265,0.6357917515834199,0.6118485113309264,0.6187408460290018,0.6184204217004535,0.6190195419063019,0.6247427152961512,0.6249906514291489,0.6370246278851496,0.641986472797135,0.6486223084479554,0.6479398887326834,0.6238099572317513,0.6369355448078212,0.6249520216567873,0.6187840359764227,0.6059782798742775,0.6244387688578462,0.6294464609122766,0.609151093108109,0.6249194947220037,0.622340376600992,0.6233546159977791,0.6124529971851628,0.6242816916146361,0.6209907805014158
0.6127432642831999,0.6199349441423884,0.6251550006518829,0.612762463381385,0.6211444282448261,0.6126782518208137,0.6233029081394742,0.6213999294356306,0.6181774426836074,0.6106080103258248,0.599532837123403,0.6131887494353362,0.6248359142342388,0.6122464331755462,0.6285318563079552,0.6412278809859505,0.6540655360918899,0.6302660197392999,0.6241119625376133,0.6372926480214991,0.6186578043443987,0.62539662468271,0.6062798492361801,0.6250292021494649,0.6159692478285229,0.6077310745717495,0.6204547220028438,0.6157473374136073,0.6140177503783363,0.6275777324283864,0.6216320096380495,0.6189715436330469
0.6125279900233825,0.6152860688224489,0.6076046429750045,0.6156812022332356,0.6192025347961336,0.6216997666187228,0.6095592412069113,0.6248254653773762,0.6131216948179706,0.6158241367613808,0.5964403609398902,0.6092297704339105,0.618809047478141,0.6098765418131544,0.6269614813382245,0.6485093205345853,0.6629298646012071,0.6341089853179824,0.6238703522573058,0.6461317079391639,0.6169487369119845,0.6181685018692596,0.6241921370288253,0.6221627246990573,0.6168687919757115,0.600295870993631,0.6099271997597817,0.612500229720806,0.6104550267939146,0.636203816598314,0.6127186043213495,0.6267495908744435
0.6233243621437378,0.6217911313824644,0.6181267076606763,0.621833962090237,0.6191350017623785,0.6275971014345113,0.6185286381789985,0.6312128060642583,0.6310927019677052,0.6270208472769847,0.6192301485041408,0.6299072426894123,0.6218748753880902,0.6366413475330714,0.6420980596644468,0.6581570093031064,0.6598216196721957,0.6405684940742185,0.6365793593320351,0.6474045704233061,0.6281548146579596,0.630873018325537,0.6312433912684065,0.6365438500934755,0.6303025707507909,0.6096944304444152,0.622322176596186,0.6126343415252127,0.6095797308803849,0.6245469819777851,0.6097188103553522,0.6368634527707396
0.6222187497732145,0.6239592316255378,0.6260427794820685,0.6139982597434067,0.6242956684771287,0.6220614772021043,0.6249704247178601,0.6202989946148283,0.6264007405279095,0.6319543749781862,0.6425016758721339,0.6293053877222547,0.6098765418131544,0.6428446009697049,0.6425807244573043,0.6280519158555788,0.6337795400375209,0.6152431459774738,0.6202378589226015,0.624638282368139,0.6183321279938446,0.6094283398122371,0.6214537385817502,0.6403496897989984,0.6159507775129327,0.625077664369409,0.6184130844618576,0.6055314351934276,0.5971704828031492,0.5995713594193209,0.6121375230673646,0.6232627559174374
0.6185993957456027,0.6218634482156093,0.633486896674263,0.6223199972701674,0.6392787196398967,0.627112724471967,0.6275922592303838,0.6173800612955702,0.606908589884859,0.6245520756598386,0.6335452650276701,0.6199399336090844,0.6079429941525272,0.6209188837223963,0.6295609435064948,0.621409247903506,0.6277844503404849,0.615501847659607,0.6095502408717548,0.6151326586421436,0.6118204318315056,0.6051272781045236,0.6355135594134936,0.6287119771638529,0.6110573091210117,0.6129419904842934,0.617318476231668,0.6052197279535872,0.5985033220390324,0.6090511407760811,0.6120379380081457,0.624174798544444
0.6268063825455689,0.6285071054276262,0.6367724342074401,0.6255601193458232,0.6282832254393218,0.6215241101696974,0.6330747611469821,0.6105109962239761,0.6075456656678876,0.6125231678787056,0.6254971534291224,0.6201068821539575,0.6151326586421437,0.6204866688557669,0.6266389294396116,0.6456908031344828,0.6435640597217267,0.6214537385817501,0.6065477684838766,0.6197116353252986,0.6268994983041783,0.6223344600753677,0.6246224747973619,0.6153244677575345,0.6063316988663457,0.5963719469147236,0.6249534102441183,0.6025152062289766,0.6097070080640314,0.6363015722709916,0.6143467743903445,0.6056426163729988
0.6280507396933809,0.6283558622938837,0.6254920450506554,0.6113041694507897,0.6088770160100883,0.6018529587146823,0.6324623269821704,0.6015055849487382,0.6112167800537129,0.6136415084603696,0.6299099025531567,0.6212994511902307,0.6223199972701674,0.6138487802582281,0.6284344685730642,0.6390294396822311,0.6547201132294913,0.6281863652348937,0.6237637634576036,0.6328698538947469,0.6361524945694357,0.6248939584298936,0.6191542433363119,0.6116860151760205,0.594962285102561,0.6114173577967063,0.6213961697550556,0.6085526742281467,0.6217819406755988,0.6455824508223409,0.6121375230673646,0.6098724256345157
0.6460976216185095,0.6281233993181929,0.629821384260877,0.6208406503636271,0.620758657324283,0.6051281443812453,0.6327585862244562,0.6145835724873674,0.6301205474114108,0.6281319823055793,0.6323478293255117,0.6275723810971622,0.6328022983200047,0.6145943997477741,0.6394705339993445,0.6449521564371665,0.6565702034276157,0.6428112071734748,0.6385017464776163,0.6511749751560006,0.6274706217160962,0.6342703391270506,0.6310712688598197,0.6386158063653278,0.6116662869480949,0.6376024872025503,0.6214537385817502,0.6208368906830523,0.6335209454409729,0.6507754370940313,0.6201109270357826,0.6172222109677795
0.644829900047081,0.6257094234229431,0.6409685996882662,0.6258760747101886,0.6209129896672664,0.6315152054107034,0.635620821498829,0.6028244791464766,0.6275821994815345,0.6209042043615718,0.633740629083141,0.6217096238424539,0.6095797308803849,0.6333443328873416,0.648412382277801,0.6639333114845684,0.6533090701158064,0.6481278347760676,0.6187840359764227,0.6535383505693658,0.6137824491024092,0.6254256142899076,0.6231954344403778,0.659578303410693,0.6185819382535682,0.6369999546043577,0.6191976914858683,0.6150702272675443,0.6242816916146361,0.6384822128310276,0.6222621432422227,0.6087785914944598
0.5999530142882966,0.616107744418149,0.6465437589665421,0.5985045134513836,0.6026745438327078,0.6241947126188381,0.6273597962546926,0.5907707596658919,0.6078815601670005,0.6191976914858683,0.6388924265204744,0.6325861895347517,0.6148994013574062,0.6513672135808799,0.656828291206186,0.6628162723586722,0.6464191122262926,0.6536727271951099,0.6290555481576451,0.6539672955251844,0.6181080856429492,0.6056746899118944,0.6080817638807261,0.6480154112836048,0.6026615004724376,0.6094454126678884,0.601825489847572,0.6217477379134561,0.6268597219571586,0.6203667067714995,0.602595887266995,0.599877294334523
0.6106941012302157,0.6125345229623349,0.6539568206338143,0.6011764666962376,0.6151815153045761,0.6184368995906969,0.6185331111788466,0.6090415516769481,0.6139982597434066,0.6205227614096744,0.6426411301373276,0.625264708079344,0.6235665765590337,0.6425746252043871,0.647734028652748,0.6425746252043871,0.6468205925891838,0.6464869114470541,0.627185718196847,0.6578457231651955,0.6181000613608338,0.612949241123835,0.5999758305588415,0.654021941499685,0.6100690537308452,0.5969865975602041,0.5936545102889262,0.6244406674055799,0.6175324620063187,0.6224370162108602,0.6056786831010058,0.5906825176566675
0.6184454722323613,0.6230365888574271,0.653488091540629,0.6295904940270448,0.6403496897989984,0.6312909525019877,0.6248939058858018,0.6246224747973619,0.6189946425742616,0.609205020261501,0.6235427114230913,0.5985722785026727,0.6204737361379601,0.6239688947023588,0.6372245866963069,0.6366586525897396,0.6619170179782607,0.642307469304687,0.6340871131408145,0.6504764884066858,0.6099177902217814,0.616376159046781,0.6157620653029006,0.6494511796331185,0.6446285382460422,0.6222187497732145,0.6267482724930039,0.626976994685436,0.6194261600967264,0.6455533518181427,0.6204547220028438,0.6057069983799183
0.6112676513031663,0.6249704247178601,0.6416688757525337,0.6343676299684139,0.6403643463088745,0.6307090849367585,0.6226716399058506,0.6303698480169934,0.6233029081394742,0.6164597536215249,0.6130549891386948,0.6170425399323736,0.6230066784193,0.6181066824118052,0.6239551149022757,0.6331819510143997,0.6591944220469395,0.6405336721353223,0.6481466146974049,0.6581655272124551,0.6122990170324557,0.6115756252513466,0.6246584525000145,0.6184953081894926,0.6353407172848364,0.6139464291082071,0.6248658149484868,0.618136328261749,0.6297268950047057,0.6477743968864523,0.6152327234224502,0.6278143445014208
0.6269334137105557,0.6218248801112995,0.6338859124745592,0.6261121691222986,0.6206670073592914,0.6388924265204744,0.6114853141270469,0.6242259193825449,0.6168121045983528,0.6206230445795187,0.6108138704057602,0.6127357356506852,0.6145757318055414,0.6083220390457323,0.637229387410081,0.6254522687036356,0.6427957463571453,0.6370831364129077,0.6239649688213413,0.653030554030489,0.6082955606279112,0.6185993957456027,0.6249906514291489,0.6011980237673874,0.6094650138100924,0.6003468329075896,0.6258248433083748,0.6134199265649414,0.638462023158023,0.6392948829206182,0.621226286431295,0.6360772699394877
0.6232147971575395,0.6168687919757115,0.627010965090901,0.6163706413160803,0.6247551454992697,0.6224175143068303,0.6365598719568778,0.619389803946739,0.614617173171676,0.6248359142342388,0.6140594362288958,0.6055545731482865,0.6201791989871024,0.6009119869849708,0.6428152210470711,0.6295046983970329,0.6509252324750817,0.6342946201934405,0.6264961814592638,0.6527143898445864,0.6216313904836848,0.6277311756628463,0.6211644235057515,0.6169809696735044,0.5950124630282909,0.6260153089178706,0.6362823874254273,0.6029708635103338,0.6515155844944679,0.6242999559272223,0.6339143997882984,0.6341333049046795
0.6272379763532274,0.6240989936678242,0.6278861459198393,0.623649376464865,0.6353978367166317,0.6157324484526129,0.6487924642306191,0.6265169629092612,0.6153543959130026,0.6402082395155995,0.6338552529091044,0.6160309406372283,0.617916106641381,0.6180117045371519,0.6363280062168083,0.6407564616248369,0.6458233210301484,0.6219302039487687,0.6278143445014208,0.6429448380175892,0.6100548696350028,0.6131887494353362,0.6188994958324993,0.6240235554107015,0.5989253203673037,0.6339776457099092,0.6190084377247751,0.6149212060680073,0.6684067894082779,0.6276644370716861,0.6309742038396203,0.6312128060642583
0.6346968808565053,0.6187262993525795,0.6307382042518347,0.6250389949998082,0.6185676339237238,0.6246499021908855,0.6304304042901938,0.6321606625794896,0.623813725687599,0.6393923584151731,0.6414094044831925,0.6242172818180998,0.6189283580075055,0.6349542803414903,0.6430210811270065,0.6384913109640081,0.6338379584448114,0.6213958845538056,0.6223741253298269,0.6282046191601415,0.622322176596186,0.6160309406372283,0.6157041343169952,0.6087722606987543,0.6126424609369993,0.6278619339510838,0.6200637655075152,0.6274227621713934,0.6422548112028855,0.6220266373123436,0.6220603860411787,0.6113027026741104
0.6327825208304669,0.6189799403383532,0.6359023147663918,0.6328698538947469,0.6034974157193417,0.6363015722709917,0.6292732229552257,0.629249905574635,0.6370097037679128,0.6249704247178602,0.6421313236190873,0.6296268233610953,0.6231149492445677,0.6282257194573475,0.648491027901841,0.642150909580597,0.6475770535803559,0.6416602243436093,0.6343676299684138,0.6341478962723622,0.6217674778703984,0.619966161004135,0.6029280361903385,0.629959494643835,0.6218458983469283,0.621935272548602,0.619692701587761,0.6114366955947116,0.6116860151760205,0.6219302039487686,0.6153300345578626,0.5994004027914194
0.617470048788353,0.6278763275354672,0.63774974335579,0.6407726884086343,0.6043166852905089,0.6485764792408011,0.6331049028967002,0.6247875815897178,0.6371708221209951,0.6344016787351238,0.6534560742134754,0.6370085545827945,0.6414846611571186,0.6469426686821599,0.6584813202367167,0.6648765938266361,0.6618696905893723,0.6587371382050008,0.648157742522921,0.6458478587486546,0.6332931545558473,0.6104356380225259,0.6115808524149026,0.6425192658154384,0.6287167904565691,0.6274211379634199,0.6268209093475661,0.6116572793177558,0.6259609259885562,0.6313839581509739,0.609205020261501,0.6115808524149026
0.6310712688598197,0.640193335512778,0.6277844503404849,0.6397826957934959,0.6303138237719544,0.633757962067741,0.6268087462600815,0.627553520459631,0.6282832254393217,0.6342071201839617,0.6515944645244683,0.6336092894750678,0.6416896288757682,0.6449114179505647,0.6616259112936766,0.6793332515908476,0.655337549121059,0.6658754762512116,0.6388440706237901,0.6524649170787087,0.6405492216355881,0.6229119586645533,0.6159345670165939,0.6271358934961384,0.6395228368243856,0.6314569679259471,0.6302555352961907,0.6363903315519759,0.6414055354370638,0.6278619339510838,0.6222656666522894,0.6049655424708547
0.6414194716140367,0.6509757370675725,0.621857039189833,0.6427760459866063,0.6487134594673343,0.6269614813382247,0.6291818644736129,0.6213937930339584,0.6235339318416002,0.6197392281942029,0.6454793204626533,0.6367787583543556,0.6253588883081926,0.631686392475546,0.6465207573694642,0.668744992592844,0.6476177162422033,0.6527694149605314,0.6373610885299248,0.661651732794369,0.6313451306155308,0.6337837001716777,0.6282832254393218,0.6220614772021044,0.6278246506627081,0.6206439302596954,0.6338893016758144,0.6249871573679812,0.6288211753738453,0.6363683221856132,0.642032458726922,0.6128270360410392
0.6336717371125483,0.6504376561119682,0.6309506978512652,0.6373463500288573,0.6368781287038537,0.6216946980188894,0.6289289378164312,0.6132174852936008,0.6120844863809196,0.6365074323509271,0.6538239703288523,0.6523619906700089,0.6283171235231312,0.6312618343323078,0.642150909580597,0.6594573407060937,0.6428097540649989,0.6302333071795017,0.6412193606581251,0.6668246606131456,0.6393135331209358,0.634607744064791,0.6298346501604002,0.6299581721282944,0.6140793810512339,0.6246146287904295,0.6237713980769265,0.6157041343169952,0.6403035641565097,0.6396808275671038,0.6483053084046707,0.630605847604779
0.6341527599975384,0.6300358516540225,0.6487031721844645,0.6371708221209951,0.6278619339510838,0.6155052277208626,0.6367271219323501,0.6190908541624114,0.6157324484526129,0.6458233210301484,0.6299196152710823,0.6446381584287022,0.6341089853179824,0.6203761368126717,0.6505254297135951,0.6515000638858419,0.6393535118815827,0.6379057727658746,0.6431958556610545,0.6509252324750817,0.6288874241759305,0.6280507396933809,0.6251611187528308,0.6369319975735043,0.6192301485041408,0.6188174441834473,0.5982056160407794,0.6110376719003365,0.6362330656366448,0.6415214760203822,0.6337795400375209,0.6308540596163094
0.6246886656401355,0.6272047804464909,0.6416688757525337,0.6394895042218107,0.6331525892061316,0.6109531559807728,0.638600255770318,0.6224889803001156,0.6288146306615797,0.6403643463088745,0.6381599570452369,0.6333303352123192,0.6241540385906754,0.6266575348999196,0.6534677929315867,0.6485161596373891,0.6413996116984928,0.6430210811270065,0.6278988545969759,0.6421491419250038,0.6329619789774779,0.616214903160652,0.6328188174050986,0.602667480665456,0.6320047392837085,0.6208703542106372,0.6008376973524923,0.6084962397755566,0.6148500490295621,0.6483737049654854,0.6338379584448114,0.621158287104079
0.6274760368490321,0.6283171235231311,0.6245469819777851,0.6341340834304666,0.6313500379150617,0.6210354169794188,0.6248394082954064,0.6243433801625676,0.6243323920176704,0.6217433725712889,0.6487830798254092,0.6033572596890112,0.6201109270357824,0.6123888842728196,0.639971114156718,0.6532922224910477,0.6510610890104539,0.6574403476436896,0.6355110653188876,0.6569935667424806,0.6269664643680177,0.6192625958114018,0.6126211393216682,0.5915326619363046,0.6143450957353076,0.620605144433748,0.6192833330219392,0.6085805025716933,0.6294157449049473,0.6265024361072637,0.6387762268711932,0.6362867702092326
0.624767473725813,0.6248421584395298,0.6118593474960368,0.6126343415252127,0.61048489730308,0.6309578878940029,0.6020813991724552,0.6187970428501762,0.6261121691222987,0.6055103395088981,0.6280131770848262,0.6059741212892836,0.6220266373123436,0.6217911313824644,0.6258248433083748,0.6445448625381129,0.6459359288397346,0.6491657397848413,0.6421764359642843,0.6469315844726036,0.6157809380979159,0.6282396399125322,0.5827431877895782,0.63246957349593,0.5905560419135539,0.6095271543968342,0.6187970428501762,0.6065984765014962,0.6330888051728008,0.6061923056288931,0.6153100683877287,0.6328850208799963
0.601577809529275,0.5996093445351885,0.6050133802038387,0.6019554248015101,0.595768721613294,0.6093689487226349,0.6051165676582545,0.6149077311126384,0.6046651088104079,0.6155083216248093,0.598029431027268,0.593484542256544,0.5968969081032597,0.6121609105102002,0.6075888151971602,0.6131173262244176,0.6341819950929557,0.6066671973217634,0.6099482269896751,0.6145327203173024,0.6035569450033347,0.6092375649094803,0.5923561298523069,0.6190047513043647,0.5872470573235606,0.6120114766059461,0.6167710429068604,0.6095592412069113,0.6242032629279671,0.6160741437338405,0.623335127092341,0.6162366398887463
0.6073350186519003,0.6025325140656649,0.6162366398887463,0.6186068715377676,0.6050290429415801,0.6172344881779257,0.6161934367921342,0.6103822144751629,0.6059011115143104,0.6341089853179824,0.6070258487784234,0.6005838728626198,0.5932304779212182,0.6217557287314678,0.6218734096230586,0.6249808848815999,0.6513721430325135,0.6284683666568734,0.6160782163384195,0.623157077957805,0.6181729951595035,0.6035183634881937,0.6073588415491268,0.5865798913163075,0.5915936444801404,0.6155889138632805,0.6220844913402882,0.6155083216248093,0.6316363830488672,0.6365161100594634,0.6250292021494649,0.6273193785823539
0.6493819140642878,0.6513817470424229,0.6081516034174153,0.6329065989469597,0.6397677917906746,0.6248939058858021,0.6254941845718556,0.6060565886987457,0.6393290837159455,0.6454211295829559,0.6362464021504838,0.6416602243436093,0.6348079886882483,0.6458217390009396,0.657159845530902,0.6562912041348374,0.6629895596888283,0.6574403476436896,0.6459162992570803,0.6422372636413561,0.6443972036948789,0.6278619339510838,0.6249906514291489,0.6127020689632439,0.6257215078874199,0.6593919890175323,0.6562713969040729,0.6341089853179824,0.6545614724268445,0.6751289306186529,0.6444064574423727,0.6424570598982646
0.6671640624959021,0.6574007606054267,0.6268152212342752,0.6278280358672744,0.6441762169614036,0.6220844913402882,0.6485806091623721,0.6082811158464946,0.6412376737706503,0.641690521237054,0.6426683037815998,0.6417648284191538,0.631418140390504,0.6488560896003824,0.6493207441601908,0.6518601651343926,0.6476987899872593,0.6309775704908769,0.6249648371791152,0.6429470426819963,0.6303825187308761,0.6275131939379437,0.6281319823055794,0.6310816723248409,0.6355789211153762,0.6676287277817458,0.6708586171162749,0.6368001028731386,0.6696138162246399,0.6804970050482592,0.6570589529884372,0.6396905054479896
0.6365208508042769,0.6239592316255378,0.644829900047081,0.6216946980188894,0.6224435724734064,0.6099099957462115,0.6425900704228307,0.6050251810672925,0.6232352454934966,0.630605847604779,0.6283916016655078,0.6242632056713555,0.6193468679855975,0.6270983308875836,0.6183973406048197,0.6280519158555788,0.6274760368490321,0.6135796560210712,0.6089673853202549,0.6320551628868922,0.6058336689778987,0.6184556284040252,0.6098765418131544,0.6303304295358363,0.6225910129342789,0.6162702405730549,0.6472818681259783,0.6183915595254474,0.6546526991082308,0.6416196772180665,0.6188321464193557,0.6314094061897135
0.6054717833365919,0.6072918691226278,0.6341333049046795,0.6147434209473113,0.6143250660636397,0.5957175199892529,0.6281863652348937,0.6280883967787898,0.6100181532973531,0.6270644328037743,0.6274410160966413,0.6137821915812885,0.6074517034158824,0.6207401721182272,0.6177351128742155,0.6261582129789569,0.6353206738813609,0.6099464814940787,0.6259523430011698,0.6334431173818235,0.5933908531577295,0.6142626527821347,0.599523875342455,0.6093933067469857,0.6187408460290018,0.5959851513636242,0.6272970575755354,0.60795703880486,0.6281863652348937,0.6249194947220037,0.5981578142790822,0.6274022773258885
0.6069269990828133,0.6179354955741667,0.6208944595097466,0.6172607083505789,0.6130757496800671,0.6082811158464946,0.6123857320052202,0.61223302821286,0.6055423623823973,0.6127695522111677,0.6155036219141362,0.6192974979172844,0.604860618185262,0.6235975497591763,0.6303534189569533,0.6350964957690537,0.6424570598982646,0.6194635770730436,0.6229742032715074,0.6304953868972216,0.5991076042513437,0.6053667991959066,0.5961227719227304,0.6050099690592688,0.6182760996693709,0.5962720193241828,0.616695259551404,0.6162366398887463,0.6125481295466949,0.6149701624872378,0.609127275965679,0.6074096175317854
0.6227228495687789,0.6287560130742593,0.614849142184015,0.6183990407653912,0.6188575655104585,0.614617173171676,0.6049037636250691,0.599310499706809,0.6063232908681973,0.6002379491605556,0.614435731583346,0.6114514192378205,0.606907925200502,0.6069319754216015,0.6326909410942936,0.6166663511182522,0.6125844925169427,0.6191458857080041,0.6186667451587463,0.612189930681986,0.6149939617144126,0.6034469684176106,0.6033242825024019,0.6202459547202618,0.6118679042343937,0.6012041237234171,0.6248737882980182,0.6126151841640604,0.6127100861488256,0.600152479967822,0.6183994930323462,0.6139562179565943
0.6183325677406117,0.6180740019465163,0.6149839252730949,0.605303990749724,0.6184108010993808,0.6114686274165918,0.6120893268988665,0.6115179787068049,0.6002876625385739,0.6128270360410392,0.6301264578518888,0.612294333001435,0.6063943026726146,0.6183242101123039,0.6390553928650172,0.6234361252042397,0.618561536920297,0.6223487889098478,0.62539662468271,0.623142360187129,0.6183421883416844,0.6115179787068049,0.6107711939255194,0.6141662696316226,0.6000443146786505,0.6034998456888926,0.6192974979172844,0.6060122719516172,0.6118197754726619,0.6116426329848215,0.6023010183131177,0.6126439200223249
0.5971467949460159,0.6140793810512339,0.6211476380311048,0.6018572521148638,0.6119455980403877,0.6214112086281649,0.6159781334650187,0.6126211393216682,0.607364468168141,0.6252226632978604,0.6221089155529378,0.6160741437338404,0.608625284579674,0.6182431655852059,0.627746793255076,0.6341341104089885,0.6326362227082452,0.6211069513014421,0.6152916356227769,0.6262793915551029,0.6147199625663892,0.6154888309898796,0.6024681266227293,0.6149315484329074,0.6092680016773738,0.5855254442076575,0.6158241367613808,0.5995567020549875,0.6130122571750434,0.6252163908114791,0.5919947424441409,0.595442334355954
0.6055545731482865,0.6190569363988628,0.608366962152,0.6119541162129115,0.6052459850097068,0.6184913178206267,0.6223526795925499,0.6217131832249454,0.6061080428327563,0.6275777324283864,0.619788773031137,0.6152096072801377,0.6108218031911326,0.618072234445158,0.6416112525759307,0.6418157812495203,0.6396800920436873,0.6184040077991387,0.6049242196560998,0.631993285932566,0.6144212224928528,0.6063137541081177,0.5994668905156816,0.6217131832249454,0.6211644235057515,0.5793395329130204,0.6097471881609073,0.6129112988371759,0.6296559415307753,0.6182844628762223,0.5969297454598965,0.5909905836632351
0.6033660458374871,0.6125481295466948,0.606389285779564,0.6108068667629234,0.6158241367613808,0.6092297704339102,0.6247682515882612,0.6166113949288846,0.6109060659872694,0.6146916397704986,0.6180168183298859,0.6215877737080966,0.6170069118053191,0.6150514266091082,0.6477201273746204,0.6405052042954127,0.6362025074130959,0.6245170022166154,0.6040062500990704,0.6357698120526313,0.6044929975957694,0.6056335287958166,0.592334064176565,0.6220084373075377,0.6129591986630647,0.595493535979995,0.6014720708555038,0.612515755665908,0.62539662468271,0.6152860688224487,0.5963103446288404,0.6081803026435549
0.5891087169296794,0.6085843246567216,0.6050323048621178,0.6096944304444152,0.6213320306968257,0.6145403693907553,0.6185819382535682,0.6359184139743913,0.6149403897072004,0.6118389328338141,0.6204992126810879,0.6267482724930039,0.6142589742268677,0.6222969831319834,0.6257030234069095,0.6340749365512723,0.6333174741425444,0.6284683666568734,0.6209188837223963,0.6278994965596384,0.6021138548750857,0.621106951301442,0.601621485286365,0.5923934678151483,0.6085734398766139,0.6051248035141008,0.6182551319333351,0.6067514358963225,0.6098969790788271,0.6339874095632717,0.605640220532881,0.6265079159741509
0.5986328967031977,0.6004193435446666,0.6066694609121732,0.5981179831834582,0.6253429414381132,0.6051165676582547,0.6245202736113459,0.6260153089178706,0.6208366054818022,0.6206774837373872,0.633025586229712,0.6152092650415282,0.6297996562144407,0.6341341104089885,0.6305083587391108,0.6462102294280958,0.6448249927007601,0.6280507396933809,0.6430743845822621,0.6295103392267899,0.6232044843856,0.6428739797159144,0.637229387410081,0.6020385718524597,0.6303336714564536,0.6191350017623785,0.6354075858801868,0.5970485658329768,0.6154589352311597,0.6418923425255799,0.623637229462596,0.6427663676109359
0.6108814555609561,0.6121468107287379,0.6188190793877709,0.6060795138620692,0.6235975497591763,0.6092211818655147,0.6219302039487687,0.6264212931185899,0.6281863652348937,0.6100324897858119,0.6377344133231333,0.6139688937159039,0.6366586754846695,0.6377487458074053,0.6307230977073351,0.6426705088835369,0.6421237506056149,0.6238747747077412,0.6425800934925101,0.6415410619818918,0.6299785770759496,0.6456446325044636,0.6541989826403154,0.616107744418149,0.6332339349734804,0.6394110646292928,0.624693049332603,0.608625284579674,0.6343433489020238,0.6325424148551957,0.6283171235231311,0.6369512068520234
0.6092727804461069,0.6158436983881416,0.6095271543968342,0.6159157201835136,0.6147625379035792,0.6136862841033222,0.6158436983881416,0.6240587007482038,0.6061802267893718,0.6061312873043446,0.6271370696583364,0.6066671731001858,0.597669664746333,0.6144752932117706,0.6170839747365429,0.6339783780740235,0.6393824935078928,0.5945469899065547,0.6126211393216681,0.6272970575755354,0.6095658270130322,0.6180037939367323,0.6341478962723621,0.609205020261501,0.626146067206108,0.6278763275354672,0.620164736181902,0.6193367640521724,0.6231149492445677,0.6271112325275664,0.6339776457099091,0.6148351652823955
0.606266068496877,0.6245520756598386,0.6249704247178602,0.6249808848815999,0.6001203078071403,0.6166900965724939,0.6262118403087582,0.6261281484213607,0.5989794165175899,0.6307230977073351,0.6312327150172314,0.6059869477878846,0.6018840513331358,0.617377752590602,0.6353978367166317,0.6370831364129077,0.6569372142018134,0.6216023435284665,0.6156568408780957,0.6262008533834716,0.6244387688578462,0.6019862240504178,0.6112160679145476,0.6239047090985635,0.6229785972058639,0.618561536920297,0.6303045532867736,0.6313057247922048,0.6126323923428316,0.6269721524813084,0.6371708221209951,0.6089425199555935
0.6092211818655147,0.6316040840920593,0.6279792790010168,0.6282746424519353,0.6134320639142831,0.620334078339156,0.6256908776340607,0.6303336714564536,0.6060766747008008,0.6364576131435739,0.6373610885299248,0.6189187374064327,0.6173650158292092,0.6242355824593661,0.6423156388799575,0.6279792790010168,0.66296468733531,0.6511024490450962,0.6217679551931563,0.6382730108454904,0.6278841518250193,0.6061720477344549,0.5911784673391199,0.6310308976689761,0.6019279454881762,0.6211823509697878,0.620605144433748,0.6180104708236555,0.6155889138632805,0.6418041603665073,0.6393523141268069,0.6236551554137105
0.598841838446967,0.6108665395033415,0.6128794259522041,0.6109295128421371,0.6309506978512651,0.6185726895122663,0.6190676523492349,0.6168903379571218,0.6147625379035792,0.6155416381620894,0.6128725823037315,0.6176070110196348,0.6107999297837838,0.6081492947657141,0.6213668375985875,0.6141710693600019,0.6505796646880742,0.6282396399125322,0.6026466233408994,0.6283413354918866,0.6001987385882094,0.6138986292092986,0.5894086798977647,0.6156812022332356,0.5887268730693253,0.6151326586421437,0.6029470136399765,0.5963327676259668,0.6109619810408818,0.6304691119537312,0.6216215332599538,0.6294188252592111
0.6043711534321279,0.6130374320218339,0.6240968860877912,0.6082424432302966,0.589958327795051,0.630757616492211,0.6130454106415826,0.6217037073168297,0.6238006195986074,0.6240055856974374,0.6130737949920818,0.6314860872410235,0.6059741212892836,0.6308250375890407,0.6367905472901053,0.623735055993643,0.6430156141449342,0.6250098756190884,0.5975839441710539,0.6302979598670158,0.6065813368266114,0.6084126942210005,0.5934821535480834,0.593709469854958,0.6049623821134815,0.6065031034678423,0.598416403576844,0.6047903682218366,0.6191820380612079,0.6129320483660737,0.605266374046407,0.6107128504007358
0.6242065928521684,0.6117717752520647,0.6246239927086531,0.6300368260187259,0.5987324667611987,0.6240723111707386,0.6020319519448805,0.6223982306289364,0.6186345466952704,0.6335552368613766,0.6147567127708333,0.6310871012552262,0.6117055066929191,0.6364525849817502,0.6479798176214113,0.636507432350927,0.6343140190922568,0.6310191383596909,0.6123093068836439,0.6327732667556446,0.6130262532804303,0.6183400746868843,0.6153244677575345,0.5976724178562097,0.6175093769282204,0.5935758426468979,0.6188174441834474,0.6161406296199246,0.6471040901365391,0.6156812022332356,0.6242590613405806,0.6078010908322026
0.6248824809957254,0.6158241367613808,0.6186859867326797,0.6277250844017248,0.6232487370273049,0.6115503512117288,0.6105447106300689,0.6128506900939396,0.6127836354765741,0.6242816916146361,0.6189726736027261,0.6179091385236717,0.612989532195945,0.6371219061737531,0.6411317451631184,0.6368135442214183,0.630129820209692,0.6238616717363922,0.6190581736971223,0.6306503045119591,0.6112162042177801,0.621935272548602,0.6280567580597065,0.622340376600992,0.625197322925056,0.609144962072817,0.6344259983218209,0.6221812548565769,0.6399150479439143,0.6141518702618168,0.6245469819777851,0.6161665229832385
0.6240326314673188,0.6278994965596384,0.6167639997339632,0.6130920095276435,0.6221627246990574,0.6182625575157398,0.6312383443889686,0.6249414351106626,0.6156568408780957,0.6248254653773762,0.6249704247178601,0.6191542433363119,0.6097643567520933,0.6325667344418928,0.6421097495349302,0.6397973523033719,0.6277311756628463,0.6163086395081406,0.6275131939379437,0.6299933341964745,0.6263349830013067,0.6153440114594821,0.609650089809169,0.6182551319333351,0.617944969931837,0.6122905010302568,0.6191638639373847,0.6129611478454458,0.6131236440003517,0.6127169297972983,0.6112634183801573,0.6034998456888926
0.6201832663394218,0.6220266373123436,0.6190331286969492,0.624491616563536,0.6282019828271233,0.6361208632308045,0.6289124757641992,0.618744434408474,0.611480155096085,0.6174420118897188,0.612874935866928,0.6051183643445238,0.6054208933666346,0.6167147915368842,0.6423962614862845,0.636989055868791,0.6242086555368684,0.6218072422717724,0.6185755806167635,0.6336628010239915,0.6310130313750634,0.6187127800540394,0.612949241123835,0.6096944304444152,0.609458816806761,0.6099338905012163,0.6035183634881937,0.6211444282448262,0.6094024026556918,0.607936470698977,0.6158049376631958,0.6087011572136466
0.6276682097461456,0.6280567580597065,0.6280627510997012,0.6213179363962866,0.6302785476266396,0.6389772280973719,0.6162332679431689,0.6143258966371227,0.6254941845718556,0.6088995055680837,0.5915160643441506,0.6035569450033347,0.6093284500970693,0.6107711939255193,0.6230849117780691,0.6111402065192044,0.6233243621437378,0.6229010578688913,0.6175951685058734,0.6272916036830287,0.6327328928125705,0.6201449294989564,0.6204751073819783,0.6217557287314678,0.6219428473530331,0.6094650138100924,0.6132278135597478,0.6314465963923107,0.6239399050951611,0.6173386063484568,0.620605144433748,0.631340028484173
0.6397042633620001,0.633486896674263,0.628916044938203,0.6136463081887488,0.6282046191601415,0.6223392809480612,0.6145327203173023,0.632554276844715,0.6330576133729395,0.6222969831319834,0.6128270360410392,0.6185993957456027,0.6251537373982665,0.6009800873997886,0.6356599611773932,0.622039743516627,0.6291184998598657,0.6204733648524806,0.6214722687392699,0.6230947071023548,0.6455124862350263,0.6403643463088743,0.6207832222358001,0.6372439002691648,0.6341089853179824,0.633024780725403,0.6424488465199084,0.6325980561371546,0.6361208632308045,0.6440000909185347,0.6241703182721262,0.651515584494468
0.6251901083600284,0.6232966356530928,0.632869853894747,0.624414131672823,0.6238616717363921,0.6336628010239915,0.6127357356506852,0.6318765469190367,0.6188575655104585,0.6068793134715725,0.6159836471983288,0.610568469041373,0.6287696003404558,0.5948229335248979,0.6427957463571453,0.6232006192743604,0.6227029079094215,0.6304990613782167,0.6185234905777739,0.6217390369240514,0.6310186607468005,0.6413529894610593,0.613627109090564,0.6275196223758216,0.6179642115057703,0.6367123139313362,0.6433339311726649,0.6265218051133886,0.6333909259763024,0.6215757031186946,0.6234522044216633,0.6378081014266632
0.6417570225806772,0.6438909509827135,0.6510118830040272,0.6597821544730634,0.6325813258095755,0.6658118383209846,0.6330393720930857,0.647635474114966,0.6105434525849494,0.5890667535559923,0.6083953827894188,0.6016133130246077,0.6159634314136831,0.6096227452678947,0.6268559300999568,0.6099530057584082,0.6212994511902307,0.6162702405730549,0.6184826670958324,0.6336370263044829,0.6337795400375209,0.6506585447180745,0.6303242362957769,0.6456908031344828,0.6316225007420393,0.6428348081193617,0.6220427482016516,0.6320177584098514,0.6443980057522661,0.6332686700696417,0.6307673224215147,0.6309256665558343
0.6479219746961321,0.6579709606388038,0.658498807422183,0.6640182603685029,0.6483835417634398,0.6743537510368197,0.642435002953658,0.6425311276083666,0.6123169217266412,0.6282647032681228,0.6252399713394832,0.6091007256297929,0.6254920450506554,0.6224175143068303,0.6334868966742631,0.6283413354918866,0.6358270206285448,0.6342209060473355,0.6395096186748577,0.6512785707610343,0.6439981718427885,0.6430211792393682,0.6428348081193617,0.6601485200249722,0.6536659980299205,0.6545985207022849,0.6182063048586135,0.64258009349251,0.6371414048877566,0.6488905659638103,0.6427411826020608,0.6371708904941915
0.6452725398344367,0.6427957463571452,0.6600938206473304,0.6421607023652967,0.6452640265530593,0.6702015386190252,0.6307831548169213,0.6251804452832073,0.6182312564603242,0.6485598910520908,0.6474973998712822,0.6268994983041783,0.6404827601103598,0.6483394267946528,0.6463912171327159,0.6475558135570485,0.6417570225806772,0.6483828012587672,0.6482960212911413,0.6357744718241809,0.6370831364129077,0.6344659462473443,0.6115166073304792,0.648491027901841,0.6430700470111499,0.639924146076895,0.6304223771222482,0.6362730253212576,0.6384476920135516,0.6305046620906957,0.6397973523033719,0.62472525571116
0.6398022377417508,0.6250486580766292,0.6507868968909463,0.6364428688372634,0.6231234995536966,0.6485018813710767,0.6369319975735043,0.6361524945694357,0.6217085281895232,0.6216662303734456,0.6399641854823918,0.6395239437912918,0.636951346006881,0.6448309454828248,0.6376125532607863,0.6337837001716777,0.6340749365512723,0.6247252557111599,0.6296668012266936,0.6152580349384683,0.6180778202367991,0.6332533771148376,0.6024672738671537,0.631334844107281,0.6403496897989984,0.625071420164118,0.6357744718241809,0.6283413354918865,0.6393673553821898,0.6371660781685486,0.6250451490195443,0.6127883195075948
0.6204002421117814,0.5997833307529923,0.6339144267668204,0.6158436983881416,0.6189662304378142,0.6134450748159679,0.6154888309898796,0.6443832835159328,0.6239109143576727,0.6297616403854269,0.636715861165653,0.6291716337890481,0.6314130774660501,0.6311601110301994,0.6367366784204547,0.6160309406372283,0.631014468608936,0.6215879970146764,0.6184040077991387,0.6063980169042544,0.6071782142079631,0.630605847604779,0.6099338905012163,0.6221048706711128,0.628492578625629,0.6179957685877473,0.6179354955741667,0.6161461433532347,0.6168202786649039,0.6309773001343791,0.6204147049169816,0.6126151841640604
0.6399883568007048,0.6081326850439404,0.6185042490038405,0.5959851513636242,0.6240573455914201,0.6001999640446878,0.6095658270130322,0.6330682278222276,0.6154466734377669,0.6401056357657907,0.6340749365512723,0.6279006727218366,0.624633955320806,0.6283558622938838,0.6366281128896123,0.6248254653773762,0.6337447468875216,0.626444326054699,0.6028905173719413,0.6147778935522945,0.5938536156938228,0.6078360462988268,0.5827985391173179,0.6127024821727922,0.6089425199555935,0.6157324484526129,0.6217557287314678,0.6092733578515743,0.6242348744701958,0.6281863652348937,0.6357988038302709,0.6072859635196787
0.6420627686359885,0.6258621267275057,0.6297354583147166,0.6056556235907975,0.6246136952158706,0.615680890962233,0.6218634482156093,0.6289002125427965,0.6073788046565999,0.6282832254393218,0.6056044333878037,0.6146671553941795,0.6264782241385084,0.5949269339011191,0.6341089853179824,0.6343675799145303,0.6263474658502709,0.6229742032715074,0.5968726925290065,0.623655091065573,0.6061196293889055,0.6130470949429306,0.5961227719227304,0.5990024548516993,0.6183658656327535,0.6175671135520637,0.6308899410434835,0.6217477379134562,0.6361937987341864,0.6352942808802083,0.6372270538270487,0.6070321669744189
0.6278280358672744,0.6213860273300745,0.6426607160988373,0.6272715190376511,0.6308541557587207,0.6308414037596974,0.6269675725993462,0.6265157867470631,0.6069131846546514,0.6251804452832073,0.6091533021133434,0.6159116475789346,0.6373123407775905,0.6080390668614281,0.6341340834304666,0.6372001395325222,0.6160316990965441,0.6118389328338141,0.605266374046407,0.6243945162161415,0.6238809982667686,0.62332828474534,0.6245600118442365,0.6093488127651595,0.6070669750240579,0.6372196382465258,0.6338893016758144,0.6099177902217814,0.6480391851709016,0.6325382427121183,0.6306503045119591,0.6160309406372283
0.627968383509991,0.6184935486788266,0.6251804452832073,0.625149653522887,0.6250389949998083,0.6087221528227325,0.6176636720898389,0.6130262532804303,0.615012545184468,0.6216892445116293,0.6281900923581442,0.6278194528798879,0.6254458673039905,0.6329428636697203,0.6259356687697785,0.6283618256244573,0.6254748580414791,0.6191243014373646,0.6063137541081176,0.6250037575181404,0.6180168183298859,0.6132873223058214,0.61561844194301,0.6189618052824587,0.6087095473758107,0.6321913916049543,0.6341041670338061,0.6008376973524923,0.6455176598692117,0.6247645100249669,0.6312327150172314,0.6263555646090802
0.6486355139436594,0.6269334137105557,0.6246494638058133,0.6308237133114185,0.6231632721652097,0.6146555721067617,0.6342063146796526,0.6159781334650186,0.6221657098786478,0.6161406296199246,0.628209461364269,0.6223982306289364,0.6143879316844375,0.6280131770848261,0.6401838113499622,0.6246998110798355,0.6458674883313089,0.6387900609125885,0.6265218051133886,0.6337065803164312,0.6270983308875836,0.6249194947220037,0.6223741253298269,0.6280519158555788,0.6275131939379437,0.6304172628730423,0.6344405896895037,0.6180186628165202,0.6184906378632143,0.610802943522847,0.6309870060636829,0.6226116075190675
0.6517270501299133,0.6340506554848824,0.6415508547665916,0.6448590749301903,0.6336628010239915,0.6302660197392999,0.6379194790139202,0.6159781334650186,0.6251611187528308,0.6161934367921342,0.6278619339510838,0.624531021106748,0.6148775546527758,0.6272754045952534,0.6487823393207365,0.6324554923502332,0.6338859124745592,0.631222511993562,0.6298975367601085,0.631281246572684,0.6296462356014716,0.6305573103209929,0.6372439002691648,0.6268597219571586,0.6373853505525637,0.6274410160966413,0.6372926480214991,0.6221941485116701,0.6251558977281783,0.6170326465792799,0.634031157258833,0.6336190533284304
0.6391223185705805,0.6506093387116479,0.6432897305876746,0.6359280701824539,0.625129411815681,0.618860298685154,0.6249648371791152,0.6173969843328316,0.6157532240286077,0.6159509935111601,0.6314338906759193,0.6211444282448263,0.6089425199555935,0.6129305050859886,0.6339589222495325,0.6336717371125483,0.619678579850598,0.6201791989871024,0.6086330790552439,0.6217674778703984,0.6212226616035953,0.6153100683877287,0.6279356934742273,0.6151815153045761,0.6159157201835136,0.6160309406372283,0.6212226616035953,0.6092375649094803,0.6535742200744046,0.639133629166688,0.6218634482156093,0.6449521564371665
0.6161461433532347,0.6342061018685315,0.637229387410081,0.6093379279850518,0.6082810534939239,0.597694264696204,0.6184753857133845,0.6275196223758216,0.6097834720092851,0.6214682013869505,0.638198119392323,0.6145809247924053,0.6007809165086725,0.6084466549218447,0.6084647367605158,0.6213179363962866,0.628316990554895,0.6183154824183509,0.6029893813096348,0.6313451306155308,0.6268063825455689,0.6071208655199014,0.6091533021133434,0.6202459547202618,0.5960669923303502,0.6044739237134582,0.6223199972701674,0.6097070080640314,0.6508790326990651,0.636724300900581,0.6053759906251764,0.6426607160988372
0.6086318051554711,0.6089698644968679,0.6275131939379437,0.6033242825024019,0.6086318051554711,0.5946546558971791,0.6154888309898796,0.6190908541624113,0.6152524681381402,0.615339351504701,0.6340506554848824,0.6189488565227533,0.5883931978815634,0.6128992681212785,0.6163758889990054,0.6249490103796347,0.6283376083686361,0.61561844194301,0.609650089809169,0.6260427794820687,0.621208198798395,0.606769358659026,0.6031756055194581,0.6185688712219833,0.6119829279864115,0.6091963165008533,0.628355862293884,0.634518463189653,0.6344405896895037,0.6405218975644131,0.6153100683877286,0.6158241367613808
0.628051915855579,0.6092645499690227,0.6394949621649818,0.6095271543968342,0.610428318652229,0.6089759738886504,0.6322244229258767,0.6099177902217814,0.6151815153045761,0.6216892445116293,0.6297475039080329,0.6353493172632732,0.6083101537763256,0.6221272260762807,0.6418450225137361,0.635596431595031,0.6247948615313695,0.6236343940452606,0.6146671553941795,0.6144875622185457,0.6013991251087489,0.6250196684694318,0.6093522644735107,0.5914287717980623,0.6100324897858119,0.6030588247823321,0.6179091385236717,0.6263908583418257,0.6202511629258878,0.6444653493486503,0.6207452407180606,0.6035759771486132
0.6186927355860689,0.6155995691479946,0.6176579706763721,0.6027714504534858,0.619966161004135,0.6141484868915377,0.6332444643675711,0.6151667713310078,0.6095658270130322,0.6210721114116814,0.6290678055113544,0.6394016810177179,0.6190942459164611,0.6250311437336917,0.6394705339993445,0.6452435392826982,0.6329428636697203,0.6328850208799963,0.6216651392125199,0.6127432642831999,0.613603109525284,0.6284683666568734,0.6199399336090844,0.6163870492722204,0.6004135123470463,0.6039387787925298,0.6164597536215249,0.6184040077991387,0.6126323923428316,0.6319786945648833,0.6242999559272223,0.6163086395081406
0.6162366398887463,0.6339776457099091,0.5989805640669303,0.6096561992009517,0.6250388652262859,0.6142674102956943,0.6102371038015645,0.6168121045983528,0.5990342787882653,0.6215349571201099,0.6269675725993462,0.6221771875042577,0.6074772780264897,0.6217085281895232,0.6328640135933707,0.6342801029804132,0.6312909525019877,0.6245319677959338,0.602742423052561,0.6088083703068543,0.6113027026741104,0.6223741253298269,0.617944969931837,0.6299697754528614,0.6094262974106966,0.6234905103156171,0.6274760368490321,0.6299106141804144,0.624633955320806,0.6216234004368989,0.634425998321821,0.6092536651889151
0.6314421956357301,0.64605371882859,0.626610609518493,0.6212847168717094,0.6314569679259471,0.6084647367605158,0.6325577046531147,0.6063503312930139,0.6028905173719413,0.6182459767535347,0.6213961697550556,0.6031797351550308,0.6065851981160364,0.6142682963875342,0.6152727628277616,0.6035331541470987,0.6217819406755988,0.6151619716026285,0.6128649783276983,0.6033428003017028,0.6141662696316226,0.6250196684694318,0.6285170100390407,0.6122127664881049,0.6249414351106626,0.6312965933317447,0.6415825948864267,0.6257284402426154,0.6432603518414652,0.638414886711877,0.6306702574013154,0.5997990609757539
0.6394399733938269,0.6342257697725115,0.6358305727428579,0.6187132323209946,0.6304310984826814,0.6055675618802184,0.6250308938547171,0.6026817548193879,0.6143778732358494,0.6032755926813088,0.6188994958324993,0.5772590267211142,0.6123955243677658,0.6113632437608315,0.6251550006518829,0.6061558383842858,0.6281233993181929,0.6274216539400651,0.6370246278851496,0.6081233296575649,0.6245759541616445,0.6203761368126718,0.6337795400375209,0.6152916356227769,0.6246363384559753,0.6280519158555788,0.6511946617629817,0.6272079117956311,0.6361111140672492,0.6574155878447665,0.6425746856471073,0.5929508766759634
0.6326710158582444,0.6214781627943997,0.6183672388735921,0.6152727628277616,0.6149701624872378,0.6206051444337479,0.6064629856302155,0.6061558383842858,0.6063314015707765,0.5987345982193382,0.6028905173719413,0.5941724948444823,0.5984886546334589,0.6159893833652855,0.6265846736974156,0.6162366398887463,0.6283413354918865,0.6217819406755988,0.6339776457099091,0.6312433912684066,0.6187793321516893,0.6104179178607689,0.6096227452678947,0.6313639622769611,0.6155995691479946,0.6279792790010168,0.6369999546043577,0.6336822992500412,0.6425900704228307,0.6392691887629061,0.6283908830462746,0.5995567020549876
0.6358695732665643,0.6387900609125885,0.6073385082982908,0.6183203032910444,0.6127020689632439,0.6147631656630013,0.60059238327751,0.6086549374823531,0.5901166598443015,0.6003014053209833,0.5824969364882306,0.6086760934427536,0.5959565715508325,0.6126424609369993,0.6035910601470517,0.6158436983881416,0.6213937930339584,0.602610381351014,0.6060289836556293,0.6160309406372283,0.600441999932559,0.5913436771948222,0.6021105779950886,0.6248737882980182,0.6156513271447855,0.617741905448608,0.6158049376631959,0.6296668012266936,0.6598860294687321,0.6302026934800802,0.6157809380979159,0.606852273046756
0.6341333049046795,0.6401496105546349,0.6211058601405164,0.6153300345578626,0.6161461433532347,0.6161509430816139,0.6086549374823531,0.6092706403474506,0.5928689092988094,0.6186859867326797,0.6225330325895928,0.5983763892788131,0.6116764366789081,0.6216805768872358,0.6282832254393218,0.6360585652628853,0.6365074323509271,0.6150806498225679,0.6155848412587014,0.614435731583346,0.6161461433532347,0.5939594532128393,0.6211823509697878,0.6191458857080041,0.6187693676926735,0.6246146287904295,0.6249264212356668,0.6250098756190884,0.6430154299993135,0.6362987571784775,0.6275777324283864,0.6142714940564276
0.6297937072574927,0.6254315114217,0.6279356934742273,0.6153543959130026,0.6206670073592914,0.6295502207084542,0.6365063608959081,0.6096793608179998,0.6167729804276827,0.6188081954421455,0.626669475544842,0.6112548616418004,0.6231234995536966,0.6362430847120052,0.6308561645918945,0.6312433912684066,0.6458574073508027,0.6180168183298859,0.6280373890535818,0.6342703391270507,0.6252453815489676,0.6186589343140778,0.6251550006518828,0.6035331541470987,0.6179642115057703,0.6251124716466884,0.6360234010698369,0.6152524681381404,0.6415214760203821,0.6341341104089885,0.6344405896895037,0.6245771988534128
0.6295024166757996,0.6287560130742595,0.6186345466952704,0.6279006727218366,0.6192294939591336,0.6186667451587463,0.6242430355394802,0.6309595535251705,0.6186589343140778,0.6087619891930273,0.6126111817824382,0.5983892750214932,0.6115802671611605,0.612913253525161,0.5998438822527562,0.6035331541470987,0.6213179363962866,0.6077182978896692,0.6168210908706157,0.6165132226902593,0.6043234678208872,0.610374791059339,0.6096114171929711,0.5936606789911972,0.61564244150829,0.6156513271447855,0.6280131770848262,0.6060408836805465,0.6307090849367585,0.6189715436330469,0.6188752762089453,0.6058776752635813
0.6251901083600284,0.6158445526869502,0.6063943026726145,0.6126994469601971,0.6208933574111596,0.6065698658591053,0.6061229935489507,0.6116220516315457,0.5919823450500926,0.6059392621766438,0.5991548503407716,0.587382078608158,0.5933793246556273,0.5983253287462814,0.5910094927516354,0.5923405640355596,0.5961333881085805,0.5864882269627368,0.5914876998293556,0.5957743720895605,0.5902523624590987,0.5959885567606551,0.5969629097030709,0.5962806465243697,0.6160782163384195,0.611637508970988,0.6331860960141641,0.6189056703748479,0.6245469819777851,0.6253526045149341,0.6137725410202273,0.6035712191572667
0.6214682013869505,0.6122927225330066,0.61561844194301,0.5981449097296208,0.6189283580075055,0.6030422369787078,0.608654937482353,0.5931834705128192,0.5792399135875332,0.6025675540310185,0.5890688798681599,0.5968861796604538,0.5941288013271216,0.604190617515925,0.6067569000131021,0.6054717833365919,0.6063789430219432,0.5900255953428081,0.5825718088983678,0.6058534204691386,0.5930960101613241,0.5823218731150103,0.6025061916328973,0.6035759771486132,0.6156812022332356,0.6159157201835136,0.6327098327205403,0.6159245614578065,0.6259173404617667,0.6275967262835316,0.6216313904836848,0.6244643051499563
0.6161813518398146,0.6172934647299498,0.6207155595898226,0.6104388201646958,0.6060408836805465,0.6126258233526888,0.6092536651889151,0.6035759771486132,0.6001953008123156,0.6032035260112667,0.606143437092064,0.6052489346149023,0.6129975163212978,0.6059264302441119,0.6252163908114791,0.614704520356966,0.6124486856275325,0.6050609155045086,0.6068427362866765,0.6188274370160788,0.6127186043213495,0.6002379491605556,0.6063981791822497,0.6127695522111677,0.6100403178725807,0.6088995055680837,0.6098765418131544,0.6122469825358253,0.631014468608936,0.6179091385236717,0.6177717734519171,0.613196074782636
0.6183626962349913,0.6176444305159055,0.6067167821754754,0.6067609726564022,0.6088790158946101,0.6087334421308155,0.6100181532973531,0.601881986115607,0.6117590925325939,0.6159836471983288,0.6094024026556918,0.6096992092131482,0.6158436983881416,0.610037268554545,0.6220989541454885,0.6275955501213335,0.6326501702525787,0.6094775695431224,0.6157041343169952,0.6127432642831999,0.6079116053343158,0.6081492947657141,0.5969095095289738,0.6032714052311199,0.5966583874060393,0.5971846951622728,0.6090731585304138,0.6099942585423482,0.63557483442497,0.6061692027114397,0.604171985089257,0.6093522644735108
