Fp1,AF3,F7,F3,FC1,FC5,T7,C3,CP1,CP5,P7,P3,Pz,PO3,O1,Oz,O2,PO4,P4,P8,CP6,CP2,C4,T8,FC6,FC2,F4,F8,AF4,Fp2,Fz,Cz
"(0.25790023426447656, 1.4564332280909091)","(0.16724631372379536, 2.4171264430216155)","(0.12727448242034348, 3.3455638852826035)","(0.16217203140004022, 2.3421817657977737)","(0.20997486995010706, 1.7332925113090656)","(0.12538386822135034, 3.3350876310818895)","(0.1564202463383545, 2.731345608438139)","(0.1853427641853359, 2.085251970087091)","(0.2539370650081701, 1.356420136173576)","(0.24743711531145599, 1.6663744878992037)","(0.2550439693946391, 1.5012999728822696)","(0.22521502599889007, 1.6213879616264841)","(0.17960978277894127, 1.9344357209293734)","(0.13196811030803035, 2.6343637082152545)","(0.20766956668484324, 1.859357630194838)","(0.261759678720982, 1.4730516470256239)","(0.2777726334517666, 1.3861102309830982)","(0.2652201186530678, 1.3889514573049038)","(0.1641976605775074, 2.1730119427043006)","(0.25418041408733627, 1.4469530166712206)","(0.16581525384882903, 2.2365975789803305)","(0.19921624554702405, 1.7620291133305062)","(0.1281148885151331, 2.852111998020927)","(0.1443173061640279, 2.5231989805106405)","(0.07873328260640922, 4.344709873430197)","(0.1271954056939324, 2.6610055064605973)","(0.10042523437298288, 3.3435125845960734)","(0.07312170046084498, 4.733406514807979)","(0.1000043206857266, 3.487668091865226)","(0.09907015392033872, 3.534265344380582)","(0.23030243212546675, 1.5716243554139868)","(0.14025864935425456, 2.427515665129546)"
"(0.24821145135249847, 1.6325517160621916)","(0.167264603426971, 2.4367376156434446)","(0.14856530671042142, 2.847678212372196)","(0.1799467384725263, 2.119473242760427)","(0.16786632929782805, 2.1751998299716275)","(0.14098756124830616, 2.8716467394059215)","(0.20659829819034853, 2.144686854993056)","(0.2252686478234269, 1.8155666837112814)","(0.24778805379322935, 1.420114765934899)","(0.27074175482364055, 1.5157414815984094)","(0.2991176749691543, 1.3118915318200612)","(0.2365681543095252, 1.5574246789616806)","(0.20439433567323073, 1.8345401285096903)","(0.17703405951306594, 2.036398049515313)","(0.25661520613945527, 1.5216472874132803)","(0.2779811534302672, 1.3958396417371248)","(0.2765464839106954, 1.4243815279754908)","(0.2571492705457308, 1.4807030953406992)","(0.190541111887457, 2.0412827273082743)","(0.2652545299786807, 1.503348917843228)","(0.21879806377013464, 1.7859316237141993)","(0.216095652173616, 1.8258596908156695)","(0.16967553035199223, 2.2379142867895565)","(0.21596638320380998, 1.797253312129587)","(0.12383661023277223, 2.9800663944523005)","(0.18874888065942008, 1.950646478433538)","(0.1343841671233099, 2.6574047995426535)","(0.09153466356625514, 4.006554162469836)","(0.11825999684026292, 3.1914215267146515)","(0.12306808248042451, 3.1079004718760017)","(0.2613486684845652, 1.4297624762699301)","(0.2330384809633694, 1.690656245224071)"
"(0.21284218046009062, 1.8221513038368948)","(0.12185200181539262, 3.222492338350837)","(0.09627463439605422, 4.218744189505669)","(0.12403583981641254, 2.852468661063859)","(0.15109404765989742, 2.3700438862315223)","(0.10674540826228202, 3.7547491862259377)","(0.15521869432814028, 2.7540872254702737)","(0.2616902235854659, 1.5710497719725938)","(0.1965701259936039, 1.81453370934955)","(0.2838957688740604, 1.449052137148132)","(0.20174064454660195, 1.9257938669944472)","(0.1751028439434533, 2.1386671829593005)","(0.19477460069681932, 2.023228010782611)","(0.18617837910907944, 2.087447577529674)","(0.2632085799056475, 1.5645622272262556)","(0.25415043836181056, 1.6225768249291281)","(0.2334390658676351, 1.7811091944337878)","(0.23361758457733223, 1.7315103241873862)","(0.17168719221015727, 2.3305507251670488)","(0.25121639193942125, 1.6625806651524668)","(0.19107994109299103, 2.066856326900966)","(0.18625972609459304, 2.1712043244597177)","(0.13889999280174292, 2.6277113300667843)","(0.15902412480235253, 2.4983698956628513)","(0.09865798557918508, 3.58259759957463)","(0.11794524509498261, 3.0763514725400514)","(0.0979428434243609, 3.606351940588268)","(0.06519645418690607, 5.411239102138442)","(0.07455727504302166, 4.894217291502238)","(0.0685134698346681, 5.310525399824538)","(0.16013260763909792, 2.3000779384588452)","(0.15759499943677746, 2.569666609369365)"
"(0.18463551863709263, 2.0629114926078955)","(0.14588061688667586, 2.5780424282524765)","(0.09252171325650263, 4.346221941455872)","(0.14226467510789095, 2.4571834225506843)","(0.17312957012605973, 2.1274968633031004)","(0.1051622721844749, 3.72830202314197)","(0.15599934992912134, 2.5934758138596163)","(0.18834940844781028, 2.1723544365182597)","(0.20679029429789997, 1.8914811819505928)","(0.21944346666931974, 1.8411049010971536)","(0.1946389701825635, 2.036459826855372)","(0.16275632009175808, 2.366961261602317)","(0.14943417253039337, 2.5762263319231637)","(0.16437194115151124, 2.3957622154021605)","(0.2632122522290509, 1.5858100586679256)","(0.24264084593536397, 1.6947769386726352)","(0.2532376920982054, 1.6095570353246003)","(0.22646777300220255, 1.7626136767213934)","(0.16534056920189805, 2.323200541645665)","(0.24069820286736945, 1.6616362596444179)","(0.18620120111334745, 2.027817407423861)","(0.16259306611444277, 2.320945640144192)","(0.1594866286846795, 2.203341163612823)","(0.1504589681141455, 2.564895474327443)","(0.09195386659436378, 3.7973176651759526)","(0.10309896651744639, 3.453062731205961)","(0.08526528649646589, 4.262520051302572)","(0.06318792951707498, 5.409162534211621)","(0.06694541679381306, 5.36090349051794)","(0.05589169771998331, 5.8472169268950696)","(0.12513916662666238, 3.025839357878963)","(0.13033596101564582, 2.934174726307977)"
"(0.2314248942563302, 1.7291218295402966)","(0.26639115633626426, 1.4878531441754237)","(0.23544016323162978, 1.8301932991501426)","(0.2426964230752566, 1.5912798778438815)","(0.21432782177291446, 1.7154429265396465)","(0.22750026071032511, 1.6529134969376462)","(0.262226906307575, 1.607470325569334)","(0.2851140952410971, 1.3925708613404786)","(0.24083381642609378, 1.5374889618126644)","(0.2885743075033233, 1.329299032200157)","(0.2507777973671703, 1.499083027902845)","(0.24107687008839648, 1.5428832116791307)","(0.19857504864478803, 1.9114402491763531)","(0.23288170359732313, 1.6208958287187778)","(0.30468996724968617, 1.2906127233360862)","(0.27551813613950205, 1.4302631244077546)","(0.2913531857085904, 1.356442351637547)","(0.2634814164358989, 1.4748240761115403)","(0.23003513232383627, 1.6264741720597888)","(0.22844809626650742, 1.640236495643203)","(0.20633571550964497, 1.6942683963648284)","(0.22062387491253357, 1.6708435085041835)","(0.24570096766975805, 1.388298251017279)","(0.22340641958376486, 1.6566100207700247)","(0.1965209854190704, 1.774897771907178)","(0.23947836987911306, 1.4845889390754132)","(0.21352801323920417, 1.7607626589720793)","(0.15851673599813243, 2.2823036870738505)","(0.16528783355378562, 2.311233848222637)","(0.16325643441010299, 2.2668148115714284)","(0.2230716039168732, 1.6979488055634915)","(0.21289466074043598, 1.7021864527836066)"
"(0.2641558591030458, 1.5461419029747816)","(0.27385998400437334, 1.4908890944248112)","(0.21886527403231001, 1.937254880324924)","(0.2501219242140317, 1.5700549283607557)","(0.23806269971232058, 1.5973108048858193)","(0.1919239506739688, 1.9403913350953854)","(0.2664260162344644, 1.4942038350519733)","(0.20179108868620568, 1.942763381732366)","(0.222966045289131, 1.663667735703598)","(0.22307736251324853, 1.8065343403304217)","(0.24643664114429545, 1.5480530198275313)","(0.23072967988064988, 1.6623463367272522)","(0.252204229785701, 1.570129458827409)","(0.25020284841834534, 1.564884535253134)","(0.29206470408317015, 1.411353778505043)","(0.29169536879810287, 1.402035752578609)","(0.27896828285105024, 1.4299927457607475)","(0.2580953886401516, 1.5178847240067694)","(0.23326278238729647, 1.6345363595720288)","(0.22174947425211677, 1.694972700351346)","(0.23306574082990703, 1.5914642858900203)","(0.26640582600490215, 1.4176189613604002)","(0.24586383813299817, 1.4759196641616485)","(0.22861233290183328, 1.6550899993814956)","(0.16683804313270664, 2.3347680394263466)","(0.21315736002535138, 1.7036501097936372)","(0.15588883577153104, 2.501466400232647)","(0.12333553803635885, 3.2270512291299145)","(0.13994027996517508, 2.8526974343194027)","(0.11081641395443063, 3.6518445269745725)","(0.19596395760280275, 1.937296292576922)","(0.2417102445393956, 1.4774799123679248)"
"(0.2437141280530322, 1.678508639376276)","(0.21373477993804796, 1.8583002826683725)","(0.2265307528447553, 1.8139047167926328)","(0.24060601034248733, 1.6173510235461859)","(0.21405112172406002, 1.7798924801022147)","(0.17081719242572185, 2.158912113571321)","(0.25036180252886797, 1.5655867211177301)","(0.18988596947112002, 2.069345631608464)","(0.20186078762902213, 1.8857029877175842)","(0.1931466331124677, 2.0951914622146495)","(0.22118746378628484, 1.7504968165604942)","(0.21374182822437354, 1.8461289884776835)","(0.22360941796138437, 1.7372652897354672)","(0.23587340613541752, 1.6858711728677729)","(0.2703721019148208, 1.5399332088414406)","(0.2665327649929489, 1.542253247569354)","(0.24512505051057992, 1.6347453806065941)","(0.22540779434473138, 1.7171426102431249)","(0.2048880176074757, 1.847089696950996)","(0.2063248809177642, 1.778724996699527)","(0.2314746022619408, 1.6096414287105079)","(0.25118668123915755, 1.4968090180004823)","(0.24977796619312037, 1.5038867122604007)","(0.2263745766910314, 1.6879853171600794)","(0.2186619993253754, 1.8095127311848724)","(0.19931310836061525, 1.8915915013600222)","(0.17422239391153793, 2.198530793607936)","(0.16917613537099896, 2.3219269427110847)","(0.17034023764159925, 2.334004810698339)","(0.14248561783548, 2.7517736009240283)","(0.20342155272057344, 1.821399094437213)","(0.20584183959456634, 1.7867632062112637)"
"(0.17823627674662337, 2.1040842986196373)","(0.19405805957554353, 1.9114793014070923)","(0.2319342963886778, 1.6784345250550616)","(0.19751731529075062, 1.8755330617786206)","(0.17885856023980692, 2.0527905893371368)","(0.17598876840196442, 2.034063268919822)","(0.2529698057879355, 1.5024115317169302)","(0.23762905653229294, 1.5802086975927776)","(0.19581888617280102, 1.814992863624662)","(0.22688991573142453, 1.6568365886111787)","(0.2058960701458783, 1.6444559198318103)","(0.2172070813020947, 1.6777132046734564)","(0.21836573550605673, 1.6116287328842356)","(0.24966341777901294, 1.4795750055167698)","(0.23313897221058116, 1.6121630960017395)","(0.23930957356279506, 1.6285182004128118)","(0.22548133890533617, 1.7663614851770029)","(0.20909580408639747, 1.7598335660546618)","(0.18277235446894832, 1.9307294824253902)","(0.1841273018495544, 1.8637409137305083)","(0.18785249775211504, 1.795478224110133)","(0.21135628684633084, 1.6525470574629728)","(0.2331849142511951, 1.4835391706081)","(0.18935185214894035, 1.895180007553267)","(0.18995371643714376, 1.7918991754284954)","(0.21120034674303384, 1.6437596581694118)","(0.19517690274931715, 1.7405621384698473)","(0.1690426523617924, 1.993029503441084)","(0.20070731093563848, 1.8413245835461185)","(0.1468873262713386, 2.304012738038664)","(0.1941248898678084, 1.8155619917095722)","(0.19204804504423628, 1.8157017870067647)"
"(0.2061777158080692, 1.7333994839907956)","(0.21516222289285078, 1.6700584725365506)","(0.2780610714899021, 1.4088302080782333)","(0.23077144153060655, 1.4939883704324732)","(0.16003341989815448, 2.1292396281528223)","(0.18999972261597348, 1.8713922130021563)","(0.24347478199887385, 1.506689029518865)","(0.2654758213431914, 1.4708383097628404)","(0.21547794076458718, 1.6052959166614982)","(0.2514325014662365, 1.511098266427387)","(0.21577633639205812, 1.497448545436296)","(0.2373647602571368, 1.3953742433343432)","(0.22476678645108722, 1.4956164563455148)","(0.2342965433843623, 1.4397866753388933)","(0.22234896053368874, 1.571724689660239)","(0.23654099349059998, 1.5191932149241223)","(0.21249669804971438, 1.6520102585797793)","(0.18888997954094514, 1.7188678056534685)","(0.18932331051058102, 1.7430827914170999)","(0.18515962899816316, 1.6552825921674852)","(0.17728084676847808, 1.831952860941778)","(0.20477864468058896, 1.662560695746182)","(0.20534334779824842, 1.6582397998611798)","(0.18440081822795054, 1.8791516863946036)","(0.17328572579919346, 1.9792436819944725)","(0.2280836474882614, 1.5369878245355022)","(0.2013726399503608, 1.767014452220288)","(0.18194708056806677, 1.8679669711534788)","(0.21178261258642372, 1.7643119341865812)","(0.1967761282194276, 1.9116569645604455)","(0.20744075366789194, 1.7244400297126392)","(0.19502848753664254, 1.8422851906459605)"
"(0.24148267151257374, 1.4386495807388733)","(0.22432159151071784, 1.5250962592611097)","(0.24514299261744518, 1.5192451604902202)","(0.2308501197333436, 1.4397837633755304)","(0.1977969344002676, 1.6885898970762345)","(0.19169837186468133, 1.691004326838504)","(0.22895367955088902, 1.6525176728210733)","(0.2598827088755627, 1.4754738811580945)","(0.2541877745315546, 1.4053415805408154)","(0.23618984889964778, 1.586835672152631)","(0.2152669526871053, 1.6105762459961062)","(0.23999583451471576, 1.4041269375559138)","(0.22739084334347212, 1.51437809378824)","(0.22272458238240522, 1.5520842642832915)","(0.21666655908663607, 1.631979871194771)","(0.20642357002137487, 1.661808806282181)","(0.2000330189625476, 1.6695396468901114)","(0.1825303380735577, 1.7255759634144638)","(0.19188685671983546, 1.7171934950260517)","(0.1734364805866706, 1.7810041454642282)","(0.177440278490686, 1.800939512911937)","(0.20612470509884034, 1.637134709567264)","(0.21342624975353425, 1.6125067529629682)","(0.1805851299267192, 1.895857040664141)","(0.2028265287063734, 1.7397520028456608)","(0.24478600125784966, 1.4934802027712923)","(0.24297891393941623, 1.4699714236115733)","(0.1931122279469932, 1.800251762373746)","(0.21637836445179534, 1.685510881280999)","(0.24099028291840233, 1.5735513099500649)","(0.21948532587323005, 1.604637775289884)","(0.19376665954220124, 1.8538767593002592)"
"(0.20322602000521947, 1.7802021017439158)","(0.22914228119827812, 1.5944070037653437)","(0.23373153357086157, 1.6490221825803464)","(0.21085643622026393, 1.6450960206672465)","(0.2037865953253915, 1.7203674526742607)","(0.17941482446288828, 1.8403313229672227)","(0.24329652608874458, 1.6080968804515838)","(0.24513143468905108, 1.4827370331004677)","(0.2496414317702959, 1.4034854714007594)","(0.2289020334139436, 1.6004194088975956)","(0.23409098389694588, 1.5785478935883348)","(0.24305063143258177, 1.4186429911669194)","(0.243281319310489, 1.4509481430836777)","(0.2268009030376972, 1.647271977917422)","(0.24748464676270351, 1.5858753093716578)","(0.228172437644183, 1.6700477047345297)","(0.23848232829684768, 1.615194804814756)","(0.20774830961310864, 1.7250495933451904)","(0.23834834216437062, 1.4641792934287159)","(0.21842417699503724, 1.6962941554439324)","(0.22397115498001768, 1.5685256400686602)","(0.19593646632480646, 1.7660592014765097)","(0.2556838222994727, 1.3822994109952038)","(0.17995038026349902, 2.010184297642253)","(0.19720236020236828, 1.761199113657647)","(0.22606250590125268, 1.5687336108617311)","(0.1932825157904248, 1.7635624983493303)","(0.18335054342634086, 1.8917845824221968)","(0.16695568843345948, 2.093214304599753)","(0.22335706429728944, 1.6171442816684458)","(0.17191835054609184, 2.012822395416968)","(0.20755015600577537, 1.78842245800243)"
"(0.1755117363825124, 1.9849845187512944)","(0.2081164052606548, 1.7647346515396198)","(0.17885600778034963, 2.1842598491260508)","(0.17137918952398867, 2.01216669115905)","(0.21292762482054808, 1.658314906330302)","(0.1480665334146814, 2.2323043526440105)","(0.21635865139879892, 1.7297283816537818)","(0.22802647248467653, 1.643265583296583)","(0.24308300184206788, 1.3963846609261903)","(0.28473562740026664, 1.411222817350782)","(0.23443669507004236, 1.497404766404756)","(0.22736157351724076, 1.4881936472940485)","(0.2565019843928069, 1.3341907661730998)","(0.23247930657423702, 1.5630243442659189)","(0.2654446767252814, 1.4868816630958066)","(0.26453005522528483, 1.4829254097855755)","(0.26238231120399164, 1.4949974939153465)","(0.22021158876423036, 1.6649358979105788)","(0.2559725303643778, 1.35414478747412)","(0.2560153756393082, 1.4384487795067584)","(0.23959124349479888, 1.4809838828544921)","(0.2057743569708271, 1.617666222913673)","(0.22845008968771752, 1.529886254646499)","(0.20376310842088066, 1.787174897779938)","(0.18955215474597445, 1.845491659579941)","(0.21138341756537893, 1.5842838821726541)","(0.17031356103629383, 1.993051617791978)","(0.16152923678932876, 2.185003064553176)","(0.17585004113773556, 2.0033319868255712)","(0.2152676414426865, 1.7075917927026427)","(0.1730385839988081, 1.9206317459506528)","(0.18277125179584391, 1.8978989096009866)"
"(0.17663025066274843, 2.008215065002963)","(0.17559629319080147, 2.0395199846530687)","(0.1329010098478835, 2.8036123197992495)","(0.16877968456813477, 2.0569514499308816)","(0.18643530604941366, 1.8410599391425153)","(0.14467888456255742, 2.372838431665156)","(0.16381181061862538, 2.1153570058339217)","(0.18829177376798764, 2.0736851483432677)","(0.19222705835915774, 1.6582328493378173)","(0.24569744194374019, 1.6727462853907045)","(0.18678330412311345, 1.8292537027349172)","(0.19358389253223965, 1.7454542821621661)","(0.23050395936298873, 1.4217735059484404)","(0.18446491589255837, 1.874885913032461)","(0.2114906558499939, 1.7926962277847984)","(0.22118537914830402, 1.756922991107758)","(0.22018560727061579, 1.756223510191886)","(0.203038883955472, 1.7831410164238524)","(0.20482167859322875, 1.654589201410507)","(0.21240843845345322, 1.6898979289092175)","(0.19064311864859532, 1.7837209527828377)","(0.1992483882803366, 1.6178332712598362)","(0.21803596148356005, 1.4913962801939042)","(0.2257402856854142, 1.5929371375983066)","(0.2009421465170187, 1.7813519138824987)","(0.18268748301330984, 1.8131713425150011)","(0.1902414141392427, 1.8991082054646524)","(0.173883339211933, 2.1689715105037273)","(0.1730688656852452, 2.135542253102342)","(0.18042580245808673, 2.1093792221352183)","(0.16501789017257315, 2.069101037648476)","(0.18876724204286624, 1.7288552616223998)"
"(0.193514419458643, 1.9719124240621984)","(0.17816281927449404, 2.0991159672494777)","(0.14879685201212445, 2.7284636040970383)","(0.18414060654983713, 1.992448612703973)","(0.12962270327710648, 2.726543804372193)","(0.14140531373108467, 2.523087523346408)","(0.15727015901089758, 2.3793705760159374)","(0.21018513952717585, 1.8357060688124438)","(0.17029112472852675, 1.8641069935032837)","(0.2528309805243718, 1.5626667517210924)","(0.17385924420065993, 2.043666490009566)","(0.18205244476588964, 1.8934238369584226)","(0.1678407518346588, 1.9889561921904235)","(0.17152293319714002, 2.047378210078477)","(0.18634230114894657, 2.068204307567914)","(0.1859961453848034, 2.1222317216449524)","(0.18887833472056004, 2.0440243606201944)","(0.17592318798369003, 2.071869644191661)","(0.17982206426599479, 1.920014389232328)","(0.19414077894107348, 1.8648767120915468)","(0.17593108823444556, 1.998862444466067)","(0.16672189292481804, 2.0725995515588864)","(0.18604867033061973, 1.836940003001373)","(0.19177267745420867, 1.8934817686561445)","(0.20078824525493108, 1.8266667192615746)","(0.17907525350222678, 2.018327794615357)","(0.1665481964876355, 2.2899551785473298)","(0.1840471957279458, 2.071868119685971)","(0.16506050745341802, 2.230087033663292)","(0.16139042314032365, 2.324506190113874)","(0.17643384015050845, 2.0526060702201177)","(0.15760740809580054, 2.1723320671218103)"
"(0.18530605184986598, 2.0377962975092982)","(0.18621168486978892, 2.084306508517643)","(0.19685091977223723, 2.1836619663144554)","(0.17386127913100702, 2.2176609969534873)","(0.1450489485042924, 2.5224929149425743)","(0.13290779918796103, 2.7183752975400792)","(0.18754007248795246, 2.0450325596238694)","(0.2211741598190865, 1.754589990070813)","(0.20275647641019678, 1.710654040605932)","(0.2892492125466142, 1.4189597774867422)","(0.2046808219583261, 1.833963031329066)","(0.1849676447880715, 1.8725883179521605)","(0.10635250403030842, 3.241346750921851)","(0.12245787959449972, 2.882560993617111)","(0.17683202126501904, 2.2054658938512546)","(0.1844225944263937, 2.120915826118172)","(0.16152478079083007, 2.396701266298439)","(0.1631183320018079, 2.2656866378821907)","(0.1858678974392093, 1.8559592452091063)","(0.21249537919206687, 1.5705759836778161)","(0.20930988532114006, 1.6514184814475286)","(0.16424899229463152, 2.1729486960062823)","(0.2184659785562644, 1.6685330269739123)","(0.24000089801013458, 1.5349053675557314)","(0.1932724900343881, 1.894152054284322)","(0.22495428937907228, 1.6139632422668746)","(0.21553439920510106, 1.676328479986738)","(0.20437767200169468, 1.7908127359427632)","(0.21041875106089253, 1.7286815955896402)","(0.1799529123666553, 2.1083449530271037)","(0.2201414677931694, 1.644191077297021)","(0.16956676978749452, 2.090264108470032)"
"(0.1708351811862631, 2.280213281638809)","(0.18835170347547622, 2.161402369748091)","(0.20048537524021517, 2.193430341144557)","(0.18887777336270073, 2.181027695470952)","(0.18270064731768038, 2.004252776442744)","(0.13310335965982018, 2.9849576456586076)","(0.2127594074540743, 1.8125288250665947)","(0.19042856247993362, 2.1405586063247113)","(0.16010612633045018, 2.1671126529447635)","(0.2863265660926648, 1.5165736283917604)","(0.23462956463715987, 1.7389430146544704)","(0.18662049948838214, 1.8856632011772054)","(0.08325491797527544, 4.38356318777742)","(0.0974784748928395, 3.581727546825619)","(0.17352619061156827, 2.233645443551323)","(0.20958219982890497, 1.8528538189480745)","(0.19511931855679868, 2.0297009366488092)","(0.19070555652979423, 2.0390913707020686)","(0.23492201146496453, 1.6358892555627156)","(0.26554638452346785, 1.3817830052622784)","(0.2550688449492364, 1.4670454658317116)","(0.1739210705844634, 2.249965846981055)","(0.21177847085256535, 1.8129944463580725)","(0.27260623879189455, 1.3845623690301931)","(0.19584237146742067, 2.0339392233186837)","(0.22926314000014877, 1.6333982823795672)","(0.18588528734838364, 2.0183717298856685)","(0.1583029822410722, 2.462956188580342)","(0.14479784893996137, 2.65452789294148)","(0.10889962950465142, 3.5692607982038416)","(0.19760272453277292, 1.8964198213819337)","(0.1922743463354641, 2.097444524455003)"
"(0.17731212368425794, 2.0954954628527274)","(0.15336546470255147, 2.4818809484344535)","(0.19252635125226597, 2.1336337781368564)","(0.18141022651801345, 2.033235339760802)","(0.18535964925358916, 1.9502967875043522)","(0.15832575272094526, 2.48579527787451)","(0.23025337288959238, 1.6602769814290237)","(0.16459005847660632, 2.544843524681254)","(0.12872369120829247, 2.730390573631935)","(0.2467306486307563, 1.7183484502372606)","(0.2345143647605013, 1.704093546109212)","(0.2109401389506887, 1.7507500947139483)","(0.10102340682117213, 3.7186067689267785)","(0.1104645262609816, 3.3193048473858826)","(0.19037223884941334, 2.076378639583147)","(0.21360510720479622, 1.9359200678218458)","(0.22165820609404666, 1.8333326515467983)","(0.2020670074369651, 1.977723778504633)","(0.23740348712219192, 1.654973474164645)","(0.2669643365925676, 1.3976489064381408)","(0.2528179210767399, 1.491465909956911)","(0.19303403168288275, 2.053770570798671)","(0.20959940748490943, 1.8094580110601601)","(0.2507131649739045, 1.4833084457464123)","(0.19263435265722678, 2.0424685221705063)","(0.20534380267613464, 1.867938820549854)","(0.17426581040401337, 2.18401956994784)","(0.1594781232447414, 2.4220742077335937)","(0.14789956201381502, 2.5165549555882167)","(0.14482422643311016, 2.585736838030023)","(0.15758894091013773, 2.3655926566514482)","(0.16342584208037103, 2.551205364268615)"
"(0.20950938532192184, 1.807684520277193)","(0.2154310747786535, 1.7299369432131273)","(0.21407778887650664, 1.8859863555161778)","(0.2291744358300051, 1.576078271665187)","(0.19865430764080672, 1.8741499405787394)","(0.19519303964984155, 1.9824815128301603)","(0.23406858535176786, 1.6765874437760233)","(0.19201275536442142, 2.276806107455064)","(0.15801538842916021, 2.3592866352176594)","(0.2518974105376775, 1.6802407632443301)","(0.21481442558149305, 1.8909635692778506)","(0.2341254798986407, 1.6377898884643765)","(0.18588990457306243, 2.059201239707922)","(0.1646789549492591, 2.27882892646862)","(0.21586956148048628, 1.786946392520539)","(0.25281532501966625, 1.5851094093983629)","(0.29442630828584737, 1.4040225918162064)","(0.24936986024480068, 1.6456612794587335)","(0.25830526571339446, 1.5559913302318813)","(0.25886247886641195, 1.5542126688850888)","(0.22011251276671157, 1.7770979464498118)","(0.2246401838533594, 1.7356458413938611)","(0.2145374528474465, 1.79196993982585)","(0.2085611531853908, 1.865483971333103)","(0.20047829705553552, 1.9686849945992897)","(0.18525336317016303, 2.108184620304877)","(0.1549858868880304, 2.531135819813306)","(0.17443978090686188, 2.240535861729962)","(0.16956329684741855, 2.3419581678545556)","(0.09972234579451063, 3.896728107764464)","(0.1864068784381441, 2.0424242674861577)","(0.2148491238258619, 1.789779158493472)"
"(0.2328280541066822, 1.6997955620712812)","(0.24847461379896973, 1.5569443675367367)","(0.22695913780653176, 1.8589996136809608)","(0.23130983067368197, 1.631294845795896)","(0.24816121443306385, 1.4987379516448578)","(0.2039143736110855, 1.899363240759394)","(0.24076661451068737, 1.6612788866294468)","(0.2342446200976441, 1.7736461462419593)","(0.2353960843535134, 1.5035179732743018)","(0.2604373929967119, 1.5988076788253354)","(0.23658525493892074, 1.7193135186959292)","(0.2363146688696062, 1.571052373055334)","(0.22058311063276756, 1.6348914172342695)","(0.18273271596725293, 2.001532000141146)","(0.2153821439334916, 1.7273072459238024)","(0.26971723327571645, 1.427676334800548)","(0.3102068241575433, 1.3228083943891897)","(0.284163538879608, 1.4072745208164255)","(0.3116073183670757, 1.2586527577156954)","(0.30800171962755624, 1.3254784456904911)","(0.2874699770374937, 1.376756095962869)","(0.2770943518521953, 1.3433588985571825)","(0.2298747971714661, 1.6919117571148312)","(0.2801851963391722, 1.4700005910019651)","(0.2300045612382708, 1.676864807412139)","(0.2106927859518546, 1.8478043192112585)","(0.18175541896379915, 2.1693490853610733)","(0.22228208019251686, 1.734384863560263)","(0.2333189831181047, 1.7288759168351215)","(0.12458648300813933, 3.1366217839221378)","(0.19860344750243208, 1.9264728798258315)","(0.23071038937868768, 1.5867802759989103)"
"(0.241267573217239, 1.5552606385454766)","(0.24771822017461484, 1.5297222394042498)","(0.23292855203931032, 1.8140815650596367)","(0.20961106748259392, 1.7571167725081995)","(0.25432351668669717, 1.406835428862098)","(0.17737274086524715, 2.110081365803634)","(0.201556934751358, 1.9444433213569536)","(0.2021924920624009, 1.9123894855072132)","(0.16350020838505083, 2.117651589663641)","(0.2693207970898457, 1.4624584101881988)","(0.23378408953633575, 1.639608299376956)","(0.22602544359366825, 1.6198447268822447)","(0.204982177024482, 1.6596458203375988)","(0.15509568516864672, 2.383433820719329)","(0.2175859871628996, 1.7434079194047725)","(0.21946559499281557, 1.7222124210683591)","(0.2194810155206295, 1.7727929416624888)","(0.22522411678453236, 1.6348079741354509)","(0.2248038695205529, 1.6105159679774175)","(0.23924092852666773, 1.5976127625014604)","(0.2593625464730314, 1.4315657434241678)","(0.23880486605028076, 1.476661165273153)","(0.22726446833641542, 1.5469978555358468)","(0.2686340968435917, 1.4678549913171994)","(0.24278942765529998, 1.4809978304966842)","(0.22856777809919823, 1.5612302485324407)","(0.24311186613456662, 1.5140857287192606)","(0.19569549436526418, 1.840494218397266)","(0.21831614648878703, 1.701536074378157)","(0.14226630461623432, 2.5865297628759736)","(0.2413557485574632, 1.5021010147105633)","(0.21320277649182634, 1.5817751316141389)"
"(0.1902984142981452, 1.999731128837965)","(0.2224248724604391, 1.7466840270909554)","(0.2016704805305967, 2.1094797554209377)","(0.20332139773809949, 1.8407322375480906)","(0.20738527543626245, 1.7706969142451383)","(0.15581575592409838, 2.3571560772109574)","(0.20573528808537722, 1.9128934076880033)","(0.23454766121650358, 1.6462028881859148)","(0.16948058187891246, 2.092669836007506)","(0.3088991474839827, 1.3463311479250335)","(0.22453937022512635, 1.7073480955582923)","(0.20240084372263512, 1.8323552872541384)","(0.09892256268931841, 3.5126763607134017)","(0.14635595638254503, 2.617812256608334)","(0.24617305025769132, 1.6135773062329557)","(0.25039194517347313, 1.57089605858472)","(0.26477144816424425, 1.4544368164291541)","(0.24427279014775638, 1.5204236529967157)","(0.22394213317785552, 1.5849012709070711)","(0.21552277554303578, 1.6660349438975701)","(0.21399978281659965, 1.632459827637017)","(0.12860155530961612, 2.6886885190684486)","(0.16577365522603188, 1.9897618891920381)","(0.19621952529853545, 1.7808502813424807)","(0.1668644926916179, 2.1289685856076703)","(0.21467103065730528, 1.6972436303127818)","(0.2254055480993945, 1.695376438865884)","(0.1420674013793322, 2.397564445689126)","(0.1907182002694113, 1.8977222127802533)","(0.12364543558916202, 2.834467044274852)","(0.2186233034156223, 1.7086097045967905)","(0.16471946156683773, 2.0684975440116826)"
"(0.21683646599352124, 1.8133748707998256)","(0.2295339275360633, 1.7628684601320348)","(0.18627408711238952, 2.272384636091027)","(0.20739215160556992, 1.8590719246963476)","(0.22703858643886932, 1.6968277107689294)","(0.17097568783369205, 2.1584281291156806)","(0.24092498419556774, 1.6093614975770687)","(0.22337336365754382, 1.720782903541425)","(0.19371162634218886, 1.8292208174340356)","(0.30894660211560615, 1.3539496402365259)","(0.22613862691944872, 1.6517023039445131)","(0.20909524493297407, 1.7247623615622298)","(0.10635981617871428, 3.397030561660855)","(0.16602164698008307, 2.3113151662213536)","(0.26522211311750765, 1.5215713702723044)","(0.27808532074365094, 1.4455262618861149)","(0.3117679606988347, 1.2763984211044965)","(0.2840634295013381, 1.3462436887403317)","(0.22980435040853744, 1.597973034438662)","(0.24391282666612568, 1.5448757966017015)","(0.23335107776778974, 1.5617472513631758)","(0.16993411104834746, 2.06483862913322)","(0.16286448700285056, 2.165056232716558)","(0.19566950679880257, 1.8562353221179322)","(0.16126781937813034, 2.2204283255323265)","(0.21418075914357396, 1.749711295493788)","(0.2229700558214181, 1.7369474059912193)","(0.1412981851154115, 2.4814431766962506)","(0.22106306329048403, 1.6790497694941393)","(0.14608369138533667, 2.5556866561990614)","(0.22859674112581072, 1.6661392687061654)","(0.1811089920064083, 1.9735931452971323)"
"(0.22865031908691547, 1.5953745274414879)","(0.2050772311419689, 1.755109513985631)","(0.2542471227754677, 1.5068319338162532)","(0.17910009161998514, 1.9277513357687825)","(0.18707637543244432, 1.9124375860531013)","(0.21544386589904527, 1.5088477204227437)","(0.2630259293308874, 1.3607456373732338)","(0.2618580050997943, 1.48607296702998)","(0.1734412118137133, 1.9413908932305808)","(0.2942019326965912, 1.3616596235921326)","(0.2644629966719217, 1.322353572381894)","(0.2502987085880944, 1.3616921525833274)","(0.17360620419927042, 1.9555387834254652)","(0.25530748850180157, 1.3922794605909996)","(0.2514376288417114, 1.4935665343659434)","(0.27978763325697475, 1.367522422486197)","(0.29603889177322956, 1.330145989750481)","(0.29289588005173123, 1.2640189367173027)","(0.2557020749238012, 1.395444376952702)","(0.26964702091305404, 1.4029916745971656)","(0.2579969187674282, 1.3895542684658544)","(0.22324548318908563, 1.503221770307948)","(0.21462861188853777, 1.6007572285686327)","(0.25642395194826473, 1.403439235526115)","(0.22773274903850182, 1.503786997318301)","(0.224771014974463, 1.6143272669948432)","(0.24898886693932737, 1.5629908871904221)","(0.18775309025054343, 1.791587806424173)","(0.2729404481986896, 1.3687889290038278)","(0.21665745021688404, 1.7451279778748008)","(0.21217895053265765, 1.702266272589742)","(0.1760101085956887, 2.0419612253539645)"
"(0.22889256431960203, 1.568914447269769)","(0.1986160732756937, 1.690488657554633)","(0.21921831370901643, 1.6795958978899674)","(0.1561885046226845, 2.0697677305917814)","(0.1578463727803549, 2.1396984935323142)","(0.19099747574228917, 1.8009613844172836)","(0.22053369301443226, 1.5975965028465744)","(0.2643129146922946, 1.5089499609724288)","(0.1590998238679307, 2.0381054057828707)","(0.2645968401662897, 1.4952437653890431)","(0.2605161948837, 1.3658710783943673)","(0.23652412324333816, 1.3982284540893868)","(0.23211137102892226, 1.4408334917358794)","(0.23490463914776785, 1.466338229657054)","(0.23887917597326982, 1.4889815749203053)","(0.2635238668017402, 1.4228511350365578)","(0.3048717457656418, 1.3596485021681644)","(0.2806162526335154, 1.3861197099918503)","(0.27058627444437555, 1.386663905536569)","(0.26041292675578376, 1.5041789587336103)","(0.25299019861672, 1.4402894669665633)","(0.2539058845512724, 1.3501052314717201)","(0.23648419756912967, 1.422308334598432)","(0.22950137017509756, 1.4977331891511945)","(0.22704179055491236, 1.4786585718007825)","(0.20777068663091294, 1.7174538571354878)","(0.25212314057780405, 1.524254938996606)","(0.20056663929559415, 1.6962344170659154)","(0.2753269522765608, 1.3942141385161906)","(0.22058047699041988, 1.6551201046464552)","(0.2017488536738969, 1.7298419998119516)","(0.194566756583809, 1.8785055874990053)"
"(0.22082896839184246, 1.6141060870152282)","(0.1782091516884398, 1.8156454263778892)","(0.14432597919070148, 2.395404815576793)","(0.19036873261890033, 1.6934429329655463)","(0.1675885203490623, 2.0342509900007375)","(0.15296622538084956, 2.148464114357072)","(0.17837897563034213, 1.9685920983558947)","(0.17856801347664042, 2.103381910941703)","(0.1916177620654451, 1.787276313142997)","(0.20711683136518594, 1.8297593088764457)","(0.23627340759478163, 1.5793966139809072)","(0.19524472177169613, 1.7714114627980706)","(0.2165428346572449, 1.679422288024919)","(0.21365920396907123, 1.7322162570885355)","(0.22980481741264178, 1.6170850731776434)","(0.24037943776643853, 1.6432373679491448)","(0.30125852565166245, 1.4151946626560328)","(0.2664348075308318, 1.5286418466713638)","(0.25266014849677615, 1.539038578547469)","(0.22992887803750822, 1.7258569409177718)","(0.21742641349794065, 1.6819721365573572)","(0.21808590113432763, 1.6759421078529526)","(0.21699483250056137, 1.477801274338691)","(0.18785215501520636, 1.724402418617569)","(0.20443132151722831, 1.5373227672033107)","(0.22333548480952628, 1.5133776215655075)","(0.2503322910060786, 1.4322651799230843)","(0.1926035228574504, 1.7218930656711267)","(0.25243834522028535, 1.5119981803352545)","(0.21098242350734908, 1.6175113051873307)","(0.21555131218303053, 1.571118880445633)","(0.19263944746667436, 1.9986702782393377)"
"(0.2111714110931199, 1.524337750454809)","(0.211303753942727, 1.512218013250369)","(0.1576824004327932, 2.0597750327474724)","(0.20433587836657696, 1.5804812338334626)","(0.21042372069320067, 1.5860010631830315)","(0.16474465878611697, 1.9334842604388878)","(0.18819934607768993, 1.6798712054972398)","(0.2013587229829742, 1.740424047862044)","(0.190252842519357, 1.714026878094385)","(0.18766480301343846, 1.7816103665586094)","(0.22805902705251402, 1.455651900639547)","(0.18390657619073703, 1.7383325863487817)","(0.10874900656275013, 2.9925067023952487)","(0.2137761047371245, 1.6257972664144897)","(0.2402857648777841, 1.5595611759920611)","(0.24502464885622655, 1.5537488804418718)","(0.23517382230230946, 1.5715677609790197)","(0.2049193804454934, 1.6444679959578976)","(0.1824336506741914, 1.751592416319303)","(0.19121039846545113, 1.7297552598067227)","(0.17878219393674685, 1.7377334343311435)","(0.19254550299629455, 1.6337648505235542)","(0.1993199632826973, 1.4749511368073907)","(0.18886118138150998, 1.6356019351592586)","(0.18692485000468004, 1.6435794302069848)","(0.18099027929133493, 1.7585747994654868)","(0.20168534986669068, 1.7592191295587374)","(0.17309749152152848, 1.8521299290201523)","(0.18118063018594635, 1.8576309272257454)","(0.16547866669646263, 1.951577130350973)","(0.20217695055764973, 1.6206603993117987)","(0.14538734350888124, 2.5119079420615193)"
"(0.16785956056852222, 1.9479059706827755)","(0.1680082775402322, 2.1021080699424135)","(0.17041782362555727, 2.0414959973121345)","(0.18650735761481405, 1.8881669263690268)","(0.13321959464756913, 2.719206582552486)","(0.16521673815933385, 2.170641962956606)","(0.20629552648054325, 1.6619083315649028)","(0.20721883477753386, 1.6956014918728777)","(0.1803504459487545, 1.938421210344344)","(0.2007500077414645, 1.678156963803535)","(0.25042380624041827, 1.4050192313402332)","(0.20321258993876812, 1.6821781977511558)","(0.09972010064178227, 3.4805766628327)","(0.21410025785039938, 1.6963194410937006)","(0.26176633839404306, 1.497346990690542)","(0.2641767869053033, 1.517445952933354)","(0.26974586175119347, 1.499666767879702)","(0.21989222297587374, 1.7162988980831029)","(0.1972749108064546, 1.8589085908759333)","(0.23743244226269827, 1.6133443681331598)","(0.18760947869073435, 1.8772292800263795)","(0.21227146439730887, 1.5696431101160713)","(0.20464554207758512, 1.5479747280608318)","(0.19270865321446418, 1.7884911341588423)","(0.1886051374160461, 1.7816000500825593)","(0.17142280288218056, 1.9238965007757352)","(0.19409651654690527, 1.8855505174394196)","(0.1631680986534973, 2.1040848318263836)","(0.19776089226842453, 1.876055314961799)","(0.15182058220632044, 2.334187589362531)","(0.13783439339292675, 2.5302064183216135)","(0.17129474478804846, 1.9567369313383975)"
"(0.20904612048406498, 1.661991574683373)","(0.19318734439685772, 1.7978947325098131)","(0.154074755899264, 2.1742454965607463)","(0.2152580593296694, 1.595238597987261)","(0.1700909154957565, 2.0541239213264855)","(0.18584960959928246, 1.8676219816866877)","(0.21603193454345038, 1.6138421701529495)","(0.19421154446754205, 1.708566218041854)","(0.22973606725690351, 1.5744249819352925)","(0.22847099942762936, 1.5505939098274486)","(0.2743423672949526, 1.317432044592439)","(0.26204614876016097, 1.395780216530249)","(0.07594712232305129, 4.458149347079449)","(0.28613020214711954, 1.2957068194152894)","(0.304631650565761, 1.2934466783599876)","(0.30683353061408886, 1.2933607476766669)","(0.3211426360030333, 1.2580333969517796)","(0.29143040503273543, 1.3055596186788871)","(0.2512936688557447, 1.4849877807333571)","(0.2827883923096236, 1.3617421531652851)","(0.21704361219958235, 1.6694480246135022)","(0.20278236075137762, 1.72953441149083)","(0.1734726276075753, 1.9715824790187262)","(0.15564000082303706, 2.2993945682461407)","(0.1697248513226721, 2.095187042937888)","(0.22930576921910625, 1.4831078837192624)","(0.24444478232535746, 1.4863541919040322)","(0.1596027206284557, 2.14753588137845)","(0.281213670541322, 1.3524606575521865)","(0.23723927934440137, 1.5189777313101123)","(0.21553693518274739, 1.593392504238619)","(0.15624240113734894, 2.091328386018283)"
"(0.2443441415355257, 1.415658767655836)","(0.18300894511622703, 1.825896016837343)","(0.1457358973479734, 2.306596233337949)","(0.21059182168377266, 1.5688229879400852)","(0.23683239203197032, 1.4310336737637968)","(0.15847503827055662, 2.066108684639498)","(0.1760713754333885, 1.9289598065950508)","(0.1631286848339474, 2.113616639512882)","(0.255256645867555, 1.3598055550229249)","(0.19173987511225526, 1.8423506539950996)","(0.2337022794984115, 1.4991100770438308)","(0.2644857529856043, 1.328498166999414)","(0.08873732041780695, 3.682631456321701)","(0.25258095331268426, 1.3871565832941717)","(0.27369724372585597, 1.3631653292067092)","(0.26913206121814887, 1.3642124778335702)","(0.2695590026685463, 1.3372749252950267)","(0.2884565757463842, 1.206769318115741)","(0.24811240966013898, 1.3788356763653615)","(0.2553797682630013, 1.3809343429828853)","(0.25067893097980704, 1.3573420733336339)","(0.22670289293545218, 1.4815239939715583)","(0.1965035210603406, 1.6458101005996837)","(0.18860503448222016, 1.9144852183931325)","(0.20023784079770865, 1.6650594992785892)","(0.2615186286898383, 1.2816471134969716)","(0.2742382033523302, 1.2606773943917597)","(0.1731791767157826, 1.9568377253190403)","(0.2883345412423877, 1.2558947672315346)","(0.2780807439678936, 1.2619925227186035)","(0.275785626164349, 1.2250720502712007)","(0.17299568504640178, 1.913588075171222)"
"(0.2573581870926835, 1.3596815565549696)","(0.19712996775464153, 1.7124513648629331)","(0.21401227044307308, 1.621362876540286)","(0.21122992529119525, 1.6031855163366664)","(0.2528120502706921, 1.3356397079397864)","(0.20656519732681694, 1.6308272879574)","(0.22568932062822175, 1.558893019958294)","(0.18654522706674737, 2.0220096884754373)","(0.27054838120955466, 1.312342956486406)","(0.2385637156467438, 1.5703367618305937)","(0.2210798610879213, 1.639683173702283)","(0.2729903325383014, 1.3045623552419723)","(0.25770562169130146, 1.3653346118392125)","(0.17156659439951055, 2.0698403020375324)","(0.19546283191848476, 1.8467638835984683)","(0.2384116304288428, 1.5245940064202226)","(0.2276793688598207, 1.6170643262980327)","(0.25472655310203934, 1.3610383266054966)","(0.25255174897049887, 1.3561603081523057)","(0.2356966849091639, 1.4997311850655324)","(0.2643614485015651, 1.3038570890879064)","(0.2785306700697114, 1.2364240521223147)","(0.27583254695857296, 1.210171442190272)","(0.24580660773546673, 1.4715532547771395)","(0.25303141946315083, 1.3132422257628757)","(0.30318784648600494, 1.1142355674438396)","(0.3079039891051386, 1.134789250346979)","(0.25611246773659524, 1.3254348903264752)","(0.30587995571209053, 1.1461933078738813)","(0.2912016057768151, 1.188224510792218)","(0.288902777879631, 1.178651184356207)","(0.20149963604792342, 1.6888994737919676)"
"(0.2471016253791697, 1.4477313874212934)","(0.23208887855481244, 1.499125779768928)","(0.24567739327600277, 1.433888367506539)","(0.20692829198464, 1.6685178554194777)","(0.23021501484474927, 1.4825389774703963)","(0.2384831143254656, 1.4602012756081701)","(0.24401483979691602, 1.4375006645665795)","(0.2183659235090396, 1.71017884698197)","(0.2677306328592302, 1.339057517077426)","(0.2825648113812838, 1.287752181437497)","(0.22985384729583164, 1.5394301374549146)","(0.25488535523264233, 1.4013024099408327)","(0.24602795210581807, 1.4473383092690377)","(0.17099906634967627, 2.1070820980135085)","(0.20115976343859765, 1.8115187998798132)","(0.23178523725209263, 1.5567629290887908)","(0.23461184951982875, 1.5407415231530401)","(0.24853749532487074, 1.4146678059820805)","(0.24815494553089856, 1.4080537846460932)","(0.23510319164012275, 1.5300689169953208)","(0.2418645041898732, 1.4499882763284797)","(0.261593320545061, 1.3380012972348152)","(0.2586860789997257, 1.3365117369208674)","(0.20358360558749364, 1.7558680722188007)","(0.22510230772703707, 1.5238781096810332)","(0.2852832019419338, 1.2106293799771868)","(0.2898709690160058, 1.2543715907215394)","(0.24434042995609462, 1.4187844291628489)","(0.2925046070684258, 1.230530178619338)","(0.2834260128223598, 1.2353329416217884)","(0.27251177104539304, 1.2796328255960936)","(0.2068726843603401, 1.6505621186569375)"
"(0.21717466067673766, 1.6475053645326367)","(0.17071705328701492, 1.998795060955453)","(0.219234991348597, 1.6170090016447713)","(0.20197170893575697, 1.66515680636828)","(0.2261319783294462, 1.5511311136866677)","(0.18863680755828835, 1.871782867453474)","(0.21269996448983167, 1.6734008984672835)","(0.17211113793874835, 2.1045401533824313)","(0.23989809360122705, 1.457659720197692)","(0.24242217545385616, 1.4406846648745737)","(0.2385226264293422, 1.4432872019955107)","(0.2567006332708909, 1.3522137742349598)","(0.1932204394060247, 1.798941548108497)","(0.24582300416388542, 1.4314362312737081)","(0.2515477023637927, 1.4372245815875015)","(0.2326282134993238, 1.5498616763545474)","(0.23850287576505247, 1.5183449708721253)","(0.204484946235224, 1.7470349601230084)","(0.20479700978906518, 1.7228978774028376)","(0.23783355335290396, 1.5446058233134494)","(0.23379758574014986, 1.5309148015505283)","(0.20899575479426302, 1.6546400656671816)","(0.22963671874260488, 1.514481750210472)","(0.21928679913427626, 1.6391928778375329)","(0.22218204721270157, 1.5819382069303785)","(0.23500423065076836, 1.501595787154847)","(0.1973695087419756, 1.832314736777167)","(0.24366265573237886, 1.448032687610945)","(0.2247567314852354, 1.6611560474950835)","(0.22998792747513133, 1.6057118614237256)","(0.1625337224572793, 2.1749140467565384)","(0.17717995320838145, 2.0055102017125876)"
"(0.23015216834931515, 1.4938738238230251)","(0.18498857857788525, 1.802681553764337)","(0.232856517620065, 1.5159350463719155)","(0.22637130977459383, 1.5006733163725983)","(0.20374050137633412, 1.6955757966968092)","(0.203024460360508, 1.7172353464440338)","(0.2233432138605268, 1.6111272849652325)","(0.15417289055153008, 2.2906865445724685)","(0.20373167696122949, 1.7111110925199124)","(0.242637723736954, 1.4445099641533137)","(0.2431902598221981, 1.4260364306183897)","(0.2600673274318436, 1.313830799214264)","(0.19214354183025456, 1.7777347699227923)","(0.23482175825739665, 1.4674728245360975)","(0.2347715625932351, 1.4812038532386398)","(0.23515935082739248, 1.4972586605248555)","(0.24329999587244283, 1.4727352851920164)","(0.20919025432137084, 1.6630092635723015)","(0.2278361727730038, 1.5141999328667353)","(0.24762924637254258, 1.4379516411131745)","(0.25493202095696726, 1.3751789015688218)","(0.2349106440802474, 1.4461879049861415)","(0.24769572442161053, 1.3211650728461801)","(0.2711129340549205, 1.2939022737307833)","(0.2598463339241886, 1.34108800670555)","(0.22200881523484883, 1.5308192414612454)","(0.21403575978794148, 1.6062698186365156)","(0.2712864333561504, 1.2881555108791818)","(0.20271299679949506, 1.7287029428687362)","(0.23143630997160441, 1.6045627148572572)","(0.16275603612263037, 2.1106946863358265)","(0.197385991184911, 1.7058960325886756)"
"(0.2337406440575118, 1.4528925835085174)","(0.20803858289458724, 1.6613678802858205)","(0.23973171050895975, 1.4776628472345594)","(0.2019174136213165, 1.6360527472470645)","(0.18486204552757332, 1.8499998595104803)","(0.2187340263576164, 1.5081415251569221)","(0.20842015775998976, 1.7216634110236777)","(0.18633519100340867, 1.820878636807005)","(0.20871044586648693, 1.6554953885281545)","(0.2155097055578356, 1.5722060226381442)","(0.24606081143177017, 1.4152890019110047)","(0.2175670540116652, 1.5539179777032648)","(0.2260488174208862, 1.5379875457704701)","(0.204558555062087, 1.6920655333745678)","(0.20984488475804902, 1.7041804280898307)","(0.20405954180056754, 1.767522372393351)","(0.23740302567000662, 1.5156572716515933)","(0.20979503378573, 1.666608263210455)","(0.2555524359993526, 1.3513512646241432)","(0.22673287459641286, 1.5262359230302711)","(0.24524476198172476, 1.3897273235410124)","(0.2575431504457538, 1.3542469058389615)","(0.2216464743299905, 1.431183227200846)","(0.2239054427506605, 1.5579710712393684)","(0.20968010831094444, 1.6239117590995427)","(0.21517438158104654, 1.568598741979284)","(0.21266288177675052, 1.6087137778248304)","(0.1920263660379804, 1.7861620633204391)","(0.21815621485011505, 1.6146484895970625)","(0.2382133224420793, 1.4901822545078298)","(0.2114127404718192, 1.6097168953486487)","(0.18158926286663438, 1.806526414267819)"
"(0.23682349484341825, 1.3800186178350693)","(0.24689717609538248, 1.3895613272616325)","(0.23727580659670838, 1.4235293513780252)","(0.24347045361224628, 1.3987060803450386)","(0.20724052399222923, 1.646607563197529)","(0.21051999631933693, 1.4969465993908728)","(0.19493465711137242, 1.7073185237723916)","(0.21471347146063724, 1.547142628674202)","(0.24121922228342782, 1.3855168528546484)","(0.20574078152919384, 1.6143026000678666)","(0.2207117435417117, 1.5721382689961192)","(0.2222228828838373, 1.5140369814988208)","(0.2590618375433328, 1.3243056513272902)","(0.2095715538669598, 1.6597783784278253)","(0.2276175008241763, 1.6266814992581238)","(0.19644808921723683, 1.8738397440111587)","(0.239198317355706, 1.509444327679733)","(0.22321659200731778, 1.5653528981157858)","(0.2502685506190512, 1.3623018037492083)","(0.21971976095089274, 1.5854800608646065)","(0.21722528557077908, 1.56630503217314)","(0.2391909010514643, 1.4425282430118849)","(0.20726773853168548, 1.5506262711519434)","(0.17368653023151856, 1.9832138003256115)","(0.18611844215734144, 1.7901882286691497)","(0.24804494086641618, 1.348361502817564)","(0.22470157372622385, 1.5112563180786138)","(0.16688520245074867, 1.9394052947185934)","(0.2599104072545323, 1.2945750935464946)","(0.25787917928546494, 1.365795897266163)","(0.23368363226831768, 1.4405711185949583)","(0.1658470088272278, 2.000878000895853)"
"(0.24248427495237793, 1.4231021729528606)","(0.2489236100832616, 1.409592944881089)","(0.22987888281059896, 1.4956995076730686)","(0.2591683969756577, 1.3693099799824449)","(0.22806282543491022, 1.5471431257130563)","(0.2147940903630122, 1.5382477881431273)","(0.2211164586585662, 1.4468790506519937)","(0.22127546484377564, 1.5427905344755675)","(0.2644644023496903, 1.2461490595171647)","(0.2415864140132626, 1.3804234359973737)","(0.20913259931531186, 1.5972378364242539)","(0.2669712737753198, 1.2430412894789937)","(0.2615941139422825, 1.2848258980293594)","(0.23454408274035496, 1.4540784558982902)","(0.25922536571775634, 1.4037557395713938)","(0.22722410631727455, 1.5917031278641944)","(0.25992482552308027, 1.4190207009928644)","(0.2427865060278409, 1.4252680663717137)","(0.269968898827113, 1.2608968531599354)","(0.22809253983635883, 1.5263163480325763)","(0.23443769468203718, 1.4317120872326625)","(0.2391824212231923, 1.4081489426503826)","(0.22219490814962412, 1.4076067906137968)","(0.20444896477997146, 1.6127003066036643)","(0.21221710190898718, 1.477445140176443)","(0.2458760428639647, 1.3232944500926749)","(0.24718595866734674, 1.3452660828168277)","(0.21423956402822872, 1.4607826120281846)","(0.26823889174688004, 1.2814600498080977)","(0.27217364431369656, 1.24576355848677)","(0.247701673558873, 1.3707308605561306)","(0.18232061019662318, 1.8664990171696976)"
"(0.25503777750658796, 1.3773194535403364)","(0.2710086158204728, 1.2795278339953646)","(0.2396606481865439, 1.4399172943149572)","(0.29319357977660276, 1.1850073393987235)","(0.27982559028497567, 1.2466150702519292)","(0.231514189721746, 1.4511127973413356)","(0.20555713030000522, 1.6330512468958887)","(0.1985771300208011, 1.701358703654723)","(0.26558580865413706, 1.2168422372854548)","(0.2414890592495291, 1.3276205276356277)","(0.2084250852844689, 1.5759522106224813)","(0.2561957752927827, 1.2429828858944614)","(0.24960206441566618, 1.3130958462171545)","(0.23041807636915165, 1.4391859406297571)","(0.25806928138971585, 1.3628969473114907)","(0.2457115562884332, 1.4539968844815974)","(0.2520286728898352, 1.4356612222504297)","(0.230239954901704, 1.4762231338892302)","(0.25568025894619645, 1.3088232529450003)","(0.22928998155404426, 1.494801450779548)","(0.24357012519204585, 1.3436058507118251)","(0.26269413665526575, 1.251748917737341)","(0.24847092380693941, 1.2842413495996174)","(0.21949931130327235, 1.4516730954440176)","(0.24856627704800158, 1.2964684056606814)","(0.2623888983499555, 1.2748850988115545)","(0.27341025919295714, 1.2509446537734263)","(0.23091238430335095, 1.3817715850783177)","(0.276957655595252, 1.2754635422006149)","(0.2871694248496546, 1.2074023566212428)","(0.28897573127135745, 1.1929005555056846)","(0.19623571714158208, 1.7311059116119965)"
"(0.24887441002066577, 1.377519424743214)","(0.26252523495287267, 1.3229516542483997)","(0.1976851287209183, 1.7100931813224054)","(0.2810475740747175, 1.2233300473094375)","(0.27102943932008783, 1.2572200247377026)","(0.2136295813351639, 1.571708416254214)","(0.18058854283162631, 1.926056095071037)","(0.18047862354282984, 1.8964124740877342)","(0.25389807416839616, 1.2558869844234737)","(0.19940468065707703, 1.638556548539599)","(0.19043446698872563, 1.760367624435955)","(0.25250030560396, 1.2691471189467307)","(0.2395230389007224, 1.3512238231870997)","(0.22768922289394497, 1.4600712702902443)","(0.2305084791318576, 1.4884122165167761)","(0.22355708249098605, 1.5516986845289216)","(0.21868421984547456, 1.5621117905415987)","(0.20000503208294504, 1.6599699845321971)","(0.23892219570048978, 1.379192735225055)","(0.16179330356295063, 2.0459358121086604)","(0.2323379804685671, 1.3979660320360927)","(0.26862304696967493, 1.2290721312926156)","(0.26097480935934825, 1.2626472582595594)","(0.18959410616007308, 1.6608856236910226)","(0.23025569755673284, 1.429863110193339)","(0.2627158610718712, 1.3057667495364325)","(0.27376186787987644, 1.2681249873675537)","(0.21139313065801918, 1.5470611468856714)","(0.27529843496249934, 1.2677268218081401)","(0.26653193339501624, 1.3359741408049732)","(0.2895323046496811, 1.1922022603856093)","(0.1899177493426195, 1.838772791646069)"
"(0.18790539533292086, 1.8027116328106072)","(0.22394160869683455, 1.555341964706559)","(0.16740419457324215, 2.036523746796609)","(0.22254109580415182, 1.5267565596758916)","(0.22838174824568486, 1.4579239130685457)","(0.1838009368091461, 1.8314578576289209)","(0.16698790567864188, 2.176683119330458)","(0.18630926478571416, 1.8806050862656691)","(0.2236537056898162, 1.4734661562676423)","(0.1942718443335156, 1.7737240614271137)","(0.1887337694578622, 1.790694650020993)","(0.24871644317747615, 1.3513025576481967)","(0.21525826654267505, 1.5347136810265867)","(0.2151423949158382, 1.5845934756536266)","(0.19716807104740897, 1.7380237833597147)","(0.209540868956245, 1.6715999977193967)","(0.20810916177331792, 1.7037536832117819)","(0.1815050933936178, 1.8654508117354294)","(0.24040300636495396, 1.4050871814715822)","(0.10816965471019868, 2.9895903980444736)","(0.20279973467245035, 1.5963212947859344)","(0.2528387696211045, 1.3106838706741304)","(0.22906881172162494, 1.459591288213152)","(0.18242102333218502, 1.8424854220945603)","(0.20373370414839878, 1.6371618978156026)","(0.23232199251755067, 1.4037950604868659)","(0.24465476376268408, 1.3867716453675636)","(0.20592775596229682, 1.6036044451582552)","(0.2577382447832121, 1.3282285971142787)","(0.25011561496760043, 1.3879327679651545)","(0.2454003613396275, 1.3597486031491082)","(0.18562831508505256, 1.8777136434947526)"
"(0.1292669946163624, 2.7241702865512027)","(0.1843841195385327, 1.8759738928878882)","(0.20237214349919852, 1.7192091374513123)","(0.17826771061159524, 1.9020784181724102)","(0.14863603918585203, 2.2185740165010475)","(0.19467058407409574, 1.7701000918324494)","(0.19485293099887102, 1.900249837324622)","(0.18400688231741466, 1.9323003589058154)","(0.2101637419478893, 1.6479162432792671)","(0.19614829693661565, 1.8086296684088354)","(0.21907043794993528, 1.5897158115722492)","(0.26245604841837905, 1.316711701385221)","(0.24688839805832857, 1.384581530314078)","(0.22669389526643194, 1.5611022379571244)","(0.21181363849272794, 1.6819148505230905)","(0.24673713128721958, 1.4622384933774688)","(0.24667975723669192, 1.471096994383681)","(0.23582685415916224, 1.4675473349498267)","(0.24064805986014218, 1.4302807729607965)","(0.13688335460104936, 2.392427662837761)","(0.20847661904626696, 1.5753677834151703)","(0.22297285327174132, 1.478084998982236)","(0.18267252380010954, 1.8227720371219718)","(0.21282256519736162, 1.720480718098078)","(0.19392206929669478, 1.7742787048814994)","(0.17636828220013165, 1.921313125113122)","(0.20681769881413153, 1.6982817335455063)","(0.18579364215179672, 1.7666004620277087)","(0.1748221957762554, 2.0249058520820653)","(0.16696809717700686, 2.2763868974590378)","(0.15903881242839532, 2.1115410739155474)","(0.17171077374330226, 1.964048689403335)"
"(0.1371464321923211, 2.7380869048864316)","(0.17586706387359854, 2.110643651727033)","(0.2097372471821117, 1.8036392018134244)","(0.18384180923603854, 1.9756680989532402)","(0.1468980617841624, 2.3741164312987513)","(0.1866158221433575, 1.940557863253671)","(0.20548629113530284, 1.7733772614529875)","(0.18863134183550628, 1.8845382899371272)","(0.2580851101544282, 1.3825394866307004)","(0.22921188843567553, 1.5410442664762032)","(0.2295678131961784, 1.493460403932044)","(0.27170307168711405, 1.2765134454901161)","(0.2726606488176162, 1.292513609655577)","(0.2130670407323357, 1.6445202716439113)","(0.22704243525655543, 1.5969523451573275)","(0.2575035127721999, 1.4437228820099728)","(0.25938253680788914, 1.467898842537887)","(0.24737507087974692, 1.4759804347676921)","(0.24150425188709077, 1.4691933260745966)","(0.2414352042626119, 1.4930530798942463)","(0.22909898119166644, 1.5453657543690873)","(0.23421094040498588, 1.4909778635054194)","(0.2028329933560749, 1.7032613161471044)","(0.22252090457300944, 1.711303257316667)","(0.1636715849164892, 2.0799959925809124)","(0.16710884384148936, 2.1001478458952)","(0.16323973196803457, 2.141853803715456)","(0.17343732245993676, 1.9266103066312754)","(0.16323031085667009, 2.3188780435538727)","(0.16134676942713033, 2.538111326731765)","(0.15031806723786187, 2.307617184413859)","(0.17500176726791125, 1.9565689171893086)"
"(0.16085274098379135, 2.2757764537869347)","(0.18457385877581778, 1.9733961871957748)","(0.19110625537451875, 1.9423152411264888)","(0.1645071213762828, 2.1934586178594775)","(0.1827851833094429, 1.927424018046393)","(0.15287222692716412, 2.2729781268368656)","(0.18102689465116972, 1.950164206593521)","(0.1662843757824967, 2.078392817049944)","(0.23228292971035644, 1.5413168761296165)","(0.22254927693528329, 1.5687694749218049)","(0.2140550679106185, 1.5314094179753492)","(0.25454842773396325, 1.3248787622983544)","(0.24596117242159793, 1.4135702079464214)","(0.18126867440187514, 1.8279411331636988)","(0.2287573305748589, 1.593373111148407)","(0.23341199683372063, 1.5921993174052387)","(0.2410281155806192, 1.6047000146118615)","(0.22070808302227599, 1.678974047052514)","(0.2355339108660072, 1.5536319269324224)","(0.21865312918745866, 1.6825674084846258)","(0.24036240850709822, 1.5237707608095374)","(0.23428949243119068, 1.5116087841625367)","(0.23946852978017583, 1.4875643797064164)","(0.19379178452214216, 1.9042613982489025)","(0.1746933581715788, 1.9502378716795676)","(0.22590550305400886, 1.5803546279878875)","(0.17562100751370194, 1.9189437259520388)","(0.1627868940416242, 2.0231053942276347)","(0.17496759806132184, 2.092770729218877)","(0.15174988533223932, 2.604818211923374)","(0.16584437227094231, 2.0957342594233115)","(0.19203454444304396, 1.8296548680613833)"
"(0.15286380903663732, 2.3919102365118623)","(0.15732220770881744, 2.202976869176865)","(0.1843865288380409, 1.786756526439248)","(0.1330410513709707, 2.571814765955154)","(0.19376668677537545, 1.8394589767298364)","(0.161650499233328, 2.044860689048188)","(0.19254496702706478, 1.7626819085357874)","(0.214245109830466, 1.5663004663961884)","(0.18858605002431725, 1.7644664791907962)","(0.2485229779215234, 1.3627506889401542)","(0.22366099080026297, 1.484780637463813)","(0.2062639863467713, 1.5659124725391915)","(0.18897230532583498, 1.7626730079671589)","(0.22918063931222712, 1.4502425744147855)","(0.23905320178816333, 1.4875381745667773)","(0.23455588079989495, 1.5351951172473188)","(0.24369873500488148, 1.526399865327226)","(0.2293576660740735, 1.5486705708055681)","(0.24873540258289006, 1.40836916041963)","(0.206752357801114, 1.6682907359043262)","(0.20484932451079546, 1.6689844075216307)","(0.225427980002566, 1.5191345372230254)","(0.2216176518444059, 1.5510170202692781)","(0.1873956958978346, 1.8083364701898919)","(0.18232733217580116, 1.8506229051819743)","(0.2097760238399474, 1.6830891038878186)","(0.15959430740827335, 2.213853720155529)","(0.16900039885357818, 1.9731350178606353)","(0.18481344366741806, 2.081308891390707)","(0.1404326497447466, 2.6459741625377484)","(0.14999369481441915, 2.36829486297375)","(0.18912651585450638, 1.7413044954567671)"
"(0.18621505824136778, 2.0261193564509408)","(0.1935354429135613, 1.896298379179732)","(0.19596915657398603, 1.6983174949749307)","(0.17233543436217932, 2.076089391703992)","(0.1731512814519181, 2.108131164232718)","(0.196459590016097, 1.6985253787233179)","(0.20821617628225086, 1.6112765385768786)","(0.21826378858242265, 1.535681605852127)","(0.18583646502104859, 1.808696823332699)","(0.20426357473441098, 1.6646027633316764)","(0.23626050574672458, 1.43307488378633)","(0.20115486137126082, 1.646507968180549)","(0.16406011003671114, 2.0500907111378015)","(0.21069966606528495, 1.6189509299476357)","(0.21594853724117744, 1.6662441449530505)","(0.22184343809148827, 1.6200009779969056)","(0.23006003203576036, 1.6231291347567545)","(0.20411170557168468, 1.7551773411916216)","(0.221496935831661, 1.576800043204729)","(0.19439630246043058, 1.765849963116555)","(0.18981100993601435, 1.7864381484845586)","(0.21592091288595505, 1.6153965252208091)","(0.2009903168918069, 1.7559734934641145)","(0.1831541644913742, 1.877508175041701)","(0.18875058770533104, 1.9404627840685087)","(0.1955262838991868, 1.906999655336139)","(0.24997621805286777, 1.7252148987368467)","(0.18036839538813518, 1.894833787773087)","(0.25053281816637973, 1.5870499338814512)","(0.18031079698985156, 1.989642240736)","(0.13784746185210217, 2.7366566658650915)","(0.16605810251110253, 1.9040611495712192)"
"(0.1655514971925243, 2.32772796181514)","(0.14795198292161993, 2.4524207740907977)","(0.14117660852848696, 2.4514619736283456)","(0.13931496634276289, 2.539993389246476)","(0.1587301844187684, 2.2679569617984225)","(0.15566614890340788, 2.2254469953268052)","(0.19019346896982076, 1.8166997896438197)","(0.19560136235161313, 1.7831507100042352)","(0.22125709846844668, 1.5664389869193132)","(0.15670498641321104, 2.31054507283863)","(0.22036607588266952, 1.6128619976577432)","(0.26282672125240075, 1.34012333260038)","(0.17580550346250184, 1.9540747712579205)","(0.18929454517244057, 1.851298222837953)","(0.22542748500737975, 1.6083322837998733)","(0.20203448650844177, 1.7931583103854245)","(0.22632374145039091, 1.6581847663473728)","(0.18953338845466958, 1.8821362218449134)","(0.1794177689994407, 1.9165212408302172)","(0.1811631340737123, 1.93396833564333)","(0.15870159211229126, 2.1253362850203725)","(0.1947342267065568, 1.7786300299642377)","(0.15110134227865019, 2.334861523104988)","(0.1472078741332005, 2.365367434725306)","(0.14993820248317768, 2.501894648126438)","(0.1887077150332307, 1.9893855270650116)","(0.24785223458757658, 1.7360579131004716)","(0.11927325101140022, 2.881528541735875)","(0.24385726920598655, 1.6395035529503026)","(0.16619851350188908, 2.165697646356669)","(0.11880347741794592, 3.1261111945115814)","(0.1577162194190915, 2.1943661625129844)"
"(0.17093863632426762, 2.082088433172549)","(0.16766516645582125, 1.9606699532401581)","(0.1438328184425642, 2.2853612526969025)","(0.15095190785611906, 2.128111705887874)","(0.19143312859984996, 1.8374983845993533)","(0.1509879311105738, 2.221653663271331)","(0.17185139637154817, 2.092706283135344)","(0.15803952479834749, 2.158841218128241)","(0.2200234720390728, 1.5897611941835308)","(0.18527217106141308, 1.9397183982219615)","(0.22597503082669623, 1.5987240752620282)","(0.2540957690139636, 1.395511063998791)","(0.2001587834674773, 1.7736388851414755)","(0.22335984410734305, 1.598209370959335)","(0.24817867317609454, 1.4992418181891565)","(0.2086727160788754, 1.8019075962135367)","(0.23841741257444052, 1.6182786640064815)","(0.20117069786094105, 1.7857879790580797)","(0.2053148722873227, 1.6942697025039588)","(0.20209665719669082, 1.7662785089281539)","(0.17872056174262443, 1.914858872148334)","(0.22700929876157655, 1.5454545495413978)","(0.19119928175659076, 1.8271152630813743)","(0.1529532031408487, 2.140579891964949)","(0.17939500666901137, 2.0007821931916268)","(0.19896968419384733, 1.850208458913427)","(0.27472854531502455, 1.4544008043720464)","(0.14708251543030146, 2.3215841355427567)","(0.2438767911407585, 1.5778276563645186)","(0.19873509222844707, 1.8517151751475185)","(0.15618743134088167, 2.2400483599967034)","(0.2182855911146266, 1.614937928178234)"
"(0.2471527925538246, 1.353142811403131)","(0.2617664398297926, 1.2545704101240323)","(0.22278682826516555, 1.4787348375185256)","(0.26113354162458857, 1.2580370557816527)","(0.23299242216635607, 1.4066002944870397)","(0.21331764518701501, 1.510645888832246)","(0.196350704363896, 1.7072137094440054)","(0.15813526780692597, 2.147429039873218)","(0.21136646484171784, 1.578814666213743)","(0.2495993530642735, 1.382267103517671)","(0.22875720553714843, 1.4927662742908239)","(0.24265007933090155, 1.3690894368860116)","(0.2136648495667459, 1.5935971093964403)","(0.20299936255010534, 1.66767613487642)","(0.23553326179169962, 1.5181999928848107)","(0.21594302854615405, 1.6559251271535402)","(0.22527899594948544, 1.6183334402999898)","(0.2006144351057556, 1.6732697351914514)","(0.23426340654989578, 1.4276203362264503)","(0.22654087068609768, 1.4907799437905154)","(0.20878713730067536, 1.5739389898048914)","(0.24549533501322796, 1.3831346219899205)","(0.2538651454289447, 1.2716904686579642)","(0.19568194042996975, 1.6252065058670258)","(0.23896589991899658, 1.3468289193784184)","(0.2559425949075661, 1.301586548492711)","(0.3018166086556402, 1.2012982534867247)","(0.225739401676359, 1.3969201726664733)","(0.29087562568685066, 1.1919527044909446)","(0.2631368336462077, 1.3062518254490314)","(0.2715190678799101, 1.218471898384143)","(0.21853396270410327, 1.6476099497847922)"
"(0.2815513970096362, 1.1839295361870759)","(0.28445519305491507, 1.1674007631398065)","(0.2630900176639454, 1.284807902550523)","(0.2811718365946774, 1.1868508660041954)","(0.2561040105855779, 1.279606741578933)","(0.25141806109745607, 1.2533324339892344)","(0.2185848917040376, 1.437572513674784)","(0.22800125967132653, 1.4722734752046875)","(0.22821257194447828, 1.37829427099879)","(0.1925529182978301, 1.6683867866396045)","(0.2183294264409879, 1.4153784440015629)","(0.22803503838780942, 1.3507882932360313)","(0.197039456700852, 1.574205000130635)","(0.1848061814696516, 1.6808090534985978)","(0.22252366691437278, 1.4678482073216423)","(0.22111951533494903, 1.499265406862683)","(0.22100182318726358, 1.5048756727436319)","(0.2083380333765529, 1.4996689562697108)","(0.23317663152738086, 1.3097268349630098)","(0.22149648199313818, 1.353436053800272)","(0.21219753705272568, 1.407462145255591)","(0.22795002477478593, 1.3247366047494706)","(0.24197080458699055, 1.2367922080907998)","(0.2119656421897463, 1.4700421207574867)","(0.25174497531383566, 1.2148560178312036)","(0.2538391895083203, 1.2603781605662399)","(0.287711185387291, 1.1374738792660377)","(0.26012836699656944, 1.212941230840359)","(0.2906581308458372, 1.151742098689255)","(0.2785471037653373, 1.187996534180261)","(0.2638036905609065, 1.232552223757983)","(0.24286964565088978, 1.4618002959918868)"
"(0.2528096394598386, 1.3364210522197286)","(0.23643856088800083, 1.4195809218771696)","(0.21813283996769733, 1.5693898628004086)","(0.21044052012606254, 1.5302532189727782)","(0.15190610943129437, 2.187437004381999)","(0.23096182281040284, 1.3223440419915693)","(0.2080966289125425, 1.5485115359658106)","(0.18715729684618837, 1.8524727124529659)","(0.2003114179128833, 1.5728519027587524)","(0.18853364391743074, 1.7079533042076007)","(0.21840235721049883, 1.4336903713383045)","(0.2035743964680137, 1.5542268992202979)","(0.1989959384766621, 1.5629554286166625)","(0.17965075168654998, 1.8078086316583657)","(0.24305210037379682, 1.3951261461302695)","(0.22981694126495486, 1.4585224705476116)","(0.23000981040635993, 1.4569270278195496)","(0.2105600895973009, 1.5030759260489883)","(0.22744975062542008, 1.3485597236854916)","(0.2061253531192567, 1.4391205246999395)","(0.21845687219240462, 1.3853085005404202)","(0.21320958979736895, 1.4271953671402011)","(0.22891003486497546, 1.3651360915709225)","(0.19856310691517437, 1.5266381303073147)","(0.23239917533837282, 1.4285366395405792)","(0.25108152667815054, 1.3876187249477154)","(0.28158558308304454, 1.2533047356860942)","(0.2487760519104417, 1.3415643031435767)","(0.27789610070046095, 1.2656070349954827)","(0.2727359687756725, 1.265013243554411)","(0.25631626720752443, 1.3058266947626862)","(0.16164910055950482, 2.108317423488178)"
"(0.23515406939527397, 1.4203772970932393)","(0.20547202623639269, 1.6806923720823292)","(0.17459133262291635, 1.8937964794390194)","(0.2048637465401809, 1.6604112446408166)","(0.14590092433470658, 2.322819826767461)","(0.24162517324015795, 1.3441385511304096)","(0.2267109613731568, 1.4758090346405361)","(0.18685265611504534, 1.8570225899792663)","(0.21240199908369373, 1.5187888691216127)","(0.2587095735356652, 1.3079157227121625)","(0.23898553673141446, 1.4097301535665034)","(0.23169237520120856, 1.4605886568869142)","(0.2299783953528301, 1.4441826436530945)","(0.20959842646941101, 1.650293650617669)","(0.26633332946998356, 1.3608327941993024)","(0.2516105682732077, 1.3915648870326072)","(0.2402220685804065, 1.4328377248700999)","(0.22117231691568706, 1.4712910390123257)","(0.2217170424615768, 1.4286457064282312)","(0.20409448455319223, 1.486644694191616)","(0.19592931288042023, 1.5594287150280208)","(0.20105736935491242, 1.6143711330142965)","(0.20724803602718894, 1.530162445709925)","(0.17609675945855413, 1.6462184004178075)","(0.17951186311460304, 1.7662129350149811)","(0.24542608441522493, 1.4028317357398115)","(0.23039281934592684, 1.517239480857435)","(0.19691969929866893, 1.5726502196281738)","(0.2457597351493273, 1.4241177960765539)","(0.24571829980029464, 1.461329459781194)","(0.23889961504003218, 1.4166265297926477)","(0.10913840373975617, 2.9346320689752674)"
"(0.21788216826124404, 1.5688231120233975)","(0.2178113366756381, 1.613595901717108)","(0.1847638125975908, 1.778733994156578)","(0.226946263779102, 1.5920329053425246)","(0.20957402891221166, 1.615403766196703)","(0.2239738831225819, 1.4772092786417292)","(0.205302335985553, 1.5962019543737678)","(0.20086549820625485, 1.6429736553275156)","(0.23634509210534513, 1.3807103548641761)","(0.24287222372650494, 1.3721695032000427)","(0.23299728004782932, 1.4620333772398335)","(0.23718487984323797, 1.4103569155360638)","(0.21947720803214116, 1.5250182029848556)","(0.25909282946301976, 1.3139711676415458)","(0.26800369331342605, 1.3211438135368085)","(0.2600650005925525, 1.3566883165241652)","(0.2537526381009461, 1.3678212391393862)","(0.25139336594702205, 1.3158310420250474)","(0.2326921930252574, 1.3999541458021187)","(0.22801417922131612, 1.3806998511137696)","(0.2300706890410457, 1.3969860166557686)","(0.2295343413099606, 1.4625235852820306)","(0.23606674301745303, 1.396135649143907)","(0.18270232005909617, 1.7051040063729488)","(0.1941995891965454, 1.594480865488266)","(0.2222464094633517, 1.4779734513556324)","(0.21964849050954957, 1.527492652182873)","(0.21472221663296917, 1.4649195544078395)","(0.2574031557263328, 1.3399476224283189)","(0.25342481581274795, 1.3789243287751052)","(0.19664898507530892, 1.7137861497097215)","(0.11784932835811307, 2.8076736397033324)"
"(0.21214208651073999, 1.5678196122350094)","(0.23365249147066552, 1.4854077621832364)","(0.20796661721433587, 1.5791081695990536)","(0.2175945072893278, 1.6063357283392596)","(0.22043835173601922, 1.5137859042006876)","(0.22132709558189054, 1.4652440542758474)","(0.22397057273388557, 1.498251121318104)","(0.18272636177983054, 1.8454523332597306)","(0.21500276133017118, 1.5076871849128486)","(0.23847448997855034, 1.405785231560455)","(0.24672414250783056, 1.3532988071479006)","(0.24856079853489368, 1.3214628219106404)","(0.22375078203590082, 1.4527896336902002)","(0.25072641876056145, 1.3698744322251426)","(0.26622252455704243, 1.3251192944430812)","(0.26157319235923254, 1.369016986366414)","(0.2669848583950541, 1.3451557559334766)","(0.25895778816565873, 1.3228861832252776)","(0.2775911181911846, 1.2090384155147182)","(0.2627573633604978, 1.2883156653611074)","(0.271251514547638, 1.2223408931702335)","(0.2699914908041441, 1.2435346135784164)","(0.26092519945694614, 1.268437311839226)","(0.20896095524118175, 1.5846879558561502)","(0.24013496103677243, 1.316223395192976)","(0.22442572816841186, 1.4576438685897601)","(0.25374008032738005, 1.3170931778894601)","(0.24570004699618483, 1.3047652914371104)","(0.28288365481801475, 1.2149105224038732)","(0.24168967601552313, 1.4164191025564283)","(0.1802781884848322, 1.8371368989591585)","(0.18064169586777795, 1.889636730972975)"
"(0.24142738535843564, 1.3412115130372402)","(0.24869158815419165, 1.3100816190838735)","(0.2260301501895794, 1.4115486615083925)","(0.23861702394675482, 1.3815656809508172)","(0.22227196535346447, 1.4215196825904277)","(0.22634519267315512, 1.322004609193932)","(0.23322841885630705, 1.3919895756540581)","(0.18492735096253615, 1.7458519036818358)","(0.20378705291192625, 1.5015904316175923)","(0.22408900040393276, 1.427961237171211)","(0.23338830044759745, 1.3433724460549488)","(0.24846791386773434, 1.230257743226141)","(0.21975434929965743, 1.388896535512067)","(0.21417183605803206, 1.4944549441680188)","(0.2399348110554712, 1.3963193765769428)","(0.2335884827183386, 1.4665677275513564)","(0.2516700808441936, 1.423975785309187)","(0.2263434267655234, 1.4330656519863978)","(0.24476409881027142, 1.3270942950891196)","(0.2448374441507158, 1.3447782242154374)","(0.21682548884970146, 1.4472420580471106)","(0.24896754356818074, 1.290058473230982)","(0.21548996437724438, 1.4755011977495383)","(0.22781122880971078, 1.4429032074263288)","(0.2383907786327781, 1.3145026973128304)","(0.23552937973890475, 1.362262194476791)","(0.2696736588308481, 1.2148177927352597)","(0.2459737355568573, 1.2526703976450015)","(0.2796294750414179, 1.197548176257506)","(0.24943103742933928, 1.3438689115964058)","(0.2328818375051921, 1.392656304393435)","(0.1790711952249563, 1.8129688904363181)"
"(0.23545440431342687, 1.3699324603734067)","(0.2622645725552903, 1.260210805391379)","(0.24254320800480542, 1.2985386804579275)","(0.2685723197615782, 1.2276568265773204)","(0.21826514519118606, 1.3929379714640049)","(0.21905174386690496, 1.3720209603198013)","(0.21070648269567555, 1.4797582435627907)","(0.1899888269513953, 1.7297970950522186)","(0.17291211233519202, 1.8045426868893424)","(0.21865192973654637, 1.4770816826443784)","(0.2064068664212618, 1.4944107030735623)","(0.21297386709213761, 1.4110103211472471)","(0.1880395493785599, 1.658361553840365)","(0.19209066649224962, 1.6072259061542236)","(0.20601631562619574, 1.630174163623239)","(0.21609093424416156, 1.6112466472031033)","(0.24528153276567974, 1.4653297514703736)","(0.20748533954590162, 1.563236285968936)","(0.21996167729992652, 1.4675398616025428)","(0.22775797040799375, 1.4466311254646704)","(0.23502837152657569, 1.346976850415574)","(0.21917263060479703, 1.5041757933443587)","(0.22980857781400854, 1.4047646828135263)","(0.21922250224194145, 1.484765560194142)","(0.23717158550169756, 1.352692944927508)","(0.22814223343152415, 1.3607601099315743)","(0.25368268713054015, 1.2868576967605552)","(0.2266504131539097, 1.3437915445863624)","(0.2742548372857183, 1.2299383967374897)","(0.22501021677336228, 1.4754399227075188)","(0.2325142043859244, 1.3763412019284875)","(0.1949696556222888, 1.6455342346460813)"
"(0.17389268734036387, 1.8844148964283938)","(0.2454366126368853, 1.5473970083856223)","(0.20512215213364643, 1.7456667860173758)","(0.2316111756867657, 1.5714438089328557)","(0.22685646035323348, 1.537154570728556)","(0.21387866690810256, 1.6144259784890531)","(0.21941089766705382, 1.6159586613391015)","(0.17385515998220022, 2.1249669448495734)","(0.15955585046798998, 2.114815484818495)","(0.22848644422367653, 1.6117912070737999)","(0.20991849917793023, 1.724872926918358)","(0.18882945316254734, 1.8600133692653709)","(0.15488462560851954, 2.1720844453168002)","(0.1784546119333172, 2.0109563849847016)","(0.19767187071112563, 1.9428688325402195)","(0.23209853013401907, 1.6603111760340319)","(0.25520969216173456, 1.5207240264853783)","(0.20686706431789512, 1.7206468574038638)","(0.1953289035224058, 1.763633152208814)","(0.18631214331390766, 1.8738946041145321)","(0.21116512033205792, 1.5247208087076658)","(0.17072730940903583, 1.992651892131214)","(0.16947544235751175, 1.8563001228514753)","(0.15301035645005068, 2.056839326115317)","(0.15727320063057187, 1.9254955031934837)","(0.1949502585126951, 1.5687542257074842)","(0.15994544274448882, 2.0081245699222703)","(0.1484681048695837, 1.967274340902975)","(0.19636013390388804, 1.748944678377718)","(0.15769099827163396, 2.049333023479231)","(0.1576416304766052, 2.0746137579505928)","(0.15410657996158728, 2.1841897289574193)"
"(0.20657003765270873, 1.7010580723417372)","(0.20594968146648965, 1.843522213249086)","(0.18073971459268964, 1.9435002661443253)","(0.21714981353283658, 1.7159947043138537)","(0.23022293411326142, 1.5292861279990013)","(0.1767957005048369, 1.9929524305822621)","(0.2235476437868854, 1.5851240454465167)","(0.2617058710661051, 1.4342720168774463)","(0.2620007400787629, 1.3360961660785349)","(0.21386213036300322, 1.6744103774445793)","(0.2146753777423349, 1.708182435073951)","(0.2517876794544326, 1.4099369152923558)","(0.21511048398684968, 1.5573416676922718)","(0.16156828640936738, 2.24518371910795)","(0.22188978593957973, 1.7526696256513132)","(0.22236760824829627, 1.7201534586101477)","(0.2633874211234648, 1.499916021817835)","(0.21929769382608447, 1.6292529586439566)","(0.20789494915528345, 1.6285863891548764)","(0.18331877232856317, 1.821325396369115)","(0.20582119854747252, 1.5087720064728714)","(0.2253361890589069, 1.4619099492281262)","(0.18363103026313599, 1.6643295901525408)","(0.16503603909885164, 1.8745903142021794)","(0.16921570945640785, 1.907650822958372)","(0.2424067843923067, 1.41525870335455)","(0.19965091127233847, 1.796376367648132)","(0.14917240990347477, 2.1058873189093257)","(0.2397278595518103, 1.5109071851593445)","(0.16860487444833805, 2.1603529091909563)","(0.20293976223168433, 1.7283360000568262)","(0.1566205138079714, 2.0840211796740555)"
"(0.22317406981511556, 1.6388811185449135)","(0.17681659964549828, 2.0634807381264815)","(0.21243033931612076, 1.7287003466939839)","(0.21014677164492562, 1.7305915743345643)","(0.23442656890824634, 1.474676211212859)","(0.16602168433649625, 2.0168891283735975)","(0.21750372549727057, 1.642827055293855)","(0.199974613052873, 1.7951967241163966)","(0.2525954697956179, 1.3521778293146043)","(0.21154172210896843, 1.6247112696781265)","(0.21696842512882075, 1.6098709082563372)","(0.2599663044445448, 1.3367115159785035)","(0.24183994705456854, 1.3933991200073845)","(0.13629483094112432, 2.567755152294887)","(0.2020904683371889, 1.8358317996540312)","(0.23433884017896675, 1.5814001589101476)","(0.26745535937115844, 1.4324288752818983)","(0.24169959277270878, 1.453370496390719)","(0.23076176086511907, 1.4128867837966943)","(0.23771116644799245, 1.3600704872143106)","(0.23617898132072396, 1.3131903171754402)","(0.24734997249994423, 1.304443107360261)","(0.23680693418525162, 1.3139274496201725)","(0.211239998069975, 1.5105463876876173)","(0.22453737888451428, 1.5242342689570905)","(0.2834400318788459, 1.2539930459109612)","(0.27231561831615014, 1.3592901617524495)","(0.1966602898090954, 1.7314987540634545)","(0.29961642635977037, 1.287429926210402)","(0.17282429231846042, 2.1670076554478723)","(0.22119268552168797, 1.6108931561611162)","(0.14943668451951053, 2.1666918962139956)"
"(0.1892948721653055, 1.9778862508666955)","(0.17398486992566387, 2.143479268314091)","(0.22945765747748856, 1.7009515813480656)","(0.18741280625076207, 1.9700308566172477)","(0.20751174652014406, 1.7217640025422718)","(0.1803814338710583, 1.9019030677352735)","(0.24316297701858605, 1.4957027285957663)","(0.18560808016360764, 1.7996818347016397)","(0.19210365452803924, 1.7557677127130267)","(0.22450003866543028, 1.511737593931443)","(0.23479180675998879, 1.443360559859059)","(0.24939931300178816, 1.3577408574741756)","(0.24079553442298443, 1.4090124633405712)","(0.17179778215134622, 1.938196132285197)","(0.21461042270325528, 1.602695367536552)","(0.2230673542942086, 1.5602068793289618)","(0.26311705504756305, 1.3634021178770788)","(0.25904168709638653, 1.3283613689955633)","(0.2619433153933157, 1.2836243866656696)","(0.24343086842299647, 1.3621996147211723)","(0.24001648413451482, 1.3690754125906437)","(0.25747010826371236, 1.295063707075982)","(0.23672485529536488, 1.3674578586783384)","(0.2063310646555485, 1.62069560482392)","(0.20638177183662534, 1.5800216395894662)","(0.23940582901168536, 1.4834962162980005)","(0.24897818651100928, 1.4614269931216348)","(0.18372890444254536, 1.754949717292961)","(0.28062329811508613, 1.40483734341298)","(0.17328282255459906, 2.101674732243722)","(0.18873552133023552, 1.9191019609470508)","(0.16171840708870872, 2.0517334711034882)"
"(0.22611006175167495, 1.5583430495200905)","(0.2264881484265673, 1.5978209640959136)","(0.26530366880936784, 1.3787325089952818)","(0.20159007786540392, 1.7118430553078283)","(0.1890660077387006, 1.8724972783245495)","(0.24851229975659062, 1.4534045733830552)","(0.27665287840323427, 1.3159200766220118)","(0.21272123562258358, 1.58625618089429)","(0.18731416792740163, 1.8402042678967998)","(0.23168321660578314, 1.4652787513089898)","(0.2167784636210513, 1.5886380565342666)","(0.22278794530220436, 1.5190329266127112)","(0.22747095107634793, 1.5352870533014786)","(0.2139238836532843, 1.6039385938984316)","(0.213182283566373, 1.67491135885032)","(0.20845591704657684, 1.723630624278124)","(0.21909756814495027, 1.6628548871988844)","(0.23372017179552693, 1.4965964288091385)","(0.2566901272411486, 1.3588441864917056)","(0.23060913985551962, 1.5029485460306382)","(0.2361623369880612, 1.439354198255776)","(0.23810800065307985, 1.430878610895053)","(0.24260362381762665, 1.3140757989918823)","(0.20800222224703188, 1.6664794823673954)","(0.20533691125498693, 1.5513211809056673)","(0.192607191434086, 1.6678083561634613)","(0.2168411745285565, 1.58550985510349)","(0.1977588942872525, 1.6518733336594464)","(0.2374314644768934, 1.5494412940318119)","(0.21180792873278445, 1.6955261452227903)","(0.18230243296312598, 1.88262906763871)","(0.16004701522596795, 2.0563602363103004)"
"(0.2152514147191628, 1.573941079786459)","(0.20529247186671007, 1.650869694470801)","(0.24939689393935932, 1.363184791893095)","(0.2247035216152046, 1.4602553628500154)","(0.228709703369157, 1.445167449106522)","(0.21977434539504972, 1.549650754901695)","(0.2309433206665317, 1.471851669364731)","(0.17313518856177165, 1.9776898727223444)","(0.2249959714866558, 1.4573212329370127)","(0.21071718567642272, 1.5682461962076084)","(0.1908075705293184, 1.7271927041532338)","(0.23855113920657514, 1.387800000949679)","(0.229322226648692, 1.4626851492198973)","(0.20192040003782866, 1.6552433093565682)","(0.20119944886332272, 1.6900136569147595)","(0.2164723774265702, 1.579217750597958)","(0.20015288313118346, 1.7360292374273938)","(0.20990041597533707, 1.5771098515475666)","(0.2362041825527444, 1.4317345092233364)","(0.20987147335213902, 1.691081104342401)","(0.21633014104808912, 1.601484971997585)","(0.20132389963275796, 1.6477485898246524)","(0.22952267613444194, 1.4503268753571685)","(0.2010692398773748, 1.8073815843390495)","(0.20668338982992132, 1.6161595650192668)","(0.25973690527880866, 1.2532292421541291)","(0.2485452200164217, 1.4023855975346557)","(0.20037894592918898, 1.683039337153565)","(0.2389969273099869, 1.472618864604632)","(0.21694874011243837, 1.5460877819017655)","(0.2257952009820483, 1.4197054248064973)","(0.15684987134283573, 2.1046923233454162)"
"(0.14930357221336982, 2.2103992138083957)","(0.16455627971889794, 1.966515455913139)","(0.2074514146779602, 1.5863546431537883)","(0.19035008239133305, 1.6734023617691776)","(0.24112168957377922, 1.3623641018025099)","(0.19735288479553253, 1.586535762394131)","(0.2103112935089168, 1.5446845346507)","(0.16258397668668237, 2.1298891064369116)","(0.2485402217257264, 1.296426025098995)","(0.2309490413057231, 1.4466087401933114)","(0.19952215050724675, 1.599242442667461)","(0.23826871524994298, 1.3697906084722813)","(0.24082062396265402, 1.3449209172305372)","(0.17267738490814266, 1.8848353266849476)","(0.19668721208847653, 1.6547640032439064)","(0.20143851926750164, 1.6023476165717105)","(0.19396782948582958, 1.6623184347474642)","(0.18977672748311736, 1.6765580746692579)","(0.21862739136954482, 1.4858199229016518)","(0.20416356773776076, 1.7519624701163317)","(0.1989258567273643, 1.7107669909946315)","(0.2026049017926918, 1.6054407836538152)","(0.20080284204454346, 1.667625989320902)","(0.1832553921931916, 1.9659605157756903)","(0.17412725254978342, 1.9200179925118084)","(0.25261046853726654, 1.317207155067728)","(0.22863083738332005, 1.5033221243675114)","(0.1675487665077204, 1.9575286029232042)","(0.2085132345186712, 1.665348406826173)","(0.19098989416079448, 1.7475307919804681)","(0.20044023657259458, 1.599386416469127)","(0.15097771300903334, 2.1853834265308456)"
"(0.19190619349170837, 1.8696906080859401)","(0.23323495280247236, 1.5112765570920186)","(0.2219425250992794, 1.634530540117096)","(0.23519684254205733, 1.4721023394301556)","(0.2536616580446572, 1.36396427275447)","(0.23918289408416998, 1.420569120246185)","(0.22587510962226395, 1.5714409382843182)","(0.19100659645315943, 1.8337819642733868)","(0.2107601641368822, 1.5884855417028896)","(0.24124980856495307, 1.477994508521983)","(0.22989736982571932, 1.5036182965335645)","(0.1947556410194768, 1.750923044042197)","(0.2249167562036606, 1.5078569519835765)","(0.14634978438819926, 2.3696465816146133)","(0.19789257192590196, 1.8348102510026136)","(0.181394444160245, 1.9660284412629805)","(0.18604985173365918, 1.9130458301459896)","(0.16896091754708908, 2.0662186235734925)","(0.20465417883668172, 1.71630861867835)","(0.25410463670444156, 1.5641465776240724)","(0.20778792548257202, 1.7939991901719985)","(0.2166862197471786, 1.5784108869230569)","(0.22100756237027105, 1.5739918767702126)","(0.19438997171462488, 1.9282901814570532)","(0.19049860713399985, 1.8064299934621086)","(0.25852876673685765, 1.3105510866815886)","(0.24803255682691128, 1.358706605479927)","(0.20300750404955661, 1.6730218889507005)","(0.23520879092987576, 1.4611240820394016)","(0.2344751819101579, 1.4476973184742499)","(0.2457503868551131, 1.3913914699434613)","(0.15267571292621812, 2.235829375453178)"
"(0.2679028584011792, 1.5117423028224017)","(0.25263489074157525, 1.46715333604352)","(0.23819201969250756, 1.525338595732683)","(0.25457971775995103, 1.405366922757758)","(0.2822449481346339, 1.2486765989319244)","(0.23974633963917547, 1.4297651003968999)","(0.26418237908298786, 1.5205747354552546)","(0.1730303934919841, 2.0923982279476743)","(0.2150501439383793, 1.6016358131494046)","(0.22572983422841925, 1.7097191113044845)","(0.20501605690632319, 1.9289326156002529)","(0.1951490797473947, 1.7786129198844973)","(0.1901201944937826, 1.862737983092151)","(0.17812044503739233, 1.928718644538109)","(0.2475625411970293, 1.4555015735055512)","(0.23936997020356085, 1.5354268228050332)","(0.22678395738103166, 1.622328412384411)","(0.20341829536801104, 1.842575692902425)","(0.299251077594738, 1.390482453508963)","(0.3672372421061321, 1.1795048313426675)","(0.3472965707727932, 1.25083462185774)","(0.22069025663316105, 1.8248045789304417)","(0.29547076004661477, 1.4613050706797803)","(0.27352554028416315, 1.5477721721402689)","(0.2864407877034239, 1.4348162069447166)","(0.28368764592230483, 1.3256452704807449)","(0.2586799781600896, 1.4261788555336727)","(0.2668575351415292, 1.4571712744064766)","(0.2561821543257493, 1.424340776526731)","(0.25422312533611263, 1.4307203541489646)","(0.28182819516223157, 1.2684212612157177)","(0.18851179043024704, 2.0727601267525917)"
"(0.27746456397068964, 1.4605156776291275)","(0.25538446599928105, 1.4897579566254393)","(0.19280217754236603, 1.8435116601277934)","(0.22758228338129083, 1.605544521612351)","(0.2816031779869485, 1.2715373859677936)","(0.24216407744932464, 1.4593865522746214)","(0.31318709264186717, 1.308750283837513)","(0.2528011738083182, 1.5884715272072416)","(0.20731717805272498, 1.6383797180515371)","(0.2947613884716442, 1.4189283342038959)","(0.25641303726800785, 1.6614180769369753)","(0.22352285443733597, 1.6791168645658299)","(0.1791984286267719, 1.9844537769902997)","(0.20622219604679748, 1.7033379430707558)","(0.26723745184903475, 1.4137020820248003)","(0.25158793170541216, 1.5185550550397378)","(0.24588922602477994, 1.5504255246725296)","(0.22961961570598455, 1.7397635794397865)","(0.315051374299184, 1.3692203293434155)","(0.33980102615375735, 1.2691355692574207)","(0.33813067248798895, 1.2827216987477437)","(0.22928162458310977, 1.843619501659408)","(0.29764307897487946, 1.4588948927990257)","(0.3073929447079373, 1.401248121655999)","(0.3331479827543879, 1.287539208068061)","(0.30553575680964234, 1.269004944493963)","(0.2824975323305906, 1.3276995096373587)","(0.292587217851136, 1.4258760333907163)","(0.2895450529434898, 1.32178466416938)","(0.25223749748826135, 1.5502785919128297)","(0.2863681286035226, 1.2742167413604912)","(0.21161988707650345, 1.8557060189897256)"
"(0.24913829358958636, 1.5623882178280617)","(0.17754464787869512, 2.017723043700916)","(0.18566786566887986, 1.9104439361541985)","(0.18499142576818867, 1.9104875545001745)","(0.2244929956995402, 1.6159644392510444)","(0.22067773209470115, 1.6901009796101452)","(0.29012492015009217, 1.438637403942507)","(0.24208588334770043, 1.6675669581845816)","(0.22052308667328926, 1.569265505667383)","(0.3007218243632956, 1.4208826791542013)","(0.27804530124348326, 1.5533295426339553)","(0.24644780060389157, 1.5912108674881837)","(0.17270254551703068, 2.098027442218078)","(0.21365131586349578, 1.711059423921029)","(0.2523030613207521, 1.497351573602965)","(0.23120576890091768, 1.6407032812779023)","(0.24598117788723967, 1.5569501094884528)","(0.24420930752721873, 1.7186495176146765)","(0.3115136047234095, 1.3910419548759925)","(0.33353377985848487, 1.2907415923690395)","(0.34321799480980697, 1.2536641151446457)","(0.293117105312497, 1.4532401758315812)","(0.31845762690158197, 1.3447473358550417)","(0.3319652170337416, 1.2938284301799357)","(0.2871430937882639, 1.4827916888099455)","(0.3017439837513785, 1.2820682770889023)","(0.2808039858244919, 1.3148700449964017)","(0.2538558619557127, 1.6400022450615177)","(0.2758734960351237, 1.3881284004359302)","(0.2739258134172343, 1.469139073682209)","(0.2565690022544415, 1.4161448052447216)","(0.21068734682571313, 1.885750348909474)"
"(0.1950953490382501, 1.8898044778855128)","(0.13977148986401655, 2.4569443705436633)","(0.2197792945534459, 1.5494034729329142)","(0.1445896304989103, 2.45555345753218)","(0.20788916302366242, 1.652180435140047)","(0.20471333966922228, 1.7288611466904136)","(0.23366474967881412, 1.635399516849646)","(0.2279255983987741, 1.5170000834490867)","(0.21730354418263267, 1.5821833610549467)","(0.2680000456642369, 1.4410901047246185)","(0.27443913339439757, 1.4896901964881344)","(0.257174276918023, 1.3857795806226283)","(0.16803578484008672, 2.043484492764465)","(0.22059395576415555, 1.7085450268550524)","(0.27780885407561057, 1.436576283332886)","(0.2574165391167534, 1.5239428235735062)","(0.2477847692294966, 1.5590085696584246)","(0.2316317860017713, 1.638216590435922)","(0.26903053464027105, 1.467937280830827)","(0.3452273624833692, 1.2498179521317048)","(0.31567338761533414, 1.3282552074552763)","(0.20653135519598323, 1.87371236481727)","(0.24658224849271973, 1.6234757678080438)","(0.26019796098902614, 1.5831688628463287)","(0.2240345608190247, 1.7380912911429103)","(0.25995367418519505, 1.3519821015138482)","(0.2203707777824644, 1.6447857874592915)","(0.19293130300936626, 1.900618273884698)","(0.22736860836185127, 1.632113759882686)","(0.2114422719042917, 1.8383221842886104)","(0.24372601331785274, 1.4235408601771573)","(0.19218816610090156, 1.986385846996185)"
"(0.1886629636771352, 1.8502491023275571)","(0.20133909816538928, 1.7331543880089888)","(0.2343118579284718, 1.4978583155913587)","(0.15977300162285427, 2.2097399727231477)","(0.19071007946096488, 1.7882651293560061)","(0.21754710793714693, 1.581661849767133)","(0.23338397111220163, 1.5010693783664095)","(0.1978383110592633, 1.702464371713561)","(0.21661789961457267, 1.5861322647943719)","(0.27491604528322966, 1.296110615050826)","(0.2519101853449498, 1.4933854872207455)","(0.24678800488699704, 1.4131354082205299)","(0.15728791047984278, 2.1735348777836587)","(0.21391627132395244, 1.738214848393849)","(0.2847798162851426, 1.3951657065961602)","(0.2567016729506106, 1.5133863680390531)","(0.23257202818029613, 1.6336884328514454)","(0.21435535288972724, 1.668508307032944)","(0.2378272673039996, 1.4373874531305961)","(0.2802798999462364, 1.3403357510646663)","(0.24720151470850127, 1.4067759161257456)","(0.1738378537337044, 1.9554518820325273)","(0.1962304843240966, 1.6801675330495411)","(0.22538750374118366, 1.6663058341383705)","(0.26530312533631584, 1.3539251282822529)","(0.2354122215473932, 1.370456122857953)","(0.2705187961363463, 1.3368249631232947)","(0.22008076579266145, 1.5073302806611448)","(0.2829059726686786, 1.3055334031309487)","(0.23813655861928387, 1.493815834580508)","(0.22598121503015575, 1.4958700688260436)","(0.1742326177003672, 1.9724711905909724)"
"(0.20989280171004818, 1.7858187896596713)","(0.21952598628089168, 1.67122588270074)","(0.24229774212781108, 1.556051510236389)","(0.20292275856279682, 1.7816121319349179)","(0.1813621981548303, 2.0279759222272467)","(0.24526636618215575, 1.5097289382843906)","(0.2370214202055913, 1.614861285312807)","(0.16821621049304478, 2.0196285953356696)","(0.17057528257147583, 2.1297298681009695)","(0.2737998382893865, 1.352481010552566)","(0.24087963230744786, 1.5284529542787035)","(0.18403895506641652, 1.9051439339630425)","(0.14185424572142039, 2.545530955513817)","(0.1404618906414655, 2.482990209599242)","(0.1921485659130696, 1.8193999714928186)","(0.19844431158675974, 1.776703056609269)","(0.19379992359375417, 1.8319344995517846)","(0.19248367087722318, 1.837850836384432)","(0.2213293660925683, 1.657093607495176)","(0.2874542625314916, 1.3729674435643315)","(0.2686478058986406, 1.4445844274845618)","(0.2325863736131934, 1.514695640581645)","(0.24272899769846085, 1.5324013284620166)","(0.27666239789339636, 1.4506926471673622)","(0.3080759212328646, 1.3272339648118416)","(0.20227394759890613, 1.808068402547406)","(0.2882762322539324, 1.3399597242725878)","(0.2866110675703593, 1.3699879409595017)","(0.2966044963844685, 1.3792116204668055)","(0.15735028027257641, 2.47233749684498)","(0.18315444575898449, 2.0197617165041315)","(0.15938523658333154, 2.325873976115693)"
"(0.19107752357859994, 1.9517553370694267)","(0.17633945030416154, 2.1360630038538435)","(0.2106486870696009, 1.9242546236305713)","(0.1737896947496181, 2.148371413479592)","(0.21222753565647678, 1.6781796121736583)","(0.21576910961556095, 1.8010501706450697)","(0.2513448030531937, 1.567363249566381)","(0.2255677259413023, 1.5560060993692644)","(0.20678758728960117, 1.730219012463524)","(0.2676007005333098, 1.3749684700326135)","(0.2666328359773825, 1.3831901046174235)","(0.21101223593656507, 1.6119176191621434)","(0.16325842449101832, 2.1257438394466877)","(0.17060231940526333, 2.0288969476404004)","(0.2128003666837183, 1.6713662990191052)","(0.24254089048280855, 1.5023382379603816)","(0.2203200082791097, 1.6579803100634214)","(0.20044632981922095, 1.8086219005618347)","(0.22910613406509994, 1.588239659982473)","(0.2510042542440227, 1.5302063946910462)","(0.24425479106721212, 1.5189379363571116)","(0.24204289204875593, 1.449788476409574)","(0.2645158122860828, 1.4003302508597302)","(0.21123121047816884, 1.7543935270885256)","(0.2403629801110468, 1.6782028874319252)","(0.20777753604304808, 1.8129796303628365)","(0.2318448858564329, 1.7081951802071886)","(0.2157869016431198, 1.8274453758790143)","(0.22175101159990734, 1.821882947792906)","(0.15453429215846656, 2.4957879787558346)","(0.17000936447513817, 2.1588543881582734)","(0.17564680276102732, 2.06164788792458)"
"(0.19996493259603934, 1.8562297073793192)","(0.19872810857696835, 1.8451028250239307)","(0.26570293337057865, 1.6174069249346585)","(0.17851454852171655, 1.9376181713814025)","(0.2342531615045932, 1.4638064771545374)","(0.26282303566459336, 1.557198696780152)","(0.24224310175513533, 1.6339323026067694)","(0.22698103855618643, 1.7396495810466734)","(0.25619916184230146, 1.3663023152658618)","(0.2915482037166938, 1.3120517000791316)","(0.28143870869707444, 1.2949332697289673)","(0.27628298804340823, 1.254540729916773)","(0.20849300189408973, 1.6589985170753507)","(0.25813368748159615, 1.396412981377593)","(0.2641901508298795, 1.3927295210958752)","(0.28263469322454726, 1.3050484528488442)","(0.2883276700213075, 1.2586682728111966)","(0.247765321980916, 1.4469576760328096)","(0.2749428525520302, 1.3198237331529974)","(0.27180164926169725, 1.4289805907819966)","(0.2670638891025654, 1.387510499780777)","(0.24673983113918735, 1.4524319913621289)","(0.3136815004924861, 1.2621487870793362)","(0.20581035756109195, 1.9470424359933685)","(0.3401986760466446, 1.2764056262830725)","(0.2898493726711495, 1.2931809169482011)","(0.30561927078096596, 1.3115767674521492)","(0.23936007114264393, 1.730124250178531)","(0.29446367063280954, 1.3806984599756664)","(0.26945307928420803, 1.468123165420279)","(0.2635318208370384, 1.3729014123372438)","(0.23661234285618749, 1.5326624114777387)"
"(0.26053156254735094, 1.416327804160761)","(0.26808097670004655, 1.3878354995186828)","(0.3176098767482635, 1.2753832376949117)","(0.25239140703380264, 1.5145344295791785)","(0.2664325111110519, 1.319137965000037)","(0.3520723154466768, 1.2349703511683194)","(0.2812888787541415, 1.3529951452037763)","(0.24227175892490838, 1.5544602427251284)","(0.2745877812071557, 1.3103447835590205)","(0.28532067757373264, 1.3045687247238358)","(0.28316666882095415, 1.2620701364173486)","(0.3065112649193487, 1.158892643198424)","(0.269985179313609, 1.3370788764591919)","(0.28355394818238683, 1.2920559043386362)","(0.28123421278919064, 1.3114895550500458)","(0.3003666705052901, 1.2307579650168223)","(0.2941298451051245, 1.2420595602185394)","(0.2939133742662534, 1.2602300624093987)","(0.292123254940781, 1.2636089413516716)","(0.3010776518984972, 1.3172725086315145)","(0.29809577753634015, 1.2910664683081363)","(0.255761958707059, 1.4471063412269107)","(0.3128546731520511, 1.3104095114773084)","(0.2799414974163586, 1.4883041005427007)","(0.37707177111169227, 1.176833079213955)","(0.31158610743333465, 1.186453268608502)","(0.32608810451873305, 1.2261286563405156)","(0.3203530625390462, 1.2802165899270308)","(0.3316383252708143, 1.2105088539254683)","(0.3157972764375, 1.2215382315999024)","(0.30299753412766717, 1.1623590123111789)","(0.23051973791551225, 1.5781190224565353)"
"(0.2281007027068275, 1.5835857005988492)","(0.2530489673518856, 1.4597815330466777)","(0.29660041590615405, 1.336599814422068)","(0.2714894912318703, 1.4556762956226703)","(0.2445739647857849, 1.4382398269951286)","(0.34865678972791686, 1.215770835359923)","(0.2649151252827243, 1.3583433668424194)","(0.25504733418411046, 1.4664587357744625)","(0.2361120837494661, 1.536922609629189)","(0.26886668342306824, 1.3437204197462724)","(0.2721042126742271, 1.2903996213045599)","(0.27579357501691903, 1.2975992407574706)","(0.22987795220214124, 1.5841037631786103)","(0.25070559689186905, 1.4518384827220796)","(0.2690236300977851, 1.405295361220411)","(0.27020082419578695, 1.4017980417162001)","(0.25255289422431954, 1.4665627033561073)","(0.25730536210344934, 1.451538789391061)","(0.2469685748000527, 1.4766635526759795)","(0.28060778718797713, 1.3932248613670983)","(0.2511388137372863, 1.5021632972667325)","(0.20477037517583285, 1.8072405409534724)","(0.27045353196829847, 1.5437619542298526)","(0.2328343688527933, 1.6953971368014038)","(0.3399011940657846, 1.2886695015260725)","(0.28195578989608255, 1.3223572220946918)","(0.29290558722422777, 1.372923378419573)","(0.27607848829974413, 1.481148164015712)","(0.295341478677529, 1.3731217031880125)","(0.26829270169272834, 1.4175016780207392)","(0.24744534044512262, 1.3754592225820315)","(0.21779262206497255, 1.716472519649062)"
"(0.23609193125345057, 1.6039826860202084)","(0.23785239373115127, 1.5853920729758366)","(0.28898608938980863, 1.3833350012261951)","(0.2486865011821354, 1.5769122275472016)","(0.19466407262760416, 1.8642817336175816)","(0.328839906441803, 1.258502764191762)","(0.2639303129162223, 1.4132175986259161)","(0.23307977989537257, 1.7311025467043895)","(0.20880167087895193, 1.681845352169423)","(0.2850239942453527, 1.429610870689939)","(0.2889217936206587, 1.3770233346551977)","(0.2387747712316127, 1.573104052542086)","(0.1934487721744713, 1.8601165346145416)","(0.21966103798194994, 1.7124266680799736)","(0.26025429060524247, 1.519861110071771)","(0.25104994618842713, 1.5648851928580776)","(0.23332452983687632, 1.6353760278577882)","(0.23912821352922986, 1.5664662670446021)","(0.22937687284381514, 1.6291101066213918)","(0.2471531864389216, 1.5997448200492477)","(0.23355246575986524, 1.6756995609464864)","(0.2007993058288213, 1.894632791982342)","(0.2581227404920061, 1.6222757531540333)","(0.2103626541541839, 1.8479839703906586)","(0.33007709999519663, 1.323793949060385)","(0.27801405062656653, 1.4702936970968468)","(0.29292037864755843, 1.4523819022696927)","(0.25936001560189315, 1.596716882261148)","(0.28121283725244717, 1.5274870601980457)","(0.21994856344805278, 1.8204104274904929)","(0.206918848404239, 1.7942771245877445)","(0.22106275014824991, 1.7928142625268197)"
"(0.23053881931673137, 1.6893132607763806)","(0.25270343748203855, 1.6162437983008664)","(0.30891877410733154, 1.4264070006278948)","(0.2651538341954127, 1.5753854916416838)","(0.1511809620444203, 2.4754631343831983)","(0.33952550400434195, 1.2773975465040368)","(0.312734446756006, 1.3125928205317892)","(0.2467878676424157, 1.7065524678542603)","(0.2394060774754052, 1.4576761654967558)","(0.2774124352847346, 1.514964137680313)","(0.26545676966096393, 1.5264722646694588)","(0.22705474743150492, 1.6324748888493943)","(0.22473815306665673, 1.6142555320078145)","(0.21083054383849406, 1.7926164776807805)","(0.27488240081858384, 1.4051560998456505)","(0.244012314343706, 1.5611243749544352)","(0.25881479607202634, 1.4627740066572186)","(0.25239050663516643, 1.4840912300999691)","(0.2522318796869535, 1.4986559476255026)","(0.26873186233258994, 1.481975267119297)","(0.2675686619683327, 1.4749379329857102)","(0.21100148572800567, 1.830697073100008)","(0.2509406353114118, 1.6189901094238117)","(0.28842276555377216, 1.3931923384684726)","(0.3214472675932727, 1.3659010743293263)","(0.25365227631859183, 1.5971895456800036)","(0.25606901645120034, 1.578860253583454)","(0.28410149190329054, 1.4222400084684808)","(0.29744463400822796, 1.3867595772483632)","(0.27706824511833694, 1.4335513335223788)","(0.21694632314715717, 1.7901919519957763)","(0.24285785715835362, 1.677834875874447)"
"(0.2293974098367567, 1.6655030977943879)","(0.2514739626465238, 1.5925210718552492)","(0.29623913022689186, 1.530159785205985)","(0.26504122604138763, 1.5417182144862502)","(0.1432376718621099, 2.4954603766543704)","(0.36654713141441025, 1.1928714496737975)","(0.28482525292611666, 1.4121120012020403)","(0.2939704133545777, 1.429459330384189)","(0.26418614310359717, 1.3401943981849584)","(0.25155996921612284, 1.55446972174317)","(0.2301957965319303, 1.5857564999045481)","(0.23660404651779451, 1.4644667372988474)","(0.24559456192926923, 1.5289095106079327)","(0.2483936347686736, 1.5016216478804107)","(0.24853910660779666, 1.5566548783369658)","(0.22331730057000324, 1.7225812433721792)","(0.2378981413836323, 1.592653578663781)","(0.2310587499853068, 1.6306088121222517)","(0.25934537655390877, 1.4676203968020536)","(0.25116298059287967, 1.522641535393532)","(0.25613820849176294, 1.504174156302534)","(0.25293738868893656, 1.578010858340824)","(0.2612128801598185, 1.514946965536481)","(0.2676302405482653, 1.4943723697018545)","(0.28873549019677225, 1.4365783935767054)","(0.22495228326458308, 1.711665568615046)","(0.2270425830328551, 1.6713704534544822)","(0.2562336136272062, 1.5519223526867092)","(0.24808200335085445, 1.5922480717793208)","(0.22495777071407935, 1.758705619260466)","(0.19218125410566314, 1.8807597587146705)","(0.22243406932826384, 1.8464100163047599)"
"(0.22700594478115227, 1.557592616368586)","(0.2613128504610454, 1.4517749588333255)","(0.2477859447483168, 1.6743644248071652)","(0.25059995357600423, 1.547782869589294)","(0.20340229611978813, 1.805166397667136)","(0.34173006366997144, 1.2738152360137918)","(0.26655092758331206, 1.4109473652204296)","(0.22437709753951682, 1.8330544482342739)","(0.27263764502362575, 1.244243264264143)","(0.2539105665982015, 1.483534416589667)","(0.2310475459764042, 1.5308491792661563)","(0.25337330299777483, 1.301350316395247)","(0.244958010453828, 1.4402545831439346)","(0.22636746795086546, 1.5622892612452726)","(0.21881256341916416, 1.7180233531106992)","(0.20379520287754982, 1.8345055443588898)","(0.22149374674070046, 1.6608551996116234)","(0.2420001646768366, 1.4853079203942636)","(0.24459163274864476, 1.4581194506865058)","(0.22869421185007183, 1.5866911772686274)","(0.24391360969023804, 1.4928063806005678)","(0.2690918040705867, 1.355236669705101)","(0.26458136923629083, 1.3658839677061527)","(0.23025371246176476, 1.5891723819503887)","(0.25334115172124716, 1.5305774825755114)","(0.24725572198236032, 1.4936389766025442)","(0.2550701762815655, 1.456071333939211)","(0.24304714668437435, 1.5031465228092409)","(0.23921246528173168, 1.5710126650791878)","(0.22876540310519008, 1.679931168413137)","(0.21100616290953833, 1.690475855467506)","(0.19914596269952928, 1.8980051990606943)"
"(0.21486945591270015, 1.5348370833822509)","(0.2683681695297752, 1.3753264604767144)","(0.2317395445357605, 1.6230840617238442)","(0.2670311215042242, 1.343280524703522)","(0.24434613168382532, 1.4637997258642932)","(0.23239097533169764, 1.690049372309048)","(0.22960559541015807, 1.4842070810179944)","(0.1456194956486695, 2.4346585802504808)","(0.23383575218543118, 1.3799267713568044)","(0.1917183797684964, 1.8509333035220834)","(0.20005305725781738, 1.7312350338183344)","(0.223413447907981, 1.4588265534635487)","(0.24099075041561982, 1.3623650410311468)","(0.1911279869813043, 1.7182041564365185)","(0.19188522970162725, 1.8223058064089168)","(0.1733301100472877, 2.017923167053943)","(0.2064219336078961, 1.6624118095665248)","(0.23780248625567305, 1.4223536440939852)","(0.2262885201115682, 1.4439217692365849)","(0.21694488376881524, 1.588230160923935)","(0.22846950850275294, 1.4685587079690732)","(0.2445880638642774, 1.3011045449871945)","(0.2456578319572311, 1.2989554841282398)","(0.21898761666615033, 1.564049273395185)","(0.21570123278916314, 1.5597891945365396)","(0.24852457587806454, 1.3415357454677819)","(0.2571465908822862, 1.3092362279479606)","(0.21526665263171696, 1.6017127039429553)","(0.2260093318507189, 1.5802088690677731)","(0.20922704494445615, 1.7625596236021415)","(0.2518696187885625, 1.3741223849697854)","(0.20218030724621683, 1.6112825450287396)"
"(0.23465587190014348, 1.4486608693539724)","(0.2532964644621001, 1.3703462781894256)","(0.26237012224543604, 1.4047249253680054)","(0.24911988633867485, 1.3729033331166751)","(0.2084667837412264, 1.6527460625209809)","(0.2153440006539415, 1.5906954873137598)","(0.2213557047057045, 1.6596540575608756)","(0.18262238049701493, 1.7853264205801491)","(0.1956656994329101, 1.6506190223495525)","(0.17294659708670687, 1.9051919656243599)","(0.21072585257386436, 1.6498335932527652)","(0.20575613946228735, 1.5937535496560804)","(0.17813672037392536, 1.853831545628022)","(0.17430204746761996, 1.8488244070480222)","(0.2021502260506946, 1.7352413401814608)","(0.16721022300825403, 2.0776717933422937)","(0.20325620046554935, 1.7105876694566697)","(0.23498081665042322, 1.4328473207113848)","(0.2179303832284333, 1.5148169202296065)","(0.23402960221147712, 1.5272808922595895)","(0.1918497620800115, 1.7959129922934458)","(0.23320855444982683, 1.4129592545877503)","(0.22579387320187574, 1.5111993447085326)","(0.20545823316741268, 1.844314576974291)","(0.21705904094768008, 1.6765660448917528)","(0.2525483275427456, 1.3530292519390776)","(0.2575367212559053, 1.3275067792607116)","(0.1986587725022011, 1.8921382845963697)","(0.20999934926462327, 1.6866249840138463)","(0.23293295511426707, 1.6452268249859239)","(0.2701285845620354, 1.2588376267852828)","(0.18106402165811764, 1.8812917717401951)"
"(0.17453996811275596, 1.9695135390278091)","(0.19716368736287643, 1.8104471499272916)","(0.2529880619679974, 1.5571534715637212)","(0.21119016317591277, 1.6239909238989643)","(0.15571879705574904, 2.2762708639686)","(0.2177918091192271, 1.6307960713812575)","(0.21236346350033156, 1.695676220678831)","(0.20969629961708522, 1.6804148243914772)","(0.1797284595322861, 1.8444778817590135)","(0.15677743545110737, 2.1028598846951647)","(0.1954903750247512, 1.7470880212107558)","(0.19072948394979786, 1.7171906838138757)","(0.1520638516137512, 2.1586464330849826)","(0.16082520729091446, 2.0212581341402607)","(0.18428773750998367, 1.9254072252532117)","(0.16919073527472137, 2.060416838053591)","(0.19465396866109777, 1.8413048049332132)","(0.19916720567006177, 1.7243405928059559)","(0.21096781963188327, 1.5876667932376944)","(0.2163589029282174, 1.6559176005345917)","(0.20171003038711618, 1.6532566275384495)","(0.2504858913416238, 1.3265469603166982)","(0.23563407597855612, 1.4690154916508373)","(0.15669376796252288, 2.392523444483622)","(0.19531756339054043, 1.8971425996026599)","(0.2483259034061934, 1.4153859062263576)","(0.19564317034435347, 1.7784121051825552)","(0.19813985098585127, 1.9273528925548524)","(0.19441194708456772, 1.8243792545224504)","(0.19618903460213596, 1.9262273968406316)","(0.1908224036003791, 1.78331079561781)","(0.155886844544335, 2.2925701342265934)"
"(0.16603328061797432, 2.079422892369464)","(0.17593164393784969, 2.1159905478486802)","(0.25560670161317145, 1.5223374049876053)","(0.18586032200846325, 1.9983767297780604)","(0.1809463909353736, 2.0116457654288404)","(0.26473186249523106, 1.4298215944734192)","(0.2137302621346504, 1.6593124722646486)","(0.22342180020329272, 1.6070644187396206)","(0.2109986879219616, 1.6595275613728036)","(0.24935329086426938, 1.4233149601228108)","(0.21420843397111383, 1.6662150315035429)","(0.21211032695836943, 1.5705909804701028)","(0.18724235969687675, 1.8568334255175352)","(0.20046635672770688, 1.6978763459887045)","(0.2000768529988403, 1.7861515089067062)","(0.1896996763012237, 1.8517500298674985)","(0.1869654719608294, 1.8566348203451226)","(0.2005894928767742, 1.6733541812433743)","(0.21200994522793148, 1.5930760477388435)","(0.24589118337748153, 1.51327988375712)","(0.2073652979869104, 1.6584474322248421)","(0.2374676611372556, 1.4300874063686355)","(0.22975891120726166, 1.4499857694414846)","(0.17016498282425743, 2.3727666552352122)","(0.19881482187561325, 1.805289274037764)","(0.22735496626214988, 1.618012966849719)","(0.14876390718908866, 2.3554338169491573)","(0.1750993858157881, 2.050670711359542)","(0.16957135061232412, 2.0722754050339534)","(0.15289454788183984, 2.38917868897902)","(0.14806860697379187, 2.3843095534214784)","(0.17146490743596543, 2.136545431324354)"
"(0.19561630036780445, 1.8880730843919447)","(0.19887872529119907, 1.850703378733666)","(0.23886489723222143, 1.6044840816636787)","(0.20767305884115503, 1.7545541345178406)","(0.226077939167066, 1.530588897831024)","(0.25135170181716043, 1.4671781930514347)","(0.23252760592548408, 1.612314167832703)","(0.1779169184827257, 1.9637395098135877)","(0.24549632946736333, 1.4197080489364737)","(0.1809367860637265, 2.010738636796389)","(0.20244167636979413, 1.8205309776943315)","(0.18689335985078406, 1.8051148736568345)","(0.23654684696790293, 1.5120878062231495)","(0.19004547265874028, 1.8458459270096823)","(0.2289374712981861, 1.5908906117255879)","(0.20365578854411232, 1.811461143842137)","(0.18748935686507165, 1.9739221725882752)","(0.2272181641309193, 1.552043812072424)","(0.22171167532467545, 1.6101282485272168)","(0.29413438375257084, 1.356410914647863)","(0.23659242900448071, 1.5997512281087796)","(0.23343213385515918, 1.4876279038070528)","(0.2515045371147798, 1.4631824916709602)","(0.22037151198609228, 1.867107049628105)","(0.2651995438255619, 1.4580952865837256)","(0.22012699333683047, 1.604785062360377)","(0.19204904052682337, 1.864009113585302)","(0.2034546124415745, 1.7403977255166387)","(0.2092231117834209, 1.677709229329556)","(0.2039080076026159, 1.8545075885784248)","(0.21031655199369417, 1.6249883419999898)","(0.1923559547314588, 1.8290082127405445)"
"(0.18560914082430835, 1.980907533272273)","(0.18468832362012688, 1.9297947159223974)","(0.15413083976158054, 2.3640926320752658)","(0.2339543129495141, 1.5133454564210564)","(0.200971988799206, 1.7001560699412048)","(0.21019856310835605, 1.7177183901076183)","(0.2286157681164197, 1.6500365038247882)","(0.160906230452665, 2.1804388599930316)","(0.2333725992117837, 1.4298875675014873)","(0.16711037644208612, 2.064559528691859)","(0.2043993105285165, 1.8029084893646143)","(0.16440074632393464, 2.0376029670762574)","(0.22936839037125673, 1.469779739543217)","(0.2120691794401814, 1.645036710946435)","(0.22316122804744348, 1.6188281923441583)","(0.2285385453913032, 1.5720007352069787)","(0.20283138577472493, 1.7627358765230796)","(0.22193813458308392, 1.5357678314355236)","(0.23209723495071255, 1.4942592364434206)","(0.3055044203065327, 1.297619263394099)","(0.25627281177666605, 1.5068866822291853)","(0.24967195783460114, 1.3675946268416217)","(0.27089000941528346, 1.455151626715939)","(0.14001369278529585, 3.0130914079834397)","(0.3000072341371791, 1.3364184190825847)","(0.2257132198294923, 1.5246193476035836)","(0.2179373663678997, 1.5834838090630259)","(0.17309259244238082, 2.0287654897781606)","(0.18945506992163896, 1.7992300619940735)","(0.1712009067908258, 2.1645416912250615)","(0.23495258653642387, 1.396255821444268)","(0.15821790725692328, 2.153593462207582)"
"(0.23151447146185702, 1.6060840007571342)","(0.2010411623178522, 1.7833498529094876)","(0.12308934921489696, 2.9602617997586553)","(0.23289442643325123, 1.5464689491276933)","(0.22201398057900845, 1.5460641077294666)","(0.17500048784741487, 2.158249930074872)","(0.21848470941582054, 1.7335561523394862)","(0.13383275907258993, 2.6713871533654587)","(0.19905671392293703, 1.6377220348862083)","(0.1976194951854512, 1.6485971367867862)","(0.22915245333700812, 1.538139635828766)","(0.18610544538666748, 1.7550954975304012)","(0.19241770423139545, 1.8381352239160733)","(0.18728509001650137, 1.8676956149862272)","(0.24099080586068466, 1.562557579252205)","(0.23376500582835918, 1.6074689801884154)","(0.2366547321849945, 1.5729208438583213)","(0.20783797024776382, 1.6926960010675693)","(0.22723885891549375, 1.5653481829610412)","(0.3197322968604014, 1.2142423004815937)","(0.274167416146756, 1.3934589498601793)","(0.19937852769636358, 1.745594043505501)","(0.2577201925728634, 1.5474389068331456)","(0.20208705924680923, 2.0992234065960753)","(0.29602558961833364, 1.366737552734082)","(0.21069446067806438, 1.6248838696256522)","(0.2120775278516159, 1.6082638627218788)","(0.1688422238641955, 2.186654754672777)","(0.1840027836988688, 1.9117383354544601)","(0.18393949971877774, 1.9927476173511693)","(0.23658070772182135, 1.3712600250865683)","(0.1426331246553901, 2.3351051680538446)"
"(0.2083596603600565, 1.913018464991673)","(0.1893959605441322, 2.0247796910305045)","(0.14966660065293708, 2.631845640806849)","(0.19898777677946078, 1.9572097537147823)","(0.19122127782823656, 1.7875628950461453)","(0.21662237974185541, 1.8936329310070437)","(0.2681472600990887, 1.5479362029484856)","(0.162669902995256, 2.3619932461945368)","(0.1473636668634383, 2.268326034416263)","(0.2342460972720187, 1.6276225275040581)","(0.24574998497721348, 1.5573775633198808)","(0.18050008106656001, 1.8781362047684773)","(0.2007760623612494, 1.873463572031411)","(0.16376514536306347, 2.216433941051392)","(0.22313392587702904, 1.74717783819934)","(0.19197339277894254, 2.043990947583857)","(0.20311846354361815, 1.947963031409845)","(0.13542485356356468, 2.77489015925651)","(0.1632117587662922, 2.3586012771980602)","(0.293322946100379, 1.4403537203017547)","(0.24684077979325567, 1.6579204288487812)","(0.1470274789154587, 2.501956519717369)","(0.20541489600951987, 1.916281604913653)","(0.25543163025073856, 1.651947379991366)","(0.2527320777310352, 1.672030559122754)","(0.20497762579939766, 1.8045466089073068)","(0.1839153329251783, 2.0286891883414477)","(0.18556934102830286, 2.137199482392738)","(0.1905256371276828, 2.0753147361577806)","(0.20247397988269286, 1.9573107358043005)","(0.20719456447038836, 1.6814799956879791)","(0.14327834424759583, 2.5017769206881066)"
"(0.1755449422044488, 2.089527221979889)","(0.12423786486636142, 2.958162577848393)","(0.1835768349558306, 2.1236307651750552)","(0.16696576918825096, 2.2812929058003677)","(0.16717019157896795, 2.13454752382084)","(0.23107748043772716, 1.7666398611261906)","(0.256650428309538, 1.6939203579500648)","(0.22609678687690288, 1.7265282857411433)","(0.16302205713717963, 2.1654746120757444)","(0.23888575971685744, 1.7091365019145657)","(0.2402768035433836, 1.688979716036667)","(0.1861573545428475, 1.9467313497910037)","(0.20595313318450195, 1.6411101067288916)","(0.16621138284243145, 2.3395117115061113)","(0.23328310163826604, 1.727084918021913)","(0.19087050069247055, 2.0533098438444513)","(0.1770256705470721, 2.129234967133015)","(0.13389031255818418, 2.502170453319266)","(0.17058347090636372, 2.148432310101095)","(0.29125726097302956, 1.4615302141173399)","(0.23860787269445088, 1.716376759552097)","(0.17592122479305333, 1.9891706764521158)","(0.2317886926209405, 1.6693176053862788)","(0.2409518675299934, 1.6926105591201273)","(0.25770767144852386, 1.6014339541018843)","(0.2656077132284108, 1.4008157007951947)","(0.21664787901039478, 1.7322752215034853)","(0.17582779240349666, 2.199782973222625)","(0.18776545294668223, 1.983923728205169)","(0.15839126705315587, 2.362475376520213)","(0.20946977929930727, 1.7103118680934828)","(0.13078197934344768, 2.721332804847047)"
"(0.20021060962549836, 1.8562061430077743)","(0.11918096664445472, 3.0166514173396233)","(0.13237114812247883, 2.7423475737256435)","(0.15823341449912232, 2.2753150708706915)","(0.17350885902098834, 2.070223771659918)","(0.16539361055979723, 2.2614245259537866)","(0.20143840955076425, 2.0062442125382325)","(0.20003670100018903, 1.882779039869539)","(0.2115355425204947, 1.6689003854570716)","(0.19738251796660927, 2.0121150341443186)","(0.23072778257375698, 1.7680267401643657)","(0.20248852701400666, 1.821499247276563)","(0.19569473623772685, 1.730007165894768)","(0.18979340099808323, 2.0176841527108413)","(0.22108500949103324, 1.8101479823604576)","(0.19817927313611486, 1.9754024313529364)","(0.19232360214340793, 1.9281106107129822)","(0.20417170557980402, 1.653119145925432)","(0.228893118804856, 1.5685941097067733)","(0.2999427929875781, 1.3450510493158747)","(0.2737963654183781, 1.4329763798525423)","(0.22818456170020293, 1.4908497778889667)","(0.2445206715058261, 1.5710093788739161)","(0.23346204127460277, 1.7256118788335637)","(0.23109007729180067, 1.7103515139490033)","(0.2367655285445206, 1.4612040267007722)","(0.1927641560884449, 1.8260951954259192)","(0.1328138302841224, 2.682911943856546)","(0.16142783979532266, 2.2043721203817506)","(0.12933966931715937, 2.613321706554058)","(0.20833606796018667, 1.6877199920948083)","(0.17158394263212026, 1.9756299477763468)"
